# Input file       =  1181127197.108836_cleaned.dat
# Candidate        =  PSR_0332+5434
# Telescope        =  AR
# Epoch_topo       =  57914.453890148565
# Epoch_bary       =  N/A
# T_sample         =  0.002
# Data Folded      =  7340032
# Data Avg         =  0.0247750561155478
# Data StdDev      =  1.00006709198541 
# Profile Bins     =  512
# Profile Avg      =  355.060971230788 
# Profile StdDev   =  119.741069503896 
# Reduced chi-sqr  =  1.040
# Prob(Noise)      <  0.259   (~0.6 sigma)
# P_topo (ms)      =  714.507826765401  +/- 0.000401
# P'_topo (s/s)    =  -0                +/- 2.12e-10
# P''_topo (s/s^2) =  0                 +/- 9.35e-14
# P_bary (ms)      =  N/A
# P'_bary (s/s)    =  N/A
# P''_bary (s/s^2) =  N/A
# P_orb (s)        =  N/A
# asin(i)/c (s)    =  N/A
# eccentricity     =  N/A
# w (rad)          =  N/A
# T_peri           =  N/A
######################################################
   0  741.9851
   1  746.6678
   2  699.3781
   3  537.9733
   4  334.225
   5  311.7936
   6  293.9328
   7  391.9109
   8  467.1394
   9  513.7583
  10  426.6987
  11  431.1969
  12  364.7737
  13  303.9995
  14  239.9841
  15  344.2906
  16  299.4547
  17  284.8749
  18  272.999
  19  437.9318
  20  374.0889
  21  258.4416
  22  230.1485
  23  201.2557
  24  323.095
  25  323.1662
  26  285.8555
  27  375.5315
  28  344.9034
  29  292.0952
  30  389.082
  31  427.8777
  32  370.3572
  33  412.0138
  34  330.4735
  35  356.3383
  36  346.9605
  37  392.9281
  38  422.7601
  39  286.889
  40  295.5714
  41  292.9101
  42  353.6665
  43  397.8819
  44  347.7624
  45  231.8258
  46  254.4327
  47  359.5972
  48  397.785
  49  548.9517
  50  431.1752
  51  228.0765
  52  230.2423
  53  290.6946
  54  358.9326
  55  452.7401
  56  386.2742
  57  298.1859
  58  291.6956
  59  251.0023
  60  278.8519
  61  362.9589
  62  275.101
  63  303.0432
  64  300.431
  65  265.8958
  66  326.1252
  67  396.6473
  68  323.481
  69  309.1749
  70  306.5148
  71  310.433
  72  362.1292
  73  267.2774
  74  298.5264
  75  324.0316
  76  376.5213
  77  376.2562
  78  368.5347
  79  398.9003
  80  338.8939
  81  246.9854
  82  261.1451
  83  337.0175
  84  404.271
  85  342.6097
  86  298.0957
  87  425.1275
  88  493.5648
  89  363.9739
  90  352.5039
  91  408.1629
  92  439.4745
  93  475.8675
  94  381.6401
  95  365.215
  96  270.0047
  97  284.2178
  98  353.398
  99  283.4882
 100  230.7805
 101  248.5645
 102  265.0145
 103  359.4075
 104  302.5192
 105  315.1193
 106  365.773
 107  278.3277
 108  318.2403
 109  251.4831
 110  282.8318
 111  174.4421
 112  297.5609
 113  464.1034
 114  318.807
 115  258.8543
 116  371.9237
 117  421.076
 118  399.7334
 119  387.2693
 120  306.7969
 121  226.3345
 122  244.3037
 123  465.6679
 124  404.9989
 125  298.1324
 126  283.6258
 127  277.4885
 128  414.7844
 129  310.2805
 130  489.4778
 131  482.614
 132  477.4792
 133  436.9474
 134  434.5172
 135  377.5533
 136  279.8682
 137  272.6641
 138  244.8585
 139  204.8359
 140  226.5718
 141  308.8165
 142  227.5416
 143  318.7201
 144  360.0874
 145  276.598
 146  279.8255
 147  163.8997
 148  389.4971
 149  504.4406
 150  459.5953
 151  275.8265
 152  171.4421
 153  258.4521
 154  249.9955
 155  272.6808
 156  285.1335
 157  364.595
 158  402.89
 159  350.4202
 160  318.311
 161  406.4361
 162  427.5901
 163  310.8957
 164  341.5535
 165  363.6502
 166  405.5731
 167  339.4179
 168  314.5961
 169  272.5157
 170  278.1648
 171  242.923
 172  245.4525
 173  405.9029
 174  239.6406
 175  114.2971
 176  281.3513
 177  308.9255
 178  250.4372
 179  196.9178
 180  170.3526
 181  347.1696
 182  303.824
 183  322.974
 184  403.4998
 185  311.2989
 186  363.6565
 187  295.2858
 188  370.8358
 189  369.1205
 190  437.1854
 191  441.8622
 192  357.0454
 193  318.4465
 194  290.8263
 195  273.6787
 196  260.9594
 197  143.4232
 198  260.7804
 199  384.174
 200  480.7766
 201  316.6328
 202  341.8886
 203  211.9782
 204  300.0651
 205  215.4574
 206  338.1725
 207  267.9515
 208  215.5159
 209  324.1312
 210  377.0977
 211  323.2967
 212  276.2599
 213  406.5968
 214  352.3766
 215  180.8517
 216  349.1227
 217  531.8287
 218  343.6663
 219  283.377
 220  334.351
 221  364.8947
 222  392.1569
 223  489.3924
 224  435.2999
 225  330.4663
 226  424.3853
 227  400.1735
 228  345.299
 229  329.6118
 230  359.4487
 231  330.3677
 232  287.5428
 233  320.492
 234  351.8148
 235  394.3147
 236  412.3036
 237  487.9799
 238  418.5715
 239  418.5259
 240  370.1922
 241  404.2176
 242  487.9187
 243  409.1215
 244  323.444
 245  274.6139
 246  309.7277
 247  387.9726
 248  444.0561
 249  443.4467
 250  400.5899
 251  487.6597
 252  538.3248
 253  416.4271
 254  415.2927
 255  380.9441
 256  426.6518
 257  407.461
 258  445.7765
 259  486.1783
 260  487.4851
 261  520.3699
 262  489.3157
 263  452.1685
 264  375.2712
 265  429.029
 266  431.7374
 267  503.4632
 268  383.7193
 269  386.7454
 270  300.7567
 271  222.7884
 272  305.1196
 273  382.7493
 274  359.0578
 275  458.8725
 276  481.298
 277  434.2521
 278  374.4394
 279  283.975
 280  328.0616
 281  193.3992
 282  294.6211
 283  340.5954
 284  345.7415
 285  295.1342
 286  398.6343
 287  398.7446
 288  305.8518
 289  382.804
 290  356.4874
 291  333.0714
 292  435.1052
 293  407.9415
 294  309.2089
 295  271.1173
 296  281.9986
 297  381.7264
 298  361.3073
 299  388.1287
 300  415.3352
 301  464.4093
 302  394.9348
 303  293.9265
 304  431.4514
 305  510.049
 306  400.9644
 307  264.3276
 308  333.6194
 309  284.2113
 310  324.4602
 311  212.948
 312  217.6698
 313  421.3437
 314  503.5082
 315  538.7598
 316  427.0163
 317  369.3563
 318  392.1938
 319  456.5038
 320  446.2172
 321  485.4457
 322  429.4063
 323  444.5705
 324  441.3916
 325  523.8333
 326  509.7
 327  392.761
 328  387.9459
 329  460.9417
 330  416.9587
 331  501.3578
 332  512.587
 333  386.5739
 334  355.7738
 335  357.8457
 336  309.9633
 337  432.9853
 338  392.8738
 339  389.3424
 340  412.6189
 341  369.8555
 342  286.15
 343  240.5187
 344  363.9236
 345  259.3568
 346  336.6198
 347  427.7912
 348  330.4578
 349  366.6119
 350  324.1818
 351  331.7838
 352  400.3805
 353  208.9134
 354  237.8348
 355  422.5413
 356  524.1353
 357  503.209
 358  368.3977
 359  348.2577
 360  365.7642
 361  325.3302
 362  478.3174
 363  328.7803
 364  366.9661
 365  351.6487
 366  349.1491
 367  346.1966
 368  346.7085
 369  315.6489
 370  376.9074
 371  480.0276
 372  465.0692
 373  403.8366
 374  309.1314
 375  327.4124
 376  296.7075
 377  272.2588
 378  337.5944
 379  348.6554
 380  353.4049
 381  378.9867
 382  290.6237
 383  253.7415
 384  336.4388
 385  428.5377
 386  311.9109
 387  306.1055
 388  373.7521
 389  352.0455
 390  164.8537
 391  312.2045
 392  313.9053
 393  478.5908
 394  344.3502
 395  282.6202
 396  344.8967
 397  324.1674
 398  348.7481
 399  324.8363
 400  387.3987
 401  449.6931
 402  398.9808
 403  454.5499
 404  437.4434
 405  335.3856
 406  359.5202
 407  339.6111
 408  269.9109
 409  358.9739
 410  331.7602
 411  377.5887
 412  334.1197
 413  376.6712
 414  439.5723
 415  430.6774
 416  398.8417
 417  336.8045
 418  408.4445
 419  314.8918
 420  297.2481
 421  274.6068
 422  302.6631
 423  363.2438
 424  289.0389
 425  311.4221
 426  361.3563
 427  312.517
 428  226.7081
 429  341.2872
 430  342.3479
 431  341.7317
 432  346.6047
 433  356.7518
 434  318.3956
 435  346.4964
 436  388.8502
 437  266.5962
 438  306.2753
 439  211.4279
 440  216.7453
 441  175.3447
 442  271.1794
 443  202.9961
 444  269.6134
 445  283.5979
 446  225.1346
 447  133.4533
 448  205.8952
 449  208.1213
 450  256.5827
 451  249.9743
 452  264.8771
 453  389.994
 454  426.5739
 455  274.432
 456  275.9984
 457  254.7357
 458  278.4552
 459  330.9949
 460  320.1678
 461  369.9007
 462  468.4014
 463  494.5732
 464  413.4343
 465  284.6873
 466  340.0841
 467  410.3228
 468  350.2441
 469  333.2504
 470  323.7956
 471  276.7532
 472  241.099
 473  379.4031
 474  395.8385
 475  401.4792
 476  481.1875
 477  473.1932
 478  452.5166
 479  476.35
 480  515.6966
 481  379.1775
 482  388.2271
 483  455.5081
 484  532.9792
 485  485.6368
 486  339.0649
 487  286.6174
 488  330.7276
 489  440.079
 490  447.7038
 491  478.4347
 492  428.072
 493  319.0152
 494  301.679
 495  328.6696
 496  250.1726
 497  347.7854
 498  434.3541
 499  357.7811
 500  404.528
 501  391.5239
 502  353.8353
 503  429.2128
 504  443.5987
 505  335.2966
 506  351.3064
 507  402.0414
 508  341.8132
 509  485.0846
 510  698.1532
 511  838.9019
