# Input file       =  1181456923.122051_cleaned.dat
# Candidate        =  PSR_0332+5434
# Telescope        =  AR
# Epoch_topo       =  57918.270163449663
# Epoch_bary       =  N/A
# T_sample         =  0.002
# Data Folded      =  7340032
# Data Avg         =  0.0186201177031286
# Data StdDev      =  1.00009824381454 
# Profile Bins     =  512
# Profile Avg      =  266.714223329443 
# Profile StdDev   =  119.744799406986 
# Reduced chi-sqr  =  1.335
# Prob(Noise)      <  5.52e-07   (~4.9 sigma)
# P_topo (ms)      =  714.503919814615  +/- 0.000261
# P'_topo (s/s)    =  -0                +/- 1.38e-10
# P''_topo (s/s^2) =  0                 +/- 6.08e-14
# P_bary (ms)      =  N/A
# P'_bary (s/s)    =  N/A
# P''_bary (s/s^2) =  N/A
# P_orb (s)        =  N/A
# asin(i)/c (s)    =  N/A
# eccentricity     =  N/A
# w (rad)          =  N/A
# T_peri           =  N/A
######################################################
   0  224.7439
   1  309.919
   2  302.4696
   3  268.4187
   4  243.0228
   5  281.2041
   6  212.9273
   7  171.3956
   8  280.3661
   9  277.6266
  10  240.3347
  11  305.5517
  12  235.5296
  13  129.8196
  14  133.9691
  15  151.2198
  16  212.8016
  17  142.4974
  18  222.4412
  19  170.0924
  20  138.3203
  21  217.6267
  22  155.3438
  23  318.5264
  24  257.2305
  25  155.0985
  26  346.3811
  27  301.1805
  28  401.8774
  29  353.8091
  30  208.8041
  31  175.8514
  32  196.2282
  33  237.9913
  34  367.9038
  35  258.0656
  36  138.492
  37  143.6403
  38  183.1253
  39  268.6422
  40  345.6725
  41  225.9734
  42  205.5595
  43  238.5161
  44  343.7292
  45  327.8939
  46  161.5086
  47  144.7253
  48  141.7476
  49  213.5114
  50  325.0724
  51  169.125
  52  189.6759
  53  230.6941
  54  222.9601
  55  246.3546
  56  180.4898
  57  126.1253
  58  247.926
  59  228.9606
  60  160.6249
  61  179.6924
  62  164.1341
  63  257.3083
  64  260.6266
  65  208.536
  66  175.7335
  67  248.0751
  68  307.1607
  69  276.0079
  70  238.3857
  71  264.3772
  72  111.8929
  73  223.4993
  74  183.3863
  75  217.3979
  76  254.1063
  77  340.562
  78  299.975
  79  181.1241
  80  253.8528
  81  437.1534
  82  381.7821
  83  264.5715
  84  274.7374
  85  308.891
  86  310.2312
  87  305.9719
  88  339.3803
  89  319.71
  90  294.4681
  91  323.0534
  92  275.6268
  93  156.1192
  94  173.891
  95  248.6767
  96  299.4876
  97  243.4692
  98  306.5739
  99  251.5722
 100  225.1189
 101  260.7358
 102  375.0017
 103  265.9822
 104  221.3713
 105  246.3474
 106  259.3976
 107  295.9128
 108  248.2093
 109  214.741
 110  216.08
 111  276.9593
 112  250.5413
 113  205.9232
 114  169.3348
 115  255.8765
 116  206.0527
 117  171.3637
 118  306.9096
 119  375.9137
 120  331.419
 121  257.1735
 122  174.798
 123  201.3823
 124  169.0694
 125  204.9993
 126  174.3643
 127  235.3044
 128  275.572
 129  212.8151
 130  293.7759
 131  247.5405
 132  316.7674
 133  337.5847
 134  242.4469
 135  329.8584
 136  385.0796
 137  275.3247
 138  242.3536
 139  146.3212
 140  232.6019
 141  201.0674
 142  187.9483
 143  127.3236
 144  99.16344
 145  374.5183
 146  361.9055
 147  336.0924
 148  389.854
 149  334.4181
 150  347.0999
 151  306.6102
 152  328.4301
 153  428.5467
 154  396.1327
 155  298.9422
 156  328.1673
 157  268.4424
 158  306.7858
 159  406.203
 160  286.1646
 161  251.2995
 162  290.8525
 163  407.0848
 164  337.3555
 165  341.8407
 166  379.9814
 167  295.8522
 168  202.0132
 169  192.6003
 170  160.1728
 171  226.9344
 172  281.7466
 173  303.2083
 174  228.2835
 175  160.5493
 176  174.4907
 177  168.6904
 178  282.0484
 179  305.2412
 180  222.5838
 181  255.6392
 182  354.8787
 183  357.0467
 184  307.1561
 185  223.603
 186  209.3291
 187  225.8628
 188  89.79215
 189  19.41156
 190  126.1965
 191  176.2052
 192  238.3671
 193  317.1007
 194  234.4021
 195  55.36079
 196  145.5485
 197  298.7814
 198  252.7989
 199  222.2656
 200  243.7004
 201  253.8951
 202  289.8614
 203  304.7203
 204  246.2662
 205  198.0553
 206  133.3683
 207  150.5462
 208  242.1701
 209  227.6705
 210  244.1554
 211  224.1227
 212  329.9453
 213  244.7518
 214  159.9511
 215  319.9582
 216  326.1816
 217  184.5129
 218  303.4502
 219  274.3226
 220  312.8185
 221  429.8602
 222  347.5384
 223  216.6163
 224  222.2223
 225  278.6259
 226  208.3597
 227  188.1696
 228  229.9159
 229  222.3048
 230  215.4669
 231  310.6057
 232  298.5767
 233  169.3188
 234  204.9726
 235  269.7459
 236  245.2894
 237  270.6421
 238  114.8189
 239  204.5764
 240  234.6304
 241  194.8516
 242  72.5163
 243  108.3743
 244  242.0376
 245  218.8544
 246  181.4036
 247  271.5028
 248  313.6899
 249  202.746
 250  152.7411
 251  307.7301
 252  265.5135
 253  222.5725
 254  335.5683
 255  378.4709
 256  277.9134
 257  238.4082
 258  157.728
 259  336.5291
 260  291.5137
 261  313.6296
 262  252.8155
 263  239.9994
 264  244.4118
 265  263.8134
 266  180.1715
 267  338.72
 268  352.6581
 269  277.4751
 270  307.393
 271  215.6414
 272  223.6873
 273  218.2247
 274  186.1207
 275  145.3951
 276  104.2902
 277  198.8243
 278  381.4501
 279  320.7543
 280  368.2141
 281  319.3253
 282  260.6663
 283  317.0195
 284  311.8507
 285  289.4987
 286  422.7464
 287  354.152
 288  259.6404
 289  217.0171
 290  273.6758
 291  326.2026
 292  394.2035
 293  355.5114
 294  330.2808
 295  284.716
 296  324.6032
 297  372.5547
 298  337.9813
 299  313.2085
 300  511.3356
 301  485.0206
 302  349.9981
 303  286.7873
 304  335.7469
 305  484.3583
 306  477.0104
 307  291.0782
 308  304.2542
 309  308.9434
 310  333.107
 311  288.1705
 312  334.6552
 313  506.8524
 314  438.8225
 315  360.8678
 316  182.6684
 317  174.107
 318  149.3322
 319  257.2629
 320  395.878
 321  448.9191
 322  438.0625
 323  447.6826
 324  429.9951
 325  408.2502
 326  444.9934
 327  647.7614
 328  640.1172
 329  761.4453
 330  828.517
 331  821.234
 332  607.2783
 333  583.0048
 334  627.67
 335  516.3278
 336  447.8334
 337  414.4825
 338  358.3853
 339  452.5981
 340  326.9427
 341  384.9347
 342  461.261
 343  317.3036
 344  406.706
 345  437.2681
 346  352.1864
 347  372.6753
 348  283.8882
 349  226.3022
 350  290.4758
 351  331.1489
 352  225.0105
 353  219.6597
 354  352.4997
 355  348.6044
 356  228.1517
 357  189.2976
 358  186.0218
 359  366.7754
 360  399.1908
 361  321.3907
 362  284.036
 363  249.9449
 364  324.6618
 365  330.2944
 366  283.1893
 367  328.9988
 368  83.83255
 369  110.7186
 370  249.3718
 371  255.0076
 372  239.8467
 373  299.5764
 374  286.3653
 375  117.2176
 376  165.4873
 377  68.34895
 378  193.0047
 379  183.3853
 380  322.7037
 381  278.8392
 382  230.3444
 383  174.1752
 384  196.1356
 385  211.5694
 386  140.9585
 387  183.2755
 388  251.0284
 389  262.0722
 390  141.7382
 391  190.995
 392  117.3254
 393  92.16689
 394  236.0703
 395  273.3887
 396  296.8195
 397  226.3428
 398  183.5692
 399  173.7525
 400  195.977
 401  226.7473
 402  216.1478
 403  198.9164
 404  212.2723
 405  207.5957
 406  230.1688
 407  323.0779
 408  239.4931
 409  223.7448
 410  268.5713
 411  231.5188
 412  149.4832
 413  279.8593
 414  300.4888
 415  319.1228
 416  310.2922
 417  213.8741
 418  168.1609
 419  88.61115
 420  134.8623
 421  251.9965
 422  254.8037
 423  330.8007
 424  319.3572
 425  294.0954
 426  162.2263
 427  190.473
 428  156.1375
 429  142.4587
 430  168.475
 431  138.8638
 432  191.6192
 433  181.4273
 434  153.287
 435  186.9737
 436  231.0258
 437  114.6342
 438  -42.80404
 439  203.1291
 440  365.0452
 441  302.605
 442  283.4041
 443  238.6584
 444  229.7998
 445  130.9976
 446  143.5771
 447  227.7885
 448  123.1553
 449  278.0847
 450  394.4406
 451  208.9837
 452  139.7409
 453  147.3518
 454  226.4323
 455  157.5851
 456  264.9787
 457  299.6077
 458  283.5578
 459  275.2237
 460  330.3881
 461  374.6243
 462  391.2548
 463  340.844
 464  262.3451
 465  259.215
 466  314.7407
 467  368.4485
 468  245.0747
 469  322.3452
 470  369.5719
 471  339.9965
 472  157.4816
 473  142.6507
 474  333.7511
 475  349.3612
 476  251.0331
 477  225.8531
 478  255.3037
 479  185.2272
 480  234.447
 481  429.4636
 482  361.8602
 483  316.9416
 484  393.3891
 485  348.351
 486  217.7195
 487  266.7916
 488  306.2939
 489  303.176
 490  283.755
 491  228.142
 492  110.802
 493  154.5069
 494  358.7921
 495  255.0617
 496  142.8369
 497  173.5485
 498  249.4176
 499  316.1176
 500  149.8432
 501  193.1902
 502  291.6094
 503  355.6493
 504  277.8369
 505  238.3862
 506  377.7393
 507  286.8086
 508  206.1257
 509  270.3753
 510  377.8514
 511  312.1473
