# Input file       =  1181700809.115506_cleaned.dat
# Candidate        =  PSR_0332+5434
# Telescope        =  AR
# Epoch_topo       =  57921.092918003538
# Epoch_bary       =  N/A
# T_sample         =  0.002
# Data Folded      =  7208960
# Data Avg         =  0.0268401191938393
# Data StdDev      =  0.999900495607701
# Profile Bins     =  512
# Profile Avg      =  377.90862609108  
# Profile StdDev   =  118.647368684353 
# Reduced chi-sqr  =  0.823
# Prob(Noise)      <  0.999   (~0.0 sigma)
# P_topo (ms)      =  714.501305761773  +/- 0.000183
# P'_topo (s/s)    =  -0                +/- 9.81e-11
# P''_topo (s/s^2) =  0                 +/- 4.41e-14
# P_bary (ms)      =  N/A
# P'_bary (s/s)    =  N/A
# P''_bary (s/s^2) =  N/A
# P_orb (s)        =  N/A
# asin(i)/c (s)    =  N/A
# eccentricity     =  N/A
# w (rad)          =  N/A
# T_peri           =  N/A
######################################################
   0  352.0864
   1  308.0389
   2  366.1406
   3  306.3307
   4  384.7436
   5  241.5482
   6  304.3493
   7  270.318
   8  424.5016
   9  412.5249
  10  429.8438
  11  504.7622
  12  430.6765
  13  302.4041
  14  348.9972
  15  297.5205
  16  332.9734
  17  312.3518
  18  349.6353
  19  306.8826
  20  387.8344
  21  337.0115
  22  363.1942
  23  408.2708
  24  416.2964
  25  459.8551
  26  497.4719
  27  628.5195
  28  632.8297
  29  637.775
  30  620.5957
  31  578.9341
  32  652.7339
  33  465.1676
  34  268.0661
  35  293.6713
  36  262.9776
  37  312.1628
  38  386.0493
  39  343.0343
  40  236.41
  41  247.7215
  42  282.4496
  43  398.5989
  44  377.3857
  45  412.6435
  46  292.658
  47  238.0627
  48  289.1498
  49  332.4268
  50  431.8743
  51  471.5918
  52  328.6622
  53  346.4138
  54  340.0012
  55  305.3782
  56  267.1857
  57  315.726
  58  296.7493
  59  324.1818
  60  439.4686
  61  461.1902
  62  461.068
  63  486.5552
  64  355.6551
  65  382.4057
  66  411.2635
  67  471.2851
  68  480.9784
  69  433.9173
  70  342.9084
  71  323.7059
  72  270.4561
  73  320.3087
  74  401.8221
  75  446.7252
  76  348.6514
  77  328.8726
  78  400.1335
  79  457.3346
  80  451.1855
  81  340.149
  82  374.483
  83  397.0663
  84  331.4518
  85  427.1956
  86  322.2156
  87  283.1591
  88  316.1251
  89  223.2183
  90  312.9607
  91  365.4561
  92  431.1401
  93  369.7728
  94  386.9342
  95  404.4453
  96  478.608
  97  513.128
  98  405.9623
  99  346.7978
 100  462.3077
 101  465.993
 102  378.0223
 103  399.7696
 104  446.2443
 105  267.4722
 106  331.9408
 107  417.7188
 108  339.9591
 109  438.4612
 110  611.4259
 111  497.2003
 112  469.014
 113  414.5678
 114  377.9601
 115  395.5284
 116  379.1492
 117  255.3057
 118  355.7355
 119  450.1104
 120  348.9446
 121  411.6143
 122  383.1959
 123  282.6669
 124  340.4884
 125  424.0641
 126  480.3342
 127  505.4914
 128  581.8363
 129  563.3836
 130  432.5582
 131  514.6335
 132  451.4312
 133  317.6052
 134  406.6343
 135  444.7115
 136  454.9425
 137  444.1808
 138  409.5054
 139  560.6693
 140  408.2098
 141  305.7207
 142  369.3973
 143  584.5331
 144  530.2573
 145  418.0443
 146  336.6418
 147  366.1913
 148  249.5543
 149  329.7674
 150  402.0516
 151  320.3191
 152  356.4135
 153  420.3033
 154  456.6261
 155  321.2002
 156  227.7324
 157  411.0058
 158  413.1902
 159  382.3972
 160  354.8559
 161  298.309
 162  307.1979
 163  274.6274
 164  284.3324
 165  288.3423
 166  320.7119
 167  319.6053
 168  354.9011
 169  301.365
 170  287.423
 171  345.2774
 172  331.356
 173  329.3726
 174  355.6809
 175  371.661
 176  351.109
 177  261.7198
 178  291.5317
 179  289.1101
 180  403.1162
 181  443.3867
 182  313.7261
 183  317.4417
 184  315.3941
 185  416.423
 186  501.4954
 187  448.6202
 188  491.9665
 189  438.6114
 190  417.1599
 191  281.1106
 192  159.8896
 193  335.6539
 194  495.9283
 195  422.6321
 196  294.783
 197  291.0197
 198  264.6456
 199  251.2827
 200  348.3444
 201  414.4764
 202  422.9316
 203  473.0727
 204  469.7918
 205  333.5949
 206  300.3825
 207  381.8496
 208  351.7079
 209  366.5632
 210  437.2942
 211  497.0098
 212  474.6289
 213  237.4647
 214  293.7904
 215  356.925
 216  373.3047
 217  414.477
 218  442.2398
 219  450.5677
 220  395.5553
 221  421.8947
 222  385.2333
 223  382.7195
 224  354.6793
 225  441.8497
 226  329.3203
 227  320.0588
 228  347.9499
 229  312.0514
 230  223.8247
 231  341.5593
 232  330.4712
 233  376.69
 234  390.7644
 235  487.1648
 236  424.7054
 237  434.5142
 238  463.174
 239  432.8803
 240  378.049
 241  295.5292
 242  308.6579
 243  315.4601
 244  386.2558
 245  474.3525
 246  300.5699
 247  236.6983
 248  363.1755
 249  394.9484
 250  382.9608
 251  232.3944
 252  359.6682
 253  431.5289
 254  473.7268
 255  516.1669
 256  525.8939
 257  489.8175
 258  506.5915
 259  356.1328
 260  429.5842
 261  409.4279
 262  396.3788
 263  356.5559
 264  273.39
 265  256.9953
 266  278.5774
 267  346.5603
 268  414.1031
 269  353.4441
 270  309.4985
 271  413.0096
 272  427.407
 273  413.9505
 274  340.9526
 275  355.6717
 276  410.7163
 277  394.3199
 278  359.3878
 279  336.2628
 280  283.8079
 281  389.8317
 282  437.2496
 283  447.1547
 284  343.2361
 285  369.6873
 286  320.2903
 287  346.096
 288  401.2558
 289  405.4585
 290  403.2852
 291  404.097
 292  379.1088
 293  368.8587
 294  397.3524
 295  394.7203
 296  440.2032
 297  403.5175
 298  245.9373
 299  360.3187
 300  464.5147
 301  341.0407
 302  294.2318
 303  407.4544
 304  298.969
 305  358.4948
 306  389.1422
 307  344.3337
 308  300.0603
 309  370.934
 310  389.4828
 311  299.5532
 312  227.6106
 313  200.9211
 314  330.6101
 315  334.4691
 316  273.8192
 317  383.8459
 318  449.8273
 319  360.9518
 320  298.7717
 321  348.4646
 322  363.2646
 323  342.0288
 324  332.5603
 325  460.8263
 326  383.3519
 327  274.4043
 328  338.8258
 329  382.1404
 330  380.0094
 331  376.0287
 332  387.9598
 333  383.5115
 334  401.2896
 335  409.7676
 336  493.7932
 337  435.6523
 338  326.636
 339  430.733
 340  343.0367
 341  205.6436
 342  276.0208
 343  354.1971
 344  361.0769
 345  269.7402
 346  389.2983
 347  441.1463
 348  355.8991
 349  296.4621
 350  477.8986
 351  490.8593
 352  374.7601
 353  389.3985
 354  365.4351
 355  332.9253
 356  250.4834
 357  336.2312
 358  379.2337
 359  388.6971
 360  371.8739
 361  355.0553
 362  394.4947
 363  344.132
 364  414.1495
 365  347.3767
 366  289.685
 367  316.0139
 368  421.6049
 369  391.0911
 370  429.5091
 371  324.6708
 372  378.3712
 373  460.9867
 374  378.8759
 375  477.6928
 376  413.3626
 377  366.5323
 378  371.2072
 379  412.1846
 380  463.8279
 381  434.714
 382  385.4367
 383  463.0726
 384  478.3987
 385  367.9058
 386  259.5756
 387  372.0331
 388  316.9445
 389  352.7375
 390  366.0917
 391  345.8204
 392  346.5552
 393  426.4447
 394  433.2206
 395  373.2493
 396  405.1504
 397  348.899
 398  423.8594
 399  379.0919
 400  355.5977
 401  414.0674
 402  489.9972
 403  412.4888
 404  369.5114
 405  437.9937
 406  293.6764
 407  346.4908
 408  452.2922
 409  534.7673
 410  403.1528
 411  311.1982
 412  423.3396
 413  387.588
 414  410.2229
 415  328.7595
 416  201.4822
 417  238.2694
 418  355.7468
 419  387.7583
 420  457.0265
 421  327.4758
 422  269.4038
 423  301.6095
 424  359.5735
 425  217.2651
 426  393.7022
 427  437.149
 428  393.3134
 429  461.8063
 430  506.4552
 431  377.4123
 432  370.1774
 433  408.893
 434  289.8227
 435  220.1972
 436  273.4205
 437  350.5819
 438  298.538
 439  251.7352
 440  357.4302
 441  355.7691
 442  430.9085
 443  356.8073
 444  395.9934
 445  244.6541
 446  200.9413
 447  298.8102
 448  382.9722
 449  374.0497
 450  405.7848
 451  321.8594
 452  183.9676
 453  216.2446
 454  360.6074
 455  340.5646
 456  342.2023
 457  404.3358
 458  265.0077
 459  206.6747
 460  265.5891
 461  275.9989
 462  279.3759
 463  457.9876
 464  423.4564
 465  414.125
 466  451.6888
 467  419.876
 468  379.4592
 469  427.6147
 470  387.9844
 471  406.4612
 472  570.2095
 473  475.0843
 474  454.7498
 475  424.9539
 476  413.0403
 477  433.435
 478  372.0858
 479  358.7102
 480  456.821
 481  420.7864
 482  373.8896
 483  491.3086
 484  507.3502
 485  455.8001
 486  403.6568
 487  443.5084
 488  447.2105
 489  475.4265
 490  384.6067
 491  386.7618
 492  309.4829
 493  364.3164
 494  387.5179
 495  421.2538
 496  449.2253
 497  541.725
 498  518.5165
 499  435.3696
 500  382.0284
 501  326.8223
 502  271.0154
 503  369.651
 504  428.6323
 505  478.8832
 506  488.5759
 507  468.8979
 508  502.9627
 509  406.4851
 510  372.39
 511  300.9388
