# Input file       =  1181198473.10547_cleaned.dat
# Candidate        =  PSR_0332+5434
# Telescope        =  AR
# Epoch_topo       =  57915.278843813307
# Epoch_bary       =  N/A
# T_sample         =  0.002
# Data Folded      =  7340032
# Data Avg         =  0.0859990921089775
# Data StdDev      =  2.70390791021691 
# Profile Bins     =  256
# Profile Avg      =  2465.55965390794 
# Profile StdDev   =  457.847545501076 
# Reduced chi-sqr  =  1.444
# Prob(Noise)      <  4.37e-06   (~4.4 sigma)
# P_topo (ms)      =  714.506716789846  +/- 0.000257
# P'_topo (s/s)    =  -0                +/- 1.35e-10
# P''_topo (s/s^2) =  0                 +/- 5.98e-14
# P_bary (ms)      =  N/A
# P'_bary (s/s)    =  N/A
# P''_bary (s/s^2) =  N/A
# P_orb (s)        =  N/A
# asin(i)/c (s)    =  N/A
# eccentricity     =  N/A
# w (rad)          =  N/A
# T_peri           =  N/A
######################################################
   0  2070.411
   1  2679.023
   2  2368.544
   3  2720.497
   4  2704.026
   5  2178.926
   6  2201.832
   7  2442.013
   8  2389.165
   9  2470.653
  10  2474.493
  11  2788.135
  12  2450.886
  13  2330.794
  14  2972.986
  15  2947.878
  16  2712.469
  17  2729.853
  18  2897.583
  19  1895.809
  20  1925.685
  21  1932.682
  22  2412.403
  23  2339.979
  24  2040.739
  25  1611.743
  26  2231.51
  27  2181.652
  28  2311.558
  29  2946.22
  30  2785.574
  31  3011.506
  32  3035.867
  33  2863.717
  34  2604.097
  35  2862.437
  36  2190.438
  37  2581.993
  38  2639.15
  39  2901.97
  40  2742.425
  41  3218.458
  42  2355.606
  43  2960.47
  44  2757.836
  45  2707.254
  46  3030.274
  47  2618.301
  48  2300.244
  49  2966.749
  50  2863.786
  51  2596.65
  52  2459.883
  53  2733.09
  54  3128.507
  55  3387.452
  56  3077.25
  57  2694.033
  58  2026.222
  59  2354.886
  60  2216.17
  61  2128.32
  62  1619.589
  63  1982.295
  64  2207.394
  65  2666.09
  66  2176.2
  67  2014.552
  68  1957.902
  69  1779.855
  70  2579.806
  71  2525.752
  72  2473.758
  73  2713.12
  74  3176.175
  75  2326.889
  76  3591.492
  77  3194.021
  78  2468.568
  79  2218.275
  80  3239.792
  81  2541.971
  82  2980.662
  83  2242.653
  84  2831.678
  85  2526.036
  86  2971.285
  87  2583.016
  88  2723.678
  89  2721.351
  90  2923.36
  91  2543.429
  92  2860.632
  93  3240.803
  94  2583.862
  95  2518.084
  96  2793.646
  97  2266.646
  98  2785.45
  99  2412.272
 100  2691.634
 101  2998.343
 102  2360.598
 103  2974.639
 104  2324.268
 105  2123.821
 106  2577.362
 107  2194.208
 108  2646.923
 109  2834.325
 110  2507.112
 111  2280.09
 112  2870.183
 113  2359.645
 114  3049.293
 115  2297.086
 116  2280.67
 117  2390.166
 118  3244.729
 119  3083.553
 120  2515.218
 121  2413.899
 122  2675.325
 123  1999.349
 124  2189.969
 125  2012.27
 126  2847.338
 127  2396.025
 128  2138.797
 129  2471.741
 130  2578.812
 131  2596.684
 132  2342.425
 133  2090.512
 134  2913.293
 135  2304.323
 136  2627.292
 137  3215.277
 138  2944.404
 139  2850.916
 140  2269.068
 141  2410.804
 142  2466.208
 143  2133.137
 144  2714.479
 145  3090.487
 146  3270.812
 147  2572.825
 148  2511.438
 149  2159.512
 150  2501.323
 151  2311.365
 152  2477.546
 153  2628.49
 154  2429.39
 155  2650.74
 156  2780.293
 157  2185.13
 158  2697.465
 159  3306.28
 160  2779.531
 161  2790.086
 162  3693.069
 163  4674.231
 164  5205.718
 165  3520.202
 166  2498.194
 167  2091.544
 168  1949.232
 169  2690.891
 170  2494.759
 171  2554.411
 172  2233.246
 173  2337.54
 174  1851.375
 175  2739.187
 176  2179.317
 177  2095.188
 178  2757.259
 179  2842.04
 180  3003.581
 181  2907.163
 182  2535.522
 183  2363.882
 184  2612.354
 185  2536.851
 186  2335.486
 187  2046.9
 188  1938.569
 189  1689.748
 190  1314.817
 191  1333.115
 192  2309.901
 193  2518.522
 194  2286.052
 195  2068.032
 196  2392.591
 197  2436.197
 198  2440.429
 199  1961.503
 200  2285.383
 201  2863.745
 202  2467.606
 203  2107.633
 204  2478.573
 205  2161.776
 206  2063.794
 207  2424.997
 208  2212.369
 209  1934.761
 210  1850.148
 211  1272.358
 212  1486.309
 213  1894.536
 214  1967.509
 215  2178.756
 216  1657.241
 217  1822.115
 218  1423.987
 219  1827.607
 220  2480.758
 221  2317.561
 222  2266.347
 223  2491.023
 224  2607.894
 225  2141.371
 226  1856.351
 227  2407.989
 228  1760.341
 229  2151.793
 230  2134.905
 231  1595.585
 232  1606.668
 233  2020.302
 234  1963.841
 235  1623.013
 236  1853.464
 237  1718.026
 238  2017.8
 239  1827.233
 240  2136.799
 241  2360.766
 242  2719.342
 243  2316.116
 244  2072.346
 245  2568.633
 246  2300.961
 247  2173.247
 248  2250.506
 249  2919.096
 250  2256.765
 251  2757.531
 252  2417.492
 253  2305.719
 254  2064.296
 255  2429.838
