# Input file       =  1181299537.125484_cleaned.dat
# Candidate        =  PSR_0332+5434
# Telescope        =  AR
# Epoch_topo       =  57916.448566267172
# Epoch_bary       =  N/A
# T_sample         =  0.002
# Data Folded      =  7340032
# Data Avg         =  0.0122642288043545
# Data StdDev      =  1.00005272845129 
# Profile Bins     =  512
# Profile Avg      =  175.858141186256 
# Profile StdDev   =  119.739349714343 
# Reduced chi-sqr  =  0.947
# Prob(Noise)      <  0.799   (~0.0 sigma)
# P_topo (ms)      =  714.505951655992  +/- 0.000366
# P'_topo (s/s)    =  -0                +/- 1.93e-10
# P''_topo (s/s^2) =  0                 +/- 8.53e-14
# P_bary (ms)      =  N/A
# P'_bary (s/s)    =  N/A
# P''_bary (s/s^2) =  N/A
# P_orb (s)        =  N/A
# asin(i)/c (s)    =  N/A
# eccentricity     =  N/A
# w (rad)          =  N/A
# T_peri           =  N/A
######################################################
   0  525.3943
   1  543.4902
   2  441.499
   3  360.532
   4  257.8526
   5  200.5068
   6  166.1564
   7  141.7599
   8  154.0212
   9  169.7636
  10  173.6548
  11  215.9367
  12  284.6003
  13  242.7983
  14  225.1137
  15  285.2956
  16  268.9349
  17  264.5594
  18  224.6603
  19  313.7038
  20  292.8849
  21  147.2655
  22  109.6816
  23  131.1785
  24  106.1835
  25  -20.81115
  26  74.19828
  27  156.0035
  28  90.94772
  29  -24.64969
  30  50.47243
  31  167.7189
  32  204.6864
  33  108.2338
  34  75.29261
  35  246.3186
  36  212.4536
  37  241.1853
  38  57.03349
  39  39.13275
  40  86.30116
  41  123.275
  42  122.4461
  43  42.72011
  44  160.8052
  45  243.0923
  46  38.94592
  47  33.16483
  48  152.3309
  49  94.83253
  50  23.23941
  51  6.437611
  52  215.8234
  53  194.1883
  54  127.9346
  55  81.43013
  56  136.9417
  57  32.73854
  58  42.51638
  59  91.17617
  60  232.3457
  61  235.0619
  62  240.5444
  63  329.9773
  64  219.1451
  65  160.0852
  66  142.2897
  67  131.6674
  68  280.8941
  69  225.4878
  70  81.79264
  71  215.1549
  72  234.1591
  73  276.8665
  74  243.9166
  75  173.2859
  76  248.748
  77  324.1419
  78  252.7814
  79  194.7235
  80  110.6277
  81  127.0631
  82  75.72258
  83  95.65179
  84  80.83146
  85  81.47534
  86  272.9603
  87  256.7548
  88  258.5847
  89  48.23453
  90  151.8111
  91  264.3243
  92  168.6294
  93  25.26949
  94  58.0962
  95  136.1834
  96  192.0558
  97  134.287
  98  142.4326
  99  140.5524
 100  132.4762
 101  118.1077
 102  153.0262
 103  207.8903
 104  125.1831
 105  140.644
 106  103.3977
 107  129.4576
 108  120.9137
 109  87.25932
 110  233.7033
 111  72.22274
 112  56.18955
 113  114.1476
 114  138.9528
 115  58.44176
 116  54.64498
 117  63.21769
 118  68.12837
 119  123.6366
 120  93.17358
 121  4.985234
 122  68.06389
 123  179.7056
 124  196.7506
 125  263.397
 126  313.6525
 127  189.4384
 128  68.62253
 129  188.444
 130  267.7178
 131  247.1361
 132  217.6316
 133  201.0103
 134  254.4696
 135  159.0287
 136  202.7106
 137  261.6611
 138  109.4905
 139  214.6666
 140  358.4286
 141  252.7199
 142  240.4037
 143  257.513
 144  226.3047
 145  125.6059
 146  238.9638
 147  216.5669
 148  168.4124
 149  330.6466
 150  317.6746
 151  237.7709
 152  195.5876
 153  241.787
 154  183.7956
 155  217.2464
 156  267.8506
 157  185.9244
 158  206.0465
 159  160.119
 160  219.8688
 161  198.337
 162  201.5697
 163  217.4001
 164  82.8708
 165  111.8077
 166  103.725
 167  74.37228
 168  54.84523
 169  93.50919
 170  160.8967
 171  186.4693
 172  251.6592
 173  377.995
 174  306.987
 175  194.5958
 176  255.9064
 177  352.71
 178  324.0034
 179  301.2348
 180  292.7682
 181  282.6133
 182  112.5884
 183  185.3575
 184  69.26441
 185  142.1955
 186  122.9545
 187  144.8409
 188  83.92075
 189  142.7123
 190  151.3379
 191  177.1878
 192  121.3803
 193  86.98675
 194  114.5711
 195  122.6045
 196  180.4519
 197  179.2341
 198  132.4924
 199  102.7729
 200  151.9153
 201  135.7873
 202  58.93511
 203  140.6102
 204  167.8768
 205  67.42309
 206  45.87115
 207  15.69268
 208  130.8398
 209  110.5154
 210  136.5339
 211  228.7884
 212  222.5486
 213  46.92043
 214  43.38551
 215  100.1863
 216  102.3507
 217  148.882
 218  287.8542
 219  273.763
 220  189.9777
 221  214.1944
 222  119.4381
 223  197.9005
 224  128.3465
 225  71.81163
 226  124.3149
 227  202.4987
 228  182.215
 229  217.8673
 230  261.2679
 231  198.2698
 232  190.5926
 233  262.1772
 234  272.5049
 235  149.2937
 236  51.51963
 237  103.4275
 238  127.2801
 239  90.11765
 240  130.9091
 241  130.1992
 242  133.724
 243  83.20196
 244  6.782762
 245  6.111732
 246  66.06656
 247  17.86131
 248  12.40251
 249  120.4275
 250  126.8625
 251  161.3998
 252  106.8478
 253  122.6333
 254  147.3631
 255  150.0597
 256  104.3959
 257  62.55417
 258  162.737
 259  134.4097
 260  180.498
 261  236.9335
 262  264.79
 263  157.6956
 264  67.4757
 265  151.3058
 266  215.4156
 267  144.9415
 268  204.5378
 269  323.1465
 270  230.8437
 271  141.1736
 272  223.2233
 273  159.0385
 274  62.91287
 275  142.7937
 276  206.5732
 277  175.0523
 278  57.46883
 279  50.75977
 280  -15.37631
 281  96.49824
 282  165.9228
 283  104.8206
 284  79.72018
 285  162.8563
 286  216.7412
 287  116.7649
 288  196.4869
 289  118.7055
 290  103.7168
 291  157.1914
 292  293.6871
 293  231.3471
 294  159.1679
 295  267.9395
 296  300.9077
 297  195.0501
 298  128.0046
 299  176.9361
 300  275.0194
 301  309.2336
 302  201.1084
 303  228.7628
 304  215.6839
 305  242.0677
 306  221.8784
 307  177.2538
 308  176.4311
 309  149.5804
 310  217.7583
 311  241.6521
 312  274.8196
 313  297.8907
 314  225.976
 315  188.8076
 316  228.8532
 317  188.3512
 318  63.84787
 319  55.27647
 320  131.0337
 321  117.3801
 322  176.8259
 323  132.0683
 324  156.9534
 325  100.7686
 326  77.97584
 327  123.3102
 328  9.092774
 329  76.82941
 330  150.7132
 331  307.6635
 332  301.7854
 333  181.5767
 334  369.6078
 335  219.6566
 336  227.1156
 337  319.5856
 338  207.6617
 339  182.408
 340  213.419
 341  154.9503
 342  77.64467
 343  119.4984
 344  249.5165
 345  101.6656
 346  72.70204
 347  70.78233
 348  132.0484
 349  268.1014
 350  222.3543
 351  151.1238
 352  118.9566
 353  79.24139
 354  131.0625
 355  118.4475
 356  305.0357
 357  326.8056
 358  266.7101
 359  261.4142
 360  129.2045
 361  217.0781
 362  97.78497
 363  42.12833
 364  256.4112
 365  200.5858
 366  249.6658
 367  140.4277
 368  128.2937
 369  201.6219
 370  258.2084
 371  195.1689
 372  123.8116
 373  141.8804
 374  141.1937
 375  163.9798
 376  238.2851
 377  175.1981
 378  210.3871
 379  274.4492
 380  312.0891
 381  265.0796
 382  283.4124
 383  203.6541
 384  157.5672
 385  142.9587
 386  149.1716
 387  213.1965
 388  272.2157
 389  367.6805
 390  337.6159
 391  218.5747
 392  224.667
 393  424.5592
 394  300.0754
 395  254.6024
 396  193.3186
 397  159.7521
 398  174.6503
 399  160.1106
 400  203.8118
 401  262.3099
 402  76.68436
 403  212.2244
 404  214.1717
 405  173.7726
 406  51.56952
 407  69.01888
 408  205.8114
 409  273.2054
 410  262.7734
 411  253.3944
 412  123.8974
 413  110.9293
 414  151.2828
 415  250.6229
 416  256.5158
 417  266.9896
 418  234.7428
 419  257.0943
 420  242.6441
 421  130.8691
 422  228.4159
 423  271.0144
 424  176.5234
 425  117.7145
 426  116.6994
 427  22.4699
 428  80.91268
 429  122.577
 430  139.5287
 431  94.16824
 432  156.1716
 433  179.0593
 434  -49.82604
 435  12.34615
 436  99.50447
 437  145.1387
 438  102.0371
 439  71.89303
 440  161.9775
 441  213.2325
 442  175.267
 443  74.92666
 444  208.1595
 445  241.4935
 446  174.0418
 447  231.0401
 448  254.6328
 449  260.1251
 450  285.6928
 451  185.2369
 452  139.0617
 453  77.44469
 454  142.5875
 455  137.3504
 456  211.2832
 457  221.2111
 458  119.9678
 459  243.3756
 460  305.3002
 461  284.6461
 462  170.539
 463  85.2142
 464  73.07588
 465  189.5056
 466  196.3934
 467  201.9546
 468  173.2726
 469  188.3231
 470  131.4317
 471  124.8839
 472  102.5866
 473  168.1599
 474  235.6559
 475  199.8801
 476  191.2601
 477  243.7373
 478  216.7352
 479  242.2385
 480  228.4763
 481  168.0573
 482  149.8473
 483  122.8714
 484  197.4626
 485  141.4647
 486  277.5996
 487  300.006
 488  180.4615
 489  213.26
 490  226.2458
 491  155.318
 492  202.6538
 493  177.3408
 494  204.2637
 495  221.2961
 496  271.7523
 497  181.6728
 498  202.0591
 499  97.90644
 500  223.5329
 501  175.1595
 502  208.9836
 503  215.9571
 504  224.871
 505  227.1407
 506  178.2128
 507  200.9878
 508  286.0621
 509  349.8434
 510  437.964
 511  439.9111
