# Input file       =  1181011511.105454_cleaned.dat
# Candidate        =  PSR_0332+5434
# Telescope        =  AR
# Epoch_topo       =  57913.114931776086
# Epoch_bary       =  N/A
# T_sample         =  0.002
# Data Folded      =  7143424
# Data Avg         =  0.0338408711593297
# Data StdDev      =  1.00005742937952 
# Profile Bins     =  512
# Profile Avg      =  472.041490825922 
# Profile StdDev   =  118.125367958883 
# Reduced chi-sqr  =  0.823
# Prob(Noise)      <  0.999   (~0.0 sigma)
# P_topo (ms)      =  714.508750176208  +/- 0.000519
# P'_topo (s/s)    =  -0                +/- 2.82e-10
# P''_topo (s/s^2) =  0                 +/- 1.28e-13
# P_bary (ms)      =  N/A
# P'_bary (s/s)    =  N/A
# P''_bary (s/s^2) =  N/A
# P_orb (s)        =  N/A
# asin(i)/c (s)    =  N/A
# eccentricity     =  N/A
# w (rad)          =  N/A
# T_peri           =  N/A
######################################################
   0  829.0482
   1  814.1342
   2  810.0565
   3  619.7447
   4  459.6693
   5  378.5102
   6  401.1153
   7  498.5507
   8  445.8102
   9  495.4466
  10  546.5908
  11  501.4189
  12  498.1746
  13  528.1685
  14  561.8936
  15  560.6319
  16  601.7366
  17  439.1733
  18  365.4299
  19  481.4567
  20  513.124
  21  509.6182
  22  472.1602
  23  446.9196
  24  472.0282
  25  389.5818
  26  449.0085
  27  491.7096
  28  407.3868
  29  407.669
  30  472.4707
  31  478.1844
  32  418.1054
  33  568.4473
  34  518.0183
  35  511.5237
  36  540.6744
  37  531.3116
  38  432.3084
  39  430.579
  40  460.8583
  41  517.2458
  42  470.9951
  43  418.3853
  44  370.2394
  45  583.2302
  46  573.5065
  47  580.069
  48  506.6687
  49  509.7428
  50  522.8594
  51  556.2758
  52  519.2968
  53  493.0304
  54  507.7117
  55  507.6522
  56  521.641
  57  563.7284
  58  580.0962
  59  558.2639
  60  442.3827
  61  524.2006
  62  581.483
  63  421.6921
  64  402.2416
  65  444.3022
  66  630.9524
  67  523.1566
  68  540.1455
  69  491.3578
  70  485.578
  71  527.2281
  72  486.7936
  73  560.8022
  74  446.1258
  75  399.8452
  76  432.4959
  77  320.2034
  78  436.3656
  79  392.3158
  80  370.6915
  81  474.2905
  82  409.5664
  83  330.4541
  84  353.8996
  85  539.605
  86  526.7629
  87  586.2134
  88  477.101
  89  486.1087
  90  491.8761
  91  346.3881
  92  484.7743
  93  459.3496
  94  470.5228
  95  555.1014
  96  499.554
  97  565.1486
  98  556.8928
  99  478.7635
 100  610.5484
 101  608.3654
 102  569.3008
 103  689.554
 104  629.612
 105  556.5071
 106  519.2762
 107  602.9434
 108  663.4307
 109  507.8529
 110  417.2006
 111  525.8817
 112  603.4869
 113  484.3552
 114  460.0337
 115  552.0576
 116  446.1182
 117  260.1002
 118  456.7649
 119  516.1795
 120  517.1353
 121  476.4504
 122  469.9048
 123  459.7104
 124  441.323
 125  440.0422
 126  434.3243
 127  547.0917
 128  519.3373
 129  550.8652
 130  516.5653
 131  459.8545
 132  485.2657
 133  515.3975
 134  493.8486
 135  574.8137
 136  565.3764
 137  463.6704
 138  379.1518
 139  300.5934
 140  366.5866
 141  515.3456
 142  479.7257
 143  432.7152
 144  399.7182
 145  287.8987
 146  374.9489
 147  568.579
 148  547.4461
 149  560.9044
 150  476.3097
 151  379.8058
 152  469.7101
 153  474.9711
 154  534.2364
 155  548.8915
 156  481.6617
 157  548.1008
 158  478.3943
 159  416.5332
 160  359.8257
 161  420.4291
 162  490.8739
 163  430.1963
 164  364.7492
 165  439.137
 166  439.4697
 167  475.9282
 168  479.4857
 169  421.6616
 170  419.125
 171  420.2273
 172  396.2647
 173  401.9877
 174  536.7779
 175  522.3568
 176  484.1171
 177  533.2615
 178  496.7802
 179  422.0265
 180  437.6967
 181  415.8306
 182  489.206
 183  480.9624
 184  422.9731
 185  423.8098
 186  398.8873
 187  430.1873
 188  487.1068
 189  396.2639
 190  314.857
 191  460.9162
 192  452.8023
 193  409.9535
 194  444.9915
 195  427.8674
 196  402.8511
 197  371.5574
 198  439.5897
 199  499.4743
 200  540.8504
 201  418.7717
 202  318.8798
 203  353.654
 204  420.5259
 205  382.3526
 206  427.9199
 207  434.185
 208  472.7948
 209  437.5158
 210  385.7869
 211  398.2783
 212  384.4429
 213  359.3827
 214  391.6585
 215  433.6022
 216  507.7952
 217  508.0059
 218  494.4875
 219  372.8496
 220  328.0443
 221  469.2397
 222  490.7849
 223  479.3528
 224  440.9427
 225  416.3797
 226  485.6261
 227  589.7731
 228  467.3298
 229  431.3697
 230  452.8008
 231  441.3913
 232  418.1892
 233  479.1763
 234  516.6802
 235  518.7434
 236  509.9668
 237  504.4779
 238  496.8916
 239  483.6857
 240  448.8731
 241  418.1294
 242  362.2143
 243  423.9201
 244  389.7625
 245  442.6276
 246  430.7977
 247  495.4811
 248  576.1042
 249  469.9441
 250  400.2817
 251  424.3226
 252  426.5166
 253  490.2494
 254  461.2696
 255  445.2987
 256  409.4372
 257  439.5049
 258  377.9529
 259  402.743
 260  510.2728
 261  439.5475
 262  274.5388
 263  421.4192
 264  508.3809
 265  482.7065
 266  363.5832
 267  404.2086
 268  419.2776
 269  437.8792
 270  484.549
 271  538.1064
 272  568.3991
 273  509.2649
 274  535.8258
 275  518.5941
 276  428.4237
 277  388.7036
 278  322.9124
 279  402.4712
 280  472.7815
 281  507.4053
 282  432.9388
 283  465.387
 284  406.4341
 285  418.6536
 286  442.1531
 287  514.3667
 288  619.3692
 289  543.391
 290  547.2753
 291  551.1749
 292  533.6215
 293  505.4302
 294  504.5386
 295  469.7252
 296  493.4952
 297  484.2466
 298  509.0785
 299  461.8868
 300  433.7426
 301  477.1247
 302  581.8183
 303  433.3839
 304  511.4397
 305  488.1446
 306  523.2349
 307  411.2037
 308  471.6973
 309  585.1014
 310  534.1006
 311  495.7334
 312  392.4401
 313  386.091
 314  460.8403
 315  471.986
 316  572.301
 317  525.3428
 318  547.4835
 319  531.723
 320  526.8639
 321  547.1616
 322  419.9223
 323  438.963
 324  468.6486
 325  499.3957
 326  494.0152
 327  396.1977
 328  404.7011
 329  486.2169
 330  577.9517
 331  505.6294
 332  404.5799
 333  439.6928
 334  500.9061
 335  389.9814
 336  488.4031
 337  461.1143
 338  311.8557
 339  357.0795
 340  420.7927
 341  407.4601
 342  408.304
 343  393.0731
 344  472.2264
 345  419.0211
 346  449.6956
 347  533.0829
 348  457.9257
 349  494.1339
 350  531.7897
 351  570.4579
 352  592.575
 353  549.86
 354  564.8322
 355  525.415
 356  536.6923
 357  423.7386
 358  316.5682
 359  369.5501
 360  397.8087
 361  488.9908
 362  454.7695
 363  572.5859
 364  453.6619
 365  409.2369
 366  491.6907
 367  455.2888
 368  416.8615
 369  374.6852
 370  475.4051
 371  482.8851
 372  496.3122
 373  568.5027
 374  434.8797
 375  462.9398
 376  479.525
 377  455.4153
 378  433.9412
 379  474.6139
 380  530.5087
 381  365.76
 382  410.4172
 383  446.6222
 384  408.8528
 385  492.3996
 386  526.4675
 387  483.6537
 388  454.0777
 389  370.8409
 390  474.5037
 391  449.7392
 392  607.036
 393  586.5546
 394  389.5353
 395  415.248
 396  492.24
 397  435.2143
 398  454.6626
 399  564.8262
 400  427.3492
 401  344.9837
 402  355.8986
 403  436.7757
 404  381.7943
 405  356.731
 406  425.4287
 407  422.2938
 408  455.8756
 409  355.4423
 410  334.6853
 411  442.2225
 412  410.7252
 413  405.1315
 414  401.9816
 415  447.4565
 416  532.66
 417  513.2674
 418  430.4858
 419  399.9884
 420  497.6176
 421  446.6373
 422  329.675
 423  387.0412
 424  434.1961
 425  467.0978
 426  425.2836
 427  478.3984
 428  426.5522
 429  389.0106
 430  418.9748
 431  406.8717
 432  357.6215
 433  449.2876
 434  485.5361
 435  569.775
 436  503.5058
 437  467.5432
 438  526.4452
 439  487.1423
 440  400.658
 441  538.2254
 442  481.6283
 443  494.2091
 444  588.837
 445  513.36
 446  551.0453
 447  495.5993
 448  408.7193
 449  531.6826
 450  553.3516
 451  402.4955
 452  390.5542
 453  417.7598
 454  412.1498
 455  350.612
 456  450.3889
 457  474.6152
 458  394.6251
 459  394.3359
 460  486.5512
 461  565.6938
 462  582.2234
 463  552.1324
 464  524.2126
 465  566.2807
 466  448.069
 467  492.5744
 468  513.2473
 469  492.1855
 470  585.8925
 471  593.7476
 472  470.3437
 473  381.0717
 474  364.9781
 475  383.0515
 476  369.7611
 477  439.1171
 478  448.3879
 479  505.5117
 480  502.1701
 481  499.3117
 482  398.4436
 483  398.1434
 484  421.364
 485  375.3277
 486  458.8817
 487  333.1816
 488  365.5146
 489  381.1404
 490  407.1973
 491  519.9578
 492  485.0359
 493  568.6168
 494  569.3829
 495  541.5175
 496  451.2782
 497  372.9877
 498  455.5914
 499  458.1717
 500  591.372
 501  535.271
 502  539.8758
 503  564.5453
 504  572.9202
 505  412.3669
 506  476.6339
 507  633.1572
 508  614.7519
 509  651.0897
 510  754.2109
 511  890.497
