# Input file       =  1181183852.108650-PSRB0329-2ms-sampling-dd.dat
# Candidate        =  PSR_0332+5434
# Telescope        =  AR
# Epoch_topo       =  57915.109619313080
# Epoch_bary       =  N/A
# T_sample         =  0.002
# Data Folded      =  7208960
# Data Avg         =  1.24212149119153e-10
# Data StdDev      =  5.70172049133341 
# Profile Bins     =  512
# Profile Avg      =  0.226130871335756
# Profile StdDev   =  676.561454106707 
# Reduced chi-sqr  =  0.482
# Prob(Noise)      <  1   (~0.0 sigma)
# P_topo (ms)      =  714.506864856571  +/- 0.000108
# P'_topo (s/s)    =  -0                +/- 5.78e-11
# P''_topo (s/s^2) =  0                 +/- 2.6e-14
# P_bary (ms)      =  N/A
# P'_bary (s/s)    =  N/A
# P''_bary (s/s^2) =  N/A
# P_orb (s)        =  N/A
# asin(i)/c (s)    =  N/A
# eccentricity     =  N/A
# w (rad)          =  N/A
# T_peri           =  N/A
######################################################
   0  -276.1458
   1  -139.1948
   2  -127.4073
   3  29.13756
   4  290.8704
   5  434.2638
   6  237.6379
   7  -138.1033
   8  386.7395
   9  499.8901
  10  0.6180815
  11  104.5068
  12  -185.9059
  13  308.4355
  14  65.01299
  15  -311.2377
  16  -388.8637
  17  18.1572
  18  263.7526
  19  -95.57641
  20  -131.5996
  21  -429.2541
  22  -138.5803
  23  20.60445
  24  -193.7185
  25  347.2524
  26  42.2034
  27  -9.729299
  28  -239.2873
  29  -102.2693
  30  84.83891
  31  -288.6364
  32  -294.9121
  33  -205.1559
  34  -217.5649
  35  142.8943
  36  11.27395
  37  -489.2422
  38  -348.9156
  39  -228.822
  40  -424.9527
  41  -100.3601
  42  294.8878
  43  304.0661
  44  160.8941
  45  237.9229
  46  -282.4778
  47  -502.2722
  48  -392.742
  49  -41.0661
  50  -67.0907
  51  77.20802
  52  195.7467
  53  361.899
  54  375.412
  55  -211.9259
  56  -131.2047
  57  50.08929
  58  269.1038
  59  227.0455
  60  257.2112
  61  85.54503
  62  193.8224
  63  216.1591
  64  290.4543
  65  413.8373
  66  223.0818
  67  197.9726
  68  316.5909
  69  451.6554
  70  76.78461
  71  -170.7511
  72  395.2644
  73  710.7139
  74  631.8579
  75  784.4858
  76  544.6242
  77  207.026
  78  11.74053
  79  -142.2878
  80  51.82557
  81  -132.9388
  82  -6.720418
  83  77.299
  84  276.1639
  85  21.91422
  86  50.20732
  87  279.2888
  88  166.2088
  89  -26.53843
  90  -145.456
  91  -26.07736
  92  224.1794
  93  219.253
  94  85.91792
  95  118.7184
  96  -503.0283
  97  -633.5056
  98  -467.259
  99  -28.14944
 100  553.2385
 101  349.7491
 102  293.0516
 103  -73.49465
 104  -247.243
 105  -466.4525
 106  -90.40328
 107  255.2767
 108  465.4605
 109  531.1609
 110  -376.6461
 111  -625.1823
 112  -891.322
 113  -416.8105
 114  359.867
 115  113.0171
 116  134.7141
 117  -364.024
 118  -69.56264
 119  -150.9524
 120  -238.1644
 121  -91.42672
 122  -288.1348
 123  2.387553
 124  6.11281
 125  133.8369
 126  237.2892
 127  364.3214
 128  280.8005
 129  178.8061
 130  -96.12892
 131  143.4881
 132  170.2579
 133  405.9026
 134  754.051
 135  339.5814
 136  237.1034
 137  56.60843
 138  -47.47522
 139  124.9816
 140  409.8376
 141  725.2921
 142  450.782
 143  407.3934
 144  292.7013
 145  70.2503
 146  -8.938771
 147  168.4304
 148  294.2082
 149  497.9917
 150  401.4344
 151  114.7746
 152  -88.17444
 153  60.25306
 154  185.0777
 155  -81.77004
 156  -45.56487
 157  91.33839
 158  486.9839
 159  293.4288
 160  243.4247
 161  78.04136
 162  -217.4485
 163  -337.4423
 164  -523.6921
 165  -46.27916
 166  552.5927
 167  599.3546
 168  451.0526
 169  219.0798
 170  111.8549
 171  19.59756
 172  -587.7405
 173  -386.9928
 174  246.3647
 175  259.6013
 176  261.0096
 177  72.6524
 178  201.4109
 179  -626.2623
 180  -506.011
 181  -501.2279
 182  -291.5068
 183  283.8667
 184  373.7344
 185  861.7877
 186  463.753
 187  252.9231
 188  694.5643
 189  908.4611
 190  870.9389
 191  1035.761
 192  731.6066
 193  176.6032
 194  -45.30216
 195  -345.7577
 196  -204.9373
 197  -57.78863
 198  -10.29529
 199  -209.5574
 200  89.99505
 201  577.4075
 202  453.6423
 203  353.0079
 204  315.078
 205  -60.20794
 206  -84.05925
 207  303.7985
 208  170.8138
 209  241.0521
 210  336.9453
 211  -192.709
 212  215.5948
 213  32.62008
 214  106.6148
 215  269.9891
 216  432.3387
 217  508.2569
 218  623.2898
 219  637.9323
 220  71.49094
 221  -540.8778
 222  -115.3336
 223  388.0661
 224  407.7148
 225  950.2198
 226  511.6937
 227  267.2386
 228  226.2872
 229  -160.912
 230  -197.7336
 231  -106.4448
 232  342.7429
 233  384.474
 234  619.6184
 235  498.1053
 236  -135.5157
 237  -544.1361
 238  -549.8018
 239  -482.4953
 240  -403.7782
 241  -294.4143
 242  -135.745
 243  -375.1922
 244  -528.7546
 245  -472.8472
 246  -579.9389
 247  -817.2191
 248  -670.8735
 249  39.35541
 250  9.715175
 251  40.46005
 252  148.3977
 253  -138.0932
 254  -273.8653
 255  -447.8018
 256  -370.9219
 257  -59.7921
 258  -92.21088
 259  40.35442
 260  -107.7899
 261  -398.6273
 262  -1017.816
 263  -944.6306
 264  -447.2427
 265  -18.53363
 266  -119.993
 267  249.8936
 268  481.8708
 269  33.69244
 270  -442.5301
 271  -500.8982
 272  -318.9025
 273  -234.0272
 274  327.5266
 275  -64.61354
 276  -29.58161
 277  -228.2811
 278  -275.1115
 279  -227.181
 280  24.51262
 281  330.3942
 282  281.692
 283  166.4062
 284  -80.20449
 285  56.94727
 286  408.2282
 287  263.6334
 288  359.7301
 289  341.6675
 290  420.2639
 291  59.316
 292  179.058
 293  359.864
 294  205.2884
 295  -27.27285
 296  144.2965
 297  141.3136
 298  55.83373
 299  124.3983
 300  131.287
 301  198.9231
 302  -167.5238
 303  -29.72586
 304  -360.636
 305  -382.0984
 306  -113.4514
 307  -458.8723
 308  -28.51358
 309  82.59772
 310  200.1807
 311  -6.229502
 312  -437.4931
 313  -663.0065
 314  -551.717
 315  -329.346
 316  58.53838
 317  95.82651
 318  -56.95355
 319  -367.9089
 320  -336.0104
 321  -195.8073
 322  -14.75769
 323  116.6055
 324  -215.4834
 325  -619.3821
 326  -741.0593
 327  -556.3435
 328  -345.5898
 329  -125.7722
 330  381.0669
 331  354.7938
 332  -63.55666
 333  -108.9366
 334  -208.2527
 335  -119.1844
 336  -396.2042
 337  -773.163
 338  -765.132
 339  -389.0058
 340  -94.94347
 341  -144.6196
 342  -3.607208
 343  110.3336
 344  -155.4541
 345  -423.9032
 346  -869.0883
 347  -583.5888
 348  -143.1038
 349  -188.177
 350  -6.573116
 351  -86.48815
 352  149.7198
 353  -41.90179
 354  -149.324
 355  -26.55809
 356  192.0362
 357  353.4513
 358  74.68126
 359  -35.39397
 360  301.7388
 361  223.466
 362  167.0259
 363  349.517
 364  329.7352
 365  662.6926
 366  584.1957
 367  195.4091
 368  -105.2723
 369  42.82375
 370  -5.189743
 371  -457.1973
 372  267.2242
 373  69.0825
 374  -199.3365
 375  -156.6282
 376  -345.9421
 377  -231.2957
 378  -476.9363
 379  -479.0723
 380  -721.5814
 381  -595.9443
 382  -186.3158
 383  -335.404
 384  -133.8892
 385  184.4585
 386  -236.8711
 387  -309.2176
 388  -164.5841
 389  -80.23292
 390  -183.0397
 391  137.2446
 392  230.6683
 393  34.40841
 394  46.60538
 395  -130.2619
 396  -85.28134
 397  32.22749
 398  -143.0199
 399  82.60537
 400  47.31325
 401  -296.4522
 402  -531.5669
 403  -628.2411
 404  -157.8116
 405  17.14399
 406  -151.899
 407  137.304
 408  -512.6813
 409  -629.3274
 410  -460.6256
 411  -640.8003
 412  -247.6083
 413  -399.9712
 414  -185.319
 415  -225.6325
 416  315.2602
 417  -81.79166
 418  -733.2509
 419  -503.1286
 420  -926.4926
 421  -442.8786
 422  -516.4099
 423  -677.3427
 424  -475.9622
 425  -310.1273
 426  -182.6698
 427  -111.8019
 428  114.475
 429  221.6235
 430  -20.68614
 431  -196.6674
 432  24.7646
 433  30.4915
 434  417.5627
 435  199.6986
 436  209.845
 437  69.58157
 438  -114.0238
 439  -115.4232
 440  -370.8959
 441  -451.2541
 442  -181.6336
 443  125.3685
 444  213.7696
 445  -55.95749
 446  183.7097
 447  -91.05251
 448  -16.26979
 449  374.1472
 450  228.9717
 451  -81.72533
 452  -126.7349
 453  220.6203
 454  -131.8206
 455  -277.4239
 456  148.4596
 457  -74.14381
 458  -93.30971
 459  7.107697
 460  220.0116
 461  195.2518
 462  419.2353
 463  109.0818
 464  69.80984
 465  -61.20088
 466  -208.6592
 467  -261.0247
 468  -301.9096
 469  -371.4864
 470  -96.95753
 471  348.7735
 472  402.8608
 473  344.4889
 474  36.58397
 475  -125.9767
 476  -445.0329
 477  -810.9053
 478  -251.1687
 479  -392.5354
 480  -107.4049
 481  -100.5107
 482  69.29533
 483  273.7495
 484  -269.3409
 485  -322.7217
 486  -305.9973
 487  -499.3091
 488  20.68242
 489  260.0032
 490  430.4897
 491  478.6524
 492  240.5706
 493  110.9855
 494  -28.12664
 495  156.3289
 496  -4.452876
 497  44.27446
 498  29.77761
 499  -4.498785
 500  134.1974
 501  473.3135
 502  573.8418
 503  303.812
 504  346.4437
 505  316.7093
 506  210.3749
 507  375.9479
 508  641.4838
 509  674.071
 510  563.9969
 511  457.0468
