# Input file       =  1181614677.117078-PSRB0329-2ms-sampling-dd.dat
# Candidate        =  PSR_0332+5434
# Telescope        =  AR
# Epoch_topo       =  57920.096019873592
# Epoch_bary       =  N/A
# T_sample         =  0.002
# Data Folded      =  7208960
# Data Avg         =  9.36633819423505e-10
# Data StdDev      =  7.91884684786837 
# Profile Bins     =  512
# Profile Avg      =  0.100910127607553
# Profile StdDev   =  939.643840203259 
# Reduced chi-sqr  =  0.679
# Prob(Noise)      <  1   (~0.0 sigma)
# P_topo (ms)      =  714.502220797123  +/- 5.66e-05
# P'_topo (s/s)    =  -0                +/- 3.04e-11
# P''_topo (s/s^2) =  0                 +/- 1.37e-14
# P_bary (ms)      =  N/A
# P'_bary (s/s)    =  N/A
# P''_bary (s/s^2) =  N/A
# P_orb (s)        =  N/A
# asin(i)/c (s)    =  N/A
# eccentricity     =  N/A
# w (rad)          =  N/A
# T_peri           =  N/A
######################################################
   0  -201.093
   1  462.658
   2  200.4803
   3  230.6727
   4  143.8078
   5  -121.997
   6  -462.4923
   7  -180.9705
   8  -71.45455
   9  -370.5182
  10  -584.1087
  11  71.18623
  12  209.1233
  13  -23.90068
  14  -465.3093
  15  -691.7687
  16  -316.2967
  17  -437.5141
  18  -395.7778
  19  -530.1132
  20  -55.22958
  21  -474.8003
  22  -373.8726
  23  -409.4398
  24  -351.8493
  25  -463.4976
  26  319.85
  27  467.2464
  28  442.0414
  29  423.1574
  30  -196.9947
  31  -609.705
  32  -514.9846
  33  217.0708
  34  907.3412
  35  572.2236
  36  498.4749
  37  -107.9563
  38  -444.053
  39  -1093.161
  40  -671.5382
  41  268.8257
  42  244.5463
  43  237.4228
  44  -265.9431
  45  -227.4648
  46  -747.6616
  47  -629.0948
  48  -668.465
  49  -406.2907
  50  -209.4245
  51  -139.7741
  52  -189.0383
  53  -67.99818
  54  -56.30323
  55  -218.6308
  56  -413.3875
  57  -533.5638
  58  -200.4154
  59  -235.4289
  60  -106.188
  61  -275.8551
  62  -253.3757
  63  -112.6387
  64  -513.6184
  65  -472.1862
  66  -761.6086
  67  -117.8376
  68  134.4828
  69  351.3583
  70  884.1224
  71  1172.747
  72  593.383
  73  762.8566
  74  1392.16
  75  859.1058
  76  1004.823
  77  1571.989
  78  2066.242
  79  1352.02
  80  623.3839
  81  201.4028
  82  296.6799
  83  785.0085
  84  1027.431
  85  853.8506
  86  511.0554
  87  14.22092
  88  7.134432
  89  -236.6392
  90  -357.3965
  91  -110.9749
  92  36.02037
  93  -76.42834
  94  154.855
  95  -261.2359
  96  -324.6441
  97  -406.7328
  98  -211.2945
  99  -366.6178
 100  -117.8817
 101  -487.6232
 102  -98.41877
 103  -103.8692
 104  -316.8257
 105  -627.9813
 106  -1053.431
 107  -595.9417
 108  -334.7514
 109  -21.57265
 110  243.3835
 111  369.0275
 112  252.1854
 113  -366.9094
 114  -345.0435
 115  633.9542
 116  2023.209
 117  2654.094
 118  2385.25
 119  2246.409
 120  1538.762
 121  400.2147
 122  839.8647
 123  1386.952
 124  2105.574
 125  1858.768
 126  1089.141
 127  557.4852
 128  -112.2705
 129  -147.3023
 130  -319.9132
 131  -552.97
 132  -519.4105
 133  -3.180967
 134  52.47416
 135  -100.0965
 136  76.147
 137  -106.8576
 138  -594.2993
 139  -598.9555
 140  -508.4303
 141  -20.20371
 142  -142.2914
 143  33.5646
 144  392.9861
 145  -127.3027
 146  -513.7205
 147  -548.668
 148  118.2433
 149  885.1763
 150  860.869
 151  860.3182
 152  436.6174
 153  104.4703
 154  -96.89753
 155  11.16736
 156  1.973992
 157  -95.09238
 158  202.6677
 159  175.3235
 160  76.55444
 161  -24.21644
 162  -406.9953
 163  -963.05
 164  -884.914
 165  -375.6885
 166  -290.4107
 167  -38.88449
 168  243.4581
 169  135.8382
 170  91.25406
 171  348.9468
 172  379.4638
 173  570.241
 174  753.7852
 175  1114.519
 176  870.9342
 177  776.7621
 178  494.823
 179  -195.775
 180  -598.4694
 181  -399.6451
 182  -5.987514
 183  181.2894
 184  -27.11852
 185  450.4383
 186  385.6331
 187  -260.9368
 188  -565.9012
 189  -380.905
 190  108.467
 191  702.5064
 192  291.27
 193  -136.1427
 194  -95.77515
 195  -400.4222
 196  -222.8267
 197  -57.56527
 198  230.748
 199  217.1039
 200  277.9225
 201  154.7652
 202  -27.92338
 203  -19.62526
 204  -541.4578
 205  -262.1891
 206  -63.35487
 207  298.2936
 208  -124.2647
 209  -494.478
 210  -931.7615
 211  -764.5389
 212  -355.0797
 213  -90.2929
 214  102.8696
 215  -23.32465
 216  109.5129
 217  -451.6013
 218  -345.5128
 219  104.8098
 220  275.8849
 221  35.90057
 222  -214.8326
 223  7.907203
 224  111.7034
 225  310.9208
 226  10.7887
 227  -173.3229
 228  -777.9977
 229  -622.6417
 230  -747.1104
 231  -267.6263
 232  306.5297
 233  632.8718
 234  10.7958
 235  -703.1364
 236  -451.4183
 237  -796.6301
 238  -723.8308
 239  -476.2306
 240  -44.13163
 241  26.33079
 242  134.757
 243  166.0864
 244  199.9759
 245  -147.7192
 246  -677.8314
 247  -583.3085
 248  -48.34515
 249  522.6901
 250  273.6687
 251  -21.41845
 252  33.79304
 253  53.93291
 254  -154.2945
 255  -178.997
 256  67.30296
 257  311.7669
 258  509.5404
 259  399.3155
 260  -73.82785
 261  -186.2508
 262  -602.8763
 263  53.15768
 264  388.7193
 265  485.8228
 266  479.4288
 267  304.8134
 268  30.19406
 269  -255.6653
 270  -441.6984
 271  -878.356
 272  -610.302
 273  -165.8373
 274  -183.8445
 275  -751.6664
 276  -882.5806
 277  -635.563
 278  -435.6161
 279  -534.2688
 280  -179.8217
 281  -170.5276
 282  -320.4539
 283  -771.608
 284  -1044.295
 285  -393.468
 286  -329.8245
 287  -264.3665
 288  -181.7113
 289  -219.2507
 290  -472.5715
 291  -506.4857
 292  -454.7191
 293  -642.0808
 294  -885.1015
 295  -952.6182
 296  -511.3972
 297  -529.5708
 298  -221.0938
 299  -53.03389
 300  49.755
 301  58.65014
 302  -378.649
 303  -525.8049
 304  -755.577
 305  -594.6865
 306  -410.4717
 307  -22.885
 308  -623.4127
 309  -827.4427
 310  -1069.022
 311  -1000.243
 312  -742.9377
 313  -530.9775
 314  218.1979
 315  35.89259
 316  411.9749
 317  -518.0948
 318  -384.5272
 319  -675.9275
 320  -1167.457
 321  -655.7488
 322  -313.6774
 323  225.1712
 324  135.0417
 325  336.1559
 326  88.603
 327  -237.0554
 328  -402.4897
 329  -363.9565
 330  -13.48263
 331  542.719
 332  1057.825
 333  989.4227
 334  722.4891
 335  217.1945
 336  -90.13008
 337  -478.6656
 338  -53.52205
 339  274.3409
 340  -245.9142
 341  91.8559
 342  -202.5431
 343  -159.6341
 344  -432.3409
 345  -585.9935
 346  -262.6721
 347  103.9003
 348  1723.559
 349  1815.089
 350  1653.62
 351  2014.542
 352  715.6788
 353  -343.0797
 354  276.5155
 355  1501.911
 356  1989.762
 357  1551.656
 358  685.2511
 359  -77.48524
 360  -476.9005
 361  -378.2579
 362  -435.4435
 363  -182.1077
 364  -310.2884
 365  -225.0662
 366  -157.5199
 367  23.74031
 368  -72.79049
 369  -459.6472
 370  -412.8835
 371  -191.0036
 372  -38.39637
 373  -261.2565
 374  52.58558
 375  -231.3035
 376  -226.664
 377  -187.2319
 378  -502.106
 379  -489.5144
 380  -389.3824
 381  356.7805
 382  -361.2509
 383  -120.4139
 384  -305.8952
 385  -424.1763
 386  -143.3312
 387  -149.5756
 388  47.6471
 389  -370.7903
 390  29.02322
 391  -129.7132
 392  17.12606
 393  -310.957
 394  -626.7444
 395  -591.2761
 396  -41.66984
 397  604.7919
 398  640.7857
 399  455.0574
 400  -143.0838
 401  -252.2373
 402  -279.3307
 403  -59.31249
 404  -52.99605
 405  458.7377
 406  405.9931
 407  199.0593
 408  203.4982
 409  -162.3702
 410  -262.2274
 411  -680.2895
 412  -218.6255
 413  296.1318
 414  901.5032
 415  854.4484
 416  189.2323
 417  50.87003
 418  -481.3185
 419  -803.2007
 420  -318.1155
 421  -276.7821
 422  233.2624
 423  584.3955
 424  438.9441
 425  294.61
 426  -260.3233
 427  -436.7782
 428  -519.9257
 429  14.01505
 430  448.8356
 431  655.8129
 432  566.3017
 433  163.8069
 434  203.9808
 435  119.151
 436  -130.605
 437  138.3312
 438  260.4377
 439  -355.5275
 440  -402.1368
 441  102.0183
 442  -121.3478
 443  -283.5679
 444  -160.4664
 445  -259.9916
 446  -163.4649
 447  -40.13293
 448  -61.46064
 449  -114.3102
 450  167.077
 451  -430.0425
 452  -560.1719
 453  -364.0076
 454  -22.72055
 455  185.4779
 456  171.713
 457  639.2022
 458  471.4724
 459  126.8169
 460  -481.036
 461  -277.4131
 462  -118.8731
 463  255.5855
 464  435.3629
 465  812.5345
 466  1102.169
 467  301.3139
 468  -138.4798
 469  52.86175
 470  160.7701
 471  606.6235
 472  777.8623
 473  260.4347
 474  241.6447
 475  -164.7765
 476  -455.8057
 477  -310.5794
 478  228.1486
 479  839.5977
 480  386.9545
 481  758.3162
 482  302.4705
 483  134.6338
 484  -33.23788
 485  -142.9626
 486  207.2786
 487  262.2817
 488  521.2797
 489  413.5264
 490  168.0617
 491  -69.47073
 492  -454.043
 493  -640.1683
 494  -456.0978
 495  -67.25521
 496  284.5664
 497  483.8418
 498  149.4425
 499  -20.51547
 500  -391.0747
 501  -296.8622
 502  -788.6257
 503  -461.3707
 504  -144.5583
 505  319.3883
 506  383.4357
 507  294.0117
 508  -75.42632
 509  -555.2379
 510  -621.4106
 511  -392.6304
