# Input file       =  1181026120.100374_cleaned.dat
# Candidate        =  PSR_0332+5434
# Telescope        =  AR
# Epoch_topo       =  57913.284017365440
# Epoch_bary       =  N/A
# T_sample         =  0.002
# Data Folded      =  7340032
# Data Avg         =  0.0719422857426771
# Data StdDev      =  2.46968661378852 
# Profile Bins     =  256
# Profile Avg      =  2063.33138456061 
# Profile StdDev   =  418.187302166378 
# Reduced chi-sqr  =  1.353
# Prob(Noise)      <  0.000146   (~3.6 sigma)
# P_topo (ms)      =  714.508600988721  +/- 0.000464
# P'_topo (s/s)    =  -0                +/- 2.45e-10
# P''_topo (s/s^2) =  0                 +/- 1.08e-13
# P_bary (ms)      =  N/A
# P'_bary (s/s)    =  N/A
# P''_bary (s/s^2) =  N/A
# P_orb (s)        =  N/A
# asin(i)/c (s)    =  N/A
# eccentricity     =  N/A
# w (rad)          =  N/A
# T_peri           =  N/A
######################################################
   0  1512.258
   1  2321.156
   2  2597.259
   3  2412.214
   4  2145.463
   5  1445.808
   6  2456.459
   7  2246.681
   8  1726.99
   9  1570.414
  10  1596.691
  11  1637.237
  12  1732.976
  13  1712
  14  1903.878
  15  1472.645
  16  1532.852
  17  1331.689
  18  1961.57
  19  1978.146
  20  1205.704
  21  2129.474
  22  1617.521
  23  2301.569
  24  2596.368
  25  2308.177
  26  2708.122
  27  2747.184
  28  2325.133
  29  1596.315
  30  1660.481
  31  2162
  32  2536.359
  33  2360.483
  34  2102.276
  35  2365.546
  36  2089.38
  37  2090.889
  38  1905.798
  39  1889.729
  40  2277.951
  41  2078.769
  42  2012.944
  43  1839.083
  44  1384.399
  45  1939.921
  46  2086.111
  47  2288.657
  48  2171.301
  49  1981.818
  50  2261.278
  51  1963.355
  52  1902.889
  53  2235.274
  54  1918.274
  55  2152.695
  56  2094.35
  57  2250.918
  58  2337.382
  59  2300.431
  60  1979.605
  61  2224.08
  62  2188.459
  63  2372.512
  64  2511.407
  65  2418.971
  66  2511.263
  67  2478.896
  68  2438.666
  69  1496.135
  70  1651.645
  71  1923.082
  72  2274.439
  73  1965.641
  74  2410.242
  75  1972.29
  76  1607.316
  77  2343.168
  78  1807.202
  79  1499.997
  80  1164.269
  81  2122.797
  82  2193.954
  83  1805.953
  84  1528.062
  85  1778.724
  86  1883.45
  87  1947.459
  88  2160.303
  89  1545.204
  90  1605.053
  91  1946.341
  92  1749.351
  93  2153.249
  94  1586.655
  95  1899.89
  96  1374.646
  97  1936.926
  98  2753.031
  99  1885.863
 100  1818.379
 101  2095.13
 102  1734.912
 103  1944.231
 104  2615.357
 105  1847.51
 106  2023.536
 107  2127.167
 108  2475.417
 109  2359.291
 110  1336.918
 111  2191.043
 112  2006.182
 113  2134.774
 114  2337.601
 115  1690.728
 116  1846.841
 117  2539.476
 118  2600.457
 119  1993.237
 120  2273.008
 121  1953.574
 122  1889.128
 123  2281.128
 124  2196.389
 125  2368.231
 126  2524.801
 127  2751.338
 128  2235.348
 129  1948.774
 130  2652.427
 131  2382.986
 132  1871.561
 133  2412.232
 134  2565.834
 135  2329.333
 136  2132.06
 137  2028.447
 138  1951.782
 139  2038.651
 140  2657.699
 141  2264.387
 142  2772.664
 143  1854.245
 144  2230.451
 145  2391.656
 146  2290.941
 147  1769.625
 148  1721.516
 149  1416.411
 150  1979.809
 151  2175.045
 152  1883.93
 153  2606.06
 154  2465.948
 155  2255.573
 156  2329.911
 157  1979.773
 158  2010.703
 159  2372.597
 160  3310.434
 161  2635.698
 162  3004.248
 163  3914.672
 164  4383.471
 165  2759.984
 166  2799.054
 167  2331.975
 168  1641.658
 169  1502.057
 170  1918.895
 171  1874.51
 172  2297.833
 173  1904.602
 174  2141.153
 175  2246.987
 176  1956.569
 177  1692.162
 178  1757.927
 179  1208.909
 180  1576.801
 181  1607.64
 182  1382.996
 183  1434.219
 184  1370.617
 185  1673.393
 186  1884.219
 187  1682.856
 188  1478.098
 189  1976.533
 190  1637.535
 191  1772.554
 192  2251.416
 193  2398.728
 194  1126.48
 195  2041.598
 196  2064.507
 197  2224.729
 198  1710.723
 199  1921.974
 200  1389.861
 201  1890.933
 202  1606.944
 203  1837.351
 204  1860.277
 205  1826.068
 206  1321.905
 207  1875.908
 208  1888.476
 209  1892.42
 210  2024.633
 211  1938.664
 212  1524.635
 213  1583.574
 214  1725.004
 215  1587.719
 216  2032.342
 217  2640.701
 218  2234.551
 219  2722.127
 220  2223.279
 221  2400.096
 222  2524.252
 223  2429.541
 224  2358.98
 225  2070.56
 226  1949.493
 227  2588.877
 228  2508.742
 229  2138.422
 230  1958.938
 231  2128.831
 232  2306.44
 233  2543.589
 234  2291.189
 235  2539.828
 236  2373.116
 237  2447.421
 238  2305.351
 239  1340.6
 240  1476.377
 241  2015.176
 242  1960.446
 243  1357.158
 244  2493.549
 245  2175.281
 246  1786.969
 247  2283.889
 248  1769.317
 249  1958.503
 250  1993.101
 251  2231.277
 252  2531.797
 253  2222.446
 254  2487.192
 255  1637.241
