# Input file       =  1181356138.126529_cleaned.dat
# Candidate        =  PSR_0332+5434
# Telescope        =  AR
# Epoch_topo       =  57917.103670445940
# Epoch_bary       =  N/A
# T_sample         =  0.002
# Data Folded      =  7208960
# Data Avg         =  0.029673922532865
# Data StdDev      =  1.00001671372656 
# Profile Bins     =  512
# Profile Avg      =  417.790687751563 
# Profile StdDev   =  118.661159030548 
# Reduced chi-sqr  =  0.888
# Prob(Noise)      <  0.968   (~0.0 sigma)
# P_topo (ms)      =  714.504995879123  +/- 0.000262
# P'_topo (s/s)    =  -0                +/- 1.41e-10
# P''_topo (s/s^2) =  0                 +/- 6.33e-14
# P_bary (ms)      =  N/A
# P'_bary (s/s)    =  N/A
# P''_bary (s/s^2) =  N/A
# P_orb (s)        =  N/A
# asin(i)/c (s)    =  N/A
# eccentricity     =  N/A
# w (rad)          =  N/A
# T_peri           =  N/A
######################################################
   0  371.6311
   1  327.0886
   2  198.7773
   3  278.3529
   4  371.066
   5  365.0069
   6  327.1843
   7  385.8192
   8  314.2023
   9  361.6122
  10  308.9456
  11  217.4379
  12  390.2084
  13  284.1479
  14  321.9395
  15  386.0115
  16  396.2321
  17  376.3788
  18  339.7206
  19  375.8813
  20  501.3778
  21  365.5801
  22  376.9371
  23  482.8435
  24  364.452
  25  438.7552
  26  388.7077
  27  348.9536
  28  478.1028
  29  522.2869
  30  443.6367
  31  495.1815
  32  457.9333
  33  402.1397
  34  454.1935
  35  424.0872
  36  336.9171
  37  428.9549
  38  412.1931
  39  475.5297
  40  396.631
  41  394.3128
  42  356.8039
  43  353.448
  44  486.9732
  45  493.3781
  46  441.3391
  47  508.2693
  48  342.5042
  49  354.964
  50  469.8208
  51  423.8755
  52  452.5712
  53  439.2404
  54  488.8157
  55  470.851
  56  430.5228
  57  510.8667
  58  387.8908
  59  473.7255
  60  512.1168
  61  439.1181
  62  400.629
  63  354.1852
  64  403.6169
  65  440.0881
  66  277.9609
  67  257.6459
  68  358.7822
  69  440.391
  70  389.8339
  71  440.0561
  72  426.2901
  73  352.4271
  74  351.5515
  75  426.6894
  76  419.1807
  77  520.0403
  78  494.6978
  79  450.5408
  80  411.1353
  81  295.2488
  82  291.2085
  83  348.5038
  84  441.5783
  85  428.4367
  86  417.8157
  87  442.1637
  88  524.0261
  89  484.8653
  90  538.7488
  91  400.9197
  92  454.5611
  93  600.964
  94  533.4246
  95  565.566
  96  585.2642
  97  509.1243
  98  392.8889
  99  444.4714
 100  487.9806
 101  498.1296
 102  484.0946
 103  507.076
 104  455.1554
 105  358.9542
 106  376.528
 107  453.3356
 108  480.1946
 109  573.5355
 110  504.9478
 111  459.9504
 112  519.5205
 113  422.4437
 114  516.5244
 115  389.4426
 116  369.7543
 117  362.0965
 118  411.2174
 119  386.7355
 120  359.9608
 121  398.4707
 122  565.97
 123  487.2992
 124  468.1889
 125  415.4954
 126  313.7475
 127  434.1839
 128  497.5432
 129  564.9861
 130  561.4616
 131  503.5215
 132  479.1322
 133  392.8388
 134  382.561
 135  436.0733
 136  474.2917
 137  420.5833
 138  410.204
 139  386.1224
 140  367.6511
 141  464.2189
 142  453.2488
 143  444.9067
 144  365.0273
 145  407.7856
 146  497.5226
 147  522.4183
 148  347.7313
 149  379.7516
 150  436.7041
 151  519.6083
 152  476.2395
 153  481.1277
 154  357.8389
 155  388.5271
 156  437.9125
 157  402.3868
 158  330.3217
 159  416.3801
 160  411.7579
 161  351.3126
 162  446.6219
 163  417.1381
 164  295.4375
 165  436.4087
 166  426.0165
 167  317.179
 168  354.8813
 169  536.4557
 170  545.5106
 171  519.3317
 172  447.9142
 173  319.9108
 174  344.2007
 175  335.9172
 176  386.9611
 177  361.352
 178  378.5314
 179  393.502
 180  519.157
 181  424.9779
 182  413.3394
 183  544.8641
 184  621.4974
 185  570.6751
 186  439.4587
 187  335.8988
 188  336.764
 189  389.8123
 190  285.2854
 191  345.581
 192  391.7052
 193  384.6408
 194  429.6972
 195  511.9833
 196  672.0569
 197  801.6565
 198  781.7379
 199  854.0191
 200  798.2188
 201  728.9446
 202  523.3267
 203  465.0552
 204  541.3974
 205  477.6398
 206  494.2741
 207  527.9901
 208  454.3416
 209  424.3825
 210  449.236
 211  322.7171
 212  355.5242
 213  439.5473
 214  502.5048
 215  510.8442
 216  494.8742
 217  417.5484
 218  470.8023
 219  361.8144
 220  342.9588
 221  314.2781
 222  356.4503
 223  370.95
 224  456.7225
 225  492.8076
 226  365.6859
 227  282.1185
 228  282.6927
 229  335.4385
 230  429.5401
 231  511.4684
 232  406.0876
 233  392.7841
 234  377.0117
 235  352.6863
 236  419.5759
 237  478.7606
 238  419.1423
 239  413.6392
 240  331.7699
 241  360.2319
 242  468.6128
 243  399.7892
 244  396.4
 245  386.3126
 246  378.2895
 247  350.5988
 248  302.5239
 249  466.6525
 250  432.6073
 251  479.338
 252  503.8853
 253  366.8146
 254  322.7042
 255  362.8675
 256  410.3139
 257  491.912
 258  510.1782
 259  487.4107
 260  440.9894
 261  459.0457
 262  414.7597
 263  410.1163
 264  348.305
 265  328.2243
 266  343.0798
 267  463.9656
 268  571.4826
 269  515.9894
 270  422.1348
 271  432.9791
 272  338.3091
 273  391.2545
 274  388.756
 275  375.1307
 276  309.5325
 277  424.82
 278  388.0733
 279  488.7495
 280  341.6535
 281  435.2627
 282  577.2148
 283  494.7568
 284  574.4124
 285  513.7819
 286  457.2579
 287  403.5512
 288  408.0041
 289  440.778
 290  374.756
 291  361.9853
 292  389.9646
 293  474.289
 294  474.572
 295  465.1918
 296  469.755
 297  381.7362
 298  409.0202
 299  448.9293
 300  396.068
 301  312.658
 302  382.4731
 303  558.8051
 304  468.391
 305  442.0622
 306  351.3815
 307  369.0237
 308  397.9937
 309  404.1784
 310  399.5658
 311  450.1584
 312  387.6659
 313  351.57
 314  341.1945
 315  330.3367
 316  417.7471
 317  509.0955
 318  505.4243
 319  542.3154
 320  403.0515
 321  390.1435
 322  335.0486
 323  359.6408
 324  381.0636
 325  435.2496
 326  509.0912
 327  488.1934
 328  450.6418
 329  538.8652
 330  448.555
 331  514.5021
 332  526.7817
 333  509.0853
 334  453.7929
 335  481.2553
 336  440.2246
 337  464.8785
 338  405.2108
 339  273.6019
 340  372.927
 341  362.7768
 342  402.7772
 343  370.1343
 344  464.6588
 345  413.1638
 346  414.7018
 347  509.289
 348  481.1996
 349  381.2146
 350  435.9902
 351  526.6738
 352  457.8888
 353  427.5468
 354  474.4356
 355  395.165
 356  415.4644
 357  500.4029
 358  417.0988
 359  270.558
 360  326.9427
 361  358.9462
 362  413.0138
 363  264.8354
 364  353.7655
 365  477.1168
 366  370.2853
 367  291.1685
 368  392.3426
 369  323.0829
 370  345.2929
 371  292.4398
 372  290.0916
 373  284.4677
 374  384.9427
 375  428.3272
 376  420.8498
 377  437.2595
 378  310.5922
 379  313.303
 380  447.0515
 381  502.2991
 382  483.567
 383  450.7433
 384  472.3174
 385  350.5414
 386  330.9099
 387  388.4784
 388  415.4854
 389  342.2368
 390  370.6375
 391  343.1223
 392  413.1492
 393  299.9271
 394  373.1791
 395  393.5634
 396  431.1186
 397  348.3789
 398  281.5592
 399  347.4103
 400  367.6566
 401  365.8227
 402  432.5424
 403  481.2291
 404  438.2238
 405  447.3369
 406  451.9822
 407  434.951
 408  300.9693
 409  313.6998
 410  299.7739
 411  340.6951
 412  376.1207
 413  382.4206
 414  393.6319
 415  380.7077
 416  345.2613
 417  399.7993
 418  423.9679
 419  437.9
 420  338.5481
 421  353.1306
 422  326.0184
 423  410.8461
 424  399.6987
 425  346.6633
 426  450.4855
 427  395.3125
 428  400.3014
 429  408.8957
 430  333.509
 431  339.1476
 432  299.2596
 433  397.2704
 434  511.0382
 435  533.6716
 436  484.6586
 437  367.0674
 438  272.3259
 439  330.8519
 440  321.9727
 441  453.629
 442  373.1741
 443  281.8779
 444  292.6139
 445  312.4391
 446  310.7945
 447  312.8689
 448  387.192
 449  329.1401
 450  358.9175
 451  430.907
 452  373.137
 453  441.3557
 454  388.8866
 455  532.3358
 456  645.8234
 457  486.3464
 458  391.4834
 459  363.0979
 460  385.511
 461  391.6471
 462  364.505
 463  339.8096
 464  474.5374
 465  456.8861
 466  438.4556
 467  360.1872
 468  456.4668
 469  490.9965
 470  418.1511
 471  416.3401
 472  480.1068
 473  404.1925
 474  424.2148
 475  425.1547
 476  494.9322
 477  467.3813
 478  387.5317
 479  343.7034
 480  397.8986
 481  375.4471
 482  313.1233
 483  334.361
 484  449.6617
 485  531.6771
 486  496.7137
 487  444.7717
 488  298.6122
 489  427.5266
 490  483.1698
 491  526.819
 492  458.5171
 493  405.6966
 494  365.2613
 495  277.4535
 496  429.587
 497  495.9753
 498  345.9299
 499  358.5895
 500  496.4718
 501  459.8867
 502  434.2657
 503  463.1356
 504  428.9564
 505  455.8654
 506  409.1193
 507  310.817
 508  283.2737
 509  338.8659
 510  330.33
 511  360.9176
