# Input file       =  1181644201.115532-PSRB0329-2ms-sampling-dd.dat
# Candidate        =  PSR_0332+5434
# Telescope        =  AR
# Epoch_topo       =  57920.437732818653
# Epoch_bary       =  N/A
# T_sample         =  0.002
# Data Folded      =  7340032
# Data Avg         =  -7.28567162661445e-10
# Data StdDev      =  8.0889769832033  
# Profile Bins     =  512
# Profile Avg      =  0.707962102365334
# Profile StdDev   =  968.517775380704 
# Reduced chi-sqr  =  0.617
# Prob(Noise)      <  1   (~0.0 sigma)
# P_topo (ms)      =  714.502251257085  +/- 0.000756
# P'_topo (s/s)    =  -0                +/- 3.99e-10
# P''_topo (s/s^2) =  0                 +/- 1.76e-13
# P_bary (ms)      =  N/A
# P'_bary (s/s)    =  N/A
# P''_bary (s/s^2) =  N/A
# P_orb (s)        =  N/A
# asin(i)/c (s)    =  N/A
# eccentricity     =  N/A
# w (rad)          =  N/A
# T_peri           =  N/A
######################################################
   0  290.2013
   1  -43.14023
   2  -45.4122
   3  -679.0394
   4  -913.9843
   5  -740.8966
   6  221.0002
   7  307.8576
   8  -117.7649
   9  -211.1482
  10  -152.957
  11  -513.9739
  12  -616.9337
  13  -910.9057
  14  -554.4996
  15  -582.4828
  16  -90.82224
  17  -20.72293
  18  -476.5921
  19  -516.8352
  20  -115.332
  21  -158.8864
  22  -0.2087729
  23  -586.4871
  24  -840.8721
  25  -852.5836
  26  -358.6581
  27  -193.8357
  28  -488.4674
  29  -640.8113
  30  -603.7007
  31  -798.0196
  32  -630.9307
  33  -475.8875
  34  89.91797
  35  -115.3815
  36  -371.2397
  37  -432.498
  38  -851.5298
  39  -495.7342
  40  -332.4774
  41  -473.5704
  42  -554.1172
  43  -565.2742
  44  -107.2069
  45  -49.76021
  46  -72.31713
  47  -152.4149
  48  -82.04567
  49  74.46819
  50  113.9284
  51  338.7284
  52  237.2256
  53  422.7273
  54  715.2401
  55  525.278
  56  514.2343
  57  67.62346
  58  71.91628
  59  106.3235
  60  -74.08456
  61  -135.848
  62  -585.7375
  63  -523.3244
  64  -162.7727
  65  -603.632
  66  -520.7933
  67  -187.7832
  68  130.0976
  69  280.5322
  70  325.1552
  71  -65.85345
  72  -81.27142
  73  375.3901
  74  588.4645
  75  278.8223
  76  113.0414
  77  -293.4964
  78  -470.1041
  79  -424.3741
  80  -429.0889
  81  -663.3597
  82  -295.9833
  83  252.0764
  84  -82.54727
  85  -781.035
  86  -909.8074
  87  -486.5992
  88  -665.6814
  89  -882.4621
  90  -737.1447
  91  -732.8784
  92  -835.5468
  93  -368.2044
  94  -585.4471
  95  -703.4292
  96  -588.2435
  97  -800.5516
  98  -744.1839
  99  -513.322
 100  -60.30725
 101  -58.66876
 102  -310.5263
 103  -233.5218
 104  -285.1335
 105  -399.7779
 106  81.38195
 107  205.2489
 108  260.3145
 109  229.6501
 110  -38.09451
 111  78.68829
 112  52.41642
 113  278.7397
 114  51.81602
 115  102.2112
 116  563.8351
 117  477.5665
 118  475.7442
 119  -48.51369
 120  138.8442
 121  -186.7913
 122  -214.5083
 123  59.74134
 124  61.63361
 125  492.0944
 126  210.9554
 127  68.50241
 128  11.51743
 129  549.3023
 130  476.5637
 131  749.5928
 132  1064.297
 133  1466.156
 134  1602.51
 135  1262.448
 136  1125.728
 137  1156.818
 138  739.3818
 139  730.9811
 140  596.2875
 141  708.0019
 142  701.1618
 143  417.4559
 144  383.2802
 145  983.7085
 146  825.8948
 147  940.1508
 148  440.4275
 149  148.8237
 150  390.0695
 151  206.3323
 152  231.7239
 153  47.82256
 154  176.869
 155  -71.03296
 156  -48.23246
 157  293.0247
 158  32.6292
 159  -37.89236
 160  -589.9188
 161  -590.7363
 162  -135.3596
 163  61.67207
 164  -43.16072
 165  -383.2733
 166  -539.4152
 167  -525.6622
 168  -492.2056
 169  -282.1936
 170  -385.4474
 171  -522.3295
 172  -349.8042
 173  -412.2299
 174  -828.2329
 175  -1050.247
 176  -848.2295
 177  -617.3344
 178  -672.319
 179  57.81324
 180  -568.2955
 181  -721.6739
 182  -250.823
 183  -199.6386
 184  -256.1111
 185  -538.6684
 186  -324.767
 187  69.45885
 188  309.2818
 189  242.6263
 190  511.4085
 191  639.1105
 192  358.0081
 193  334.1919
 194  415.0651
 195  -167.9807
 196  -211.452
 197  -169.8195
 198  388.1674
 199  531.8006
 200  -63.26852
 201  -64.06727
 202  -211.617
 203  -277.7524
 204  -472.8336
 205  -521.5652
 206  5.389475
 207  -136.8704
 208  114.8428
 209  145.116
 210  -29.93144
 211  -299.5447
 212  -232.1059
 213  -174.5275
 214  79.34508
 215  296.432
 216  592.2975
 217  184.4939
 218  266.8102
 219  232.1903
 220  79.40481
 221  35.9996
 222  26.55676
 223  -195.0155
 224  -153.2494
 225  -307.344
 226  -16.35279
 227  36.66962
 228  -141.3841
 229  -37.67568
 230  220.4315
 231  413.6494
 232  33.0135
 233  217.8675
 234  -231.8313
 235  -599.9815
 236  -93.27333
 237  -111.7791
 238  476.7757
 239  715.9362
 240  572.2609
 241  603.1751
 242  225.2067
 243  -155.3193
 244  -108.7781
 245  136.0715
 246  529.6794
 247  887.2158
 248  1050.904
 249  1582.519
 250  1397.098
 251  1634.85
 252  1133.754
 253  677.9903
 254  511.251
 255  1157.725
 256  1287.49
 257  1242.909
 258  1574.63
 259  1192.76
 260  1030.072
 261  978.308
 262  680.8242
 263  670.54
 264  473.735
 265  967.2401
 266  1198.092
 267  914.8754
 268  1142.348
 269  1460.526
 270  858.6259
 271  585.0199
 272  153.0133
 273  202.6239
 274  253.9228
 275  607.5507
 276  25.5599
 277  -197.1016
 278  17.3136
 279  -204.7142
 280  -318.3647
 281  64.42331
 282  208.807
 283  -39.66044
 284  -5.743695
 285  -200.7917
 286  -477.2175
 287  -524.2209
 288  -239.9922
 289  -18.02418
 290  30.79132
 291  -87.6036
 292  -173.5402
 293  -382.2158
 294  -510.3501
 295  -530.1075
 296  -269.2309
 297  -375.7519
 298  -332.3943
 299  -249.7049
 300  -242.9831
 301  -686.576
 302  -527.5851
 303  -122.2325
 304  -234.0044
 305  79.24232
 306  5.553592
 307  -399.7566
 308  -339.9998
 309  -310.2918
 310  -251.6767
 311  -506.2609
 312  -137.9761
 313  -105.6507
 314  66.16839
 315  81.61794
 316  204.2665
 317  218.7458
 318  -125.7817
 319  219.7092
 320  -274.864
 321  -225.5235
 322  138.6676
 323  87.69881
 324  -83.60999
 325  -177.4469
 326  -19.39025
 327  351.5015
 328  -215.3384
 329  -247.2334
 330  21.1933
 331  654.1477
 332  779.8278
 333  175.3443
 334  -128.9861
 335  -318.1089
 336  -254.7276
 337  -194.5898
 338  -125.8006
 339  -42.44512
 340  5.588735
 341  133.7033
 342  -98.22815
 343  -346.9044
 344  -246.4555
 345  -321.5374
 346  -48.6878
 347  51.06726
 348  97.53804
 349  253.7675
 350  531.0573
 351  490.734
 352  122.3649
 353  -179.1793
 354  411.9832
 355  812.6631
 356  1051.752
 357  795.5767
 358  1109.934
 359  706.6166
 360  646.892
 361  840.1703
 362  629.4462
 363  465.5785
 364  640.7719
 365  881.3162
 366  662.3297
 367  307.818
 368  389.3001
 369  903.1537
 370  1009.021
 371  639.9402
 372  562.2352
 373  945.2171
 374  842.3027
 375  437.4079
 376  355.3672
 377  192.0063
 378  -95.26246
 379  -184.8939
 380  -125.2754
 381  -436.1683
 382  -281.9502
 383  -229.0174
 384  24.33723
 385  148.1264
 386  -339.4804
 387  -730.4982
 388  -486.805
 389  38.83017
 390  -50.95304
 391  -126.7238
 392  -141.2358
 393  -342.2533
 394  -330.7784
 395  -270.4617
 396  -197.2643
 397  -261.4796
 398  -294.5389
 399  -148.5592
 400  -413.3271
 401  -592.1281
 402  -108.3867
 403  -195.0058
 404  -114.4254
 405  287.8239
 406  668.886
 407  457.0849
 408  302.6014
 409  109.0052
 410  -228.0353
 411  87.3867
 412  -16.43926
 413  197.503
 414  1173.223
 415  2339.576
 416  2132.699
 417  1704.599
 418  515.9819
 419  -283.3215
 420  34.48699
 421  926.8216
 422  762.8146
 423  1060.784
 424  1283.856
 425  -140.9417
 426  -667.4966
 427  -721.6036
 428  -856.3341
 429  -652.841
 430  -219.6088
 431  -183.3333
 432  -321.5076
 433  -421.5442
 434  -565.8869
 435  -469.1079
 436  -99.23703
 437  -437.8044
 438  -308.3042
 439  -294.3344
 440  -270.8633
 441  -189.9908
 442  266.3463
 443  355.6854
 444  -46.40415
 445  -151.1103
 446  234.3376
 447  -47.58101
 448  21.8585
 449  298.4665
 450  -66.71369
 451  -106.615
 452  -182.6227
 453  -183.7139
 454  -275.8842
 455  31.95083
 456  103.3342
 457  -36.44094
 458  532.1104
 459  17.26664
 460  173.8652
 461  224.1735
 462  32.64089
 463  1.455434
 464  -255.7604
 465  -507.7231
 466  -127.6518
 467  -392.0642
 468  -502.2859
 469  1053.53
 470  1345.174
 471  1015.536
 472  -195.24
 473  536.9064
 474  105.1073
 475  -499.2871
 476  -364.8215
 477  -342.4744
 478  -528.1731
 479  -105.3877
 480  -542.9485
 481  -1136.536
 482  -974.2943
 483  -699.7712
 484  -641.4238
 485  -869.5321
 486  -858.8527
 487  -924.4158
 488  -935.1403
 489  -849.0338
 490  -330.2202
 491  -291.8045
 492  -800.1794
 493  -792.8109
 494  -683.8702
 495  -696.4117
 496  -1167.971
 497  -732.506
 498  -536.054
 499  -921.5914
 500  -839.989
 501  -1144.217
 502  -874.7518
 503  -1212.309
 504  -816.3998
 505  -449.7292
 506  -614.962
 507  -519.8699
 508  -426.716
 509  -261.9479
 510  -358.6029
 511  120.0142
