# Input file       =  1181183852.10865_cleaned.dat
# Candidate        =  PSR_0332+5434
# Telescope        =  AR
# Epoch_topo       =  57915.109619313080
# Epoch_bary       =  N/A
# T_sample         =  0.002
# Data Folded      =  7143424
# Data Avg         =  0.0286019501727496
# Data StdDev      =  1.00005592969384 
# Profile Bins     =  512
# Profile Avg      =  399.073320010326 
# Profile StdDev   =  118.125190818134 
# Reduced chi-sqr  =  0.979
# Prob(Noise)      <  0.625   (~0.0 sigma)
# P_topo (ms)      =  714.506864863411  +/- 0.000384
# P'_topo (s/s)    =  -0                +/- 2.08e-10
# P''_topo (s/s^2) =  0                 +/- 9.45e-14
# P_bary (ms)      =  N/A
# P'_bary (s/s)    =  N/A
# P''_bary (s/s^2) =  N/A
# P_orb (s)        =  N/A
# asin(i)/c (s)    =  N/A
# eccentricity     =  N/A
# w (rad)          =  N/A
# T_peri           =  N/A
######################################################
   0  229.0562
   1  338.9266
   2  388.012
   3  424.326
   4  498.7709
   5  463.6724
   6  435.311
   7  455.4691
   8  589.8774
   9  571.2175
  10  388.935
  11  473.4497
  12  402.6511
  13  510.7294
  14  439.5705
  15  304.0176
  16  314.2933
  17  432.5504
  18  510.315
  19  442.5779
  20  321.9149
  21  308.1055
  22  370.2782
  23  470.3512
  24  390.472
  25  507.5178
  26  441.4304
  27  428.2205
  28  389.7273
  29  423.9052
  30  407.2182
  31  328.6846
  32  334.8486
  33  307.4317
  34  409.1349
  35  424.4447
  36  413.7373
  37  346.26
  38  329.1027
  39  343.4784
  40  237.3138
  41  314.7485
  42  387.6069
  43  360.4398
  44  410.3771
  45  468.4906
  46  351.8921
  47  260.0561
  48  351.8742
  49  444.691
  50  284.6027
  51  276.3773
  52  414.7219
  53  480.4789
  54  525.8371
  55  373.5751
  56  363.3699
  57  415.6681
  58  390.6754
  59  343.1103
  60  332.3048
  61  337.1375
  62  361.2067
  63  439.9912
  64  504.2835
  65  430.7737
  66  375.0079
  67  364.3671
  68  434.6199
  69  415.7233
  70  395.1934
  71  259.9953
  72  346.223
  73  462.2003
  74  445.6517
  75  555.5325
  76  450.9789
  77  426.8854
  78  412.0658
  79  316.1873
  80  367.5599
  81  369.5849
  82  389.1842
  83  349.0121
  84  403.9834
  85  348.3876
  86  505.9741
  87  503.1162
  88  449.9477
  89  398.8814
  90  378.1815
  91  338.0589
  92  276.2818
  93  332.869
  94  356.9111
  95  361.4964
  96  251.211
  97  261.0465
  98  263.5304
  99  341.3854
 100  510.2559
 101  405.8766
 102  335.7642
 103  326.7252
 104  306.7062
 105  298.6425
 106  352.0771
 107  404.0141
 108  489.0656
 109  417.0563
 110  248.9008
 111  208.2693
 112  141.7797
 113  284.6099
 114  447.4721
 115  397.7882
 116  397.9829
 117  249.3039
 118  376.5876
 119  388.4715
 120  365.4131
 121  365.0244
 122  353.6356
 123  390.7315
 124  306.5282
 125  378.2188
 126  362.8837
 127  425.8275
 128  371.024
 129  369.1629
 130  372.4901
 131  424.3096
 132  383.9494
 133  472.8662
 134  560.3049
 135  451.4766
 136  354.9132
 137  333.0323
 138  349.9706
 139  380.3915
 140  418.761
 141  485.5737
 142  453.3296
 143  403.6608
 144  447.6202
 145  405.8684
 146  481.1787
 147  456.2324
 148  454.0399
 149  440.7413
 150  333.2238
 151  231.4774
 152  265.4825
 153  396.4617
 154  457.4612
 155  350.3843
 156  343.4384
 157  457.1462
 158  440.6582
 159  356.8828
 160  373.9586
 161  392.2025
 162  397.6514
 163  298.918
 164  209.4895
 165  376.9661
 166  546.4919
 167  505.6137
 168  401.2241
 169  360.3997
 170  347.7429
 171  378.0799
 172  272.4811
 173  304.9032
 174  453.1922
 175  434.0216
 176  373.514
 177  425.4337
 178  477.6206
 179  355.3623
 180  397.9977
 181  352.5598
 182  332.5244
 183  428.8554
 184  470.7896
 185  602.0767
 186  583.5829
 187  649.5297
 188  740.5743
 189  875.0826
 190  864.4355
 191  777.5764
 192  590.117
 193  502.8579
 194  544.7647
 195  490.1452
 196  482.8476
 197  466.9143
 198  450.289
 199  387.1125
 200  404.3376
 201  513.9377
 202  540.5211
 203  484.7449
 204  514.9207
 205  414.0514
 206  455.5203
 207  575.6757
 208  536.9484
 209  485.6938
 210  458.8314
 211  310.1747
 212  418.2745
 213  458.4596
 214  493.5705
 215  459.1472
 216  448.3817
 217  443.7603
 218  449.4507
 219  531.3558
 220  472.5423
 221  254.3706
 222  386.3157
 223  499.6433
 224  440.786
 225  496.8594
 226  394.185
 227  384.8129
 228  475.6745
 229  419.3576
 230  407.9403
 231  510.8558
 232  558.4399
 233  466.7862
 234  471.3548
 235  483.4738
 236  334.0793
 237  256.5677
 238  310.2439
 239  426.776
 240  384.4231
 241  301.17
 242  366.5688
 243  352.0938
 244  335.2459
 245  353.9507
 246  405.2068
 247  251.5447
 248  237.5826
 249  393.6447
 250  405.8962
 251  444.5257
 252  436.1212
 253  395.6468
 254  362.2657
 255  417.7556
 256  444.761
 257  479.5177
 258  451.3107
 259  425.4223
 260  392.5026
 261  338.8023
 262  258.8665
 263  272.311
 264  330.3998
 265  430.3002
 266  424.2801
 267  462.6339
 268  424.5527
 269  334.1184
 270  415.4982
 271  371.0175
 272  370.1572
 273  383.3261
 274  497.5913
 275  352.7695
 276  345.2005
 277  327.67
 278  314.6138
 279  267.9537
 280  368.6315
 281  508.1682
 282  477.352
 283  342.8497
 284  357.6387
 285  393.6497
 286  425.3277
 287  449.1487
 288  509.1037
 289  455.4457
 290  452.6199
 291  410.2638
 292  405.8448
 293  425.743
 294  399.0017
 295  443.9192
 296  494.2221
 297  435.2563
 298  418.8674
 299  478.4427
 300  460.7159
 301  385.5818
 302  340.2596
 303  425.8771
 304  415.3397
 305  387.5112
 306  429.8265
 307  342.8397
 308  386.7138
 309  361.7848
 310  409.5588
 311  464.6939
 312  312.3681
 313  287.0913
 314  393.991
 315  392.7683
 316  476.3363
 317  407.2207
 318  388.6214
 319  303.0941
 320  395.6544
 321  400.0307
 322  434.8698
 323  426.7743
 324  360.4574
 325  296.691
 326  351.6755
 327  365.6034
 328  372.892
 329  419.5591
 330  420.0626
 331  513.1046
 332  383.4412
 333  300.732
 334  328.4193
 335  370.6514
 336  302.1016
 337  346.8932
 338  339.6308
 339  400.4588
 340  447.6569
 341  361.3799
 342  414.1378
 343  422.3485
 344  438.609
 345  379.7233
 346  324.9301
 347  327.8318
 348  448.758
 349  488.4408
 350  468.068
 351  447.146
 352  479.9117
 353  407.1931
 354  337.1283
 355  428.372
 356  485.7072
 357  528.0353
 358  464.2085
 359  405.6712
 360  409.5794
 361  505.4471
 362  476.8108
 363  394.3874
 364  391.6747
 365  510.2799
 366  576.1224
 367  490.1253
 368  409.4944
 369  467.4262
 370  422.9215
 371  321.8753
 372  417.8343
 373  351.7552
 374  298.1872
 375  335.6678
 376  360.7747
 377  371.4113
 378  331.5043
 379  258.6096
 380  128.0485
 381  193.6196
 382  329.1151
 383  364.2746
 384  392.5104
 385  490.5293
 386  387.6145
 387  375.135
 388  343.407
 389  330.7328
 390  348.0858
 391  456.8634
 392  413.4945
 393  471.0164
 394  355.2829
 395  293.8712
 396  382.5644
 397  373.2313
 398  382.9826
 399  400.5291
 400  443.9686
 401  382.0236
 402  229.5347
 403  226.1735
 404  411.8529
 405  461.1207
 406  320.0685
 407  419.8431
 408  294.8863
 409  234.1199
 410  351.0866
 411  283.4538
 412  337.1842
 413  334.3486
 414  290.5131
 415  351.0995
 416  488.7489
 417  394.3395
 418  249.8267
 419  280.4532
 420  287.544
 421  391.9473
 422  421.231
 423  356.0285
 424  328.7542
 425  386.6935
 426  266.4879
 427  318.4776
 428  454.2804
 429  503.3503
 430  398.8281
 431  412.6212
 432  464.7912
 433  418.9936
 434  502.1915
 435  467.2175
 436  384.6355
 437  313.3521
 438  347.0833
 439  322.7778
 440  375.8001
 441  349.3766
 442  373.6453
 443  446.9207
 444  460.51
 445  411.4329
 446  433.0368
 447  437.708
 448  425.7664
 449  545.9401
 450  561.9788
 451  400.7
 452  468.2636
 453  459.8497
 454  347.0963
 455  311.427
 456  412.1779
 457  468.8383
 458  402.5191
 459  454.2458
 460  473.3098
 461  394.6682
 462  445.2153
 463  320.9421
 464  342.228
 465  342.9604
 466  301.3729
 467  349.6687
 468  304.9337
 469  280.1128
 470  246.2949
 471  314.3582
 472  423.781
 473  486.5776
 474  456.5779
 475  340.6543
 476  316.0581
 477  242.8518
 478  385.1484
 479  314.7213
 480  397.8408
 481  412.8047
 482  451.6772
 483  466.062
 484  344.082
 485  322.9237
 486  331.0678
 487  356.3822
 488  372.8467
 489  400.4797
 490  403.921
 491  439.1514
 492  396.4578
 493  376.6398
 494  404.0262
 495  411.3647
 496  318.5698
 497  375.2534
 498  310.8805
 499  261.7732
 500  285.8678
 501  411.9254
 502  492.031
 503  474.7261
 504  511.5802
 505  456.8876
 506  441.3586
 507  493.5524
 508  538.5836
 509  506.3208
 510  423.9063
 511  397.6435
