# Input file       =  1181558042.121278_cleaned.dat
# Candidate        =  PSR_0332+5434
# Telescope        =  AR
# Epoch_topo       =  57919.440522237011
# Epoch_bary       =  N/A
# T_sample         =  0.002
# Data Folded      =  7340032
# Data Avg         =  0.0254235870643535
# Data StdDev      =  1.00004351247468 
# Profile Bins     =  512
# Profile Avg      =  364.528386659732 
# Profile StdDev   =  119.73824625748  
# Reduced chi-sqr  =  1.112
# Prob(Noise)      <  0.0407   (~1.7 sigma)
# P_topo (ms)      =  714.503169546166  +/- 8e-05
# P'_topo (s/s)    =  -0                +/- 4.22e-11
# P''_topo (s/s^2) =  0                 +/- 1.86e-14
# P_bary (ms)      =  N/A
# P'_bary (s/s)    =  N/A
# P''_bary (s/s^2) =  N/A
# P_orb (s)        =  N/A
# asin(i)/c (s)    =  N/A
# eccentricity     =  N/A
# w (rad)          =  N/A
# T_peri           =  N/A
######################################################
   0  740.1168
   1  716.6398
   2  609.3456
   3  492.2983
   4  424.127
   5  507.7155
   6  538.2936
   7  439.4272
   8  365.7082
   9  349.2284
  10  403.5266
  11  458.1232
  12  324.1895
  13  244.1693
  14  352.7364
  15  357.9353
  16  274.7126
  17  332.4498
  18  307.6505
  19  274.5762
  20  318.729
  21  310.9625
  22  240.3237
  23  292.3805
  24  342.5284
  25  336.0373
  26  339.8514
  27  358.6739
  28  332.7764
  29  326.7588
  30  373.556
  31  357.9591
  32  311.2608
  33  275.858
  34  251.3726
  35  249.6561
  36  204.7555
  37  291.1626
  38  376.0539
  39  303.1982
  40  312.1999
  41  269.457
  42  330.8827
  43  259.6346
  44  322.3224
  45  381.707
  46  419.2736
  47  490.8892
  48  486.2053
  49  518.9813
  50  398.6131
  51  272.2226
  52  405.0561
  53  467.1694
  54  455.9946
  55  350.0145
  56  302.3279
  57  347.773
  58  268.1069
  59  300.8831
  60  359.1235
  61  338.5305
  62  240.8124
  63  264.3367
  64  345.2773
  65  317.4034
  66  288.0741
  67  314.5793
  68  280.9476
  69  366.9656
  70  213.0174
  71  206.7292
  72  198.0855
  73  219.3139
  74  263.0066
  75  327.3657
  76  262.879
  77  264.3909
  78  288.1364
  79  287.1881
  80  306.6581
  81  258.4873
  82  299.0197
  83  400.0847
  84  459.6025
  85  348.6607
  86  319.2042
  87  495.5664
  88  379.5095
  89  262.2094
  90  294.2508
  91  338.1012
  92  466.5919
  93  347.0183
  94  366.5736
  95  436.9833
  96  343.75
  97  455.9959
  98  205.4811
  99  173.5883
 100  369.9926
 101  362.5346
 102  298.9008
 103  307.7583
 104  253.0157
 105  264.4086
 106  293.4422
 107  398.6879
 108  304.349
 109  179.9696
 110  258.0242
 111  375.8074
 112  389.0358
 113  348.9136
 114  293.1753
 115  296.4082
 116  403.1568
 117  355.1211
 118  256.2153
 119  302.1736
 120  331.2228
 121  370.0955
 122  334.7633
 123  253.2048
 124  448.0234
 125  321.0058
 126  369.3275
 127  344.9363
 128  299.7946
 129  390.4919
 130  492.177
 131  386.4654
 132  299.0042
 133  238.5992
 134  356.2824
 135  452.0007
 136  341.0205
 137  342.4769
 138  394.3512
 139  384.1769
 140  362.9037
 141  304.5767
 142  419.9936
 143  363.6679
 144  382.1278
 145  447.498
 146  300.2579
 147  308.6028
 148  379.0143
 149  340.3596
 150  357.7299
 151  293.1162
 152  173.7136
 153  193.0695
 154  259.8742
 155  445.6034
 156  396.5123
 157  341.4697
 158  303.1874
 159  354.8051
 160  265.7332
 161  317.1472
 162  278.9498
 163  301.3925
 164  406.8882
 165  322.0974
 166  254.9279
 167  305.4573
 168  406.6563
 169  524.2861
 170  433.1315
 171  399.9945
 172  503.757
 173  441.1919
 174  415.4191
 175  480.2858
 176  490.6853
 177  464.093
 178  332.7789
 179  333.8723
 180  391.6291
 181  400.4571
 182  370.4048
 183  322.9544
 184  348.7181
 185  363.4038
 186  348.1249
 187  250.7886
 188  328.3475
 189  255.5511
 190  158.9146
 191  175.5422
 192  240.2839
 193  396.504
 194  427.5136
 195  275.4381
 196  325.0862
 197  419.4532
 198  371.7119
 199  270.6057
 200  247.5811
 201  318.6512
 202  449.9594
 203  456.5879
 204  303.4844
 205  344.5405
 206  378.8018
 207  347.1553
 208  302.3489
 209  216.6813
 210  255.6446
 211  232.5839
 212  346.7446
 213  383.8185
 214  385.1909
 215  429.0778
 216  382.4482
 217  320.0155
 218  367.889
 219  417.0082
 220  382.5171
 221  398.2263
 222  308.528
 223  284.3222
 224  430.0508
 225  486.6265
 226  436.0972
 227  375.3285
 228  349.8279
 229  394.0137
 230  434.6861
 231  456.9786
 232  433.5579
 233  407.9918
 234  290.3997
 235  253.3533
 236  403.4476
 237  411.9214
 238  405.1567
 239  403.5537
 240  386.1776
 241  354.2059
 242  305.4204
 243  370.5149
 244  351.7269
 245  406.505
 246  473.4074
 247  353.0226
 248  236.4821
 249  340.2537
 250  446.0656
 251  351.9439
 252  314.5659
 253  251.1739
 254  303.2142
 255  403.6256
 256  369.7858
 257  358.1838
 258  346.2998
 259  451.5597
 260  417.2257
 261  391.5707
 262  356.691
 263  344.7627
 264  412.5381
 265  420.6963
 266  347.4368
 267  365.3134
 268  458.5779
 269  491.0348
 270  511.2536
 271  438.0347
 272  309.5089
 273  328.5935
 274  393.0804
 275  319.2281
 276  226.7391
 277  290.903
 278  319.4567
 279  252.0821
 280  258.2797
 281  217.3469
 282  238.8665
 283  257.782
 284  350.0869
 285  352.9735
 286  335.1569
 287  234.5197
 288  254.1509
 289  218.5007
 290  202.7974
 291  220.3379
 292  348.763
 293  324.4554
 294  323.1669
 295  414.6305
 296  502.619
 297  458.1745
 298  336.9435
 299  326.5784
 300  398.693
 301  436.6685
 302  371.8557
 303  465.9001
 304  696.3516
 305  672.9332
 306  509.8381
 307  475.7813
 308  398.4365
 309  392.3055
 310  290.5521
 311  452.4801
 312  464.455
 313  455.7767
 314  371.6022
 315  363.2826
 316  360.7668
 317  459.3356
 318  349.0375
 319  290.5821
 320  365.8499
 321  409.9393
 322  366.8775
 323  430.0147
 324  376.4349
 325  360.438
 326  308.198
 327  366.7556
 328  322.9612
 329  383.525
 330  422.3882
 331  396.4608
 332  345.2122
 333  340.5598
 334  273.0461
 335  255.8016
 336  262.1212
 337  280.7643
 338  249.2483
 339  322.1334
 340  326.4428
 341  318.1746
 342  461.3966
 343  426.6013
 344  402.5638
 345  510.758
 346  470.0546
 347  345.1444
 348  321.1985
 349  410.4941
 350  374.6183
 351  393.231
 352  324.0262
 353  278.5574
 354  243.3806
 355  327.7753
 356  354.4305
 357  229.7562
 358  196.9867
 359  174.1839
 360  368.9815
 361  267.0699
 362  67.11697
 363  120.8241
 364  266.4056
 365  274.5748
 366  215.2117
 367  162.6987
 368  232.3925
 369  309.8434
 370  322.3321
 371  247.0101
 372  302.3757
 373  332.1885
 374  395.1639
 375  331.3898
 376  249.3696
 377  290.3695
 378  419.4815
 379  397.3666
 380  381.5689
 381  384.0297
 382  371.3728
 383  397.5207
 384  366.1436
 385  471.1557
 386  412.1493
 387  525.9677
 388  526.7308
 389  503.7201
 390  544.4965
 391  457.5563
 392  400.7014
 393  444.132
 394  504.6108
 395  414.8852
 396  491.5696
 397  484.8677
 398  409.8418
 399  293.4612
 400  386.1576
 401  405.4029
 402  414.1557
 403  487.2317
 404  404.3943
 405  375.8019
 406  300.8416
 407  268.5328
 408  313.0431
 409  151.3148
 410  266.9954
 411  333.2367
 412  356.0558
 413  340.1119
 414  261.9261
 415  217.9803
 416  256.0104
 417  346.6865
 418  372.7838
 419  334.5791
 420  402.8805
 421  474.5197
 422  511.7299
 423  478.7766
 424  361.7094
 425  375.3398
 426  500.6798
 427  505.3748
 428  546.014
 429  501.8155
 430  449.2025
 431  397.4357
 432  446.6071
 433  571.6365
 434  422.4241
 435  491.226
 436  502.1743
 437  457.4748
 438  426.6951
 439  402.1994
 440  449.308
 441  404.4403
 442  435.5291
 443  299.3023
 444  282.5979
 445  418.702
 446  454.9197
 447  536.5061
 448  427.1988
 449  391.0292
 450  384.6634
 451  313.9292
 452  297.9873
 453  304.7926
 454  387.7179
 455  374.8304
 456  392.1324
 457  347.2906
 458  339.6829
 459  346.5909
 460  361.1491
 461  363.7367
 462  453.5783
 463  394.1393
 464  366.3723
 465  390.9105
 466  425.7342
 467  371.3768
 468  329.5325
 469  397.8929
 470  545.2585
 471  559.4795
 472  579.5269
 473  340.9857
 474  373.9171
 475  481.8142
 476  392.4156
 477  333.0827
 478  426.1815
 479  481.181
 480  464.6286
 481  424.6056
 482  428.3543
 483  397.1296
 484  423.9192
 485  374.6978
 486  386.9307
 487  432.604
 488  509.5826
 489  432.3347
 490  468.6365
 491  430.6592
 492  333.3109
 493  408.3033
 494  412.5063
 495  377.4881
 496  374.2389
 497  398.9934
 498  380.3822
 499  386.7614
 500  324.2479
 501  268.4005
 502  281.2088
 503  464.1721
 504  527.1986
 505  444.0197
 506  312.4033
 507  329.6213
 508  484.6336
 509  625.4948
 510  669.9733
 511  764.1307
