# Input file       =  1181456923.122051_cleaned.dat
# Candidate        =  PSR_0332+5434
# Telescope        =  AR
# Epoch_topo       =  57918.270163449663
# Epoch_bary       =  N/A
# T_sample         =  0.002
# Data Folded      =  7340032
# Data Avg         =  0.0785321462265399
# Data StdDev      =  3.59326143741398 
# Profile Bins     =  1024
# Profile Avg      =  562.635842844725 
# Profile StdDev   =  304.220037089148 
# Reduced chi-sqr  =  1.049
# Prob(Noise)      <  0.135   (~1.1 sigma)
# P_topo (ms)      =  714.503919814615  +/- 0.000119
# P'_topo (s/s)    =  -0                +/- 6.28e-11
# P''_topo (s/s^2) =  0                 +/- 2.77e-14
# P_bary (ms)      =  N/A
# P'_bary (s/s)    =  N/A
# P''_bary (s/s^2) =  N/A
# P_orb (s)        =  N/A
# asin(i)/c (s)    =  N/A
# eccentricity     =  N/A
# w (rad)          =  N/A
# T_peri           =  N/A
######################################################
   0  704.5165
   1  639.1061
   2  632.9023
   3  498.6806
   4  378.9588
   5  377.4207
   6  471.3528
   7  408.8869
   8  375.874
   9  267.1417
  10  334.9692
  11  406.4469
  12  598.3181
  13  607.6453
  14  547.4233
  15  472.8612
  16  365.1024
  17  324.3621
  18  328.6198
  19  519.9575
  20  400.811
  21  302.7958
  22  183.2719
  23  264.3055
  24  352.4209
  25  368.0804
  26  455.3641
  27  505.3133
  28  555.8162
  29  457.2075
  30  332.4759
  31  333.4897
  32  301.852
  33  421.5017
  34  338.2264
  35  390.6171
  36  367.4961
  37  537.1602
  38  687.0076
  39  602.8557
  40  586.0653
  41  438.8246
  42  645.1216
  43  671.6556
  44  615.6306
  45  438.4673
  46  345.7836
  47  480.6976
  48  576.1776
  49  710.1375
  50  618.1725
  51  652.7225
  52  775.7911
  53  736.4274
  54  699.2639
  55  476.0681
  56  493.7705
  57  410.7013
  58  367.7144
  59  377.3142
  60  377.9194
  61  511.0635
  62  682.5236
  63  764.0617
  64  889.3211
  65  853.1143
  66  816.923
  67  646.1768
  68  499.9683
  69  444.1743
  70  351.1859
  71  323.799
  72  282.1562
  73  363.8447
  74  446.8498
  75  554.5219
  76  780.7221
  77  731.6539
  78  606.0228
  79  511.1342
  80  572.1728
  81  619.4172
  82  662.9787
  83  635.957
  84  614.2688
  85  617.431
  86  712.9217
  87  627.2841
  88  455.7668
  89  366.8802
  90  284.347
  91  298.8701
  92  253.5219
  93  306.8044
  94  246.5213
  95  410.2576
  96  583.9711
  97  654.4981
  98  605.4754
  99  518.9131
 100  598.3809
 101  527.819
 102  611.9878
 103  607.6114
 104  542.712
 105  512.7775
 106  526.8575
 107  567.1409
 108  468.8795
 109  345.7827
 110  366.5711
 111  522.0717
 112  581.4951
 113  691.0758
 114  653.6945
 115  689.772
 116  495.8805
 117  521.3828
 118  435.315
 119  410.9898
 120  419.0552
 121  535.6538
 122  605.3362
 123  611.1146
 124  663.1753
 125  743.059
 126  741.2608
 127  718.6451
 128  609.3068
 129  506.8977
 130  531.9785
 131  590.338
 132  557.1254
 133  605.6346
 134  712.0385
 135  703.575
 136  622.6193
 137  705.3805
 138  861.8541
 139  736.8805
 140  446.9159
 141  404.3657
 142  523.712
 143  521.2605
 144  367.3398
 145  429.2885
 146  540.5939
 147  561.4496
 148  580.4723
 149  773.2214
 150  884.2338
 151  749.3218
 152  666.4271
 153  611.9266
 154  517.1956
 155  363.2483
 156  417.7138
 157  636.6708
 158  745.2122
 159  767.1672
 160  710.0102
 161  779.2592
 162  631.1269
 163  550.642
 164  543.1409
 165  654.0206
 166  604.7289
 167  521.551
 168  598.3836
 169  584.5165
 170  555.5813
 171  618.401
 172  752.4722
 173  727.5795
 174  671.1021
 175  808.446
 176  797.114
 177  681.2375
 178  681.1166
 179  827.278
 180  787.8253
 181  521.8392
 182  480.5457
 183  488.0971
 184  493.9853
 185  443.9378
 186  575.2276
 187  666.5532
 188  687.9982
 189  485.255
 190  444.8745
 191  582.1277
 192  558.1539
 193  674.6555
 194  659.3261
 195  763.8425
 196  723.7831
 197  594.5468
 198  628.6105
 199  574.645
 200  659.2056
 201  609.1715
 202  570.5052
 203  391.3152
 204  371.6917
 205  453.3194
 206  587.5214
 207  642.9659
 208  552.4321
 209  599.2318
 210  581.5557
 211  520.8289
 212  389.585
 213  344.9434
 214  345.3286
 215  283.9814
 216  345.0501
 217  399.054
 218  598.744
 219  659.8703
 220  578.3163
 221  658.3484
 222  557.1749
 223  579.1149
 224  504.6148
 225  621.069
 226  670.876
 227  658.7011
 228  502.1697
 229  513.0932
 230  495.801
 231  501.6115
 232  588.8924
 233  712.9659
 234  806.798
 235  742.4289
 236  823.1207
 237  905.0897
 238  836.3976
 239  667.6406
 240  644.1783
 241  632.698
 242  492.6008
 243  396.7127
 244  321.344
 245  362.2148
 246  314.5961
 247  512.2745
 248  533.6585
 249  635.4749
 250  631.4185
 251  729.9982
 252  701.8632
 253  692.8092
 254  484.2914
 255  485.9876
 256  539.0349
 257  579.8927
 258  513.0895
 259  506.4062
 260  619.955
 261  671.1862
 262  697.7772
 263  564.6171
 264  490.2825
 265  519.1975
 266  601.1538
 267  767.1929
 268  841.2576
 269  801.1814
 270  672.635
 271  640.9923
 272  655.556
 273  483.891
 274  342.7062
 275  453.6357
 276  515.9654
 277  576.2839
 278  511.1625
 279  591.6701
 280  438.6609
 281  465.9617
 282  304.6999
 283  257.0275
 284  151.7247
 285  415.9808
 286  783.5499
 287  936.2103
 288  914.6169
 289  830.2168
 290  829.6684
 291  781.3465
 292  805.4758
 293  795.4011
 294  747.2913
 295  612.5706
 296  735.6954
 297  902.0726
 298  843.5459
 299  695.195
 300  642.2179
 301  818.8436
 302  812.2356
 303  808.6084
 304  717.8065
 305  638.4109
 306  408.5721
 307  408.0198
 308  466.8507
 309  538.1717
 310  446.5634
 311  610.9015
 312  751.4922
 313  839.9938
 314  866.9323
 315  812.538
 316  642.1758
 317  446.9716
 318  470.8394
 319  497.3141
 320  513.2071
 321  536.7768
 322  688.1957
 323  608.6152
 324  619.0804
 325  614.9241
 326  721.0107
 327  705.5044
 328  765.1138
 329  867.6627
 330  768.7136
 331  531.8274
 332  366.2294
 333  390.1614
 334  297.9262
 335  291.6887
 336  325.1264
 337  297.7485
 338  364.4606
 339  525.9886
 340  576.007
 341  527.4843
 342  618.2029
 343  719.801
 344  571.0421
 345  306.0447
 346  292.8756
 347  329.6378
 348  272.2522
 349  116.9738
 350  141.3268
 351  275.1548
 352  371.1826
 353  545.1071
 354  605.3629
 355  597.6489
 356  551.015
 357  563.692
 358  574.5285
 359  451.7589
 360  538.0027
 361  726.5367
 362  744.548
 363  624.2289
 364  528.3467
 365  573.9377
 366  592.4436
 367  415.1951
 368  409.662
 369  551.1147
 370  591.1517
 371  433.1414
 372  275.7159
 373  260.4686
 374  188.1454
 375  134.4982
 376  197.2933
 377  370.4248
 378  359.3906
 379  500.8578
 380  514.3867
 381  603.8026
 382  620.1276
 383  559.1315
 384  622.2368
 385  487.8376
 386  360.2599
 387  293.7754
 388  443.7408
 389  567.9194
 390  580.8057
 391  585.0061
 392  531.8909
 393  399.0714
 394  249.4994
 395  455.754
 396  520.3532
 397  454.2295
 398  471.1092
 399  494.5833
 400  542.4082
 401  411.354
 402  476.6086
 403  408.2148
 404  301.0753
 405  182.911
 406  282.5713
 407  255.4546
 408  285.6758
 409  317.2839
 410  418.6547
 411  488.2325
 412  445.9973
 413  484.1123
 414  428.1177
 415  408.2932
 416  395.9186
 417  471.0983
 418  376.4766
 419  332.2384
 420  569.8788
 421  674.2476
 422  721.9409
 423  497.4511
 424  539.903
 425  532.9825
 426  627.208
 427  745.5322
 428  741.0829
 429  579.9938
 430  326.4844
 431  230.3117
 432  300.8895
 433  432.574
 434  445.0309
 435  453.3314
 436  482.732
 437  649.496
 438  697.9711
 439  743.2542
 440  689.1449
 441  703.1605
 442  585.3914
 443  452.3899
 444  326.6888
 445  321.2427
 446  414.4013
 447  383.088
 448  390.8294
 449  364.3952
 450  313.5882
 451  258.8666
 452  369.6567
 453  409.3035
 454  447.5158
 455  374.1548
 456  306.4459
 457  285.8661
 458  334.5249
 459  578.2792
 460  622.8172
 461  579.1289
 462  403.1396
 463  287.9684
 464  254.1409
 465  445.5895
 466  620.4062
 467  625.5046
 468  501.1266
 469  525.984
 470  584.6973
 471  535.9996
 472  351.6036
 473  380.3283
 474  508.6761
 475  504.7787
 476  404.3708
 477  374.2156
 478  460.5262
 479  411.9433
 480  406.3
 481  384.2167
 482  429.9334
 483  361.2593
 484  492.7762
 485  589.8128
 486  547.0158
 487  393.7784
 488  409.7218
 489  462.0163
 490  590.5456
 491  567.2809
 492  602.5645
 493  498.9481
 494  380.4359
 495  319.2628
 496  258.4229
 497  390.6879
 498  418.3244
 499  551.4245
 500  489.2428
 501  389.7022
 502  344.6553
 503  434.481
 504  594.9138
 505  695.8217
 506  705.4185
 507  670.9646
 508  580.2942
 509  540.1706
 510  551.4878
 511  565.1911
 512  444.6533
 513  347.0691
 514  530.7565
 515  601.5688
 516  580.9552
 517  459.0508
 518  492.5366
 519  537.8746
 520  390.5796
 521  391.599
 522  429.8231
 523  403.3648
 524  447.935
 525  531.3865
 526  664.5075
 527  647.4094
 528  611.9537
 529  709.3209
 530  811.532
 531  853.2742
 532  772.4434
 533  573.7533
 534  378.1559
 535  320.5756
 536  314.7096
 537  498.0113
 538  470.9114
 539  514.3963
 540  494.218
 541  552.0593
 542  529.0387
 543  510.6369
 544  458.417
 545  362.1235
 546  273.6517
 547  49.48004
 548  111.9257
 549  180.9879
 550  411.3727
 551  487.9132
 552  584.9185
 553  626.2769
 554  490.7237
 555  466.0109
 556  571.6556
 557  668.7755
 558  552.0373
 559  376.8148
 560  350.208
 561  335.4607
 562  403.2975
 563  541.0632
 564  500.2579
 565  435.0591
 566  300.4088
 567  499.2083
 568  622.4023
 569  761.9056
 570  628.3732
 571  554.4838
 572  488.4684
 573  485.2272
 574  488.2566
 575  521.4049
 576  612.0308
 577  680.0594
 578  726.9634
 579  689.4738
 580  653.7501
 581  689.615
 582  661.4951
 583  629.567
 584  494.0272
 585  442.175
 586  431.8737
 587  518.0771
 588  600.8015
 589  569.9712
 590  583.2686
 591  626.0746
 592  624.8228
 593  464.5475
 594  464.6995
 595  520.2755
 596  707.6599
 597  789.6024
 598  776.6777
 599  658.8276
 600  436.4807
 601  445.3035
 602  486.414
 603  601.1454
 604  616.384
 605  778.5569
 606  817.2812
 607  875.8393
 608  867.2859
 609  816.1592
 610  624.241
 611  572.1196
 612  613.7844
 613  566.679
 614  469.8745
 615  474.4855
 616  511.9054
 617  550.4619
 618  407.7904
 619  444.8745
 620  378.376
 621  715.7687
 622  991.7496
 623  1070.809
 624  960.1003
 625  707.3248
 626  678.6672
 627  543.8179
 628  307.893
 629  218.5102
 630  292.3121
 631  309.7528
 632  231.0443
 633  200.6308
 634  326.7399
 635  480.1273
 636  613.5817
 637  757.7814
 638  976.459
 639  918.0529
 640  907.7983
 641  799.6937
 642  866.4833
 643  684.3527
 644  639.7445
 645  655.5453
 646  597.6581
 647  563.0075
 648  642.3479
 649  868.7426
 650  1049.53
 651  1105.949
 652  1129.272
 653  1153.231
 654  1209.911
 655  1321.338
 656  1272.259
 657  1271.33
 658  1175.842
 659  1087.379
 660  966.1013
 661  740.0833
 662  791.6125
 663  934.0909
 664  1046.416
 665  972.2555
 666  864.9337
 667  811.5328
 668  729.9776
 669  698.0911
 670  730.7252
 671  712.1592
 672  665.1569
 673  622.2484
 674  781.5877
 675  812.1964
 676  665.9723
 677  624.1913
 678  624.5334
 679  843.8328
 680  871.6564
 681  789.4376
 682  671.8104
 683  636.1357
 684  832.5057
 685  924.3263
 686  888.5815
 687  841.9969
 688  808.0436
 689  753.4724
 690  717.9638
 691  764.4493
 692  546.2708
 693  444.9644
 694  430.9472
 695  559.2914
 696  609.6634
 697  628.5559
 698  772.0908
 699  630.3676
 700  597.7939
 701  391.3423
 702  358.8695
 703  422.1448
 704  547.2595
 705  635.1121
 706  710.0538
 707  624.9397
 708  599.2127
 709  484.261
 710  498.8866
 711  405.1737
 712  382.4824
 713  456.1772
 714  495.6497
 715  537.1509
 716  543.8909
 717  647.6911
 718  746.5536
 719  634.4609
 720  590.4431
 721  510.2205
 722  491.9084
 723  389.0542
 724  462.9537
 725  608.46
 726  639.3116
 727  518.746
 728  552.2348
 729  662.8611
 730  676.803
 731  619.7977
 732  390.1126
 733  220.9449
 734  241.989
 735  386.9901
 736  441.2249
 737  447.4658
 738  553.4186
 739  699.279
 740  655.7033
 741  606.2206
 742  665.4727
 743  851.5669
 744  812.6923
 745  658.3622
 746  469.1019
 747  493.9793
 748  602.1672
 749  449.8268
 750  387.3452
 751  366.0733
 752  488.6323
 753  560.0067
 754  506.2717
 755  624.7632
 756  764.9747
 757  784.5213
 758  687.515
 759  659.0549
 760  754.4964
 761  801.6697
 762  547.0966
 763  471.1595
 764  535.6344
 765  532.7169
 766  571.9133
 767  484.699
 768  381.1201
 769  330.9405
 770  282.4784
 771  445.8971
 772  389.3575
 773  576.6802
 774  561.7501
 775  540.9268
 776  429.1859
 777  418.6286
 778  601.3322
 779  710.9099
 780  597.647
 781  355.1456
 782  240.5234
 783  325.2736
 784  426.4096
 785  505.6279
 786  420.1571
 787  488.3024
 788  581.9854
 789  732.3358
 790  743.2252
 791  562.3326
 792  604.7413
 793  459.9554
 794  632.4102
 795  508.1707
 796  502.3835
 797  451.0777
 798  398.511
 799  458.1591
 800  442.0942
 801  615.1047
 802  545.2155
 803  640.2958
 804  573.51
 805  556.6559
 806  525.5488
 807  453.5912
 808  550.8243
 809  552.4151
 810  608.4722
 811  589.5962
 812  576.9401
 813  524.7193
 814  560.0815
 815  655.1572
 816  654.8796
 817  559.9708
 818  567.1359
 819  636.1498
 820  454.2069
 821  495.9058
 822  569.1319
 823  654.3564
 824  489.0187
 825  585.4738
 826  725.0297
 827  778.7747
 828  704.7444
 829  563.0798
 830  462.584
 831  383.6669
 832  373.0988
 833  344.8033
 834  326.7087
 835  304.1797
 836  421.5272
 837  518.1456
 838  617.0116
 839  653.3945
 840  696.1157
 841  796.9554
 842  848.2024
 843  767.685
 844  696.6437
 845  634.3976
 846  717.7639
 847  551.6547
 848  430.1183
 849  429.7313
 850  504.6806
 851  472.1904
 852  441.1692
 853  487.5229
 854  534.6169
 855  503.3071
 856  590.4631
 857  654.0895
 858  466.8262
 859  454.9633
 860  506.7528
 861  622.7352
 862  533.2683
 863  490.2902
 864  569.8956
 865  566.2996
 866  533.6987
 867  492.5866
 868  641.5724
 869  635.5361
 870  558.6307
 871  356.2051
 872  256.7622
 873  209.3642
 874  361.3777
 875  660.6926
 876  841.7959
 877  834.0007
 878  751.5445
 879  779.0328
 880  773.7249
 881  742.5518
 882  571.2911
 883  515.41
 884  472.399
 885  526.0717
 886  362.039
 887  255.2743
 888  196.1591
 889  408.8601
 890  531.8549
 891  402.5817
 892  279.0068
 893  265.8662
 894  424.0801
 895  597.5449
 896  800.4932
 897  800.4471
 898  688.2208
 899  545.0338
 900  545.4841
 901  530.8826
 902  535.8068
 903  524.2781
 904  628.5212
 905  532.6257
 906  461.6681
 907  372.5353
 908  574.0947
 909  664.6473
 910  804.2508
 911  861.5068
 912  831.0262
 913  666.3367
 914  670.511
 915  682.2288
 916  673.6265
 917  601.9082
 918  681.6946
 919  727.1307
 920  762.829
 921  760.8176
 922  825.1297
 923  822.874
 924  732.677
 925  638.8359
 926  578.6335
 927  691.0075
 928  669.955
 929  611.9456
 930  644.6361
 931  593.0696
 932  527.3365
 933  389.1452
 934  532.0208
 935  723.6531
 936  698.4347
 937  721.6445
 938  723.9288
 939  643.8103
 940  366.6005
 941  323.7903
 942  427.7638
 943  549.2897
 944  692.8884
 945  778.4902
 946  792.3752
 947  656.9073
 948  622.0865
 949  603.2319
 950  566.3596
 951  468.5629
 952  535.6775
 953  533.8106
 954  516.1718
 955  463.8439
 956  604.6849
 957  722.6868
 958  803.5272
 959  841.7934
 960  861.9109
 961  744.0608
 962  753.5489
 963  680.1854
 964  680.3854
 965  643.4756
 966  631.898
 967  640.8003
 968  513.6915
 969  512.9856
 970  582.7805
 971  699.7657
 972  748.4565
 973  781.4197
 974  663.3348
 975  637.4248
 976  550.16
 977  609.4691
 978  532.5057
 979  419.6654
 980  334.449
 981  265.8687
 982  413.5651
 983  465.6826
 984  682.2825
 985  765.837
 986  671.4477
 987  567.7147
 988  340.9056
 989  448.7702
 990  265.0997
 991  361.0134
 992  320.9215
 993  605.8205
 994  682.4667
 995  681.5804
 996  561.5665
 997  470.7555
 998  636.2324
 999  872.7896
1000  883.8214
1001  914.8672
1002  758.6512
1003  851.5143
1004  643.7996
1005  388.0502
1006  362.9889
1007  542.2267
1008  814.3104
1009  891.643
1010  872.674
1011  796.1196
1012  562.1654
1013  556.4367
1014  537.1804
1015  761.7687
1016  689.4113
1017  700.3477
1018  667.4597
1019  568.3192
1020  514.0862
1021  529.9491
1022  730.5139
1023  767.1543
