# Input file       =  1181543118.119314_cleaned.dat
# Candidate        =  PSR_0332+5434
# Telescope        =  AR
# Epoch_topo       =  57919.267790732803
# Epoch_bary       =  N/A
# T_sample         =  0.002
# Data Folded      =  7340032
# Data Avg         =  0.0660455333969104
# Data StdDev      =  2.78714605151482 
# Profile Bins     =  256
# Profile Avg      =  1894.63052529885 
# Profile StdDev   =  471.942100475125 
# Reduced chi-sqr  =  1.145
# Prob(Noise)      <  0.0557   (~1.6 sigma)
# P_topo (ms)      =  714.502996116432  +/- 0.000375
# P'_topo (s/s)    =  -0                +/- 1.98e-10
# P''_topo (s/s^2) =  0                 +/- 8.74e-14
# P_bary (ms)      =  N/A
# P'_bary (s/s)    =  N/A
# P''_bary (s/s^2) =  N/A
# P_orb (s)        =  N/A
# asin(i)/c (s)    =  N/A
# eccentricity     =  N/A
# w (rad)          =  N/A
# T_peri           =  N/A
######################################################
   0  1525.7
   1  1395.634
   2  1378.459
   3  1527.933
   4  1599.932
   5  1329.201
   6  1406.188
   7  1717.36
   8  1345.505
   9  1412.48
  10  1704.173
  11  1753.505
  12  1320.191
  13  1732.365
  14  1302.257
  15  1320.638
  16  1804.264
  17  2011.756
  18  2001.939
  19  1929.071
  20  2087.73
  21  1975.981
  22  2088.304
  23  1948.551
  24  1580.737
  25  1836.75
  26  1987.25
  27  1958.284
  28  1512.33
  29  1236.59
  30  1822.94
  31  1729.644
  32  1010.878
  33  1485.423
  34  2232.567
  35  1674.292
  36  1460.907
  37  1516.881
  38  875.9183
  39  1622.368
  40  1861.549
  41  1803.823
  42  2135.259
  43  1799.548
  44  1905.024
  45  1378.51
  46  1221.761
  47  1642.503
  48  2148.222
  49  1993.817
  50  3147.505
  51  2476.921
  52  2578.622
  53  1806.621
  54  1832.17
  55  1905.956
  56  1903.724
  57  2501.53
  58  1979.481
  59  2221.978
  60  2773.294
  61  2058.591
  62  1929.246
  63  2031.862
  64  2504.771
  65  2562.472
  66  2790.759
  67  2328.658
  68  2435.836
  69  2273.038
  70  1918.242
  71  1957.012
  72  2051.554
  73  1790.349
  74  2089.06
  75  1961.705
  76  2206.659
  77  2045.47
  78  1492.759
  79  2032.634
  80  1694.34
  81  1837.907
  82  1386.884
  83  1547.077
  84  1342.322
  85  1693.943
  86  1981.403
  87  1243.359
  88  2026.269
  89  1885.108
  90  2151.24
  91  2431.49
  92  1666.408
  93  1663.539
  94  1488.492
  95  1310.661
  96  1913.9
  97  1702.379
  98  1997.705
  99  1689.521
 100  1291.278
 101  2225.213
 102  1941.38
 103  2153.043
 104  2658.62
 105  1970.91
 106  1463.109
 107  1583.31
 108  1908.762
 109  1446.253
 110  1636
 111  1922.798
 112  1559.5
 113  1769.899
 114  2109.79
 115  1790.056
 116  2330.926
 117  2200.754
 118  1807.454
 119  1405.115
 120  1087.124
 121  1583.222
 122  1365.88
 123  1733.1
 124  1871.048
 125  1757.532
 126  2585.448
 127  1987.005
 128  2403.187
 129  2240.857
 130  2297.493
 131  1675.624
 132  2131.552
 133  2091.547
 134  1949.422
 135  1895.605
 136  2276.996
 137  1688.627
 138  1360.511
 139  1690.84
 140  2256.359
 141  1978.006
 142  1740.804
 143  1993.02
 144  1688.551
 145  1623.631
 146  1678.139
 147  1492.607
 148  1635.104
 149  2025.542
 150  1355.82
 151  1440.811
 152  1389.159
 153  1797.909
 154  2238.165
 155  2033.43
 156  2218.739
 157  2578.942
 158  2196.198
 159  2098.625
 160  2747.632
 161  2546.96
 162  3362.68
 163  4360.54
 164  3964.761
 165  3191.139
 166  2032.088
 167  1967.599
 168  2323.081
 169  2373.308
 170  1842.427
 171  2408.982
 172  2725.735
 173  2054.221
 174  1909.155
 175  1603.356
 176  1727.777
 177  1797.54
 178  2494.626
 179  1709.43
 180  1728.607
 181  1931.365
 182  2229.267
 183  2196.171
 184  2209.119
 185  1781.557
 186  2292.464
 187  2431
 188  1611.17
 189  2045.583
 190  1959.21
 191  2557.496
 192  2590.967
 193  1633.654
 194  1912.249
 195  2288.599
 196  1725.411
 197  1895.155
 198  2684.645
 199  1813.727
 200  1570.685
 201  2196.663
 202  1736.713
 203  2092.753
 204  1563.759
 205  1667.34
 206  2013.335
 207  1885.002
 208  1819.693
 209  1683.872
 210  1451.009
 211  2249.802
 212  1670.284
 213  1152.634
 214  939.8122
 215  1420.487
 216  1700.984
 217  1591.403
 218  1849.994
 219  1917.045
 220  2206.901
 221  1477.989
 222  1476.81
 223  1324.79
 224  1277.489
 225  1739.928
 226  1502.763
 227  1726.467
 228  2229.517
 229  1730.034
 230  2113.735
 231  1706.348
 232  2291.116
 233  1885.052
 234  1913.521
 235  1604.114
 236  1596.21
 237  1996.942
 238  2260.193
 239  1830.21
 240  1901.868
 241  1820.198
 242  1979.026
 243  1680.381
 244  2104.22
 245  1557.24
 246  1964.306
 247  1685.537
 248  1614.078
 249  2364.058
 250  1789.637
 251  1788.475
 252  1630.946
 253  1624.023
 254  1683.655
 255  1512.24
