# Input file       =  1181183852.10865_cleaned.dat
# Candidate        =  PSR_0332+5434
# Telescope        =  AR
# Epoch_topo       =  57915.109619313080
# Epoch_bary       =  N/A
# T_sample         =  0.002
# Data Folded      =  7143424
# Data Avg         =  0.17008755722301 
# Data StdDev      =  4.30054462443663 
# Profile Bins     =  256
# Profile Avg      =  4746.19977144669 
# Profile StdDev   =  718.384064549856 
# Reduced chi-sqr  =  0.778
# Prob(Noise)      <  0.996   (~0.0 sigma)
# P_topo (ms)      =  714.506864777303  +/- 6.05e-05
# P'_topo (s/s)    =  -0                +/- 3.28e-11
# P''_topo (s/s^2) =  0                 +/- 1.49e-14
# P_bary (ms)      =  N/A
# P'_bary (s/s)    =  N/A
# P''_bary (s/s^2) =  N/A
# P_orb (s)        =  N/A
# asin(i)/c (s)    =  N/A
# eccentricity     =  N/A
# w (rad)          =  N/A
# T_peri           =  N/A
######################################################
   0  4925.109
   1  4538.429
   2  4090.157
   3  3354.561
   4  3887.169
   5  4458.514
   6  4888.857
   7  4127.94
   8  4540.318
   9  5076.951
  10  4787.578
  11  3960.546
  12  4432.019
  13  4785.693
  14  4131.326
  15  3499.685
  16  4745.773
  17  4866.74
  18  3852.977
  19  3825.61
  20  3969.896
  21  4959.427
  22  4390.032
  23  3482.948
  24  4125.028
  25  4449.398
  26  4434.529
  27  4683.135
  28  5164.648
  29  4715.788
  30  5075.518
  31  5105.051
  32  4749.393
  33  4766.12
  34  4292.136
  35  4848.253
  36  4988.494
  37  4844.826
  38  5443.546
  39  4271.837
  40  4838.669
  41  4718.064
  42  4835.361
  43  4782.968
  44  4832.521
  45  4398.402
  46  4238.417
  47  3880.826
  48  3728.577
  49  5023.177
  50  5544.294
  51  4361.552
  52  3415.675
  53  4344.666
  54  5238.772
  55  5041.204
  56  3913.027
  57  4034.726
  58  5301.488
  59  5213.792
  60  4140.813
  61  4085.239
  62  4678.68
  63  4467.705
  64  4777.456
  65  4512.92
  66  4578.734
  67  5069.313
  68  5330.684
  69  4608.848
  70  4309.886
  71  4769.74
  72  5082.688
  73  5033.397
  74  5551.209
  75  5031.51
  76  5171.763
  77  4285.376
  78  5239.938
  79  5134.424
  80  4230.426
  81  4382.496
  82  5380.318
  83  4921.798
  84  4773.346
  85  4167.326
  86  4269.949
  87  5253.627
  88  3983.517
  89  3758.591
  90  4455.256
  91  5185.325
  92  4897.787
  93  3681.668
  94  4192.646
  95  5080.524
  96  5470.497
  97  4462.523
  98  4556.168
  99  4598.39
 100  4754.899
 101  4814.045
 102  4807.453
 103  4695.709
 104  4966.203
 105  4204.038
 106  5344.449
 107  5703.748
 108  5165.349
 109  4478.062
 110  4565.019
 111  4974.399
 112  4925.789
 113  5323.418
 114  4382.513
 115  4607.251
 116  4986.889
 117  4350.206
 118  3681.57
 119  5037.142
 120  4985.394
 121  4441.809
 122  4288.482
 123  5326.073
 124  5197.134
 125  3585.983
 126  4256.055
 127  4768.595
 128  4383.377
 129  4555.92
 130  4354.036
 131  4643.15
 132  5063.553
 133  5264.263
 134  4296.164
 135  4463.76
 136  5308.401
 137  5107.581
 138  4455.06
 139  4743.224
 140  5666.368
 141  5295.333
 142  4775.301
 143  5171.94
 144  5492.063
 145  4399.814
 146  4751.393
 147  4315.983
 148  5036.271
 149  5089.431
 150  4718.401
 151  3505.214
 152  4727.29
 153  5266.954
 154  4685.589
 155  4510.251
 156  4405.92
 157  5195.83
 158  5076.646
 159  4414.106
 160  4421.954
 161  5283.932
 162  6101.097
 163  5984.435
 164  7043.283
 165  6971.522
 166  5385.745
 167  4731.372
 168  4905.518
 169  4713.895
 170  5610.407
 171  5055.762
 172  4915.456
 173  5781.19
 174  5463.971
 175  4410.27
 176  5056.692
 177  5286.469
 178  5066.604
 179  5270.266
 180  4212.974
 181  5558.272
 182  6009.69
 183  4938.788
 184  4486.632
 185  5304.18
 186  5502.164
 187  5249.015
 188  3981.797
 189  4553.747
 190  4628.202
 191  4306.837
 192  4075.068
 193  3722.266
 194  4939.611
 195  4987.52
 196  4882.008
 197  4827.292
 198  5443.703
 199  4722.892
 200  3956.047
 201  3796.719
 202  4894.885
 203  5166.279
 204  4602.485
 205  4415.967
 206  5152.018
 207  4822.053
 208  4379.39
 209  4253.345
 210  5357.58
 211  4758.835
 212  4540.335
 213  4928.434
 214  5769.603
 215  5370.983
 216  5110.643
 217  4965.853
 218  5099.794
 219  5157.705
 220  4736.535
 221  5034.588
 222  4770.104
 223  4613.169
 224  5068.655
 225  4694.721
 226  4147.175
 227  4712.799
 228  4604.351
 229  4131.56
 230  4771.835
 231  5325.704
 232  3913.819
 233  4188.84
 234  4901.149
 235  5377.196
 236  4467.535
 237  4246.489
 238  3973.407
 239  4819.598
 240  5017.345
 241  4866.315
 242  4133.605
 243  4386.911
 244  4994.589
 245  4824.629
 246  4566.4
 247  4987.781
 248  5577.917
 249  4755.86
 250  4803.435
 251  4921.449
 252  5865.336
 253  4966.067
 254  4671.584
 255  4356.34
