# Input file       =  1181213400.102393_cleaned.dat
# Candidate        =  PSR_0332+5434
# Telescope        =  AR
# Epoch_topo       =  57915.451609981399
# Epoch_bary       =  N/A
# T_sample         =  0.002
# Data Folded      =  7340032
# Data Avg         =  0.140191449017689
# Data StdDev      =  8.87684200346103 
# Profile Bins     =  512
# Profile Avg      =  2009.73165714185 
# Profile StdDev   =  1062.8512465112  
# Reduced chi-sqr  =  1.018
# Prob(Noise)      <  0.378   (~0.3 sigma)
# P_topo (ms)      =  714.506888205395  +/- 0.000402
# P'_topo (s/s)    =  -0                +/- 2.12e-10
# P''_topo (s/s^2) =  0                 +/- 9.37e-14
# P_bary (ms)      =  N/A
# P'_bary (s/s)    =  N/A
# P''_bary (s/s^2) =  N/A
# P_orb (s)        =  N/A
# asin(i)/c (s)    =  N/A
# eccentricity     =  N/A
# w (rad)          =  N/A
# T_peri           =  N/A
######################################################
   0  1062.282
   1  878.4866
   2  -10.92597
   3  463.9196
   4  1196.046
   5  1460.752
   6  1606.362
   7  1950.157
   8  2110.663
   9  2788.258
  10  1458.684
  11  689.6491
  12  772.3558
  13  737.3359
  14  904.577
  15  939.2268
  16  1336.578
  17  1365.637
  18  1277.6
  19  1453.683
  20  1926.639
  21  1927.86
  22  2031.215
  23  2520.42
  24  2631.306
  25  3199.188
  26  3542.132
  27  3245.281
  28  3093.973
  29  2736.994
  30  2091.221
  31  2004.391
  32  2078.839
  33  2345.691
  34  2871.592
  35  2466.75
  36  2542.785
  37  2204.469
  38  2035.543
  39  2315.462
  40  2455.563
  41  1746.056
  42  2169
  43  2558.491
  44  2137.458
  45  1800.433
  46  1728.205
  47  2169.93
  48  1756.114
  49  1521.713
  50  1272.039
  51  1720.39
  52  2296.132
  53  3074.049
  54  2685.772
  55  2593.753
  56  2162.159
  57  1654.554
  58  2338.854
  59  2243.474
  60  1794.28
  61  1572.747
  62  1262.074
  63  1456.739
  64  1645.703
  65  1640.877
  66  2136.982
  67  2273.47
  68  1935.11
  69  2553.006
  70  2486.842
  71  1834.118
  72  1133.57
  73  900.2178
  74  1032.498
  75  658.0958
  76  1260.687
  77  1647.285
  78  1746.807
  79  1907.697
  80  2231.751
  81  2733.177
  82  2229.691
  83  2442.262
  84  1183.681
  85  1315.793
  86  1309.162
  87  1032.045
  88  1580.356
  89  2385.555
  90  2530.375
  91  2749.703
  92  2033.802
  93  1898.472
  94  1316.498
  95  1252.512
  96  1591.587
  97  1240.959
  98  2021.537
  99  2557.814
 100  1675.388
 101  2151.542
 102  1935.471
 103  2079.427
 104  2122.654
 105  2031.567
 106  2021.412
 107  1888.441
 108  1921.586
 109  1603.009
 110  1735.038
 111  1434.129
 112  1582.496
 113  1622.106
 114  1560.048
 115  1947.586
 116  1826.306
 117  1751.994
 118  1591.801
 119  1833.037
 120  2147.87
 121  1939.767
 122  1738.625
 123  1708.726
 124  871.9624
 125  48.67847
 126  -16.00798
 127  -172.7842
 128  92.52479
 129  154.8602
 130  566.1163
 131  895.8726
 132  1734.046
 133  1305.274
 134  809.9362
 135  632.1841
 136  779.0132
 137  1258.752
 138  936.1404
 139  1006.426
 140  707.4506
 141  505.2523
 142  1308.431
 143  1372.321
 144  923.7733
 145  1370.151
 146  1471.085
 147  681.6725
 148  827.736
 149  1102.181
 150  1012.174
 151  1603.504
 152  1205.994
 153  864.7897
 154  1542.882
 155  1373.622
 156  1129.411
 157  1541.605
 158  1483.926
 159  1396.389
 160  1335.561
 161  1408.362
 162  1605.43
 163  1622.248
 164  1740.952
 165  1828.014
 166  2703.364
 167  2358.435
 168  2279.873
 169  2881.004
 170  2615.17
 171  2354.278
 172  1824.471
 173  2541.263
 174  2338.262
 175  2948.412
 176  3393.46
 177  3485.934
 178  3111.236
 179  1992.647
 180  1240.682
 181  1177.886
 182  1340.946
 183  1334.419
 184  1277.703
 185  1261.471
 186  1398.13
 187  1626.05
 188  1207.05
 189  1076.332
 190  1699.305
 191  1080.453
 192  595.0767
 193  1461.126
 194  1862.76
 195  1551.178
 196  2735.951
 197  2025.229
 198  1487.649
 199  2396.564
 200  1649.45
 201  1521.487
 202  2332.543
 203  2004.721
 204  1597.045
 205  1732.462
 206  1619.472
 207  1314.198
 208  595.6573
 209  949.6568
 210  1782.095
 211  1255.598
 212  1421.177
 213  2154.685
 214  2487.379
 215  3064.96
 216  3353.834
 217  3494.96
 218  2986.99
 219  2894.133
 220  2670.969
 221  3111.667
 222  2997.142
 223  2691.434
 224  2746.506
 225  1556.539
 226  900.5317
 227  1567.597
 228  1676.26
 229  1375.017
 230  1108.951
 231  1601.916
 232  1583.851
 233  1698.28
 234  1842.248
 235  2131.296
 236  1718.531
 237  1622.738
 238  2166.352
 239  2144.089
 240  1958.648
 241  1777.988
 242  2538.645
 243  2937.148
 244  2404.346
 245  2336.17
 246  2800.442
 247  2868.375
 248  2916.173
 249  3107.498
 250  3366.577
 251  3197.932
 252  3178.407
 253  2972.944
 254  3110.342
 255  3326.149
 256  3937.807
 257  3119.069
 258  2864.238
 259  2859.304
 260  2745.421
 261  2806.364
 262  3068.049
 263  2720.862
 264  3272.454
 265  3675.14
 266  2607.432
 267  2110.181
 268  1998.782
 269  1784.633
 270  1762.482
 271  2483.57
 272  2912.236
 273  3088.546
 274  3242.169
 275  2612.313
 276  2415.574
 277  2410.454
 278  1806.201
 279  2072.837
 280  2295.566
 281  2292.585
 282  1751.039
 283  2335.33
 284  2545.802
 285  2267.162
 286  3142.175
 287  3686.924
 288  3185.425
 289  3640.941
 290  2853.886
 291  2185.479
 292  3008.274
 293  2430.086
 294  1811.553
 295  2586.286
 296  2696.387
 297  2872.714
 298  3070.38
 299  2392.283
 300  2280.253
 301  2354.224
 302  2635.972
 303  2769.126
 304  2807.84
 305  2581.532
 306  2733.16
 307  3295.932
 308  2898.49
 309  2543.359
 310  2572.431
 311  1764.121
 312  1889.65
 313  2349.345
 314  2260.092
 315  1998.708
 316  2443.588
 317  2947.502
 318  3697.425
 319  3939.737
 320  3943.995
 321  3838.566
 322  3692.542
 323  3278.454
 324  2733.664
 325  3666.884
 326  3683.468
 327  3637.505
 328  4123.631
 329  3848.013
 330  2873.991
 331  2282.275
 332  2081.317
 333  1795.991
 334  1466.353
 335  1689.601
 336  1710.677
 337  1459.827
 338  1651.089
 339  1572.565
 340  1434.606
 341  2075.407
 342  2969.208
 343  2801.766
 344  2582.561
 345  2663.836
 346  1953.154
 347  2211.411
 348  2853.618
 349  3386.344
 350  2786.494
 351  1925.22
 352  2257.339
 353  1993.184
 354  2788.892
 355  2978.024
 356  2503.077
 357  1996.025
 358  1991.745
 359  2405.418
 360  2804.255
 361  3011.429
 362  2201.529
 363  2492.872
 364  2624.527
 365  2580.508
 366  2633.806
 367  2539.049
 368  2596.195
 369  2958.555
 370  2645.877
 371  2350.475
 372  2430.996
 373  2420.215
 374  2326.492
 375  2500.923
 376  2479.849
 377  2968.024
 378  3440.723
 379  2884.056
 380  2596.108
 381  1539.818
 382  925.8425
 383  1237.72
 384  1548.228
 385  810.4565
 386  486.7097
 387  849.1348
 388  718.2814
 389  551.453
 390  699.2005
 391  507.0169
 392  360.8807
 393  606.3572
 394  872.5953
 395  1217.6
 396  1098.109
 397  1395.999
 398  2066.559
 399  1546.951
 400  1593.96
 401  1655.629
 402  2319.647
 403  2818.944
 404  1727.339
 405  1688.589
 406  1035.117
 407  1732.497
 408  1807.37
 409  1745.206
 410  2278.679
 411  2722.564
 412  3255.894
 413  3239.046
 414  3261.34
 415  3389.773
 416  3410.211
 417  3000.074
 418  2680.975
 419  1867.958
 420  1680.332
 421  1212.14
 422  1536.698
 423  1707.124
 424  1526.776
 425  1432.073
 426  1016.191
 427  1231.272
 428  1177.382
 429  1261.412
 430  1577.153
 431  1440.675
 432  1864.321
 433  2501.344
 434  2188.585
 435  2234.392
 436  2656.777
 437  2974.635
 438  3215.914
 439  2447.304
 440  2438.311
 441  2198.592
 442  1693.377
 443  1369.819
 444  1668.825
 445  2230.294
 446  1641.138
 447  1797.588
 448  1815.72
 449  1954.314
 450  2082.714
 451  2360.056
 452  2030.193
 453  1842.41
 454  2539.711
 455  2472.546
 456  2972.813
 457  2999.174
 458  2503.052
 459  1521.077
 460  1856.671
 461  2012.069
 462  2292.3
 463  2010.604
 464  1862.399
 465  2438.805
 466  2299.133
 467  1653.976
 468  2106.371
 469  2203.88
 470  2732.139
 471  2099.573
 472  1898.316
 473  1259.934
 474  1241.827
 475  691.0905
 476  548.3557
 477  432.4792
 478  597.7181
 479  1709.103
 480  1153.782
 481  1049.922
 482  1158.305
 483  1501.663
 484  1912.325
 485  1095.078
 486  1586.372
 487  2481.223
 488  2954.164
 489  2867.883
 490  2228.531
 491  1841.007
 492  1869.205
 493  1623.89
 494  1450.531
 495  1932.037
 496  1856.51
 497  1471.337
 498  1659.561
 499  1677.515
 500  1716.569
 501  1781.785
 502  1914.022
 503  2174.635
 504  1700.113
 505  1421.122
 506  1355.245
 507  1276.358
 508  1528.089
 509  1651.143
 510  1638.867
 511  1803.38
