# Input file       =  1181198473.105470-PSRB0329-2ms-sampling-dd.dat
# Candidate        =  PSR_0332+5434
# Telescope        =  AR
# Epoch_topo       =  57915.278843813307
# Epoch_bary       =  N/A
# T_sample         =  0.002
# Data Folded      =  7340032
# Data Avg         =  1.26035058280526e-10
# Data StdDev      =  3.5238572970657  
# Profile Bins     =  512
# Profile Avg      =  0.0136008034528836
# Profile StdDev   =  421.9221339361   
# Reduced chi-sqr  =  0.648
# Prob(Noise)      <  1   (~0.0 sigma)
# P_topo (ms)      =  714.506716910221  +/- 0.000154
# P'_topo (s/s)    =  -0                +/- 8.13e-11
# P''_topo (s/s^2) =  0                 +/- 3.59e-14
# P_bary (ms)      =  N/A
# P'_bary (s/s)    =  N/A
# P''_bary (s/s^2) =  N/A
# P_orb (s)        =  N/A
# asin(i)/c (s)    =  N/A
# eccentricity     =  N/A
# w (rad)          =  N/A
# T_peri           =  N/A
######################################################
   0  -25.61871
   1  348.0167
   2  231.1354
   3  110.9189
   4  192.3191
   5  151.8407
   6  349.7927
   7  101.4227
   8  -89.08237
   9  240.9347
  10  363.9184
  11  -21.63046
  12  -88.40051
  13  361.4091
  14  57.77842
  15  284.1358
  16  207.9783
  17  -142.284
  18  -214.4775
  19  -32.17758
  20  -37.2609
  21  87.50724
  22  -131.7693
  23  -196.3535
  24  -34.37552
  25  90.89091
  26  117.5637
  27  -28.14532
  28  44.60553
  29  -10.25108
  30  490.0421
  31  457.4449
  32  -37.98476
  33  -13.17135
  34  279.2829
  35  421.7232
  36  84.46547
  37  -5.580347
  38  -222.1703
  39  -171.7914
  40  190.9379
  41  54.98308
  42  -143.8045
  43  -104.628
  44  46.98606
  45  95.28378
  46  358.4335
  47  339.7147
  48  175.2962
  49  131.7323
  50  -61.86495
  51  -229.7718
  52  -104.5508
  53  185.8961
  54  16.92276
  55  -112.0127
  56  174.6083
  57  341.6794
  58  -46.43763
  59  -224.7249
  60  -246.0158
  61  -188.5747
  62  -402.3456
  63  -91.24512
  64  101.3699
  65  373.8556
  66  290.2746
  67  242.5371
  68  231.5508
  69  14.70988
  70  -40.96516
  71  -27.88543
  72  35.20832
  73  239.9088
  74  -23.07622
  75  -285.0798
  76  91.90664
  77  14.50984
  78  -1.936938
  79  -187.8169
  80  55.46334
  81  434.8416
  82  233.1041
  83  -44.88612
  84  51.87416
  85  -92.02423
  86  20.71186
  87  125.1512
  88  189.9621
  89  101.1553
  90  153.2896
  91  5.692395
  92  68.89028
  93  13.67226
  94  -188.1546
  95  -161.0939
  96  274.3323
  97  170.5085
  98  -70.56474
  99  -75.96751
 100  137.6538
 101  15.23683
 102  42.07701
 103  359.2437
 104  274.8535
 105  136.9736
 106  -4.67255
 107  28.6645
 108  -77.62906
 109  -404.459
 110  -421.7198
 111  -238.7636
 112  -220.0785
 113  -148.5445
 114  -96.10126
 115  -158.5002
 116  -74.72727
 117  55.67585
 118  240.9001
 119  209.8492
 120  290.7193
 121  361.7277
 122  393.6223
 123  92.08233
 124  -109.5249
 125  83.2307
 126  42.36191
 127  -107.3958
 128  61.15055
 129  139.3006
 130  -140.6336
 131  35.96342
 132  -11.36225
 133  62.45775
 134  -5.230562
 135  196.7523
 136  212.1445
 137  -56.36946
 138  67.28902
 139  322.4306
 140  35.52579
 141  229.4271
 142  187.3089
 143  -258.0597
 144  -366.9213
 145  54.2113
 146  288.4577
 147  444.6292
 148  385.7688
 149  -7.931263
 150  -145.2417
 151  -37.32352
 152  113.0646
 153  405.4664
 154  846.2354
 155  981.0112
 156  1319.375
 157  1364.705
 158  1063.366
 159  414.0146
 160  85.52695
 161  22.67369
 162  -37.91965
 163  -190.0749
 164  -274.6183
 165  -27.13783
 166  -235.6228
 167  358.7306
 168  330.0609
 169  155.407
 170  14.9746
 171  143.5119
 172  118.5945
 173  -95.18497
 174  118.4964
 175  -7.928968
 176  -248.2741
 177  -234.8824
 178  62.32573
 179  399.3231
 180  248.71
 181  -56.27679
 182  -174.2821
 183  -145.6786
 184  17.32846
 185  209.3404
 186  290.856
 187  181.4962
 188  274.618
 189  314.7361
 190  332.6984
 191  247.4856
 192  260.3175
 193  58.90446
 194  -38.82019
 195  -123.709
 196  -122.532
 197  171.3895
 198  236.829
 199  286.4364
 200  248.6272
 201  226.892
 202  -4.498115
 203  18.70596
 204  45.7277
 205  48.02515
 206  -137.6649
 207  -161.2674
 208  -81.19608
 209  -329.6612
 210  -364.967
 211  -447.0705
 212  -109.1545
 213  66.88966
 214  240.1048
 215  117.32
 216  -111.9572
 217  -90.08063
 218  -19.19767
 219  -216.9341
 220  -129.0433
 221  207.0404
 222  278.5931
 223  181.4077
 224  69.56004
 225  139.259
 226  -238.3431
 227  -145.44
 228  -175.2501
 229  -30.08245
 230  233.4125
 231  315.4342
 232  301.0259
 233  -100.2428
 234  -67.98415
 235  -211.7211
 236  -118.619
 237  36.64563
 238  160.9718
 239  -40.62446
 240  -130.044
 241  -176.7944
 242  -76.43486
 243  121.3205
 244  12.47634
 245  -35.82724
 246  9.847031
 247  -140.1579
 248  -165.677
 249  -91.4325
 250  -545.3948
 251  -565.99
 252  -458.1619
 253  -404.7124
 254  -327.1389
 255  -119.5398
 256  87.91283
 257  -82.76139
 258  103.0821
 259  32.49654
 260  -79.64341
 261  -362.9173
 262  -478.3565
 263  -231.6106
 264  -312.7813
 265  -385.2397
 266  -345.4618
 267  -239.8448
 268  -344.8975
 269  112.9005
 270  249.4627
 271  -94.62862
 272  -224.5522
 273  -253.8778
 274  -72.85072
 275  -1.285091
 276  -116.3721
 277  -59.66803
 278  2.883276
 279  -227.0253
 280  -440.8934
 281  -356.5667
 282  -182.692
 283  -121.8279
 284  -377.99
 285  -452.2591
 286  -341.3345
 287  -73.34623
 288  25.79869
 289  -187.2634
 290  -363.0807
 291  -343.6558
 292  -311.6173
 293  -419.0616
 294  -177.4504
 295  -177.1125
 296  -128.157
 297  -145.5747
 298  -309.8453
 299  -296.2568
 300  -226.5627
 301  -241.3029
 302  -473.5291
 303  -298.8
 304  -58.10152
 305  -77.61689
 306  -360.2783
 307  -250.6412
 308  -163.4547
 309  -77.02423
 310  -61.33719
 311  46.41059
 312  196.6696
 313  213.776
 314  22.66746
 315  -38.41471
 316  -125.0742
 317  -297.5471
 318  -327.2833
 319  -31.41998
 320  294.5927
 321  -217.471
 322  -302.9732
 323  -157.5938
 324  -134.1976
 325  -125.6026
 326  -45.15142
 327  153.5978
 328  352.6652
 329  -201.5399
 330  -161.2693
 331  296.1328
 332  193.9771
 333  -111.6887
 334  13.95812
 335  -69.62587
 336  34.89347
 337  -118.8691
 338  -180.1467
 339  77.66814
 340  -43.94746
 341  -58.39415
 342  42.23214
 343  185.1118
 344  -26.72876
 345  -114.0902
 346  183.611
 347  57.2974
 348  298.6268
 349  121.8805
 350  -135.7994
 351  -94.86125
 352  -196.1177
 353  14.96398
 354  -53.84279
 355  87.70916
 356  237.9093
 357  -46.4851
 358  -232.0295
 359  76.94585
 360  132.6236
 361  48.69913
 362  251.89
 363  166.2961
 364  61.17691
 365  -155.3895
 366  -145.9817
 367  -163.9607
 368  50.70505
 369  257.4167
 370  325.6472
 371  304.9116
 372  -3.069246
 373  186.8618
 374  102.2223
 375  97.92553
 376  234.4984
 377  222.6399
 378  -2.039612
 379  -245.7085
 380  -154.2131
 381  -147.2871
 382  -388.3367
 383  -206.9971
 384  -146.6001
 385  54.02059
 386  142.5982
 387  96.73836
 388  -370.3668
 389  -88.81245
 390  -146.735
 391  -537.901
 392  -347.1108
 393  -205.1894
 394  -119.4127
 395  -272.8306
 396  -48.39471
 397  -310.0044
 398  -182.8124
 399  179.9796
 400  191.8838
 401  -28.12271
 402  166.8023
 403  297.9628
 404  61.94807
 405  77.88011
 406  199.2728
 407  -35.03738
 408  -77.68272
 409  -234.1861
 410  -32.74744
 411  97.93072
 412  -88.4392
 413  -297.97
 414  -194.4701
 415  21.99622
 416  -49.44427
 417  -21.38157
 418  -25.90627
 419  207.5223
 420  210.7286
 421  86.43615
 422  245.0913
 423  445.3005
 424  119.2297
 425  11.11164
 426  -0.9827968
 427  329.2768
 428  404.1299
 429  155.9942
 430  81.2269
 431  136.0334
 432  223.2231
 433  226.3027
 434  2.14847
 435  -127.11
 436  -98.58675
 437  -282.1178
 438  -124.1152
 439  32.42995
 440  50.8713
 441  -19.46062
 442  -9.152294
 443  -176.7452
 444  -35.72759
 445  -269.9779
 446  -450.0951
 447  -59.55048
 448  -121.5636
 449  -105.0006
 450  176.1568
 451  205.2739
 452  280.7019
 453  108.9861
 454  -8.020923
 455  -44.28322
 456  -322.5551
 457  -452.8077
 458  -272.7662
 459  -231.8294
 460  -221.9978
 461  -55.70832
 462  -252.9847
 463  -258.8662
 464  -557.3295
 465  -609.3023
 466  -707.6653
 467  -343.7421
 468  -227.6151
 469  -153.1681
 470  44.57618
 471  47.71667
 472  -24.94296
 473  -241.1333
 474  -483.011
 475  -444.7088
 476  -255.0582
 477  -299.9555
 478  -503.8142
 479  -443.6258
 480  163.5715
 481  -109.7229
 482  -309.9305
 483  39.42424
 484  -11.78574
 485  26.01115
 486  -167.8561
 487  47.8484
 488  288.919
 489  220.5012
 490  -129.2484
 491  -190.0641
 492  182.2034
 493  521.2621
 494  560.2953
 495  308.9199
 496  87.39738
 497  -79.04838
 498  -226.7273
 499  -347.0548
 500  48.8414
 501  566.1412
 502  350.3361
 503  100.9933
 504  174.5004
 505  410.0819
 506  309.9641
 507  74.58207
 508  -71.14447
 509  411.8719
 510  424.6053
 511  71.96148
