# Input file       =  1181700809.115506_cleaned.dat
# Candidate        =  PSR_0332+5434
# Telescope        =  AR
# Epoch_topo       =  57921.092918003538
# Epoch_bary       =  N/A
# T_sample         =  0.002
# Data Folded      =  7208960
# Data Avg         =  0.0268401191938393
# Data StdDev      =  0.999900495607701
# Profile Bins     =  512
# Profile Avg      =  377.908613789324 
# Profile StdDev   =  118.647368684353 
# Reduced chi-sqr  =  0.816
# Prob(Noise)      <  0.999   (~0.0 sigma)
# P_topo (ms)      =  714.501304999949  +/- 0.000183
# P'_topo (s/s)    =  -0                +/- 9.83e-11
# P''_topo (s/s^2) =  0                 +/- 4.42e-14
# P_bary (ms)      =  N/A
# P'_bary (s/s)    =  N/A
# P''_bary (s/s^2) =  N/A
# P_orb (s)        =  N/A
# asin(i)/c (s)    =  N/A
# eccentricity     =  N/A
# w (rad)          =  N/A
# T_peri           =  N/A
######################################################
   0  599.2465
   1  597.2686
   2  633.0636
   3  336.8384
   4  283.2078
   5  304.2104
   6  249.6633
   7  357.5923
   8  357.3456
   9  315.2571
  10  230.5721
  11  254.6867
  12  332.8552
  13  401.0057
  14  382.7379
  15  389.1577
  16  228.6658
  17  286.7749
  18  289.849
  19  382.6594
  20  459.6968
  21  424.7888
  22  305.3362
  23  357.8216
  24  323.0015
  25  290.2636
  26  278.4232
  27  309.0568
  28  296.6981
  29  371.774
  30  476.7189
  31  442.7701
  32  493.6046
  33  441.086
  34  333.7317
  35  406.3065
  36  410.5792
  37  517.0427
  38  455.8915
  39  390.7529
  40  330.2984
  41  286.248
  42  288.2762
  43  352.7626
  44  444.0656
  45  416.5264
  46  317.5902
  47  366.1218
  48  428.3695
  49  472.0843
  50  387.4167
  51  344.7902
  52  403.553
  53  352.7723
  54  348.0337
  55  421.6544
  56  272.92
  57  337.4292
  58  250.53
  59  248.0706
  60  349.3115
  61  393.8526
  62  422.102
  63  355.0286
  64  404.8025
  65  432.9407
  66  486.9975
  67  506.7199
  68  330.5565
  69  420.11
  70  460.4714
  71  436.8411
  72  362.9857
  73  451.1101
  74  369.509
  75  254.7614
  76  402.341
  77  376.3255
  78  354.6172
  79  542.056
  80  578.5266
  81  472.3064
  82  447.9904
  83  404.5994
  84  362.0545
  85  418.2534
  86  302.6181
  87  276.6566
  88  422.9153
  89  399.9877
  90  359.25
  91  439.4254
  92  328.7616
  93  289.8026
  94  369.2809
  95  457.0748
  96  498.3603
  97  529.6814
  98  599.3021
  99  489.9245
 100  458.6877
 101  515.7565
 102  373.2544
 103  345.5242
 104  441.8784
 105  424.9606
 106  480.9713
 107  400.9409
 108  503.108
 109  519.5001
 110  327.6805
 111  325.9479
 112  445.83
 113  603.1143
 114  465.9991
 115  382.0647
 116  348.8435
 117  314.6317
 118  243.1844
 119  409.6771
 120  356.0817
 121  329.0066
 122  382.8875
 123  450.6317
 124  422.4153
 125  242.8752
 126  309.2798
 127  437.2445
 128  374.9481
 129  383.0644
 130  310.0179
 131  320.8492
 132  287.1815
 133  283.5019
 134  284.4177
 135  303.7888
 136  305.985
 137  348.8533
 138  333.5897
 139  285.4986
 140  300.7992
 141  353.6707
 142  337.0116
 143  338.0451
 144  351.8181
 145  373.5945
 146  314.99
 147  277.5511
 148  285.0965
 149  316.3048
 150  461.3526
 151  368.1638
 152  308.625
 153  301.3034
 154  369.5318
 155  456.5022
 156  481.0334
 157  455.6205
 158  498.9951
 159  421.6948
 160  381.7221
 161  184.53
 162  220.7364
 163  423.7157
 164  500.0908
 165  346.7187
 166  296.6143
 167  271.6187
 168  244.1434
 169  292.4731
 170  389.89
 171  419.1107
 172  435.0498
 173  475.4315
 174  430.1873
 175  280.6218
 176  370.8549
 177  363.8828
 178  355.9225
 179  384.2072
 180  458.3336
 181  536.326
 182  354.3929
 183  231.6097
 184  327.6879
 185  366.6307
 186  381.8986
 187  427.121
 188  460.8424
 189  431.7148
 190  403.2954
 191  402.6653
 192  382.597
 193  367.6484
 194  401.3621
 195  411.2983
 196  298.1517
 197  341.328
 198  329.1203
 199  272.6183
 200  244.8595
 201  381.3406
 202  310.2721
 203  411.783
 204  414.9139
 205  509.0861
 206  385.1306
 207  463.7874
 208  440.935
 209  428.6092
 210  321.3039
 211  309.3439
 212  305.9161
 213  341.2957
 214  432.0687
 215  424.5153
 216  233.5773
 217  300.932
 218  385.6464
 219  402.6565
 220  303.7416
 221  268.3882
 222  407.0274
 223  449.6865
 224  498.4015
 225  524.5609
 226  495.9657
 227  515.8788
 228  447.5962
 229  365.4844
 230  430.1691
 231  388.0154
 232  392.446
 233  323.9228
 234  237.3291
 235  276.4094
 236  293.1501
 237  398.4869
 238  388.9627
 239  318.5387
 240  365.0674
 241  425.275
 242  434.7125
 243  371.2989
 244  345.8346
 245  369.1443
 246  417.0836
 247  364.6589
 248  358.9773
 249  305.6817
 250  315.1315
 251  429.0269
 252  445.7701
 253  401.941
 254  356.9618
 255  335.2682
 256  349.8821
 257  349.1965
 258  438.9426
 259  380.1109
 260  417.3532
 261  380.9615
 262  373.8896
 263  373.7253
 264  420.9662
 265  381.5693
 266  463.1942
 267  307.8372
 268  282.7419
 269  420.3419
 270  441.6442
 271  278.968
 272  367.7347
 273  355.2325
 274  309.6145
 275  374.3322
 276  380.9076
 277  301.5337
 278  324.9403
 279  411.4302
 280  346.2623
 281  264.0165
 282  192.591
 283  256.9741
 284  363.1581
 285  299.068
 286  308.8773
 287  438.9527
 288  403.373
 289  319.771
 290  305.7196
 291  384.0484
 292  357.7432
 293  310.7156
 294  399.8056
 295  454.1313
 296  331.8291
 297  268.1197
 298  385.0051
 299  371.654
 300  383.2899
 301  370.4876
 302  387.3547
 303  383.6721
 304  420.1503
 305  427.3798
 306  505.4352
 307  363.2348
 308  354.0695
 309  439.8994
 310  264.0381
 311  224.4177
 312  300.7803
 313  379.3976
 314  308.1659
 315  321.1791
 316  417.7324
 317  430.371
 318  295.7289
 319  371.4716
 320  515.4848
 321  433.6377
 322  371.7167
 323  391.1655
 324  343.7618
 325  289.5292
 326  277.5477
 327  358.5502
 328  396.7531
 329  359.0129
 330  395.4229
 331  346.9727
 332  400.8036
 333  341.8766
 334  423.5078
 335  306.8834
 336  279.2835
 337  373.1553
 338  409.0739
 339  419.8503
 340  378.8559
 341  330.6751
 342  433.9993
 343  422.3019
 344  419.4722
 345  474.3037
 346  381.8543
 347  344.0381
 348  393.518
 349  430.4281
 350  485.3222
 351  385.6204
 352  411.5863
 353  487.8001
 354  447.9093
 355  280.9583
 356  326.5703
 357  339.9946
 358  322.9061
 359  359.0898
 360  360.8008
 361  356.717
 362  368.0103
 363  448.5456
 364  389.7421
 365  410.0383
 366  376.2738
 367  364.734
 368  421.299
 369  358.8856
 370  364.8336
 371  458.0477
 372  473.5118
 373  382.0605
 374  426.3357
 375  364.6609
 376  296.0525
 377  390.8007
 378  510.9135
 379  502.4091
 380  316.3389
 381  370.3381
 382  394.4736
 383  412.9523
 384  385.6992
 385  264.6939
 386  184.84
 387  297.5989
 388  373.0341
 389  433.0855
 390  411.6877
 391  293.7635
 392  261.967
 393  362.2743
 394  270.5318
 395  277.8405
 396  452.3461
 397  411.4872
 398  399.4356
 399  511.8093
 400  457.8184
 401  347.7994
 402  388.8695
 403  362.0545
 404  256.4597
 405  229.4061
 406  314.8243
 407  340.6396
 408  266.5639
 409  297.6149
 410  351.3517
 411  387.8303
 412  415.0398
 413  361.5349
 414  361.3203
 415  174.1697
 416  258.1006
 417  335.912
 418  395.5226
 419  382.9847
 420  394.0046
 421  249.3463
 422  172.1307
 423  283.3356
 424  380.3246
 425  319.2208
 426  373.9237
 427  361.2044
 428  222.5636
 429  223.2017
 430  296.981
 431  227.2049
 432  380.8179
 433  450.7358
 434  417.0259
 435  429.4523
 436  457.1852
 437  370.9536
 438  409.1241
 439  424.0315
 440  374.3407
 441  480.2671
 442  555.8353
 443  452.8721
 444  450.1767
 445  405.8149
 446  430.3039
 447  417.5804
 448  353.5902
 449  383.8796
 450  469.9118
 451  367.8152
 452  435.7572
 453  500.7977
 454  504.9367
 455  423.2713
 456  418.8211
 457  441.7627
 458  466.2671
 459  435.9811
 460  384.2213
 461  336.9923
 462  327.7266
 463  394.0774
 464  399.8257
 465  425.4692
 466  484.2429
 467  548.4821
 468  483.9981
 469  411.4918
 470  363.7133
 471  295.8645
 472  297.3034
 473  407.9679
 474  445.7916
 475  503.6745
 476  457.2572
 477  499.3328
 478  455.2127
 479  396.675
 480  334.7133
 481  320.4893
 482  337.2989
 483  333.4802
 484  330.8216
 485  349.1775
 486  327.6192
 487  254.3065
 488  292.694
 489  327.3631
 490  435.9828
 491  419.699
 492  446.4579
 493  516.97
 494  342.7915
 495  328.0096
 496  316.4742
 497  309.781
 498  334.6511
 499  331.752
 500  330.1975
 501  321.8743
 502  390.6288
 503  323.8581
 504  385.903
 505  411.4458
 506  442.3269
 507  475.7638
 508  555.6838
 509  633.1659
 510  643.8632
 511  615.6541
