# Input file       =  1181270019.127795_cleaned.dat
# Candidate        =  PSR_0332+5434
# Telescope        =  AR
# Epoch_topo       =  57916.106922775405
# Epoch_bary       =  N/A
# T_sample         =  0.002
# Data Folded      =  7143424
# Data Avg         =  0.0267051252506387
# Data StdDev      =  1.00006985168448 
# Profile Bins     =  512
# Profile Avg      =  372.628265625445 
# Profile StdDev   =  118.126835263961 
# Reduced chi-sqr  =  0.992
# Prob(Noise)      <  0.542   (~0.0 sigma)
# P_topo (ms)      =  714.505927703215  +/- 0.000154
# P'_topo (s/s)    =  -0                +/- 8.33e-11
# P''_topo (s/s^2) =  0                 +/- 3.78e-14
# P_bary (ms)      =  N/A
# P'_bary (s/s)    =  N/A
# P''_bary (s/s^2) =  N/A
# P_orb (s)        =  N/A
# asin(i)/c (s)    =  N/A
# eccentricity     =  N/A
# w (rad)          =  N/A
# T_peri           =  N/A
######################################################
   0  416.5517
   1  342.6284
   2  331.7265
   3  455.0527
   4  396.1235
   5  380.6312
   6  314.2452
   7  362.8753
   8  316.8777
   9  275.9559
  10  315.4439
  11  277.5388
  12  409.4171
  13  368.8074
  14  332.6193
  15  449.3898
  16  294.3595
  17  379.6178
  18  425.4138
  19  207.7067
  20  320.7121
  21  371.2281
  22  286.8065
  23  382.1098
  24  314.7586
  25  459.3368
  26  459.5178
  27  373.3515
  28  375.4906
  29  200.887
  30  281.0406
  31  340.8632
  32  352.0182
  33  335.8239
  34  285.1428
  35  310.1974
  36  413.4592
  37  407.6404
  38  260.4818
  39  334.2665
  40  317.5053
  41  467.7297
  42  482.5454
  43  432.6195
  44  369.09
  45  375.1591
  46  495.0809
  47  423.5603
  48  365.1943
  49  429.5018
  50  408.822
  51  435.1724
  52  497.8358
  53  477.5337
  54  370.711
  55  353.5039
  56  342.1405
  57  301.056
  58  278.4609
  59  399.8011
  60  449.3124
  61  325.4913
  62  404.8094
  63  331.969
  64  289.8169
  65  348.4847
  66  433.925
  67  389.0883
  68  374.8897
  69  380.2241
  70  266.9952
  71  427.4084
  72  425.1738
  73  414.0338
  74  378.5162
  75  386.7056
  76  415.6405
  77  372.9836
  78  295.0891
  79  318.3152
  80  381.2194
  81  346.0529
  82  350.0292
  83  331.2677
  84  270.096
  85  257.767
  86  326.1288
  87  258.5255
  88  386.291
  89  374.5236
  90  314.8686
  91  293.8004
  92  161.6712
  93  212.1197
  94  322.6617
  95  309.6519
  96  295.8346
  97  392.0471
  98  393.1457
  99  319.9965
 100  192.6019
 101  365.6083
 102  380.7479
 103  299.7821
 104  305.09
 105  307.8714
 106  364.669
 107  389.9337
 108  362.3146
 109  249.0255
 110  290.6635
 111  405.5738
 112  414.1892
 113  287.8035
 114  323.4915
 115  318.0191
 116  358.8333
 117  314.7867
 118  336.4124
 119  429.1359
 120  439.3464
 121  476.2961
 122  383.0448
 123  253.6078
 124  349.311
 125  385.5451
 126  375.3596
 127  308.4046
 128  328.4192
 129  329.2701
 130  273.7009
 131  285.0729
 132  343.9078
 133  311.0361
 134  272.6492
 135  237.7826
 136  153.5502
 137  224.0655
 138  300.6208
 139  359.3478
 140  421.5479
 141  324.4792
 142  306.3044
 143  266.6898
 144  247.1511
 145  348.611
 146  353.3089
 147  370.5488
 148  333.565
 149  238.8278
 150  242.9974
 151  310.2809
 152  288.7485
 153  250.7926
 154  258.241
 155  346.2066
 156  316.1014
 157  351.6639
 158  368.6938
 159  314.5806
 160  251.1065
 161  345.2584
 162  290.0919
 163  256.6419
 164  290.5006
 165  465.4359
 166  348.9379
 167  312.7544
 168  388.6389
 169  346.0628
 170  447.9526
 171  370.593
 172  350.0633
 173  391.955
 174  308.9925
 175  401.7632
 176  483.4519
 177  399.781
 178  360.0122
 179  411.297
 180  511.8169
 181  456.8511
 182  319.4655
 183  399.7377
 184  475.1455
 185  447.3809
 186  329.5208
 187  414.5363
 188  415.1935
 189  470.2486
 190  466.4949
 191  394.4509
 192  389.4028
 193  279.8001
 194  241.4398
 195  417.1163
 196  263.9422
 197  370.9617
 198  379.8054
 199  406.257
 200  400.0457
 201  416.285
 202  373.5675
 203  315.4407
 204  382.7458
 205  401.401
 206  374.1844
 207  367.2533
 208  369.3982
 209  307.6659
 210  399.517
 211  433.8756
 212  359.1739
 213  343.83
 214  330.6292
 215  328.8914
 216  408.0854
 217  484.9066
 218  385.8479
 219  475.8953
 220  524.5588
 221  563.0602
 222  555.981
 223  431.0453
 224  469.2
 225  521.9614
 226  469.4759
 227  433.203
 228  299.9729
 229  306.308
 230  263.2804
 231  412.2024
 232  507.2481
 233  378.5608
 234  291.5811
 235  224.6365
 236  300.7229
 237  376.609
 238  394.0365
 239  427.8713
 240  522.5848
 241  396.9338
 242  333.8678
 243  423.6659
 244  325.6536
 245  325.6699
 246  463.5841
 247  404.2874
 248  273.7809
 249  292.2634
 250  285.0598
 251  436.9041
 252  563.0947
 253  501.5912
 254  333.0233
 255  215.7084
 256  299.8182
 257  331.0386
 258  392.5514
 259  461.9529
 260  413.7743
 261  471.0451
 262  414.8411
 263  298.6193
 264  273.0143
 265  393.6865
 266  425.5683
 267  410.101
 268  379.6689
 269  446.223
 270  354.089
 271  365.848
 272  387.6156
 273  450.5894
 274  516.4473
 275  274.9851
 276  311.0915
 277  304.9662
 278  307.6495
 279  294.5576
 280  307.5458
 281  386.5605
 282  414.1952
 283  426.159
 284  410.7484
 285  416.3063
 286  444.008
 287  431.1021
 288  381.1458
 289  430.9393
 290  369.1242
 291  221.2174
 292  268.3051
 293  290.3242
 294  350.6554
 295  289.1959
 296  276.7218
 297  263.0305
 298  350.5098
 299  534.1176
 300  495.6573
 301  294.3836
 302  301.6834
 303  362.7511
 304  413.2872
 305  315.6299
 306  371.837
 307  364.3543
 308  346.0791
 309  345.1577
 310  261.7685
 311  218.1514
 312  304.8192
 313  284.0839
 314  253.0306
 315  349.6394
 316  351.7932
 317  359.2326
 318  408.1222
 319  394.6799
 320  350.7863
 321  336.8838
 322  319.9983
 323  401.8385
 324  351.3803
 325  350.0908
 326  446.0877
 327  407.0804
 328  350.3116
 329  382.9021
 330  327.6336
 331  285.1922
 332  272.108
 333  439.9631
 334  423.0645
 335  324.6784
 336  357.8636
 337  553.7001
 338  534.1922
 339  406.7047
 340  328.8286
 341  385.9105
 342  406.0699
 343  418.6625
 344  357.3547
 345  439.8732
 346  407.087
 347  451.3206
 348  351.9969
 349  415.2118
 350  290.9605
 351  279.8565
 352  441.9408
 353  294.3337
 354  384.6782
 355  434.1025
 356  338.095
 357  321.2473
 358  359.1711
 359  344.9846
 360  466.2554
 361  383.5508
 362  378.6674
 363  266.1058
 364  281.9506
 365  446.09
 366  473.6248
 367  397.3375
 368  411.1366
 369  535.2646
 370  470.1265
 371  299.7048
 372  247.6989
 373  316.7972
 374  334.0861
 375  441.5922
 376  347.977
 377  280.6061
 378  344.3835
 379  353.6667
 380  409.5543
 381  381.5556
 382  303.5955
 383  373.1913
 384  326.5327
 385  278.7925
 386  269.9113
 387  322.8681
 388  313.8195
 389  328.1779
 390  378.4262
 391  503.5453
 392  391.8237
 393  388.6248
 394  422.9399
 395  380.0133
 396  360.9108
 397  411.5072
 398  426.7312
 399  461.3486
 400  415.8121
 401  371.2496
 402  344.5132
 403  221.8621
 404  258.4763
 405  309.1678
 406  345.4654
 407  440.5651
 408  405.3615
 409  211.5692
 410  333.4487
 411  379.9407
 412  391.9237
 413  405.02
 414  387.0181
 415  426.2454
 416  477.0471
 417  542.1996
 418  418.8241
 419  399.043
 420  376.1553
 421  380.4637
 422  437.6383
 423  469.4928
 424  571.0885
 425  497.7853
 426  367.0135
 427  388.5034
 428  375.2808
 429  353.7379
 430  418.9525
 431  515.0052
 432  554.1738
 433  516.1552
 434  520.5899
 435  641.0915
 436  719.8586
 437  882.0318
 438  962.9131
 439  823.5837
 440  591.6011
 441  476.8522
 442  375.9261
 443  390.6974
 444  323.7749
 445  281.3538
 446  397.1409
 447  441.6126
 448  366.4589
 449  259.507
 450  377.3176
 451  543.4003
 452  417.4102
 453  379.4884
 454  462.8874
 455  345.5672
 456  369.7191
 457  296.7104
 458  401.5219
 459  404.2234
 460  293.186
 461  273.3415
 462  288.5608
 463  348.4789
 464  419.3214
 465  427.2922
 466  403.8336
 467  470.2887
 468  329.0246
 469  310.356
 470  248.3745
 471  421.4235
 472  447.6764
 473  436.4616
 474  320.7803
 475  414.1787
 476  404.6979
 477  379.0821
 478  385.5049
 479  416.0569
 480  389.731
 481  423.3861
 482  410.4765
 483  453.9723
 484  363.143
 485  427.9577
 486  428.3813
 487  398.262
 488  360.198
 489  376.2921
 490  410.8547
 491  499.3341
 492  409.5485
 493  434.8927
 494  382.196
 495  384.251
 496  519.5997
 497  368.858
 498  244.0907
 499  269.0286
 500  334.6738
 501  275.4275
 502  324.9821
 503  342.0464
 504  314.208
 505  359.0602
 506  416.0539
 507  416.0663
 508  381.4658
 509  389.7238
 510  316.3527
 511  348.7354
