# Input file       =  1181112274.121032_cleaned.dat
# Candidate        =  PSR_0332+5434
# Telescope        =  AR
# Epoch_topo       =  57914.281170382317
# Epoch_bary       =  N/A
# T_sample         =  0.002
# Data Folded      =  7340032
# Data Avg         =  0.0683695721745609
# Data StdDev      =  2.52168925528937 
# Profile Bins     =  1024
# Profile Avg      =  489.994904524777 
# Profile StdDev   =  213.496404904939 
# Reduced chi-sqr  =  0.920
# Prob(Noise)      <  0.968   (~0.0 sigma)
# P_topo (ms)      =  714.507657048023  +/- 0.00058
# P'_topo (s/s)    =  -0                +/- 3.06e-10
# P''_topo (s/s^2) =  0                 +/- 1.35e-13
# P_bary (ms)      =  N/A
# P'_bary (s/s)    =  N/A
# P''_bary (s/s^2) =  N/A
# P_orb (s)        =  N/A
# asin(i)/c (s)    =  N/A
# eccentricity     =  N/A
# w (rad)          =  N/A
# T_peri           =  N/A
######################################################
   0  455.1946
   1  564.4296
   2  584.7662
   3  603.6259
   4  620.0852
   5  728.5467
   6  699.9427
   7  607.5973
   8  519.7997
   9  529.256
  10  607.1327
  11  672.0587
  12  783.0042
  13  776.868
  14  744.4005
  15  732.0894
  16  718.4687
  17  763.9077
  18  770.1035
  19  769.8608
  20  716.8098
  21  661.2316
  22  639.2442
  23  612.0258
  24  517.2712
  25  550.7573
  26  560.7139
  27  527.691
  28  548.3466
  29  623.2328
  30  725.4593
  31  715.3654
  32  725.3193
  33  768.9509
  34  735.5053
  35  689.0062
  36  597.3487
  37  628.9702
  38  603.2714
  39  568.9147
  40  507.452
  41  536.8485
  42  534.2371
  43  517.3895
  44  527.1046
  45  524.3268
  46  509.3956
  47  439.1533
  48  495.2937
  49  462.558
  50  496.7314
  51  559.1295
  52  655.5339
  53  634.2929
  54  556.6172
  55  495.6045
  56  432.6038
  57  449.5367
  58  454.197
  59  417.5947
  60  481.8548
  61  504.7081
  62  547.806
  63  455.9056
  64  440.2408
  65  445.8493
  66  495.5633
  67  613.3116
  68  634.5547
  69  608.1787
  70  524.7094
  71  567.9616
  72  568.9158
  73  636.8221
  74  547.0485
  75  486.2477
  76  365.4168
  77  380.5346
  78  421.7239
  79  512.0824
  80  539.0084
  81  521.5953
  82  513.8557
  83  548.3113
  84  531.7112
  85  503.0587
  86  362.2222
  87  335.272
  88  400.4859
  89  497.7571
  90  492.0521
  91  425.8778
  92  442.7806
  93  478.8883
  94  520.9061
  95  448.6698
  96  391.374
  97  443.2188
  98  552.8229
  99  635.1838
 100  580.1659
 101  571.1887
 102  516.0978
 103  510.1038
 104  490.0058
 105  541.3566
 106  552.6892
 107  492.3903
 108  468.719
 109  484.4638
 110  562.5792
 111  656.681
 112  684.7754
 113  614.0242
 114  471.2507
 115  413.2758
 116  419.629
 117  474.7244
 118  479.1135
 119  434.6622
 120  378.8096
 121  373.567
 122  477.8019
 123  623.1087
 124  722.9543
 125  674.2599
 126  625.6013
 127  655.2682
 128  694.5873
 129  597.6607
 130  597.5479
 131  632.6963
 132  643.9124
 133  481.5414
 134  468.6463
 135  553.0416
 136  633.4365
 137  621.9865
 138  602.4622
 139  597.6006
 140  574.5759
 141  611.3582
 142  479.6768
 143  446.5719
 144  319.5027
 145  342.3904
 146  395.9635
 147  483.7257
 148  549.6613
 149  591.002
 150  570.3438
 151  570.4698
 152  545.4943
 153  583.7353
 154  528.6786
 155  481.0679
 156  443.1292
 157  412.2029
 158  418.36
 159  347.6527
 160  307.1608
 161  405.6992
 162  448.4967
 163  416.8383
 164  340.0231
 165  396.7788
 166  428.5864
 167  355.6737
 168  286.7815
 169  271.9387
 170  413.9029
 171  436.1278
 172  467.8174
 173  358.8378
 174  316.1484
 175  285.3608
 176  383.4164
 177  493.6716
 178  546.504
 179  532.0983
 180  480.8271
 181  463.5955
 182  440.7504
 183  408.8076
 184  436.7643
 185  435.5237
 186  442.3692
 187  396.0385
 188  345.4001
 189  328.3561
 190  383.2616
 191  380.2824
 192  342.2011
 193  365.6109
 194  433.2886
 195  471.7571
 196  468.5256
 197  450.3622
 198  404.7482
 199  377.9319
 200  484.1448
 201  502.4321
 202  494.7366
 203  437.6579
 204  427.1027
 205  439.8396
 206  524.1703
 207  585.2673
 208  526.7861
 209  464.574
 210  500.9659
 211  579.8857
 212  564.631
 213  435.0313
 214  330.6844
 215  340.3618
 216  438.3224
 217  440.9025
 218  390.3084
 219  336.1361
 220  426.6618
 221  571.5044
 222  615.3293
 223  513.2559
 224  454.9606
 225  487.5366
 226  557.6241
 227  563.7017
 228  614.505
 229  596.0181
 230  548.7748
 231  474.1132
 232  472.8718
 233  490.093
 234  553.5833
 235  654.5093
 236  646.3425
 237  483.4474
 238  322.0413
 239  262.2866
 240  319.2553
 241  317.4039
 242  314.1066
 243  359.5327
 244  436.6454
 245  503.3733
 246  465.6215
 247  400.2127
 248  349.4776
 249  319.6907
 250  328.939
 251  403.8266
 252  385.194
 253  369.4962
 254  389.9973
 255  476.4319
 256  480.9465
 257  396.53
 258  357.2988
 259  305.1141
 260  331.9103
 261  339.4014
 262  385.1917
 263  305.0069
 264  354.0639
 265  367.7011
 266  460.4632
 267  483.1673
 268  475.0725
 269  457.3964
 270  426.4756
 271  433.279
 272  370.4617
 273  293.2176
 274  243.7469
 275  253.2087
 276  310.4891
 277  404.4076
 278  483.4797
 279  570.4593
 280  492.5056
 281  467.6185
 282  491.2607
 283  557.7999
 284  423.6649
 285  417.7227
 286  456.8034
 287  558.7442
 288  482.3434
 289  417.7133
 290  416.6505
 291  452.7377
 292  450.7943
 293  556.644
 294  661.1478
 295  689.7919
 296  527.7893
 297  515.4894
 298  475.6418
 299  528.314
 300  536.9002
 301  539.2974
 302  413.5
 303  383.3825
 304  485.5134
 305  548.6432
 306  467.5182
 307  430.6843
 308  426.223
 309  505.3106
 310  502.4492
 311  570.8364
 312  592.1856
 313  458.8755
 314  414.6877
 315  355.3621
 316  403.383
 317  395.1411
 318  418.2542
 319  405.7365
 320  432.1883
 321  465.3779
 322  449.9616
 323  439.4122
 324  453.0543
 325  536.8293
 326  490.347
 327  418.7054
 328  418.1809
 329  550.2738
 330  542.9627
 331  537.7981
 332  497.6624
 333  594.7538
 334  573.6606
 335  530.379
 336  507.2379
 337  629.8079
 338  666.8412
 339  704.5008
 340  612.1873
 341  645.5257
 342  630.2199
 343  641.8676
 344  620.8273
 345  565.0501
 346  527.855
 347  506.0845
 348  502.3827
 349  465.4008
 350  359.5811
 351  409.58
 352  451.3299
 353  453.8037
 354  423.2885
 355  401.7394
 356  501.6786
 357  581.5648
 358  625.2193
 359  577.884
 360  449.7627
 361  382.0986
 362  418.9184
 363  414.4107
 364  436.5025
 365  366.5319
 366  477.249
 367  498.6208
 368  552.182
 369  427.9219
 370  441.956
 371  420.8688
 372  488.2309
 373  486.4812
 374  493.6078
 375  518.4882
 376  538.2932
 377  552.862
 378  438.6378
 379  338.4461
 380  320.1546
 381  352.5732
 382  444.0163
 383  448.7393
 384  470.8174
 385  386.2743
 386  319.4641
 387  303.8828
 388  212.9633
 389  217.0156
 390  315.9561
 391  389.3322
 392  348.4302
 393  258.3338
 394  354.9678
 395  473.2494
 396  496.1307
 397  444.3305
 398  341.3422
 399  249.2579
 400  183.4637
 401  279.1608
 402  406.852
 403  454.863
 404  430.1782
 405  420.0253
 406  407.3251
 407  415.2112
 408  458.9438
 409  496.9683
 410  541.0317
 411  525.6932
 412  480.5019
 413  426.2647
 414  395.5335
 415  312.0166
 416  342.5435
 417  370.3897
 418  459.7734
 419  542.3946
 420  568.7495
 421  501.5911
 422  447.3968
 423  456.1945
 424  417.4946
 425  361.7593
 426  315.6044
 427  338.9444
 428  350.4316
 429  335.6422
 430  439.0855
 431  410.3988
 432  517.4445
 433  514.336
 434  577.5425
 435  535.566
 436  457.6678
 437  390.6509
 438  346.8866
 439  338.4788
 440  325.8522
 441  304.3615
 442  333.0328
 443  330.4437
 444  383.0628
 445  333.5271
 446  270.2952
 447  244.2837
 448  293.2282
 449  511.0252
 450  490.5948
 451  483.7961
 452  341.1075
 453  384.0164
 454  449.7158
 455  497.4836
 456  375.1161
 457  275.4009
 458  343.9795
 459  473.3587
 460  604.2772
 461  537.5315
 462  505.2278
 463  419.7569
 464  394.8451
 465  403.623
 466  379.0742
 467  385.1135
 468  314.5538
 469  299.5197
 470  286.8789
 471  315.7517
 472  308.6679
 473  380.4073
 474  474.1284
 475  583.4276
 476  599.2812
 477  576.1322
 478  545.7758
 479  519.8212
 480  608.4475
 481  614.2427
 482  578.7325
 483  485.1705
 484  436.146
 485  356.7442
 486  383.8172
 487  486.9778
 488  544.1071
 489  469.1356
 490  433.1078
 491  493.2735
 492  543.5783
 493  494.3034
 494  471.8205
 495  500.9041
 496  476.1499
 497  445.6061
 498  478.384
 499  484.1568
 500  464.528
 501  448.9235
 502  533.8726
 503  572.3289
 504  624.0124
 505  616.7814
 506  676.7013
 507  668.9202
 508  670.703
 509  573.9612
 510  422.7902
 511  338.4417
 512  373.4876
 513  460.7689
 514  442.9354
 515  380.6735
 516  399.4421
 517  465.4999
 518  465.3624
 519  523.9874
 520  614.0718
 521  646.9431
 522  578.1146
 523  462.9978
 524  471.679
 525  502.0443
 526  510.0503
 527  373.6552
 528  278.479
 529  282.0347
 530  358.5827
 531  346.3256
 532  311.8208
 533  296.671
 534  350.5639
 535  398.2096
 536  472.5203
 537  540.5172
 538  540.1666
 539  470.8593
 540  395.4714
 541  413.9227
 542  480.4671
 543  515.6825
 544  457.1535
 545  314.7932
 546  329.645
 547  438.097
 548  517.6877
 549  458.7627
 550  421.074
 551  465.7764
 552  471.8225
 553  413.4174
 554  388.3376
 555  405.94
 556  509.9978
 557  438.0949
 558  395.3293
 559  362.0424
 560  407.1218
 561  431.6552
 562  493.9448
 563  567.9384
 564  488.5712
 565  476.7751
 566  448.3093
 567  568.8772
 568  550.411
 569  584.8481
 570  560.8483
 571  563.3499
 572  533.4021
 573  521.5573
 574  590.5618
 575  642.7184
 576  596.2151
 577  529.5471
 578  509.448
 579  524.7318
 580  527.6179
 581  468.1062
 582  374.2626
 583  367.7032
 584  421.3535
 585  489.1603
 586  551.1614
 587  594.8663
 588  584.1495
 589  573.6335
 590  527.7422
 591  527.2855
 592  500.7076
 593  407.523
 594  392.9577
 595  417.7973
 596  489.5938
 597  530.4557
 598  490.9075
 599  490.2236
 600  445.588
 601  519.3505
 602  589.8251
 603  641.9304
 604  584.1681
 605  598.3478
 606  551.6735
 607  603.2592
 608  492.8926
 609  546.0813
 610  500.1236
 611  524.2313
 612  512.7831
 613  578.0586
 614  596.3453
 615  528.5656
 616  540.5989
 617  543.1379
 618  568.4285
 619  431.9009
 620  376.3055
 621  375.0059
 622  379.52
 623  418.3199
 624  443.4517
 625  541.1163
 626  540.5682
 627  584.2833
 628  458.7849
 629  390.4835
 630  353.0068
 631  397.4009
 632  421.0928
 633  395.6624
 634  410.6761
 635  433.0529
 636  394.0957
 637  432.0569
 638  474.2642
 639  605.7885
 640  659.6111
 641  655.8686
 642  651.6566
 643  583.2281
 644  456.3993
 645  435.6396
 646  421.376
 647  479.6149
 648  491.6968
 649  525.7827
 650  529.7961
 651  501.1781
 652  470.3413
 653  563.6986
 654  644.4133
 655  645.0375
 656  570.4148
 657  480.3439
 658  436.4902
 659  334.687
 660  308.5415
 661  431.8724
 662  517.989
 663  537.563
 664  431.5241
 665  360.9954
 666  361.6548
 667  305.4702
 668  277.5752
 669  317.955
 670  382.5654
 671  450.8234
 672  393.8456
 673  371.8928
 674  313.8816
 675  294.2999
 676  338.1327
 677  354.6736
 678  333.648
 679  335.8431
 680  397.6968
 681  421.3852
 682  397.0552
 683  323.6053
 684  330.5291
 685  440.1333
 686  446.2484
 687  445.6481
 688  381.3239
 689  416.4825
 690  387.1352
 691  544.413
 692  608.5223
 693  686.423
 694  626.2004
 695  594.6606
 696  486.0104
 697  426.6876
 698  477.2612
 699  537.7771
 700  509.2764
 701  502.0681
 702  511.1505
 703  508.9246
 704  478.6276
 705  502.8385
 706  471.1233
 707  524.3486
 708  561.8354
 709  690.1077
 710  680.7412
 711  691.1111
 712  589.4894
 713  536.8785
 714  489.6949
 715  469.4783
 716  423.6247
 717  487.8859
 718  586.7606
 719  719.4064
 720  687.992
 721  634.5876
 722  534.537
 723  546.1756
 724  600.1765
 725  549.175
 726  542.1313
 727  570.0843
 728  632.9645
 729  672.3984
 730  704.6163
 731  652.6082
 732  598.9041
 733  507.2863
 734  532.2159
 735  571.4591
 736  648.353
 737  755.0599
 738  763.9926
 739  739.7805
 740  657.3651
 741  666.2056
 742  585.162
 743  516.5538
 744  532.1537
 745  566.9467
 746  567.6243
 747  508.0213
 748  558.8371
 749  658.8939
 750  821.3655
 751  838.1724
 752  906.7895
 753  938.3763
 754  1034.709
 755  1087.027
 756  1088.69
 757  979.5528
 758  860.019
 759  802.9538
 760  778.7809
 761  817.8836
 762  765.3144
 763  704.91
 764  493.8501
 765  376.0809
 766  378.5279
 767  416.8528
 768  452.7475
 769  394.5727
 770  441.4422
 771  412.1641
 772  461.9739
 773  385.5873
 774  417.3309
 775  349.6644
 776  329.0077
 777  304.1678
 778  408.5709
 779  508.6205
 780  543.8018
 781  488.8531
 782  542.9521
 783  543.0197
 784  493.9168
 785  464.0857
 786  502.7227
 787  588.8299
 788  600.2625
 789  571.0815
 790  580.0657
 791  675.3337
 792  688.8677
 793  612.6332
 794  538.4164
 795  596.6768
 796  571.7728
 797  497.2462
 798  378.1481
 799  372.8483
 800  420.2134
 801  414.757
 802  402.5588
 803  364.4732
 804  420.0003
 805  406.7993
 806  417.0048
 807  447.4633
 808  446.7396
 809  567.8695
 810  614.6794
 811  614.149
 812  500.3665
 813  398.1436
 814  346.1411
 815  321.9851
 816  372.5117
 817  342.2626
 818  378.0363
 819  373.4738
 820  429.4899
 821  386.0937
 822  405.0764
 823  407.7654
 824  505.1847
 825  509.6875
 826  425.4751
 827  365.9304
 828  428.714
 829  443.0146
 830  460.5309
 831  486.0082
 832  503.0519
 833  519.032
 834  414.0677
 835  424.9211
 836  476.8043
 837  504.381
 838  498.0337
 839  436.5565
 840  428.6491
 841  361.7744
 842  318.9242
 843  309.9758
 844  333.2883
 845  428.6174
 846  397.1304
 847  350.4819
 848  278.469
 849  307.9134
 850  273.2971
 851  273.1443
 852  447.9696
 853  580.5538
 854  562.5741
 855  432.9624
 856  414.5313
 857  476.7057
 858  541.9724
 859  487.0269
 860  523.7545
 861  492.3968
 862  477.9776
 863  466.7321
 864  561.9515
 865  562.4948
 866  469.9806
 867  419.3614
 868  519.4372
 869  578.6624
 870  604.2245
 871  480.6895
 872  505.127
 873  549.9579
 874  585.9256
 875  499.8141
 876  418.1497
 877  456.0404
 878  563.8242
 879  572.4127
 880  499.9618
 881  441.2819
 882  528.2957
 883  546.7399
 884  571.6683
 885  511.4314
 886  517.7512
 887  548.9315
 888  628.0129
 889  580.2603
 890  520.4797
 891  512.4577
 892  482.0397
 893  423.539
 894  443.2636
 895  522.5347
 896  558.3561
 897  530.4203
 898  554.9406
 899  491.1548
 900  428.8241
 901  459.7628
 902  508.8375
 903  527.7586
 904  387.9254
 905  349.4722
 906  307.5201
 907  310.2957
 908  293.2595
 909  388.2723
 910  476.2269
 911  579.9995
 912  566.0704
 913  481.6115
 914  444.2645
 915  443.3983
 916  521.8521
 917  497.8778
 918  465.8705
 919  479.0451
 920  560.0823
 921  540.1389
 922  488.4296
 923  495.1338
 924  508.425
 925  479.1948
 926  435.6888
 927  491.9012
 928  518.1866
 929  563.9938
 930  537.9553
 931  570.76
 932  632.7009
 933  621.0526
 934  590.1315
 935  503.2299
 936  439.1541
 937  556.4194
 938  700.1592
 939  789.5422
 940  696.7957
 941  512.6147
 942  508.1075
 943  503.6283
 944  589.655
 945  497.1837
 946  536.1376
 947  606.0531
 948  567.2082
 949  460.9135
 950  427.1424
 951  505.764
 952  483.2432
 953  409.5216
 954  410.2584
 955  473.8536
 956  517.6889
 957  520.8475
 958  504.9128
 959  577.1553
 960  483.9547
 961  476.3897
 962  402.9874
 963  442.0565
 964  392.8091
 965  410.5355
 966  393.3679
 967  427.2668
 968  525.2106
 969  548.404
 970  501.4621
 971  562.7294
 972  605.8688
 973  500.5033
 974  389.0372
 975  339.084
 976  432.8177
 977  431.2407
 978  470.3021
 979  506.7094
 980  658.5978
 981  720.7637
 982  665.4045
 983  567.6255
 984  515.6901
 985  464.0238
 986  464.6796
 987  485.9624
 988  558.4496
 989  559.6602
 990  536.855
 991  557.4375
 992  515.734
 993  500.3015
 994  491.9583
 995  532.4844
 996  526.4556
 997  558.2076
 998  616.1013
 999  670.4156
1000  665.7282
1001  564.5611
1002  474.691
1003  392.7617
1004  498.0755
1005  579.6129
1006  643.4827
1007  533.6793
1008  457.8309
1009  353.3416
1010  297.2834
1011  284.5904
1012  385.6758
1013  491.5696
1014  535.749
1015  508.4879
1016  565.0109
1017  588.758
1018  564.9059
1019  558.3973
1020  619.2505
1021  679.7488
1022  618.5786
1023  547.8864
