# Input file       =  1181370785.111264_cleaned.dat
# Candidate        =  PSR_0332+5434
# Telescope        =  AR
# Epoch_topo       =  57917.273195732225
# Epoch_bary       =  N/A
# T_sample         =  0.002
# Data Folded      =  7340032
# Data Avg         =  0.014959803051729
# Data StdDev      =  0.999971741117867
# Profile Bins     =  512
# Profile Avg      =  214.450548877392 
# Profile StdDev   =  119.729652855004 
# Reduced chi-sqr  =  1.234
# Prob(Noise)      <  0.000229   (~3.5 sigma)
# P_topo (ms)      =  714.504848052373  +/- 0.000393
# P'_topo (s/s)    =  -0                +/- 2.07e-10
# P''_topo (s/s^2) =  0                 +/- 9.15e-14
# P_bary (ms)      =  N/A
# P'_bary (s/s)    =  N/A
# P''_bary (s/s^2) =  N/A
# P_orb (s)        =  N/A
# asin(i)/c (s)    =  N/A
# eccentricity     =  N/A
# w (rad)          =  N/A
# T_peri           =  N/A
######################################################
   0  153.0643
   1  190.1915
   2  134.9896
   3  106.0034
   4  98.94933
   5  117.4869
   6  281.7536
   7  329.5883
   8  273.8479
   9  175.6024
  10  223.2202
  11  213.0062
  12  261.5914
  13  283.9131
  14  227.5292
  15  159.0824
  16  203.7908
  17  152.6108
  18  146.8428
  19  148.5977
  20  53.48329
  21  -15.53849
  22  135.0086
  23  184.1811
  24  126.7272
  25  161.0807
  26  86.37662
  27  29.83359
  28  68.17986
  29  98.59744
  30  119.9687
  31  240.5376
  32  187.2462
  33  113.2129
  34  65.94903
  35  216.8733
  36  214.5409
  37  221.8461
  38  190.1977
  39  133.5168
  40  160.9353
  41  166.95
  42  9.442872
  43  -52.69611
  44  134.1178
  45  223.3091
  46  281.8695
  47  269.3482
  48  155.7934
  49  108.5715
  50  207.4077
  51  191.5238
  52  142.5129
  53  154.6521
  54  161.2179
  55  296.2071
  56  288.2628
  57  265.4158
  58  258.1499
  59  243.9209
  60  193.2452
  61  205.1263
  62  173.2757
  63  327.3044
  64  233.9047
  65  181.3036
  66  220.6137
  67  207.7262
  68  229.6817
  69  153.0825
  70  220.1071
  71  234.0958
  72  288.3225
  73  201.3307
  74  196.6658
  75  205.8141
  76  39.07063
  77  55.71323
  78  217.1463
  79  222.75
  80  167.6915
  81  142.9574
  82  145.655
  83  176.0001
  84  137.3717
  85  124.2413
  86  201.9716
  87  290.1084
  88  312.5874
  89  333.3111
  90  299.4176
  91  310.55
  92  343.407
  93  243.9099
  94  279.3696
  95  167.1369
  96  63.86316
  97  247.4223
  98  298.7845
  99  309.397
 100  280.243
 101  159.1982
 102  215.1822
 103  337.1316
 104  320.0359
 105  282.2709
 106  265.3885
 107  197.7334
 108  285.1511
 109  295.0736
 110  82.91991
 111  106.3054
 112  185.789
 113  135.2553
 114  82.17661
 115  149.4794
 116  104.8945
 117  169.4422
 118  313.3405
 119  258.6942
 120  190.3611
 121  246.07
 122  168.5868
 123  128.3838
 124  221.1436
 125  243.8035
 126  175.5659
 127  76.4044
 128  72.48615
 129  185.3389
 130  160.6411
 131  119.7608
 132  162.7983
 133  185.9695
 134  151.3983
 135  71.32005
 136  161.5851
 137  198.0603
 138  125.6717
 139  196.4169
 140  142.4102
 141  124.4051
 142  113.9014
 143  266.3323
 144  179.878
 145  52.76804
 146  162.9328
 147  164.2698
 148  163.3298
 149  199.501
 150  213.4234
 151  190.5982
 152  230.5124
 153  177.4969
 154  134.9683
 155  96.66743
 156  208.7583
 157  176.2696
 158  224.8847
 159  241.6712
 160  162.3402
 161  67.8027
 162  158.9856
 163  172.4629
 164  181.6453
 165  274.9439
 166  358.8666
 167  366.1343
 168  384.5626
 169  291.8502
 170  281.0347
 171  317.508
 172  288.0541
 173  225.8205
 174  169.8934
 175  148.3368
 176  160.7734
 177  192.8526
 178  170.6206
 179  247.8441
 180  242.3385
 181  289.2417
 182  227.9895
 183  161.9937
 184  239.5232
 185  151.7925
 186  115.9419
 187  234.3706
 188  264.8393
 189  204.5992
 190  118.6145
 191  151.7721
 192  254.7946
 193  141.7908
 194  189.9863
 195  211.784
 196  80.64851
 197  143.8434
 198  94.99875
 199  139.0621
 200  38.86539
 201  56.03438
 202  113.2825
 203  86.93975
 204  146.2518
 205  96.48795
 206  122.6426
 207  326.9467
 208  311.1748
 209  288.7918
 210  262.4796
 211  181.2268
 212  196.4861
 213  224.4139
 214  261.6644
 215  239.847
 216  196.0318
 217  284.4897
 218  221.0134
 219  61.29523
 220  109.9222
 221  211.2702
 222  277.2212
 223  277.467
 224  204.1259
 225  115.4621
 226  208.6027
 227  276.2465
 228  157.8189
 229  195.3991
 230  323.3796
 231  206.9904
 232  237.675
 233  232.0041
 234  131.5295
 235  245.8117
 236  288.6602
 237  185.1031
 238  204.5737
 239  289.1805
 240  332.2964
 241  292.7342
 242  245.2369
 243  283.4254
 244  258.6583
 245  293.6991
 246  311.1501
 247  195.7048
 248  191.5497
 249  275.108
 250  326.4691
 251  261.8853
 252  265.2106
 253  80.66859
 254  148.5771
 255  231.7533
 256  233.6707
 257  307.9147
 258  210.0844
 259  307.3243
 260  380.0161
 261  331.6559
 262  304.2332
 263  314.451
 264  348.0028
 265  321.8674
 266  372.0611
 267  329.8664
 268  265.8272
 269  326.8045
 270  356.5288
 271  212.3224
 272  232.5723
 273  219.0995
 274  113.5715
 275  205.8329
 276  259.2926
 277  345.4833
 278  157.2234
 279  206.1603
 280  148.2493
 281  151.1976
 282  48.60461
 283  108.8145
 284  263.8545
 285  310.8657
 286  237.0489
 287  278.5128
 288  150.1755
 289  168.131
 290  239.7904
 291  223.3227
 292  215.1973
 293  176.8661
 294  257.1161
 295  226.0038
 296  54.96873
 297  125.0905
 298  272.0074
 299  260.6409
 300  301.1016
 301  156.701
 302  120.0662
 303  145.8523
 304  250.9388
 305  381.2227
 306  255.4805
 307  153.6678
 308  181.721
 309  338.0218
 310  279.1096
 311  277.1664
 312  275.7159
 313  298.2435
 314  238.7471
 315  296.3822
 316  260.328
 317  287.1713
 318  239.0146
 319  226.2399
 320  236.35
 321  201.1737
 322  137.0292
 323  252.1039
 324  290.1108
 325  237.9563
 326  204.7868
 327  304.5516
 328  275.6901
 329  219.3205
 330  217.9696
 331  275.4792
 332  253.6908
 333  261.846
 334  320.0452
 335  311.0349
 336  258.4053
 337  99.00825
 338  179.1437
 339  247.6222
 340  295.908
 341  205.7621
 342  259.9391
 343  212.0524
 344  121.7139
 345  338.8246
 346  380.1846
 347  335.4385
 348  324.311
 349  352.3723
 350  281.7311
 351  198.0608
 352  195.8052
 353  163.4443
 354  163.8447
 355  157.346
 356  210.4714
 357  273.3911
 358  307.6029
 359  152.3219
 360  215.0353
 361  236.0849
 362  273.7115
 363  181.4661
 364  264.8716
 365  332.5629
 366  251.5516
 367  218.3383
 368  -15.27562
 369  18.0391
 370  151.1385
 371  240.17
 372  227.2284
 373  213.5583
 374  204.5152
 375  58.82079
 376  7.798228
 377  110.4724
 378  143.8991
 379  174.4775
 380  41.00338
 381  176.8121
 382  247.129
 383  179.5352
 384  172.7539
 385  221.751
 386  312.1718
 387  300.0215
 388  213.3998
 389  148.5974
 390  184.0594
 391  94.00525
 392  123.3219
 393  184.3781
 394  194.0358
 395  196.716
 396  43.81744
 397  134.6475
 398  89.32455
 399  129.2204
 400  208.8395
 401  214.0069
 402  230.0665
 403  174.2813
 404  123.1377
 405  271.2709
 406  254.6561
 407  110.8704
 408  175.118
 409  320.2337
 410  372.0883
 411  154.3058
 412  182.123
 413  280.1331
 414  287.0015
 415  282.1396
 416  329.9219
 417  347.6846
 418  235.2383
 419  241.5382
 420  187.6151
 421  315.5548
 422  260.6668
 423  376.6045
 424  424.5957
 425  352.9856
 426  366.8693
 427  423.8771
 428  322.753
 429  280.2845
 430  289.4215
 431  416.2686
 432  245.2994
 433  285.8222
 434  262.7942
 435  184.4953
 436  228.9913
 437  159.4037
 438  250.5403
 439  244.7087
 440  162.7162
 441  273.5169
 442  334.1177
 443  269.3204
 444  263.2997
 445  278.2883
 446  249.288
 447  172.2729
 448  216.0738
 449  189.6913
 450  246.3035
 451  124.451
 452  214.8602
 453  199.2955
 454  295.7303
 455  379.9317
 456  380.8423
 457  374.2996
 458  473.6608
 459  579.735
 460  639.1472
 461  682.1336
 462  612.1793
 463  695.3819
 464  607.9089
 465  493.9892
 466  479.603
 467  260.343
 468  251.6307
 469  160.7656
 470  263.2289
 471  306.8015
 472  279.3896
 473  94.37658
 474  229.8898
 475  296.1352
 476  299.5186
 477  203.4698
 478  133.3293
 479  66.0983
 480  155.2594
 481  191.3256
 482  258.1157
 483  109.7028
 484  2.846386
 485  80.62525
 486  163.9946
 487  220.6883
 488  187.1961
 489  99.69624
 490  97.36375
 491  123.9965
 492  80.03506
 493  190.5094
 494  85.57812
 495  65.07138
 496  176.7933
 497  114.6916
 498  130.4688
 499  156.8618
 500  248.7607
 501  136.225
 502  167.5593
 503  84.83492
 504  69.05366
 505  86.16049
 506  184.8071
 507  130.7837
 508  80.90434
 509  80.0069
 510  144.0743
 511  51.77109
