# Input file       =  1181558042.121278_cleaned.dat
# Candidate        =  PSR_0332+5434
# Telescope        =  AR
# Epoch_topo       =  57919.440522237011
# Epoch_bary       =  N/A
# T_sample         =  0.002
# Data Folded      =  7340032
# Data Avg         =  0.150773626346823
# Data StdDev      =  4.87763243983825 
# Profile Bins     =  512
# Profile Avg      =  2161.61853960571 
# Profile StdDev   =  584.013742351647 
# Reduced chi-sqr  =  1.108
# Prob(Noise)      <  0.0452   (~1.7 sigma)
# P_topo (ms)      =  714.503170223622  +/- 0.000106
# P'_topo (s/s)    =  -0                +/- 5.58e-11
# P''_topo (s/s^2) =  0                 +/- 2.47e-14
# P_bary (ms)      =  N/A
# P'_bary (s/s)    =  N/A
# P''_bary (s/s^2) =  N/A
# P_orb (s)        =  N/A
# asin(i)/c (s)    =  N/A
# eccentricity     =  N/A
# w (rad)          =  N/A
# T_peri           =  N/A
######################################################
   0  2785.718
   1  2867.857
   2  2658.541
   3  2347.007
   4  2155.171
   5  2471.529
   6  2488.861
   7  2687.803
   8  2523.258
   9  2183.789
  10  1957.107
  11  1882.288
  12  1914.561
  13  1694.959
  14  1397.225
  15  1880.369
  16  1876.393
  17  2027.006
  18  1651.823
  19  1639.529
  20  1402.808
  21  1826.276
  22  1981.748
  23  2050.97
  24  2138.266
  25  2495.118
  26  2789.398
  27  2736.853
  28  2441.74
  29  2115.309
  30  2825.076
  31  3028.077
  32  3183.477
  33  2961.718
  34  2697.295
  35  2627.922
  36  2603.456
  37  3102.539
  38  2958.659
  39  2837.216
  40  3112.759
  41  3189.839
  42  3045.905
  43  2675.42
  44  2504.442
  45  2570.216
  46  2607.441
  47  2291.277
  48  1968.614
  49  2340.174
  50  2598.928
  51  2730.757
  52  2678.704
  53  2414.764
  54  2532.531
  55  2480.101
  56  2085.628
  57  2094.522
  58  2055.403
  59  2171.692
  60  2203.158
  61  2263.591
  62  1956.057
  63  2056.161
  64  2032.494
  65  2109.239
  66  2444.803
  67  2300.999
  68  2069.96
  69  2147.224
  70  2521.038
  71  2488.375
  72  2305.875
  73  2248.651
  74  3035.862
  75  3043.819
  76  3421.494
  77  2784.956
  78  2316.225
  79  2821.531
  80  2965.515
  81  2602.259
  82  2715.65
  83  2887.873
  84  2921.48
  85  2574.061
  86  2508.8
  87  2453.185
  88  2591.676
  89  2481.406
  90  2598.317
  91  2527.271
  92  2762.994
  93  2536.461
  94  2499.341
  95  2565.044
  96  2110.342
  97  2222.5
  98  2374.536
  99  2325.888
 100  2357.475
 101  2434.632
 102  2403.859
 103  2084.344
 104  2212.971
 105  1869.353
 106  1908.832
 107  2130.326
 108  2671.035
 109  2552.522
 110  2087.441
 111  2007.503
 112  2523.376
 113  2938.248
 114  3210.879
 115  3370.786
 116  3462
 117  3539.215
 118  3464.092
 119  2930.971
 120  2426.998
 121  2589.981
 122  2781.735
 123  2630.301
 124  2485.879
 125  2191.054
 126  2308.407
 127  2552.318
 128  2367.709
 129  1698.901
 130  1915.178
 131  2199.646
 132  2026.762
 133  2004.146
 134  2021.6
 135  1608.527
 136  1743.259
 137  1960.731
 138  1643.264
 139  1504.1
 140  1899.469
 141  2008.25
 142  2030.874
 143  2079.561
 144  2022.858
 145  1901.666
 146  2020.639
 147  2152.521
 148  1932.259
 149  1665.329
 150  1703.709
 151  1848.846
 152  1528.745
 153  1485.734
 154  1871.664
 155  1997.449
 156  2033.92
 157  1904.035
 158  2066.376
 159  2147.14
 160  2235.57
 161  2513.7
 162  2733.678
 163  2930.307
 164  2929.64
 165  3079.981
 166  2888.888
 167  2309.779
 168  2326.084
 169  2696.434
 170  2600.401
 171  2332.873
 172  1887.915
 173  1912.155
 174  1951.243
 175  1901.311
 176  2126.737
 177  2218.961
 178  1833.461
 179  1626.936
 180  1962.887
 181  2225.345
 182  1894.483
 183  1918.816
 184  1928.575
 185  2073.547
 186  1695.21
 187  1330.834
 188  1504.003
 189  1750.742
 190  1611.568
 191  1806.257
 192  1860.628
 193  1720.52
 194  1847.609
 195  1771.895
 196  1829.656
 197  1648.948
 198  1831.217
 199  2256.27
 200  2754.181
 201  2382.788
 202  1973.823
 203  2395.953
 204  2575.945
 205  1849.604
 206  2041.235
 207  1932.903
 208  2325.332
 209  2409.021
 210  2200.875
 211  2508.049
 212  2189.929
 213  2487.386
 214  1996.555
 215  1318.073
 216  1899.337
 217  2220.853
 218  2118.396
 219  2005.335
 220  1782.165
 221  1627.199
 222  1609.263
 223  2019.236
 224  2080.567
 225  1508.442
 226  1345.052
 227  1746.583
 228  2205.465
 229  2113.485
 230  2023.699
 231  1919.226
 232  2111.137
 233  2065.365
 234  1569.736
 235  1580.819
 236  1800.78
 237  2027.909
 238  2076.971
 239  1641.867
 240  1947.152
 241  1997.72
 242  1950.116
 243  2370.362
 244  2202.452
 245  2161.186
 246  2541.867
 247  2532.587
 248  2285.26
 249  2031.023
 250  2093.03
 251  2557.518
 252  2344.034
 253  2016.247
 254  2107.066
 255  2235.809
 256  2288.625
 257  2035.673
 258  2144.543
 259  2141.778
 260  1853.166
 261  2276.521
 262  1934.394
 263  1833.371
 264  1997.38
 265  2166.528
 266  2066.734
 267  1958.031
 268  1312.921
 269  1287.098
 270  1190.17
 271  1881.797
 272  2092.211
 273  1912.32
 274  1698.961
 275  1671.948
 276  1645.404
 277  1587.713
 278  1537.972
 279  1409.166
 280  1975.901
 281  1984.391
 282  1704.401
 283  1536.392
 284  1972.807
 285  2326.474
 286  2610.405
 287  2249.444
 288  2568.834
 289  2550.772
 290  2438.458
 291  2651.202
 292  2618.664
 293  2739.519
 294  2551.722
 295  2323.581
 296  2438.798
 297  2283.167
 298  2213.507
 299  2068.177
 300  2035.99
 301  1970.148
 302  2127.305
 303  1662.239
 304  1798.698
 305  1814.223
 306  1363.745
 307  1316.163
 308  1453.056
 309  1966.324
 310  2230.084
 311  1700.463
 312  1449.118
 313  1869.822
 314  2091.668
 315  1857.578
 316  1585.819
 317  1658.165
 318  1978.866
 319  2263.68
 320  1673.86
 321  1742.636
 322  1810.844
 323  1957.059
 324  1802.164
 325  1440.99
 326  1457.905
 327  1777.393
 328  1779.795
 329  2266.157
 330  2335.354
 331  2502.998
 332  2390.928
 333  1994.48
 334  2210.083
 335  2335.38
 336  2220.447
 337  2470.669
 338  2469.487
 339  2103.144
 340  2487.611
 341  2945.189
 342  3008.615
 343  2645.243
 344  2385.897
 345  2170.616
 346  2469.355
 347  2562.402
 348  2504.755
 349  2534.161
 350  2192.894
 351  1814.057
 352  2093.658
 353  2272.916
 354  2072.678
 355  2134.054
 356  2293.032
 357  2423.104
 358  2130.855
 359  2029.26
 360  2139.22
 361  2094.751
 362  2624.872
 363  2500.632
 364  1772.769
 365  1648.273
 366  2172.949
 367  2284.205
 368  2258.972
 369  2028.11
 370  2036.274
 371  2389.246
 372  2534.683
 373  2495.184
 374  2289.081
 375  2572.812
 376  2863.961
 377  2707.926
 378  2469.194
 379  2333.777
 380  2353.007
 381  2555.28
 382  2373.643
 383  2221.156
 384  2475.403
 385  2422.741
 386  2618.696
 387  2514.065
 388  1993.398
 389  1864.687
 390  1975.578
 391  1949.759
 392  1565.683
 393  1491.948
 394  1727.261
 395  1631.876
 396  1495.51
 397  1443.789
 398  1497.136
 399  1324.433
 400  1729.581
 401  1968.016
 402  1784.133
 403  1516.776
 404  1637.953
 405  1692.845
 406  1575.732
 407  1323.512
 408  1744.347
 409  2035.192
 410  1768.344
 411  2124.519
 412  2451.901
 413  2614.515
 414  2439.392
 415  2266.222
 416  2310.752
 417  2511.39
 418  2371.44
 419  2421.978
 420  3181.757
 421  3561.742
 422  2893.465
 423  2545.48
 424  2466.645
 425  2314.343
 426  2004.519
 427  2267.874
 428  2595.924
 429  2584.822
 430  2304.716
 431  2226.797
 432  1973.869
 433  2211.301
 434  2163.066
 435  1784.057
 436  1754.294
 437  2170.297
 438  2156.523
 439  2073.128
 440  2030.153
 441  1900.142
 442  1812.166
 443  1792.438
 444  1975.116
 445  1799.424
 446  1952.962
 447  2090.212
 448  2019.705
 449  1757.219
 450  1775.529
 451  1484.317
 452  1601.123
 453  1723.627
 454  1746.261
 455  1717.048
 456  1929.586
 457  1906.096
 458  2457.78
 459  2437.094
 460  2152.556
 461  2365.483
 462  2754.324
 463  2356.865
 464  1919.585
 465  2066.631
 466  2126.167
 467  2096.873
 468  1981.25
 469  1641.543
 470  1413.441
 471  1607.46
 472  1949.82
 473  1504.061
 474  1196.372
 475  943.8113
 476  1399.796
 477  1664.725
 478  1148.888
 479  952.7395
 480  1287.288
 481  1576.97
 482  1504.73
 483  1241.505
 484  1395.26
 485  1596.532
 486  1951.009
 487  1738.763
 488  1715.172
 489  1661.673
 490  1920.533
 491  2176.047
 492  1841.74
 493  1753.036
 494  2017.915
 495  2401.492
 496  2151.545
 497  2361.331
 498  2168.831
 499  2410.652
 500  2374.727
 501  2616.758
 502  2460.321
 503  2616.119
 504  2995.393
 505  2986.498
 506  3091.585
 507  2933.406
 508  2710.855
 509  2842.835
 510  2928.911
 511  2817.082
