# Input file       =  1181385701.112891_cleaned.dat
# Candidate        =  PSR_0332+5434
# Telescope        =  AR
# Epoch_topo       =  57917.445834639941
# Epoch_bary       =  N/A
# T_sample         =  0.002
# Data Folded      =  7340032
# Data Avg         =  0.0290745604028752
# Data StdDev      =  1.00003320574813 
# Profile Bins     =  512
# Profile Avg      =  416.823026431335 
# Profile StdDev   =  119.737012201815 
# Reduced chi-sqr  =  0.930
# Prob(Noise)      <  0.869   (~0.0 sigma)
# P_topo (ms)      =  714.505020834762  +/- 0.0002
# P'_topo (s/s)    =  -0                +/- 1.06e-10
# P''_topo (s/s^2) =  0                 +/- 4.66e-14
# P_bary (ms)      =  N/A
# P'_bary (s/s)    =  N/A
# P''_bary (s/s^2) =  N/A
# P_orb (s)        =  N/A
# asin(i)/c (s)    =  N/A
# eccentricity     =  N/A
# w (rad)          =  N/A
# T_peri           =  N/A
######################################################
   0  356.9844
   1  445.3903
   2  457.3559
   3  569.1873
   4  504.9916
   5  321.4179
   6  319.2288
   7  398.5309
   8  456.6211
   9  329.1049
  10  311.9023
  11  472.3846
  12  510.2104
  13  528.9315
  14  556.1065
  15  535.6401
  16  584.854
  17  518.1121
  18  562.3792
  19  548.3453
  20  446.6894
  21  394.8026
  22  411.315
  23  478.0533
  24  484.8391
  25  381.5165
  26  489.3824
  27  436.5013
  28  454.701
  29  599.3454
  30  492.6182
  31  446.441
  32  381.1201
  33  400.7396
  34  441.0833
  35  485.5938
  36  492.789
  37  433.9619
  38  472.4102
  39  561.2175
  40  494.0062
  41  397.3108
  42  450.9078
  43  474.2814
  44  401.5154
  45  417.3639
  46  494.9768
  47  327.8799
  48  374.2122
  49  456.4586
  50  486.1712
  51  595.0892
  52  484.0887
  53  401.5738
  54  376.144
  55  457.7734
  56  451.7281
  57  442.1294
  58  383.8489
  59  439.0452
  60  380.8969
  61  314.9662
  62  424.7422
  63  398.9784
  64  509.9655
  65  512.8764
  66  438.1954
  67  402.4011
  68  497.1745
  69  478.7592
  70  318.305
  71  335.3348
  72  406.4767
  73  422.2546
  74  420.5906
  75  473.2193
  76  449.0339
  77  392.8893
  78  425.1999
  79  516.1346
  80  465.4507
  81  366.3831
  82  382.0714
  83  439.7758
  84  479.247
  85  451.7183
  86  570.0729
  87  496.2473
  88  413.6489
  89  431.2417
  90  456.7848
  91  468.5195
  92  408.0451
  93  479.42
  94  431.0788
  95  366.3188
  96  410.7613
  97  414.6085
  98  418.1343
  99  398.0331
 100  437.8548
 101  463.2257
 102  420.8179
 103  352.1602
 104  449.9513
 105  391.9038
 106  440.7101
 107  371.508
 108  519.0999
 109  431.1161
 110  280.8375
 111  329.0106
 112  475.9983
 113  405.118
 114  346.4676
 115  422.7035
 116  374.5493
 117  343.0385
 118  349.1714
 119  424.6228
 120  362.1486
 121  295.7263
 122  426.382
 123  528.7009
 124  391.8773
 125  394.7337
 126  293.4232
 127  388.8227
 128  331.9142
 129  243.2102
 130  387.8117
 131  474.0121
 132  466.5488
 133  392.8828
 134  413.5089
 135  469.4193
 136  357.7281
 137  476.3041
 138  524.9418
 139  456.315
 140  387.3998
 141  349.8163
 142  412.844
 143  351.2585
 144  401.918
 145  620.1069
 146  533.4974
 147  492.6667
 148  477.1361
 149  497.8465
 150  547.7209
 151  436.8251
 152  291.1409
 153  260.6651
 154  343.6472
 155  293.6627
 156  324.6488
 157  260.0811
 158  374.2676
 159  344.2581
 160  315.2973
 161  353.518
 162  321.2321
 163  336.2208
 164  375.813
 165  358.2898
 166  212.0157
 167  363.7257
 168  336.288
 169  346.1669
 170  437.7646
 171  408.0676
 172  449.5648
 173  495.8898
 174  403.464
 175  280.6175
 176  306.8964
 177  303.0515
 178  351.0749
 179  340.9896
 180  386.3207
 181  373.6534
 182  347.4355
 183  363.512
 184  333.1552
 185  383.5172
 186  370.8277
 187  289.6122
 188  305.4229
 189  458.364
 190  393.9351
 191  311.4981
 192  198.5679
 193  190.0231
 194  279.1636
 195  401.0324
 196  255.7682
 197  322.9832
 198  333.5983
 199  320.9818
 200  347.4933
 201  423.225
 202  404.8806
 203  361.0763
 204  324.154
 205  398.8656
 206  307.7173
 207  317.3219
 208  405.1766
 209  402.1708
 210  395.4865
 211  448.9737
 212  414.5652
 213  353.0916
 214  395.0536
 215  387.4708
 216  409.0981
 217  433.9869
 218  363.2031
 219  272.7026
 220  301.203
 221  226.5549
 222  394.6017
 223  499.9839
 224  444.8003
 225  396.6025
 226  294.6114
 227  411.6968
 228  537.2249
 229  576.0047
 230  414.7367
 231  435.2056
 232  442.6456
 233  440.695
 234  413.4037
 235  347.2371
 236  361.972
 237  463.6658
 238  524.0903
 239  477.3133
 240  500.5692
 241  372.5339
 242  377.9729
 243  363.3963
 244  355.5248
 245  219.2455
 246  257.2949
 247  346.6439
 248  335.7363
 249  426.856
 250  319.6493
 251  330.0473
 252  330.0042
 253  390.4197
 254  422.9032
 255  468.051
 256  391.4052
 257  300.5914
 258  240.5263
 259  355.5595
 260  400.0305
 261  435.9962
 262  499.0814
 263  297.5379
 264  329.5704
 265  468.6774
 266  477.4957
 267  425.3973
 268  401.6119
 269  410.1071
 270  430.8219
 271  467.7684
 272  532.48
 273  574.6017
 274  513.3307
 275  531.7456
 276  456.6081
 277  511.2103
 278  502.0328
 279  551.0646
 280  647.0701
 281  504.4201
 282  403.3104
 283  443.6237
 284  466.2789
 285  361.8364
 286  321.7554
 287  361.8503
 288  405.2629
 289  462.2182
 290  517.6668
 291  546.2408
 292  402.9537
 293  299.4688
 294  210.9691
 295  213.9258
 296  406.5913
 297  513.3357
 298  408.8519
 299  446.7
 300  414.647
 301  238.8653
 302  317.7219
 303  415.7417
 304  385.8531
 305  280.0489
 306  270.5879
 307  404.1817
 308  395.1167
 309  285.3694
 310  377.561
 311  400.7294
 312  491.7408
 313  323.2718
 314  448.8675
 315  552.4803
 316  451.8539
 317  470.0895
 318  432.9455
 319  396.4099
 320  352.1439
 321  364.7001
 322  406.3509
 323  412.183
 324  477.318
 325  493.2749
 326  503.4614
 327  516.2645
 328  447.4006
 329  451.0231
 330  383.1738
 331  326.7113
 332  245.8826
 333  391.8394
 334  396.7081
 335  429.6491
 336  356.5201
 337  417.7973
 338  486.1103
 339  390.2048
 340  358.2361
 341  462.8479
 342  351.3453
 343  296.9518
 344  345.7237
 345  326.1307
 346  312.323
 347  361.0786
 348  427.1909
 349  449.3193
 350  487.4907
 351  396.7247
 352  440.2088
 353  322.3968
 354  403.2688
 355  350.8406
 356  310.7451
 357  400.4103
 358  449.7843
 359  471.2864
 360  301.0792
 361  392.2057
 362  464.3938
 363  518.5228
 364  421.313
 365  482.499
 366  435.1897
 367  417.0641
 368  406.8684
 369  361.39
 370  365.819
 371  456.7562
 372  473.557
 373  483.0095
 374  430.6884
 375  395.0275
 376  298.6433
 377  404.4934
 378  463.9761
 379  507.0535
 380  431.8314
 381  485.7425
 382  520.1423
 383  601.5315
 384  458.4142
 385  500.895
 386  491.104
 387  489.6231
 388  349.1241
 389  340.4376
 390  349.9844
 391  411.9208
 392  459.8226
 393  513.3599
 394  499.5309
 395  576.4612
 396  526.0425
 397  416.4072
 398  394.0823
 399  451.2498
 400  484.3059
 401  503.5146
 402  351.505
 403  362.7845
 404  359.1955
 405  280.4575
 406  367.9096
 407  447.0233
 408  559.7543
 409  422.5558
 410  406.2422
 411  356.4488
 412  367.5598
 413  288.0283
 414  407.7051
 415  518.719
 416  431.3603
 417  392.8346
 418  578.6913
 419  481.1024
 420  385.9671
 421  368.5504
 422  410.572
 423  298.0394
 424  387.6275
 425  340.7898
 426  311.8257
 427  355.9947
 428  418.9855
 429  413.2462
 430  523.9073
 431  526.7432
 432  285.9245
 433  284.4726
 434  367.2098
 435  399.7281
 436  335.4635
 437  426.182
 438  570.233
 439  392.0007
 440  432.0017
 441  502.0843
 442  443.9639
 443  429.1637
 444  527.4849
 445  387.9894
 446  368.9686
 447  486.0562
 448  508.1978
 449  442.6072
 450  429.4764
 451  479.9735
 452  394.6772
 453  334.8797
 454  454.7518
 455  421.5689
 456  352.2526
 457  402.2874
 458  347.7526
 459  336.3766
 460  529.4685
 461  617.0487
 462  653.9886
 463  721.3124
 464  772.7587
 465  777.8124
 466  657.5227
 467  530.8469
 468  335.7046
 469  236.2455
 470  353.0638
 471  409.5639
 472  501.4245
 473  526.1706
 474  482.7774
 475  581.3574
 476  541.8914
 477  458.4723
 478  391.7438
 479  556.174
 480  520.4033
 481  473.0218
 482  308.4947
 483  392.9438
 484  386.2155
 485  480.6903
 486  542.0624
 487  431.3284
 488  391.352
 489  381.3568
 490  402.1484
 491  356.7003
 492  362.0948
 493  456.247
 494  404.5865
 495  410.704
 496  400.3385
 497  349.4096
 498  349.9649
 499  401.3038
 500  512.6603
 501  476.0832
 502  448.6872
 503  520.5847
 504  428.4027
 505  415.6442
 506  455.6868
 507  453.4431
 508  438.3408
 509  442.1609
 510  392.3274
 511  459.9566
