# Input file       =  1181700809.115506_cleaned.dat
# Candidate        =  PSR_0332+5434
# Telescope        =  AR
# Epoch_topo       =  57921.092918003538
# Epoch_bary       =  N/A
# T_sample         =  0.002
# Data Folded      =  7208960
# Data Avg         =  0.16535883681764 
# Data StdDev      =  6.90606565473542 
# Profile Bins     =  256
# Profile Avg      =  4656.50365840732 
# Profile StdDev   =  1158.90284235688 
# Reduced chi-sqr  =  0.480
# Prob(Noise)      <  1   (~0.0 sigma)
# P_topo (ms)      =  714.501305784302  +/- 0.00155
# P'_topo (s/s)    =  -0                +/- 8.34e-10
# P''_topo (s/s^2) =  0                 +/- 3.75e-13
# P_bary (ms)      =  N/A
# P'_bary (s/s)    =  N/A
# P''_bary (s/s^2) =  N/A
# P_orb (s)        =  N/A
# asin(i)/c (s)    =  N/A
# eccentricity     =  N/A
# w (rad)          =  N/A
# T_peri           =  N/A
######################################################
   0  4750.631
   1  3954.535
   2  5362.535
   3  4717.598
   4  4834.291
   5  4655.597
   6  4220.829
   7  4107.607
   8  3931.891
   9  4785.089
  10  4910.206
  11  4376.444
  12  4762.343
  13  3653.108
  14  4809.582
  15  5071.703
  16  4140.967
  17  4767.64
  18  3970.983
  19  5157.91
  20  5893.623
  21  5125.967
  22  3851.411
  23  4827.878
  24  4892.493
  25  4115.063
  26  4811.977
  27  4337.853
  28  4160.933
  29  4769.566
  30  5253.449
  31  4435.598
  32  4004.335
  33  4401.303
  34  4187.062
  35  4199.483
  36  4387.124
  37  4863.642
  38  4879.816
  39  4865.526
  40  3795.4
  41  4239.693
  42  3857.532
  43  4535.206
  44  4283.911
  45  3977.343
  46  4199.249
  47  5051.844
  48  4703.204
  49  3092.497
  50  4598.93
  51  5208.467
  52  4759.59
  53  4454.066
  54  4234.016
  55  5261.803
  56  4286.891
  57  4608.23
  58  4492.52
  59  3965.38
  60  4468.116
  61  4793.047
  62  4821.547
  63  3506.426
  64  4353.249
  65  3710.562
  66  4463.809
  67  4340.226
  68  4943.118
  69  4156.284
  70  4188.419
  71  4013.345
  72  4941.249
  73  4820.697
  74  4838.076
  75  5087.895
  76  5257.842
  77  4887.731
  78  4089.647
  79  5841.685
  80  5410.949
  81  3974.81
  82  4662.292
  83  4614.714
  84  5592.535
  85  4549.841
  86  4178.366
  87  4206.504
  88  4784.176
  89  4853.625
  90  4408.904
  91  3867.14
  92  4363.292
  93  5144.711
  94  5133.729
  95  4557.666
  96  4240.901
  97  5408.006
  98  4658.061
  99  4767.304
 100  3555.568
 101  3529.742
 102  4817.585
 103  4094.402
 104  3334.081
 105  3654.667
 106  3392.336
 107  4524.48
 108  4832.355
 109  4360.546
 110  3080.977
 111  4052.843
 112  3796.574
 113  4437.661
 114  4288.788
 115  3351.18
 116  4245.096
 117  4655.306
 118  3879.115
 119  3440.501
 120  4443.236
 121  3925.71
 122  3091.218
 123  3970.571
 124  4443.373
 125  4542.549
 126  4305.69
 127  5437.157
 128  5112.289
 129  6538.927
 130  5336.32
 131  5026.465
 132  4844.963
 133  4988.546
 134  6060.646
 135  5568.766
 136  5392.049
 137  5737.45
 138  5282.104
 139  5039.111
 140  5624.056
 141  7066.18
 142  5524.976
 143  5204.078
 144  4349.3
 145  5867.609
 146  6119.191
 147  5245.904
 148  4821.139
 149  4503.025
 150  4702.904
 151  4569.851
 152  4970.266
 153  5039.185
 154  5499.604
 155  3473.152
 156  3435.552
 157  4610.425
 158  4333.232
 159  3586.543
 160  4226.659
 161  5868.581
 162  6052.314
 163  5844.84
 164  5612.163
 165  4959.759
 166  4074.73
 167  4617.398
 168  4605.793
 169  3819.529
 170  5133.068
 171  4883.991
 172  4259.425
 173  4535.306
 174  4908.748
 175  4576.518
 176  4315.985
 177  4112.29
 178  4656.671
 179  6045.962
 180  5694.628
 181  4569.012
 182  5709.618
 183  5189.737
 184  4971.144
 185  4514.761
 186  5410.05
 187  4612.748
 188  5263.888
 189  4603.982
 190  4396.631
 191  5925.878
 192  4821.388
 193  3925.996
 194  4457.909
 195  4411.059
 196  5235.651
 197  5798.594
 198  5290.311
 199  6167.417
 200  5886.311
 201  5267.149
 202  5297.836
 203  5386.697
 204  6028.653
 205  5165.684
 206  4632.718
 207  3784.172
 208  4636.48
 209  4782.499
 210  3776.534
 211  4454.08
 212  5246.412
 213  5767.23
 214  4612.811
 215  4855.729
 216  5477.532
 217  6017.018
 218  5605.68
 219  4522.912
 220  5744.763
 221  5170.232
 222  4727.728
 223  3833.533
 224  4124.387
 225  4515.761
 226  4260.086
 227  4809.077
 228  3679.278
 229  3841.552
 230  3483.724
 231  3704.208
 232  4319.574
 233  3273.359
 234  3581.446
 235  4041.691
 236  4300.278
 237  4821.489
 238  3973.361
 239  4713.668
 240  3854.929
 241  4225.793
 242  4452.498
 243  4887.736
 244  4063.939
 245  4478.469
 246  4894.752
 247  3853.014
 248  3901.353
 249  5586.83
 250  6270.44
 251  4739.456
 252  5306.033
 253  5096.15
 254  5958.965
 255  3622.149
