# Input file       =  1181442298.112694_cleaned.dat
# Candidate        =  PSR_0332+5434
# Telescope        =  AR
# Epoch_topo       =  57918.100892508031
# Epoch_bary       =  N/A
# T_sample         =  0.002
# Data Folded      =  7208960
# Data Avg         =  0.0188944210160131
# Data StdDev      =  1.00003047693261 
# Profile Bins     =  512
# Profile Avg      =  266.015873537487 
# Profile StdDev   =  118.662792161234 
# Reduced chi-sqr  =  0.992
# Prob(Noise)      <  0.54   (~0.0 sigma)
# P_topo (ms)      =  714.504066925801  +/- 0.000391
# P'_topo (s/s)    =  -0                +/- 2.1e-10
# P''_topo (s/s^2) =  0                 +/- 9.44e-14
# P_bary (ms)      =  N/A
# P'_bary (s/s)    =  N/A
# P''_bary (s/s^2) =  N/A
# P_orb (s)        =  N/A
# asin(i)/c (s)    =  N/A
# eccentricity     =  N/A
# w (rad)          =  N/A
# T_peri           =  N/A
######################################################
   0  249.7686
   1  306.6848
   2  306.8604
   3  232.902
   4  150.7415
   5  258.575
   6  229.0963
   7  282.9581
   8  249.1475
   9  265.6216
  10  330.9622
  11  326.1662
  12  266.663
  13  202.9023
  14  268.4644
  15  173.9789
  16  102.8785
  17  286.4729
  18  143.4553
  19  152.2628
  20  167.0267
  21  284.0262
  22  246.0163
  23  179.6074
  24  296.34
  25  322.6646
  26  323.4076
  27  274.2495
  28  220.7384
  29  102.5544
  30  123.7183
  31  119.225
  32  66.49969
  33  190.3069
  34  175.0912
  35  217.3128
  36  274.7646
  37  330.529
  38  222.1629
  39  250.2205
  40  263.3325
  41  215.2605
  42  193.2331
  43  317.5285
  44  210.5969
  45  250.8212
  46  329.3875
  47  431.3675
  48  305.8794
  49  353.5508
  50  463.8083
  51  325.0774
  52  292.9149
  53  192.672
  54  248.6574
  55  279.7433
  56  250.1617
  57  192.6428
  58  180.7031
  59  0.6377752
  60  95.10883
  61  254.465
  62  183.9286
  63  246.0392
  64  182.0249
  65  231.9861
  66  218.6143
  67  144.0571
  68  151.9201
  69  211.5846
  70  289.5028
  71  100.1755
  72  129.5341
  73  239.2309
  74  266.1557
  75  222.9562
  76  214.8584
  77  355.3718
  78  339.3031
  79  224.4354
  80  138.7839
  81  182.1914
  82  112.285
  83  222.0885
  84  247.618
  85  217.6986
  86  274.0542
  87  69.4748
  88  -24.51028
  89  74.44727
  90  294.0324
  91  312.0931
  92  342.2159
  93  347.3542
  94  325.6819
  95  292.163
  96  190.2747
  97  244.0876
  98  127.4161
  99  216.3697
 100  270.7939
 101  143.9742
 102  244.644
 103  292.7977
 104  235.8472
 105  216.7766
 106  121.4202
 107  272.0331
 108  208.4547
 109  234.6842
 110  264.6028
 111  321.0265
 112  353.016
 113  239.3302
 114  249.1483
 115  319.3848
 116  309.9186
 117  300.0103
 118  311.1019
 119  247.783
 120  275.8372
 121  328.9847
 122  244.8529
 123  219.6645
 124  257.2441
 125  379.6339
 126  289.5425
 127  348.6342
 128  340.2329
 129  268.9883
 130  375.2276
 131  332.5865
 132  284.3488
 133  236.626
 134  346.0631
 135  217.6627
 136  216.0412
 137  374.4307
 138  282.1951
 139  207.0856
 140  356.118
 141  450.4818
 142  324.8731
 143  231.9454
 144  201.4323
 145  314.7336
 146  271.981
 147  196.9167
 148  212.1755
 149  312.159
 150  244.9955
 151  264.7899
 152  377.5921
 153  252.1242
 154  173.2095
 155  238.4838
 156  295.5751
 157  273.9107
 158  350.358
 159  269.7412
 160  275.4601
 161  240.5033
 162  250.1263
 163  268.9001
 164  303.2938
 165  282.7467
 166  266.2897
 167  242.0707
 168  134.8589
 169  177.3884
 170  135.7104
 171  206.0918
 172  311.1981
 173  236.3551
 174  281.8413
 175  297.6985
 176  218.081
 177  250.9606
 178  302.6885
 179  420.6088
 180  320.7584
 181  207.5847
 182  230.9559
 183  226.8884
 184  282.9605
 185  355.0521
 186  305.759
 187  340.1325
 188  294.1992
 189  306.3177
 190  370.3921
 191  238.6351
 192  278.5276
 193  404.2455
 194  272.5897
 195  170.2912
 196  230.2427
 197  315.4888
 198  233.8874
 199  257.8292
 200  366.5841
 201  474.2523
 202  468.2811
 203  430.5688
 204  638.3204
 205  718.1732
 206  727.3432
 207  729.6078
 208  662.2471
 209  565.0602
 210  431.4191
 211  255.3517
 212  261.9485
 213  312.4754
 214  212.328
 215  227.248
 216  285.8703
 217  349.1156
 218  305.364
 219  291.8381
 220  334.8614
 221  205.5572
 222  243.0434
 223  297.9266
 224  314.9557
 225  302.4237
 226  267.0761
 227  297.3384
 228  253.5701
 229  109.1142
 230  201.8776
 231  338.0754
 232  298.1637
 233  269.7607
 234  251.378
 235  273.7668
 236  316.266
 237  205.4876
 238  215.3524
 239  205.7025
 240  180.8605
 241  207.5802
 242  184.0264
 243  275.7254
 244  290.4618
 245  343.3342
 246  341.1374
 247  244.2303
 248  66.58866
 249  187.3905
 250  236.039
 251  205.8476
 252  236.6135
 253  294.4179
 254  328.9971
 255  327.03
 256  223.1359
 257  309.4216
 258  281.2867
 259  290.3636
 260  281.0164
 261  238.4876
 262  248.0907
 263  367.7809
 264  355.4592
 265  262.3789
 266  393.0246
 267  430.7558
 268  319.4026
 269  233.1944
 270  233.912
 271  372.3863
 272  260.5019
 273  205.3543
 274  247.6271
 275  313.3445
 276  393.5486
 277  324.4434
 278  274.3727
 279  331.9367
 280  394.7097
 281  283.7267
 282  309.7982
 283  248.1298
 284  264.2328
 285  316.9129
 286  204.2308
 287  261.5353
 288  306.1103
 289  385.8007
 290  320.2333
 291  303.3846
 292  344.6842
 293  316.9734
 294  290.0418
 295  222.7521
 296  212.5484
 297  312.4959
 298  305.8408
 299  306.3796
 300  265.8918
 301  184.2691
 302  203.7448
 303  261.5464
 304  251.1405
 305  380.9808
 306  245.8327
 307  236.6181
 308  198.6009
 309  176.805
 310  270.2224
 311  266.4227
 312  160.8707
 313  194.6628
 314  255.2183
 315  211.6785
 316  198.5338
 317  154.6088
 318  138.4443
 319  153.1958
 320  159.6855
 321  267.5252
 322  194.0076
 323  228.0443
 324  319.977
 325  353.3918
 326  231.1725
 327  314.4659
 328  311.5114
 329  344.1435
 330  288.6155
 331  326.9714
 332  296.8835
 333  299.2961
 334  338.4475
 335  296.7855
 336  207.3822
 337  269.4921
 338  314.6903
 339  258.3077
 340  290.7682
 341  193.8921
 342  226.0171
 343  134.614
 344  273.5165
 345  258.3235
 346  379.0247
 347  325.9375
 348  290.8652
 349  264.3116
 350  225.3972
 351  148.3859
 352  178.5569
 353  261.3701
 354  364.4247
 355  306.726
 356  242.8376
 357  113.2871
 358  198.3954
 359  238.0674
 360  326.3326
 361  221.4985
 362  145.9794
 363  192.9038
 364  187.9687
 365  282.0508
 366  258.9506
 367  295.2507
 368  304.6001
 369  228.1882
 370  133.3192
 371  223.6196
 372  242.434
 373  141.8604
 374  112.1545
 375  203.9115
 376  218.7368
 377  189.862
 378  347.4115
 379  305.1139
 380  290.3012
 381  238.1704
 382  266.3611
 383  237.762
 384  247.1747
 385  275.2989
 386  244.7541
 387  225.7041
 388  212.0865
 389  279.2106
 390  360.8546
 391  369.7501
 392  347.9183
 393  297.6073
 394  167.8079
 395  178.8178
 396  214.094
 397  195.6779
 398  142.8932
 399  206.5813
 400  253.2475
 401  205.2378
 402  321.4649
 403  290.9738
 404  223.6195
 405  262.4987
 406  245.9951
 407  232.1173
 408  139.0436
 409  168.6313
 410  365.7026
 411  333.9041
 412  334.7601
 413  325.1528
 414  250.0776
 415  329.9314
 416  296.5269
 417  259.4752
 418  314.1878
 419  343.8883
 420  297.0657
 421  254.1282
 422  248.7276
 423  296.2269
 424  308.5983
 425  363.4998
 426  235.2038
 427  306.7209
 428  326.5956
 429  338.3127
 430  194.3604
 431  257.4387
 432  370.2208
 433  371.8808
 434  305.0014
 435  326.7094
 436  246.0542
 437  343.5679
 438  383.2916
 439  294.9025
 440  245.849
 441  375.5642
 442  347.7103
 443  33.52057
 444  291.861
 445  326.9389
 446  334.6438
 447  103.2588
 448  259.1743
 449  333.9128
 450  280.3992
 451  444.676
 452  380.7604
 453  357.1004
 454  273.7212
 455  294.8341
 456  276.0153
 457  357.3197
 458  340.7597
 459  265.3663
 460  162.714
 461  169.0728
 462  357.7541
 463  293.4525
 464  322.2885
 465  229.3563
 466  201.8074
 467  247.9059
 468  229.6544
 469  288.2012
 470  209.2162
 471  142.0626
 472  77.86662
 473  140.25
 474  191.9924
 475  234.9013
 476  367.343
 477  290.7314
 478  218.0399
 479  267.5501
 480  238.1906
 481  255.7169
 482  212.755
 483  263.3407
 484  280.5644
 485  296.9077
 486  264.0314
 487  264.0156
 488  263.6162
 489  263.3022
 490  347.1616
 491  380.9653
 492  251.2705
 493  169.0294
 494  208.2186
 495  326.8995
 496  265.5719
 497  350.0434
 498  321.8918
 499  264.0863
 500  150.2548
 501  284.0207
 502  176.1296
 503  74.61226
 504  224.6431
 505  225.0974
 506  276.2011
 507  308.9898
 508  323.4184
 509  261.4888
 510  220.208
 511  264.1859
