# Input file       =  1181026120.100374_cleaned.dat
# Candidate        =  PSR_0332+5434
# Telescope        =  AR
# Epoch_topo       =  57913.284017365440
# Epoch_bary       =  N/A
# T_sample         =  0.002
# Data Folded      =  7340032
# Data Avg         =  0.0283745712070268
# Data StdDev      =  0.999980649505807
# Profile Bins     =  512
# Profile Avg      =  406.906230382851 
# Profile StdDev   =  119.730719483341 
# Reduced chi-sqr  =  1.193
# Prob(Noise)      <  0.00173   (~2.9 sigma)
# P_topo (ms)      =  714.508601155518  +/- 0.000354
# P'_topo (s/s)    =  -0                +/- 1.87e-10
# P''_topo (s/s^2) =  0                 +/- 8.25e-14
# P_bary (ms)      =  N/A
# P'_bary (s/s)    =  N/A
# P''_bary (s/s^2) =  N/A
# P_orb (s)        =  N/A
# asin(i)/c (s)    =  N/A
# eccentricity     =  N/A
# w (rad)          =  N/A
# T_peri           =  N/A
######################################################
   0  463.9666
   1  451.5656
   2  418.3961
   3  449.6536
   4  418.048
   5  378.0114
   6  370.8719
   7  462.5763
   8  449.1281
   9  368.8761
  10  337.0436
  11  394.4828
  12  470.0608
  13  471.8713
  14  309.9944
  15  384.8304
  16  511.0447
  17  389.5055
  18  408.426
  19  391.4026
  20  455.0266
  21  429.9443
  22  421.1756
  23  509.9168
  24  433.1053
  25  499.8188
  26  394.8687
  27  374.2523
  28  403.6847
  29  418.9261
  30  445.2524
  31  391.2718
  32  467.3166
  33  445.0703
  34  445.7438
  35  493.1764
  36  476.1762
  37  465.6061
  38  470.0596
  39  489.6125
  40  479.5348
  41  469.88
  42  478.1421
  43  473.8883
  44  377.6551
  45  274.1317
  46  216.0187
  47  340.8785
  48  351.017
  49  365.4806
  50  431.8224
  51  478.9233
  52  382.4763
  53  423.6826
  54  366.4497
  55  537.9763
  56  479.0439
  57  399.3775
  58  240.4556
  59  304.624
  60  475.1057
  61  474.4681
  62  394.3445
  63  359.4949
  64  299.9756
  65  302.604
  66  286.4433
  67  186.215
  68  288.3163
  69  433.7177
  70  473.6638
  71  443.0648
  72  333.9352
  73  351.6551
  74  352.2541
  75  239.1864
  76  342.9426
  77  314.1997
  78  363.3657
  79  372.0919
  80  375.1921
  81  369.9772
  82  424.0492
  83  400.6497
  84  390.0227
  85  266.4088
  86  288.9019
  87  324.022
  88  339.4789
  89  420.1499
  90  399.0673
  91  328.926
  92  384.102
  93  438.1903
  94  412.4997
  95  284.4944
  96  270.2909
  97  416.6252
  98  297.8929
  99  246.4825
 100  319.9636
 101  371.1985
 102  473.4102
 103  576.0261
 104  470.5832
 105  357.9768
 106  358.2838
 107  354.0386
 108  317.9542
 109  398.2386
 110  417.4532
 111  287.8726
 112  358.3665
 113  351.8369
 114  466.674
 115  573.6093
 116  404.5844
 117  363.4757
 118  309.6173
 119  415.1727
 120  389.0352
 121  404.9084
 122  484.1386
 123  441.8583
 124  475.7961
 125  453.4456
 126  382.6066
 127  188.4666
 128  363.9402
 129  434.0291
 130  388.9355
 131  400.1808
 132  456.8282
 133  380.6413
 134  454.0096
 135  461.8226
 136  458.4075
 137  295.0201
 138  275.474
 139  372.6423
 140  469.0003
 141  573.3897
 142  479.1837
 143  534.5474
 144  523.2863
 145  359.9077
 146  428.9464
 147  458.8971
 148  466.7479
 149  396.9476
 150  319.5191
 151  372.8244
 152  387.0556
 153  448.9929
 154  465.6529
 155  415.8248
 156  467.5251
 157  469.9308
 158  441.2725
 159  513.8466
 160  544.5721
 161  562.374
 162  427.4598
 163  448.6382
 164  407.6983
 165  359.825
 166  453.6357
 167  551.6601
 168  469.3039
 169  470.5287
 170  377.2505
 171  372.633
 172  302.408
 173  469.7963
 174  619.5406
 175  487.0919
 176  470.6431
 177  469.4734
 178  421.5438
 179  413.382
 180  377.4753
 181  385.4166
 182  448.0656
 183  378.4918
 184  314.403
 185  399.8891
 186  567.1852
 187  530.3227
 188  556.5563
 189  436.3618
 190  404.7526
 191  572.1833
 192  546.2274
 193  337.4571
 194  315.4708
 195  465.3342
 196  479.207
 197  454.4669
 198  473.3171
 199  461.6741
 200  385.4775
 201  335.3229
 202  349.6841
 203  339.0634
 204  281.1929
 205  248.1298
 206  307.4354
 207  370.0596
 208  426.3868
 209  432.5157
 210  310.4213
 211  354.0722
 212  476.5455
 213  519.5329
 214  492.5473
 215  484.828
 216  498.0447
 217  445.5822
 218  457.9371
 219  528.9189
 220  271.5201
 221  427.4864
 222  446.9767
 223  399.2282
 224  329.2533
 225  459.7047
 226  682.5172
 227  670.7141
 228  567.0964
 229  528.717
 230  564.1176
 231  608.1465
 232  758.8478
 233  752.6637
 234  865.6505
 235  902.5681
 236  771.5204
 237  505.9203
 238  505.592
 239  584.5729
 240  475.4375
 241  439.425
 242  493.9712
 243  320.4484
 244  176.4426
 245  312.7513
 246  335.3916
 247  352.7375
 248  414.5078
 249  326.8094
 250  423.6292
 251  465.3226
 252  406.3575
 253  358.4297
 254  330.4018
 255  392.2975
 256  555.2832
 257  418.3859
 258  349.5893
 259  396.5329
 260  384.4243
 261  338.5642
 262  273.5479
 263  383.8216
 264  319.7249
 265  180.9203
 266  270.6461
 267  301.1286
 268  288.4756
 269  337.6671
 270  263.8198
 271  291.7553
 272  250.6177
 273  273.4141
 274  289.4996
 275  252.9074
 276  276.4039
 277  324.6014
 278  352.0215
 279  382.1158
 280  303.3556
 281  300.641
 282  318.3436
 283  241.2422
 284  395.3063
 285  417.8813
 286  320.8614
 287  291.7928
 288  323.1161
 289  356.7078
 290  329.7514
 291  468.3065
 292  453.3002
 293  518.1369
 294  354.5497
 295  158.9958
 296  267.7294
 297  434.3302
 298  433.123
 299  405.3062
 300  387.7308
 301  423.6092
 302  397.9745
 303  323.6705
 304  325.8668
 305  417.3295
 306  312.0518
 307  226.0833
 308  307.8637
 309  367.7402
 310  355.6814
 311  286.399
 312  346.0968
 313  389.1916
 314  358.0056
 315  370.9579
 316  289.4964
 317  361.2683
 318  386.9528
 319  239.4151
 320  268.721
 321  375.1334
 322  392.0251
 323  344.9437
 324  336.1877
 325  366.5378
 326  450.4004
 327  374.266
 328  345.954
 329  367.2274
 330  396.861
 331  290.137
 332  216.0588
 333  297.7346
 334  416.3255
 335  287.7086
 336  264.0763
 337  268.4699
 338  334.7487
 339  347.5858
 340  534.312
 341  516.1176
 342  489.1309
 343  430.6874
 344  512.0171
 345  549.6118
 346  518.3054
 347  433.6593
 348  442.96
 349  473.441
 350  561.5004
 351  504.632
 352  469.8312
 353  495.0992
 354  448.6963
 355  474.946
 356  466.0614
 357  421.2835
 358  349.3877
 359  395.5656
 360  429.8941
 361  542.2896
 362  547.7782
 363  535.853
 364  366.6114
 365  417.5261
 366  533.7181
 367  372.6196
 368  324.9153
 369  434.3368
 370  478.1206
 371  435.335
 372  508.2363
 373  484.5419
 374  487.3123
 375  489.9324
 376  329.958
 377  558.4404
 378  531.4739
 379  406.9223
 380  499.8261
 381  463.8162
 382  486.1184
 383  458.654
 384  359.2769
 385  261.277
 386  195.2471
 387  315.4388
 388  368.8473
 389  420.7917
 390  480.2761
 391  404.9063
 392  276.9874
 393  272.6392
 394  377.4566
 395  558.1474
 396  473.6375
 397  450.931
 398  394.6124
 399  349.3958
 400  399.6428
 401  469.4839
 402  443.0683
 403  329.5971
 404  402.6328
 405  403.0047
 406  356.3515
 407  400.6824
 408  399.5315
 409  414.1664
 410  508.244
 411  514.2131
 412  432.9177
 413  425.7529
 414  495.6791
 415  537.918
 416  393.526
 417  336.9434
 418  302.6203
 419  328.8055
 420  370.2176
 421  530.3304
 422  467.6793
 423  540.2311
 424  495.9261
 425  487.6788
 426  534.8544
 427  413.4811
 428  360.5976
 429  262.3859
 430  366.9788
 431  509.3935
 432  523.5736
 433  444.1094
 434  395.1937
 435  360.5031
 436  338.5708
 437  321.7383
 438  316.1359
 439  312.3729
 440  419.5364
 441  317.8387
 442  366.65
 443  346.3629
 444  442.7533
 445  340.2831
 446  333.5658
 447  401.5464
 448  342.4746
 449  282.0283
 450  334.1014
 451  332.7698
 452  273.2312
 453  255.9103
 454  322.0198
 455  388.4027
 456  492.3766
 457  428.3121
 458  221.5828
 459  219.9395
 460  362.3882
 461  462.5747
 462  298.0201
 463  306.6786
 464  430.9159
 465  443.1687
 466  515.108
 467  529.5393
 468  460.8054
 469  478.3815
 470  492.4115
 471  558.8712
 472  510.233
 473  590.3727
 474  512.2706
 475  517.3656
 476  419.9354
 477  316.2398
 478  328.5707
 479  319.2993
 480  423.2768
 481  432.524
 482  495.946
 483  523.8337
 484  499.769
 485  468.8644
 486  441.9262
 487  388.0557
 488  502.0977
 489  481.3008
 490  402.0179
 491  428.3631
 492  444.8095
 493  428.701
 494  386.1008
 495  383.1535
 496  365.6066
 497  354.9691
 498  434.9249
 499  471.6335
 500  403.0623
 501  393.2743
 502  467.6423
 503  397.746
 504  301.6162
 505  362.4418
 506  389.4469
 507  213.3672
 508  270.9594
 509  393.2298
 510  342.6913
 511  404.4931
