# Input file       =  1181543118.119314_cleaned.dat
# Candidate        =  PSR_0332+5434
# Telescope        =  AR
# Epoch_topo       =  57919.267790732803
# Epoch_bary       =  N/A
# T_sample         =  0.002
# Data Folded      =  7340032
# Data Avg         =  0.0190989870166885
# Data StdDev      =  1.00001828894686 
# Profile Bins     =  512
# Profile Avg      =  273.938882749099 
# Profile StdDev   =  119.735226167906 
# Reduced chi-sqr  =  1.203
# Prob(Noise)      <  0.00108   (~3.1 sigma)
# P_topo (ms)      =  714.502996036316  +/- 0.000118
# P'_topo (s/s)    =  -0                +/- 6.24e-11
# P''_topo (s/s^2) =  0                 +/- 2.76e-14
# P_bary (ms)      =  N/A
# P'_bary (s/s)    =  N/A
# P''_bary (s/s^2) =  N/A
# P_orb (s)        =  N/A
# asin(i)/c (s)    =  N/A
# eccentricity     =  N/A
# w (rad)          =  N/A
# T_peri           =  N/A
######################################################
   0  340.6123
   1  312.98
   2  199.9615
   3  295.9388
   4  243.9881
   5  172.206
   6  151.3711
   7  161.287
   8  137.9087
   9  188.7635
  10  237.9137
  11  311.6195
  12  273.4694
  13  184.6748
  14  406.1858
  15  500.6891
  16  538.471
  17  389.8155
  18  322.0713
  19  404.1094
  20  390.0377
  21  303.1085
  22  184.515
  23  217.8234
  24  291.4713
  25  308.4634
  26  219.4468
  27  279.6528
  28  318.762
  29  444.5279
  30  354.4546
  31  268.7379
  32  280.7389
  33  298.7241
  34  340.1649
  35  400.2062
  36  391.8533
  37  231.4945
  38  306.3452
  39  236.959
  40  231.591
  41  268.1594
  42  296.9265
  43  357.4945
  44  366.7131
  45  337.5141
  46  412.2882
  47  380.3588
  48  429.7997
  49  327.558
  50  293.4816
  51  388.8613
  52  225.8226
  53  260.7675
  54  398.1702
  55  279.2709
  56  213.4002
  57  256.2586
  58  263.6023
  59  258.6963
  60  247.3423
  61  184.2084
  62  240.9171
  63  278.1066
  64  319.2179
  65  250.6498
  66  248.3836
  67  215.9165
  68  395.9263
  69  342.175
  70  232.3178
  71  197.8023
  72  176.3788
  73  239.7687
  74  323.1555
  75  163.5074
  76  201.0837
  77  213.695
  78  227.1646
  79  204.0942
  80  97.67569
  81  270.4357
  82  198.0696
  83  188.5573
  84  268.4495
  85  299.7344
  86  215.9298
  87  313.5192
  88  320.9415
  89  251.3733
  90  72.41272
  91  315.1957
  92  392.6045
  93  319.0582
  94  275.0853
  95  325.4489
  96  363.6243
  97  370.7369
  98  370.0438
  99  271.1493
 100  265.9521
 101  223.9789
 102  272.6965
 103  218.5394
 104  148.6823
 105  101.7023
 106  234.6435
 107  276.5327
 108  241.6877
 109  201.6694
 110  274.9005
 111  320.5926
 112  325.6897
 113  297.8039
 114  157.3557
 115  130.155
 116  230.2606
 117  325.1361
 118  332.7894
 119  272.2836
 120  199.9918
 121  315.0996
 122  347.1978
 123  421.268
 124  389.2398
 125  267.8727
 126  233.8313
 127  181.7266
 128  162.287
 129  188.5942
 130  212.6604
 131  319.6599
 132  227.2455
 133  128.4046
 134  196.3037
 135  210.0003
 136  297.407
 137  366.7424
 138  208.3174
 139  228.602
 140  277.4241
 141  217.2698
 142  317.6467
 143  366.1941
 144  249.581
 145  272.4081
 146  282.0793
 147  390.3542
 148  332.8567
 149  313.1052
 150  364.8045
 151  275.5199
 152  221.9874
 153  229.9777
 154  70.46961
 155  118.6057
 156  198.56
 157  231.4288
 158  236.8166
 159  150.9911
 160  158.7815
 161  86.10291
 162  317.3804
 163  287.4149
 164  233.406
 165  243.9771
 166  251.2147
 167  418.686
 168  341.9646
 169  243.2723
 170  435.9568
 171  425.0852
 172  270.5639
 173  327.1112
 174  414.7979
 175  445.7755
 176  265.7597
 177  260.8476
 178  262.1804
 179  360.1973
 180  307.8293
 181  353.579
 182  299.2529
 183  307.6143
 184  287.5347
 185  285.6134
 186  278.9939
 187  322.6895
 188  401.7668
 189  310.0833
 190  173.4562
 191  202.6797
 192  178.5887
 193  223.6411
 194  252.3583
 195  331.0019
 196  322.9201
 197  237.0446
 198  315.5363
 199  220.9471
 200  283.5663
 201  285.5246
 202  292.5441
 203  259.023
 204  199.5345
 205  247.5612
 206  194.3499
 207  259.2471
 208  253.1398
 209  272.4263
 210  165.1068
 211  270.1283
 212  215.6561
 213  331.6439
 214  262.5367
 215  159.6936
 216  153.1997
 217  216.637
 218  184.2248
 219  153.252
 220  254.8635
 221  305.4196
 222  322.9933
 223  356.9641
 224  344.569
 225  343.6158
 226  304.1974
 227  320.3549
 228  387.0237
 229  446.0607
 230  415.3221
 231  319.9322
 232  317.2244
 233  316.1681
 234  305.1419
 235  412.7932
 236  488.8122
 237  388.9742
 238  413.7511
 239  553.1152
 240  675.0468
 241  798.3614
 242  899.0374
 243  786.4825
 244  560.7015
 245  575.4059
 246  503.2645
 247  314.3086
 248  269.2923
 249  262.2491
 250  389.5704
 251  368.6469
 252  286.9415
 253  369.8357
 254  381.1587
 255  273.4163
 256  282.8026
 257  367.2054
 258  412.096
 259  486.2887
 260  349.8916
 261  232.1922
 262  282.6082
 263  222.9911
 264  266.8474
 265  217.6242
 266  242.6763
 267  300.319
 268  209.1285
 269  203.0562
 270  293.9503
 271  357.0801
 272  367.4935
 273  161.9282
 274  310.6831
 275  252.0444
 276  238.0368
 277  219.8123
 278  369.5956
 279  451.4555
 280  189.728
 281  285.5183
 282  326.0281
 283  291.1727
 284  291.3033
 285  175.0086
 286  240.7712
 287  303.6131
 288  362.5278
 289  389.8258
 290  297.9882
 291  219.9637
 292  175.1263
 293  274.6727
 294  263.0928
 295  271.9465
 296  239.6634
 297  375.2339
 298  461.7373
 299  441.9238
 300  340.4267
 301  171.1706
 302  267.51
 303  279.3224
 304  231.8952
 305  289.2586
 306  353.4258
 307  269.8853
 308  190.4677
 309  283.6334
 310  298.809
 311  401.6574
 312  492.0654
 313  274.4731
 314  166.6571
 315  165.116
 316  274.2351
 317  314.4278
 318  371.6722
 319  296.3138
 320  174.5795
 321  309.9979
 322  346.4171
 323  221.9738
 324  160.9316
 325  127.659
 326  339.7069
 327  296.6212
 328  306.8447
 329  276.4122
 330  265.7732
 331  246.7818
 332  278.9655
 333  305.5947
 334  182.4238
 335  127.3275
 336  296.5168
 337  403.7552
 338  320.6571
 339  311.2351
 340  186.0435
 341  196.0077
 342  118.9489
 343  138.0945
 344  129.5175
 345  204.738
 346  253.6866
 347  288.171
 348  251.3758
 349  252.2367
 350  289.1271
 351  297.0008
 352  320.5649
 353  308.4896
 354  334.9578
 355  423.4244
 356  350.4813
 357  304.9317
 358  153.5307
 359  257.1805
 360  210.0926
 361  177.6345
 362  146.5576
 363  138.7534
 364  217.8237
 365  288.696
 366  292.2629
 367  274.341
 368  153.8783
 369  222.6801
 370  260.5235
 371  373.8418
 372  309.6595
 373  223.3921
 374  210.4623
 375  311.1927
 376  311.6339
 377  219.1274
 378  212.2209
 379  303.0812
 380  355.5387
 381  208.1281
 382  278.9219
 383  203.4991
 384  260.7301
 385  198.0871
 386  182.6124
 387  238.3334
 388  150.2848
 389  207.1161
 390  476.9584
 391  377.7434
 392  338.8065
 393  281.2429
 394  246.5892
 395  308.0253
 396  263.7021
 397  236.6357
 398  337.7143
 399  316.2173
 400  289.4422
 401  216.8577
 402  274.5956
 403  353.6999
 404  302.1673
 405  178.1453
 406  289.3991
 407  315.8759
 408  305.3116
 409  336.5472
 410  140.0323
 411  188.1856
 412  338.4164
 413  412.1955
 414  347.5008
 415  238.4106
 416  291.035
 417  282.8638
 418  279.1969
 419  326.6873
 420  135.1316
 421  168.3012
 422  268.1476
 423  265.0099
 424  204.2624
 425  169.7578
 426  263.6095
 427  238.1049
 428  251.4987
 429  239.1073
 430  158.1615
 431  143.1948
 432  270.1666
 433  272.2639
 434  266.5779
 435  260.9035
 436  206.5726
 437  223.8258
 438  154.6858
 439  213.2681
 440  140.329
 441  247.1243
 442  219.5264
 443  162.9726
 444  219.3512
 445  195.7317
 446  129.2341
 447  198.0522
 448  233.8239
 449  251.2
 450  169.5258
 451  181.8518
 452  76.23974
 453  187.2056
 454  239.9776
 455  147.0911
 456  95.22816
 457  183.0338
 458  164.1067
 459  233.3819
 460  258.6057
 461  309.424
 462  305.8634
 463  275.1402
 464  349.7285
 465  227.9851
 466  282.6374
 467  299.6659
 468  307.9464
 469  260.4457
 470  285.0731
 471  299.7223
 472  246.0857
 473  243.608
 474  239.4014
 475  208.7978
 476  202.8052
 477  278.5548
 478  284.7059
 479  295.8747
 480  302.8997
 481  296.01
 482  265.4795
 483  176.869
 484  177.4077
 485  130.0084
 486  214.453
 487  250.9991
 488  277.939
 489  234.3047
 490  225.5376
 491  162.0804
 492  -27.41101
 493  164.6051
 494  276.3322
 495  342.5828
 496  254.8997
 497  199.347
 498  208.5483
 499  148.2375
 500  158.3657
 501  189.9888
 502  138.5496
 503  94.47704
 504  163.9211
 505  170.4039
 506  262.8192
 507  300.7398
 508  176.7894
 509  207.9909
 510  280.7862
 511  306.7509
