# Input file       =  1181011511.105454_cleaned.dat
# Candidate        =  PSR_0332+5434
# Telescope        =  AR
# Epoch_topo       =  57913.114931776086
# Epoch_bary       =  N/A
# T_sample         =  0.002
# Data Folded      =  7143424
# Data Avg         =  0.233624401765047
# Data StdDev      =  4.87629094294075 
# Profile Bins     =  256
# Profile Avg      =  6518.55259005033 
# Profile StdDev   =  814.559553134814 
# Reduced chi-sqr  =  0.522
# Prob(Noise)      <  1   (~0.0 sigma)
# P_topo (ms)      =  714.508750764159  +/- 0.000106
# P'_topo (s/s)    =  -0                +/- 5.76e-11
# P''_topo (s/s^2) =  0                 +/- 2.61e-14
# P_bary (ms)      =  N/A
# P'_bary (s/s)    =  N/A
# P''_bary (s/s^2) =  N/A
# P_orb (s)        =  N/A
# asin(i)/c (s)    =  N/A
# eccentricity     =  N/A
# w (rad)          =  N/A
# T_peri           =  N/A
######################################################
   0  6476.814
   1  6447.89
   2  6328.999
   3  5756.888
   4  6297.22
   5  6351.23
   6  6384.786
   7  6001.523
   8  6457.182
   9  5934.75
  10  6534.932
  11  6297.153
  12  5947.053
  13  5549.73
  14  5730.989
  15  6249.49
  16  6754.572
  17  6488.424
  18  5377.457
  19  6209.935
  20  6469.504
  21  6865.829
  22  6224.413
  23  6111.88
  24  5993.104
  25  6355.825
  26  6665.413
  27  6624.653
  28  6017.561
  29  5909.112
  30  6235.294
  31  6282.354
  32  7277.365
  33  6510.927
  34  6247.726
  35  6234.738
  36  6052.762
  37  6165.473
  38  6831.062
  39  5987.229
  40  6399.704
  41  5958.742
  42  6602.903
  43  6882.374
  44  6808.062
  45  6342.019
  46  6014.912
  47  6147.495
  48  6854.606
  49  6109.593
  50  5866.834
  51  6186.389
  52  7554.206
  53  7105.877
  54  6506.168
  55  5984.774
  56  6618.476
  57  7082.743
  58  6703.615
  59  6614.944
  60  6501.365
  61  6617.882
  62  6614.137
  63  7304.09
  64  6129.09
  65  6290.834
  66  6626.217
  67  7044.098
  68  7040.483
  69  6490.795
  70  6559.167
  71  6208.808
  72  5934.262
  73  6835.081
  74  6482.951
  75  7093.191
  76  6527.678
  77  5318.217
  78  6241.938
  79  6273.347
  80  6513
  81  6688.104
  82  6785.169
  83  6755.819
  84  6674.118
  85  7010.689
  86  6672.944
  87  5535.847
  88  6112.185
  89  6758.64
  90  6817.724
  91  6613.976
  92  6127.428
  93  6648.95
  94  6789.132
  95  6276.659
  96  6599.362
  97  6627.224
  98  6972.783
  99  6124.058
 100  6427.055
 101  7012
 102  6507.892
 103  6341.657
 104  6824.157
 105  6542.504
 106  7150.49
 107  7128.963
 108  6245.406
 109  5635.018
 110  5837.422
 111  6490.709
 112  6597.713
 113  5964.265
 114  6266.475
 115  6240.559
 116  7337.804
 117  6600.421
 118  6802.792
 119  6032.184
 120  6254.742
 121  6696.585
 122  6567.768
 123  6770.261
 124  5731.274
 125  6577.234
 126  6947.429
 127  7038.498
 128  6431.814
 129  6624.694
 130  7154.883
 131  6747.716
 132  6257.698
 133  7359.778
 134  6856.197
 135  6290.491
 136  5802.819
 137  6109.446
 138  7077.09
 139  7471.61
 140  6674.337
 141  6707.54
 142  6975.928
 143  7352.869
 144  6558.674
 145  5766.182
 146  5573.35
 147  6728.237
 148  7420.769
 149  5997.606
 150  5967.919
 151  6506.386
 152  5830.313
 153  6299.251
 154  6634.65
 155  7068.396
 156  6485.446
 157  6198.534
 158  6867.082
 159  7208.56
 160  6770.226
 161  6630.587
 162  6840.563
 163  7968.267
 164  8615.351
 165  8446.316
 166  6631.376
 167  6208.93
 168  6604.485
 169  6580.158
 170  7023.999
 171  7587.69
 172  6798.737
 173  5636.625
 174  6881.962
 175  7074.599
 176  6667.178
 177  6220.481
 178  5927.782
 179  6704.917
 180  7030.073
 181  7329.092
 182  6949.226
 183  6535.021
 184  6723.805
 185  6337.275
 186  6029.703
 187  6848.221
 188  7057.286
 189  7280.982
 190  6630.039
 191  6555.472
 192  6998.91
 193  7333.883
 194  6189.354
 195  6058.516
 196  6003.423
 197  7480.846
 198  6943.549
 199  5781.93
 200  5911.063
 201  6631.712
 202  6073.414
 203  5915.019
 204  5494.097
 205  6388.644
 206  6106.293
 207  7356.617
 208  6792.233
 209  6513.334
 210  5999.264
 211  6363.574
 212  7185.443
 213  6983.161
 214  7445.977
 215  7143.714
 216  7389.789
 217  7174.791
 218  7474.988
 219  5990.726
 220  7142.005
 221  6441.534
 222  5846.382
 223  6621.625
 224  7013.756
 225  6764.602
 226  6079.203
 227  5780.575
 228  6679.919
 229  7409.792
 230  6737.334
 231  6448.567
 232  6268.346
 233  5712.526
 234  6461.51
 235  6404.666
 236  5360.902
 237  5777.518
 238  6955.423
 239  6200.751
 240  6529.581
 241  6291.506
 242  6498.098
 243  5895.473
 244  5690.066
 245  6253.028
 246  6069.055
 247  6285.508
 248  5953.922
 249  6337.967
 250  6104.401
 251  6872.032
 252  6529.598
 253  6508.981
 254  6009.719
 255  6766.246
