# Input file       =  1181558042.121278-PSRB0329-2ms-sampling-dd.dat
# Candidate        =  PSR_0332+5434
# Telescope        =  AR
# Epoch_topo       =  57919.440522237011
# Epoch_bary       =  N/A
# T_sample         =  0.002
# Data Folded      =  7340032
# Data Avg         =  3.32734978807547e-10
# Data StdDev      =  6.99180489475402 
# Profile Bins     =  512
# Profile Avg      =  0.944920779568291
# Profile StdDev   =  837.150029802834 
# Reduced chi-sqr  =  0.450
# Prob(Noise)      <  1   (~0.0 sigma)
# P_topo (ms)      =  714.503170223622  +/- 8.94e-05
# P'_topo (s/s)    =  -0                +/- 4.72e-11
# P''_topo (s/s^2) =  0                 +/- 2.08e-14
# P_bary (ms)      =  N/A
# P'_bary (s/s)    =  N/A
# P''_bary (s/s^2) =  N/A
# P_orb (s)        =  N/A
# asin(i)/c (s)    =  N/A
# eccentricity     =  N/A
# w (rad)          =  N/A
# T_peri           =  N/A
######################################################
   0  -7.866302
   1  341.5171
   2  412.7693
   3  213.5114
   4  -38.35794
   5  370.8266
   6  369.0709
   7  654.3006
   8  430.1946
   9  248.3795
  10  -118.8296
  11  -383.7878
  12  -566.7669
  13  -617.7203
  14  -717.1763
  15  -374.0933
  16  -513.123
  17  -344.1994
  18  -541.1243
  19  -607.3285
  20  -979.3019
  21  -423.2502
  22  6.804945
  23  -172.2184
  24  -313.6216
  25  -113.6922
  26  259.0799
  27  280.1836
  28  349.4356
  29  367.0034
  30  885.7045
  31  775.2248
  32  659.99
  33  310.9229
  34  -32.71952
  35  241.0371
  36  294.2677
  37  709.6932
  38  324.4179
  39  4.800673
  40  322.5348
  41  314.6971
  42  351.2271
  43  211.3661
  44  288.2087
  45  159.4288
  46  174.1969
  47  128.4119
  48  -216.1045
  49  274.2559
  50  533.583
  51  945.5027
  52  904.2368
  53  558.5344
  54  388.8944
  55  449.0487
  56  184.9047
  57  -122.653
  58  105.3553
  59  325.2216
  60  232.5889
  61  191.1814
  62  -339.8944
  63  -60.22481
  64  -42.72643
  65  -224.0932
  66  -120.3957
  67  -151.933
  68  -440.7787
  69  -316.5872
  70  -33.56495
  71  -275.5941
  72  -316.6352
  73  -593.4088
  74  148.1889
  75  155.8957
  76  570.785
  77  -36.54782
  78  -801.5106
  79  -164.0328
  80  -188.4144
  81  -540.9056
  82  -403.6195
  83  136.9557
  84  328.9177
  85  29.35327
  86  196.925
  87  -90.1448
  88  -13.94446
  89  62.47451
  90  114.605
  91  23.79101
  92  335.4975
  93  555.1177
  94  612.1331
  95  453.384
  96  19.01646
  97  -130.303
  98  -233.951
  99  -65.36705
 100  16.55821
 101  463.188
 102  502.3181
 103  69.0796
 104  446.7031
 105  -10.66905
 106  -302.2396
 107  -206.1956
 108  217.9606
 109  287.795
 110  12.965
 111  -66.7024
 112  -156.7376
 113  -17.79049
 114  151.6792
 115  66.10754
 116  597.0153
 117  737.6232
 118  1016.159
 119  219.0779
 120  -620.1339
 121  -397.2976
 122  -315.9017
 123  -170.8714
 124  -291.0538
 125  -446.7831
 126  -171.4801
 127  6.471848
 128  -227.3008
 129  -947.4811
 130  -693.0767
 131  -333.0162
 132  -605.1851
 133  -393.3419
 134  -228.9814
 135  -514.6633
 136  -406.4611
 137  -179.619
 138  -331.5239
 139  -323.6661
 140  -79.27171
 141  35.49305
 142  152.1512
 143  141.6932
 144  -60.46597
 145  -164.0742
 146  351.5103
 147  191.4308
 148  -142.1484
 149  -560.2586
 150  -338.6255
 151  -71.5799
 152  -455.915
 153  -332.5875
 154  -279.4372
 155  -269.2649
 156  -430.3456
 157  -726.7156
 158  -274.4785
 159  -127.2162
 160  -251.5952
 161  -21.35901
 162  -35.88388
 163  292.7596
 164  208.1024
 165  452.6869
 166  419.4443
 167  -145.768
 168  -77.46849
 169  163.1031
 170  179.8823
 171  -2.01004
 172  -238.6823
 173  -283.7238
 174  -342.5843
 175  -184.412
 176  59.52996
 177  527.8969
 178  -62.16297
 179  -421.1114
 180  -175.7669
 181  -259.7284
 182  -506.7558
 183  -217.262
 184  -50.97847
 185  -45.50101
 186  -378.2606
 187  -832.0432
 188  -846.0117
 189  -793.2953
 190  -550.2986
 191  -270.6747
 192  -260.0854
 193  -276.1463
 194  -392.8478
 195  -478.8605
 196  -595.5123
 197  -734.1894
 198  -748.5028
 199  -355.8343
 200  -15.42701
 201  -494.909
 202  -901.1193
 203  -701.3135
 204  -365.4843
 205  -1079.933
 206  -781.2761
 207  -782.4398
 208  -54.38112
 209  141.5236
 210  -248.6644
 211  191.734
 212  -13.67476
 213  204.3616
 214  -364.9579
 215  -852.6194
 216  -178.7721
 217  77.38039
 218  -6.268891
 219  -13.6694
 220  73.41786
 221  -72.14411
 222  -214.2783
 223  11.53964
 224  -18.11676
 225  -389.7184
 226  -439.4311
 227  -37.47489
 228  477.9768
 229  452.6316
 230  188.7272
 231  -123.826
 232  -30.84228
 233  -59.17625
 234  -693.0182
 235  -959.7234
 236  -582.7369
 237  -74.89826
 238  216.6821
 239  -208.9253
 240  -329.4754
 241  -274.6393
 242  -522.7338
 243  -31.88978
 244  -245.2458
 245  -235.2392
 246  481.6237
 247  78.71455
 248  -194.9632
 249  -483.3612
 250  -324.4609
 251  203.328
 252  -260.427
 253  -477.7095
 254  -265.4669
 255  38.95805
 256  192.579
 257  5.662429
 258  332.3892
 259  160.9502
 260  -331.4257
 261  308.3041
 262  161.2105
 263  249.523
 264  508.9216
 265  193.7019
 266  179.5214
 267  -41.25549
 268  -615.2563
 269  -683.4442
 270  -506.6888
 271  250.8072
 272  87.60047
 273  -23.43165
 274  -364.3806
 275  -32.28865
 276  142.0951
 277  -181.3864
 278  -244.6013
 279  -484.8709
 280  -72.59197
 281  -359.4541
 282  -722.8526
 283  -630.8055
 284  -388.2442
 285  95.09995
 286  95.72534
 287  -436.6537
 288  -98.16936
 289  -180.7799
 290  -171.6408
 291  -189.9554
 292  -183.0904
 293  7.406002
 294  -165.8493
 295  -254.848
 296  50.28293
 297  -146.5635
 298  -288.2619
 299  -654.7774
 300  -640.2747
 301  -567.8022
 302  -475.5568
 303  -724.8331
 304  -400.1964
 305  -344.5614
 306  -901.6517
 307  -1134.571
 308  -961.8717
 309  -180.7115
 310  252.2339
 311  -210.807
 312  -13.0351
 313  503.0394
 314  324.3263
 315  163.4259
 316  -112.5729
 317  102.7553
 318  55.88303
 319  212.2437
 320  38.33486
 321  -23.67885
 322  277.2773
 323  184.1555
 324  -52.49619
 325  -572.0947
 326  -697.0245
 327  -425.2833
 328  -244.6389
 329  73.58777
 330  206.8521
 331  195.0586
 332  -57.62117
 333  -553.0098
 334  -560.262
 335  -395.9641
 336  -374.8085
 337  280.3598
 338  231.6275
 339  -166.3159
 340  200.3237
 341  665.5477
 342  697.7417
 343  467.1604
 344  470.8009
 345  402.2549
 346  908.0657
 347  906.1022
 348  557.6423
 349  595.751
 350  75.36465
 351  -144.6462
 352  181.9047
 353  628.1985
 354  438.1477
 355  202.5475
 356  462.3089
 357  652.2473
 358  333.9106
 359  162.7454
 360  365.3672
 361  449.6957
 362  894.1541
 363  796.1732
 364  370.6619
 365  156.9135
 366  602.1221
 367  518.8672
 368  242.1391
 369  64.91551
 370  6.272585
 371  363.6475
 372  447.9873
 373  240.0764
 374  -151.2092
 375  -58.72026
 376  63.83717
 377  85.63382
 378  153.6719
 379  106.8829
 380  349.4966
 381  435.4417
 382  281.3881
 383  -138.056
 384  -115.6214
 385  84.35942
 386  409.779
 387  379.6339
 388  -150.8342
 389  -54.94943
 390  226.5178
 391  189.6358
 392  -313.6352
 393  -378.2259
 394  86.20742
 395  56.14411
 396  -81.52659
 397  163.2343
 398  267.4867
 399  202.1251
 400  378.2082
 401  302.1912
 402  -28.90071
 403  -362.5748
 404  -81.20056
 405  86.97525
 406  -76.8783
 407  -365.64
 408  -95.18542
 409  316.4299
 410  103.1303
 411  384.9461
 412  681.4557
 413  786.9539
 414  277.1982
 415  -167.6514
 416  -101.4172
 417  -71.9555
 418  58.81326
 419  259.4443
 420  967.8424
 421  1015.524
 422  426.8349
 423  169.5929
 424  -50.37806
 425  -103.3761
 426  -257.7128
 427  238.2038
 428  394.5059
 429  397.2319
 430  151.3403
 431  248.5348
 432  306.1545
 433  656.3411
 434  787.6959
 435  333.8785
 436  496.3753
 437  788.6332
 438  595.3196
 439  598.9311
 440  791.2975
 441  674.4486
 442  445.2515
 443  539.9822
 444  463.267
 445  93.0975
 446  178.3075
 447  430.4283
 448  450.1376
 449  8.745757
 450  -146.4011
 451  -197.8281
 452  46.56424
 453  -22.93049
 454  183.8971
 455  256.6266
 456  470.3635
 457  139.1176
 458  390.4617
 459  321.1432
 460  -142.293
 461  174.4862
 462  593.8452
 463  100.6229
 464  -110.3043
 465  95.6451
 466  59.58563
 467  -277.2106
 468  -442.1824
 469  -593.532
 470  -1031.92
 471  -508.411
 472  3.268223
 473  -317.0782
 474  -700.3264
 475  -959.3939
 476  -645.0413
 477  -283.0862
 478  -594.1158
 479  -884.3101
 480  -335.1502
 481  24.71528
 482  -100.3837
 483  -733.6865
 484  -517.0345
 485  -95.66184
 486  373.2705
 487  237.3443
 488  37.81049
 489  19.18178
 490  -197.7981
 491  103.6132
 492  -80.39033
 493  192.667
 494  386.8613
 495  491.0941
 496  199.9251
 497  204.861
 498  -74.52308
 499  391.6864
 500  425.2466
 501  846.371
 502  530.6859
 503  393.2614
 504  521.696
 505  546.8563
 506  935.0919
 507  781.8726
 508  704.6113
 509  683.6685
 510  818.4642
 511  486.6681
