# Input file       =  1181284629.109167_cleaned.dat
# Candidate        =  PSR_0332+5434
# Telescope        =  AR
# Epoch_topo       =  57916.276019782024
# Epoch_bary       =  N/A
# T_sample         =  0.002
# Data Folded      =  7340032
# Data Avg         =  0.0270619617859309
# Data StdDev      =  1.00002808448777 
# Profile Bins     =  512
# Profile Avg      =  387.592312743212 
# Profile StdDev   =  119.736399017762 
# Reduced chi-sqr  =  1.196
# Prob(Noise)      <  0.00152   (~3.0 sigma)
# P_topo (ms)      =  714.505779885618  +/- 0.000219
# P'_topo (s/s)    =  -0                +/- 1.15e-10
# P''_topo (s/s^2) =  0                 +/- 5.1e-14
# P_bary (ms)      =  N/A
# P'_bary (s/s)    =  N/A
# P''_bary (s/s^2) =  N/A
# P_orb (s)        =  N/A
# asin(i)/c (s)    =  N/A
# eccentricity     =  N/A
# w (rad)          =  N/A
# T_peri           =  N/A
######################################################
   0  849.252
   1  813.493
   2  836.2584
   3  683.1613
   4  425.0912
   5  328.34
   6  386.0334
   7  397.2396
   8  276.9575
   9  340.6129
  10  392.5848
  11  301.4388
  12  413.3781
  13  553.8094
  14  500.6192
  15  419.3162
  16  314.1984
  17  450.4283
  18  427.5985
  19  453.8967
  20  450.2682
  21  256.0704
  22  262.8771
  23  384.2939
  24  428.4361
  25  458.7611
  26  447.0512
  27  378.6035
  28  411.2384
  29  376.8358
  30  189.281
  31  251.3213
  32  283.0641
  33  475.1264
  34  520.6309
  35  433.1996
  36  450.402
  37  495.8338
  38  465.8744
  39  422.6814
  40  433.5625
  41  408.7303
  42  338.5533
  43  410.1788
  44  403.1567
  45  442.5538
  46  340.579
  47  284.2327
  48  234.9066
  49  347.6632
  50  292.7218
  51  346.77
  52  384.027
  53  413.7156
  54  412.1651
  55  335.0421
  56  259.3242
  57  201.6292
  58  226.3399
  59  279.3595
  60  341.376
  61  364.8995
  62  337.146
  63  412.2487
  64  434.306
  65  415.3593
  66  389.2233
  67  350.6525
  68  336.2122
  69  273.1963
  70  322.3982
  71  214.849
  72  240.5793
  73  306.0717
  74  363.1167
  75  353.6859
  76  349.4176
  77  435.7592
  78  451.4045
  79  508.017
  80  413.1406
  81  398.1546
  82  377.1424
  83  361.3092
  84  342.7896
  85  396.9099
  86  406.418
  87  448.4862
  88  439.7407
  89  534.3282
  90  530.6771
  91  404.145
  92  302.1924
  93  237.4162
  94  426.4309
  95  479.2955
  96  404.6588
  97  321.4189
  98  325.9691
  99  375.6583
 100  394.3283
 101  478.2859
 102  493.5038
 103  448.9647
 104  381.9616
 105  326.7317
 106  391.4186
 107  475.7899
 108  335.2925
 109  313.5562
 110  364.7756
 111  418.2461
 112  293.9612
 113  276.1021
 114  373.5887
 115  341.441
 116  318.8383
 117  327.9525
 118  169.2618
 119  336.6845
 120  279.2593
 121  227.0058
 122  273.0847
 123  364.6146
 124  387.6871
 125  332.0828
 126  367.9246
 127  434.046
 128  402.0159
 129  351.9392
 130  425.7181
 131  331.006
 132  265.6664
 133  406.7111
 134  388.2423
 135  309.6615
 136  268.1284
 137  368.3398
 138  349.5334
 139  340.1921
 140  404.2137
 141  537.6152
 142  400.6237
 143  403.0219
 144  408.2714
 145  377.7263
 146  427.0363
 147  394.3776
 148  370.4007
 149  322.0265
 150  263.9711
 151  257.6398
 152  357.4024
 153  380.8357
 154  401.4102
 155  409.8159
 156  291.8606
 157  275.119
 158  267.7505
 159  362.9476
 160  335.8245
 161  232.738
 162  284.8169
 163  350.7927
 164  373.8041
 165  488.7468
 166  507.832
 167  418.9953
 168  307.8792
 169  323.8465
 170  302.042
 171  259.0936
 172  253.5172
 173  396.3925
 174  443.3367
 175  357.8683
 176  382.6211
 177  229.6348
 178  227.3768
 179  281.3964
 180  238.2552
 181  273.6645
 182  274.2064
 183  346.1249
 184  348.7812
 185  368.1071
 186  316.0269
 187  410.5344
 188  383.6595
 189  464.1409
 190  463.5257
 191  444.3395
 192  500.725
 193  506.4485
 194  493.4851
 195  395.511
 196  415.1495
 197  493.2874
 198  430.3436
 199  527.8494
 200  453.3909
 201  444.2307
 202  444.5746
 203  441.8664
 204  449.2592
 205  367.8595
 206  345.7475
 207  328.0547
 208  343.6512
 209  235.913
 210  255.0744
 211  314.3578
 212  293.7173
 213  226.409
 214  297.7117
 215  293.6839
 216  290.674
 217  257.2655
 218  291.878
 219  341.5446
 220  284.4393
 221  430.1164
 222  335.9705
 223  223.1856
 224  160.7485
 225  265.3353
 226  514.2704
 227  405.2871
 228  394.4585
 229  322.388
 230  245.0907
 231  323.669
 232  247.5114
 233  325.9182
 234  382.967
 235  402.9444
 236  559.5511
 237  388.132
 238  385.9688
 239  349.1878
 240  412.3358
 241  426.0302
 242  447.6591
 243  410.8023
 244  353.1946
 245  359.1211
 246  340.754
 247  375.4987
 248  366.2773
 249  429.4929
 250  300.7193
 251  416.0577
 252  409.4609
 253  408.0196
 254  328.0808
 255  464.8008
 256  449.1146
 257  484.9518
 258  484.0352
 259  370.9127
 260  356.5856
 261  326.786
 262  335.3445
 263  331.243
 264  274.3293
 265  355.5578
 266  452.6286
 267  466.4035
 268  371.7699
 269  317.4091
 270  448.0621
 271  418.753
 272  457.2392
 273  505.515
 274  489.8778
 275  490.7646
 276  495.0036
 277  525.3852
 278  417.1989
 279  370.876
 280  323.4348
 281  288.0054
 282  414.692
 283  392.6122
 284  307.8133
 285  305.0818
 286  361.1287
 287  291.9155
 288  283.7998
 289  434.2134
 290  537.5518
 291  551.3176
 292  428.7929
 293  350.1319
 294  436.1856
 295  586.0431
 296  549.2545
 297  406.6325
 298  295.0146
 299  366.8071
 300  383.8058
 301  403.8249
 302  417.0582
 303  374.6259
 304  345.0217
 305  386.8417
 306  444.8261
 307  409.6699
 308  345.5062
 309  314.7874
 310  441.2076
 311  386.4913
 312  372.6357
 313  481.561
 314  435.1763
 315  380.286
 316  423.4579
 317  347.6538
 318  473.8513
 319  416.4026
 320  334.9053
 321  373.1746
 322  325.4124
 323  297.9956
 324  334.1164
 325  344.0343
 326  397.0041
 327  479.036
 328  538.3397
 329  422.0827
 330  454.3615
 331  404.5876
 332  396.9625
 333  500.2009
 334  485.5355
 335  428.4058
 336  391.5915
 337  467.224
 338  404.8037
 339  477.598
 340  382.6703
 341  447.2103
 342  425.2554
 343  263.5964
 344  339.4497
 345  302.8118
 346  415.6396
 347  342.3859
 348  393.9016
 349  439.8273
 350  420.8368
 351  356.3589
 352  429.7932
 353  384.8957
 354  322.8682
 355  414.965
 356  435.4548
 357  416.0712
 358  317.949
 359  306.6716
 360  315.7397
 361  349.9108
 362  349.5196
 363  263.4902
 364  325.2199
 365  376.639
 366  399.9239
 367  397.1856
 368  480.8803
 369  387.8908
 370  298.1655
 371  323.6017
 372  364.0504
 373  390.9662
 374  449.1862
 375  318.1169
 376  258.7575
 377  385.726
 378  231.8454
 379  218.9352
 380  388.3765
 381  361.2458
 382  390.8153
 383  406.8642
 384  429.2133
 385  369.8724
 386  347.783
 387  262.3641
 388  300.4728
 389  339.8759
 390  338.596
 391  308.106
 392  319.2699
 393  346.8876
 394  422.633
 395  495.0714
 396  428.2977
 397  383.4097
 398  341.4118
 399  367.6531
 400  290.0279
 401  250.2518
 402  383.1369
 403  493.3205
 404  446.9017
 405  370.8245
 406  318.086
 407  292.729
 408  225.698
 409  381.1537
 410  359.6364
 411  297.022
 412  381.2729
 413  362.1154
 414  421.9137
 415  390.257
 416  231.5607
 417  166.7565
 418  267.5806
 419  344.6295
 420  498.7779
 421  646.8136
 422  560.3411
 423  397.2318
 424  381.6994
 425  285.7437
 426  371.3712
 427  388.0034
 428  405.5594
 429  310.7454
 430  354.7002
 431  482.9078
 432  392.4808
 433  329.0101
 434  382.6676
 435  374.6731
 436  254.0234
 437  393.2273
 438  356.6963
 439  450.2643
 440  526.0479
 441  563.6722
 442  596.3036
 443  451.47
 444  347.7351
 445  320.5359
 446  421.6307
 447  460.8519
 448  408.3921
 449  640.8321
 450  525.9075
 451  456.046
 452  452.0309
 453  398.3147
 454  324.3064
 455  350.7151
 456  587.4037
 457  467.3428
 458  358.9092
 459  397.355
 460  491.2071
 461  528.0808
 462  442.975
 463  418.0758
 464  467.7076
 465  603.7115
 466  444.1601
 467  339.2724
 468  353.8869
 469  445.4438
 470  386.2999
 471  354.7758
 472  541.9487
 473  499.5424
 474  414.4042
 475  286.0588
 476  293.7297
 477  346.3997
 478  370.7832
 479  397.1336
 480  359.8871
 481  386.0025
 482  384.6575
 483  352.2179
 484  386.2077
 485  259.9391
 486  410.7132
 487  425.6611
 488  410.7884
 489  572.1992
 490  531.3321
 491  492.1555
 492  445.0612
 493  391.8154
 494  419.4721
 495  426.8733
 496  366.1409
 497  368.1664
 498  442.2146
 499  502.5195
 500  445.6728
 501  413.061
 502  297.3766
 503  388.5029
 504  357.0299
 505  471.6539
 506  537.8931
 507  473.8055
 508  544.519
 509  711.0372
 510  910.4107
 511  908.6329
