# Input file       =  1181112274.121032_cleaned.dat
# Candidate        =  PSR_0332+5434
# Telescope        =  AR
# Epoch_topo       =  57914.281170382317
# Epoch_bary       =  N/A
# T_sample         =  0.002
# Data Folded      =  7340032
# Data Avg         =  0.0257218676856748
# Data StdDev      =  1.00004760457018 
# Profile Bins     =  512
# Profile Avg      =  368.692738368016 
# Profile StdDev   =  119.738736216499 
# Reduced chi-sqr  =  1.139
# Prob(Noise)      <  0.0157   (~2.2 sigma)
# P_topo (ms)      =  714.507656370966  +/- 0.000463
# P'_topo (s/s)    =  -0                +/- 2.44e-10
# P''_topo (s/s^2) =  0                 +/- 1.08e-13
# P_bary (ms)      =  N/A
# P'_bary (s/s)    =  N/A
# P''_bary (s/s^2) =  N/A
# P_orb (s)        =  N/A
# asin(i)/c (s)    =  N/A
# eccentricity     =  N/A
# w (rad)          =  N/A
# T_peri           =  N/A
######################################################
   0  879.9499
   1  725.9949
   2  656.8591
   3  632.19
   4  413.6279
   5  322.1637
   6  348.8161
   7  298.2188
   8  325.6678
   9  276.694
  10  229.3297
  11  284.3731
  12  410.8088
  13  428.0884
  14  387.9805
  15  368.3065
  16  453.1074
  17  453.0127
  18  517.7675
  19  421.1299
  20  418.8518
  21  280.7269
  22  306.2159
  23  279.4195
  24  261.7486
  25  267.8297
  26  338.9412
  27  468.4648
  28  393.0683
  29  259.7849
  30  289.7358
  31  273.1733
  32  300.3103
  33  294.8694
  34  409.0914
  35  347.0201
  36  331.2214
  37  367.3601
  38  422.4603
  39  364.667
  40  377.6875
  41  381.8299
  42  317.7393
  43  226.6734
  44  254.5313
  45  282.7229
  46  205.8471
  47  177.542
  48  328.5244
  49  415.2461
  50  304.7852
  51  373.1963
  52  373.8571
  53  351.9168
  54  425.9571
  55  383.8871
  56  427.584
  57  466.4852
  58  384.3619
  59  450.1601
  60  322.0193
  61  438.0714
  62  381.683
  63  405.2827
  64  449.773
  65  411.5873
  66  482.3159
  67  412.5907
  68  366.1315
  69  331.2491
  70  419.5297
  71  418.1442
  72  365.7238
  73  430.3698
  74  336.4624
  75  261.5468
  76  245.7737
  77  385.8934
  78  449.0642
  79  346.6201
  80  414.0618
  81  381.2835
  82  455.0967
  83  411.9604
  84  411.2113
  85  396.0341
  86  410.7271
  87  416.5975
  88  495.102
  89  473.4799
  90  378.6709
  91  569.0241
  92  558.6549
  93  377.9245
  94  403.9256
  95  422.1753
  96  455.8886
  97  370.9154
  98  359.8737
  99  298.3356
 100  395.8802
 101  436.6262
 102  388.0853
 103  333.0786
 104  326.1036
 105  298.9848
 106  395.9311
 107  420.3543
 108  434.5085
 109  288.8151
 110  302.0881
 111  352.2736
 112  518.9907
 113  528.9249
 114  424.3786
 115  358.1336
 116  455.9203
 117  448.115
 118  404.8028
 119  367.5557
 120  407.9152
 121  485.9255
 122  536.4717
 123  404.7942
 124  400.3111
 125  499.877
 126  353.9362
 127  218.3826
 128  305.3471
 129  405.322
 130  445.2345
 131  452.5289
 132  482.8678
 133  492.2972
 134  398.4231
 135  432.5536
 136  462.7511
 137  530.9119
 138  406.3097
 139  454.8295
 140  585.0472
 141  561.3035
 142  559.5946
 143  601.9847
 144  566.7015
 145  489.8342
 146  404.5627
 147  413.5606
 148  392.514
 149  544.0317
 150  567.2438
 151  562.4404
 152  482.0514
 153  464.5605
 154  378.4069
 155  393.9641
 156  386.6526
 157  389.7831
 158  367.1086
 159  382.348
 160  483.8119
 161  422.8691
 162  346.4312
 163  345.8272
 164  347.9484
 165  402.1796
 166  351.4915
 167  396.2497
 168  492.4594
 169  419.8503
 170  462.4159
 171  419.6039
 172  265.5435
 173  281.6775
 174  382.1978
 175  377.3958
 176  386.5674
 177  273.7024
 178  291.3245
 179  351.8885
 180  305.2387
 181  360.4756
 182  310.0316
 183  420.9284
 184  453.8739
 185  387.1881
 186  356.0899
 187  377.3774
 188  340.1378
 189  441.0968
 190  525.5583
 191  372.1698
 192  298.5901
 193  306.4662
 194  231.5494
 195  326.7581
 196  514.2385
 197  473.0341
 198  495.3362
 199  459.0363
 200  455.4748
 201  323.8342
 202  450.6068
 203  469.7609
 204  475.6279
 205  375.4992
 206  236.3869
 207  300.8736
 208  417.8228
 209  454.4351
 210  432.1475
 211  410.9023
 212  318.2415
 213  276.5455
 214  233.0626
 215  320.403
 216  260.7253
 217  308.1034
 218  210.7881
 219  322.5297
 220  374.1848
 221  264.3691
 222  293.6518
 223  430.083
 224  407.3688
 225  347.0436
 226  337.6052
 227  343.7515
 228  256.1435
 229  268.2491
 230  271.1295
 231  348.2223
 232  361.9936
 233  322.6634
 234  367.964
 235  367.6711
 236  310.4826
 237  370.5882
 238  391.7628
 239  397.948
 240  421.8347
 241  229.9162
 242  293.3069
 243  274.8211
 244  290.917
 245  454.7355
 246  357.5204
 247  427.3772
 248  466.1992
 249  412.5119
 250  345.8632
 251  426.3969
 252  483.2968
 253  246.1015
 254  231.1846
 255  250.7818
 256  338.7747
 257  364.7178
 258  284.846
 259  282.6235
 260  321.6205
 261  334.0648
 262  376.7472
 263  277.9766
 264  239.8455
 265  262.6679
 266  232.218
 267  325.4391
 268  374.0374
 269  323.1349
 270  249.2058
 271  158.8056
 272  205.2605
 273  366.577
 274  385.5362
 275  362.3122
 276  313.1633
 277  319.0431
 278  351.901
 279  314.7617
 280  369.5613
 281  510.8581
 282  428.563
 283  346.5755
 284  422.5754
 285  303.2955
 286  349.6002
 287  360.2065
 288  337.7398
 289  386.4148
 290  423.7081
 291  302.3256
 292  289.5174
 293  314.1232
 294  337.123
 295  334.9468
 296  357.6172
 297  369.6052
 298  303.6987
 299  396.6098
 300  348.7766
 301  414.8436
 302  393.3413
 303  510.9224
 304  489.5455
 305  456.8193
 306  435.5549
 307  388.9101
 308  370.7585
 309  285.5256
 310  309.9105
 311  304.5731
 312  352.1588
 313  454.9327
 314  326.2057
 315  282.6801
 316  289.8925
 317  334.5855
 318  376.2668
 319  286.5731
 320  333.0075
 321  353.5214
 322  397.7857
 323  328.8045
 324  207.2628
 325  278.2932
 326  317.7468
 327  220.9049
 328  144.7615
 329  222.6217
 330  230.0899
 331  256.5209
 332  369.1646
 333  240.9648
 334  140.0485
 335  303.2986
 336  304.9057
 337  283.3741
 338  331.1366
 339  377.9633
 340  348.0553
 341  303.691
 342  269.0878
 343  356.4178
 344  427.382
 345  348.5089
 346  324.2297
 347  218.4774
 348  225.8019
 349  298.0844
 350  369.6202
 351  430.9485
 352  359.3369
 353  270.6451
 354  206.2269
 355  209.6315
 356  237.326
 357  178.9975
 358  246.8089
 359  400.2028
 360  275.7363
 361  331.2507
 362  276.3586
 363  261.7566
 364  441.9656
 365  372.6034
 366  292.2007
 367  288.0762
 368  239.0976
 369  222.6535
 370  262.007
 371  378.2711
 372  450.543
 373  400.2514
 374  443.366
 375  436.1517
 376  289.6161
 377  263.5424
 378  368.2274
 379  315.7309
 380  390.7866
 381  358.3852
 382  360.7788
 383  343.528
 384  346.705
 385  380.4181
 386  456.4713
 387  475.3291
 388  498.8316
 389  322.0438
 390  284.042
 391  327.494
 392  296.9306
 393  383.0414
 394  476.4891
 395  425.8593
 396  353.8738
 397  381.8257
 398  204.9315
 399  245.8648
 400  213.2438
 401  240.4719
 402  333.1351
 403  389.7489
 404  274.6361
 405  338.2329
 406  295.0359
 407  242.4325
 408  380.1996
 409  326.8901
 410  346.8515
 411  251.3942
 412  343.4387
 413  305.5683
 414  292.1013
 415  354.3281
 416  368.9504
 417  343.0691
 418  405.3124
 419  415.4386
 420  363.0137
 421  404.5306
 422  401.3506
 423  369.3753
 424  393.0621
 425  289.7891
 426  297.5887
 427  405.0084
 428  425.8755
 429  390.3272
 430  340.5304
 431  287.481
 432  380.4075
 433  419.2338
 434  374.9429
 435  467.1904
 436  469.2834
 437  440.1232
 438  408.4374
 439  387.325
 440  394.0177
 441  428.9511
 442  382.4154
 443  404.8232
 444  282.0427
 445  289.8115
 446  343.5558
 447  410.019
 448  361.5754
 449  242.1084
 450  280.7616
 451  275.486
 452  249.1691
 453  316.4032
 454  436.6511
 455  446.2926
 456  320.6324
 457  308.0521
 458  360.6006
 459  378.8561
 460  316.5274
 461  463.1929
 462  393.4262
 463  256.3056
 464  203.0617
 465  373.4641
 466  312.6466
 467  259.3178
 468  227.5789
 469  326.5155
 470  318.3579
 471  241.6918
 472  246.4186
 473  258.8388
 474  292.9323
 475  310.8339
 476  253.3376
 477  334.6869
 478  298.7993
 479  314.9159
 480  459.4155
 481  476.948
 482  352.7544
 483  338.8912
 484  372.1776
 485  377.6586
 486  354.3536
 487  340.6774
 488  443.7387
 489  535.2627
 490  456.1184
 491  363.6923
 492  330.2526
 493  474.6662
 494  567.0837
 495  427.5801
 496  418.5762
 497  365.9611
 498  430.0581
 499  506.213
 500  422.6922
 501  399.4578
 502  494.4713
 503  588.8052
 504  516.752
 505  442.1925
 506  427.7339
 507  451.1514
 508  448.2938
 509  643.7696
 510  742.4019
 511  846.4216
