# Input file       =  1181558042.121278_cleaned.dat
# Candidate        =  PSR_0332+5434
# Telescope        =  AR
# Epoch_topo       =  57919.440522237011
# Epoch_bary       =  N/A
# T_sample         =  0.002
# Data Folded      =  7340032
# Data Avg         =  0.0254235870643535
# Data StdDev      =  1.00004351247468 
# Profile Bins     =  512
# Profile Avg      =  364.528378389049 
# Profile StdDev   =  119.73824625748  
# Reduced chi-sqr  =  1.104
# Prob(Noise)      <  0.0517   (~1.6 sigma)
# P_topo (ms)      =  714.503170223622  +/- 7.79e-05
# P'_topo (s/s)    =  -0                +/- 4.11e-11
# P''_topo (s/s^2) =  0                 +/- 1.81e-14
# P_bary (ms)      =  N/A
# P'_bary (s/s)    =  N/A
# P''_bary (s/s^2) =  N/A
# P_orb (s)        =  N/A
# asin(i)/c (s)    =  N/A
# eccentricity     =  N/A
# w (rad)          =  N/A
# T_peri           =  N/A
######################################################
   0  438.3048
   1  507.6982
   2  451.4505
   3  334.3584
   4  324.8011
   5  419.6115
   6  393.4171
   7  470.7527
   8  443.5486
   9  386.0605
  10  340.2593
  11  275.3659
  12  300.6602
  13  233.5133
  14  170.5981
  15  345.0819
  16  318.7184
  17  385.7059
  18  271.4844
  19  255.597
  20  199.1433
  21  330.0979
  22  362.2392
  23  352.8133
  24  360.4986
  25  440.7002
  26  515.7158
  27  489.2919
  28  434.6756
  29  324.7763
  30  469.1153
  31  490.0026
  32  536.4741
  33  522.4792
  34  476.1824
  35  414.1798
  36  397.2915
  37  540.5526
  38  489.985
  39  444.2837
  40  523.811
  41  470.6545
  42  444.7942
  43  399.272
  44  434.1082
  45  427.2058
  46  421.4809
  47  377.7025
  48  252.7207
  49  366.4291
  50  446.2611
  51  505.4873
  52  484.9131
  53  388.0059
  54  392.2343
  55  352.7814
  56  302.0256
  57  300.4881
  58  333.6706
  59  399.3871
  60  356.6125
  61  407.6619
  62  305.4113
  63  365.8205
  64  344.943
  65  357.9215
  66  425.8031
  67  432.8574
  68  369.6273
  69  363.4734
  70  426.1931
  71  386.7866
  72  368.7307
  73  332.3395
  74  512.811
  75  534.8262
  76  610.9173
  77  435.4625
  78  320.6479
  79  445.6818
  80  455.1609
  81  332.4459
  82  385.8389
  83  459.9788
  84  485.1067
  85  423.8625
  86  429.2886
  87  404.1896
  88  431.1276
  89  393.3952
  90  388.9725
  91  399.3061
  92  497.8386
  93  461.9574
  94  436.585
  95  471.1131
  96  354.1085
  97  375.4366
  98  416.0602
  99  395.3113
 100  373.7628
 101  378.6043
 102  399.335
 103  370.7811
 104  378.03
 105  275.9019
 106  272.2935
 107  363.9431
 108  531.0176
 109  490.118
 110  366.2502
 111  297.6487
 112  406.9953
 113  575.7277
 114  650.4716
 115  727.9348
 116  763.4983
 117  723.7741
 118  669.7181
 119  544.045
 120  433.9693
 121  456.1428
 122  543.6202
 123  486.4736
 124  402.2818
 125  347.5839
 126  374.6337
 127  431.1642
 128  416.6716
 129  241.912
 130  306.633
 131  379.2867
 132  295.4082
 133  301.0587
 134  331.924
 135  278.8476
 136  281.1812
 137  335.5721
 138  269.6037
 139  252.5823
 140  345.2063
 141  331.2608
 142  342.2437
 143  343.3909
 144  348.6893
 145  322.6242
 146  357.2461
 147  381.376
 148  321.9362
 149  282.0602
 150  254.2548
 151  263.0069
 152  220.5259
 153  237.9712
 154  351.5947
 155  338.8962
 156  311.5922
 157  282.1763
 158  306.017
 159  294.846
 160  268.6347
 161  377.3685
 162  390.5824
 163  470.9422
 164  478.2231
 165  509.8336
 166  476.9264
 167  311.6273
 168  321.6951
 169  465.7645
 170  473.7252
 171  395.6001
 172  299.7827
 173  330.0536
 174  319.5078
 175  269.6206
 176  337.3298
 177  359.7832
 178  286.0162
 179  236.4615
 180  313.2117
 181  348.9261
 182  275.2772
 183  318.2502
 184  271.4138
 185  354.0858
 186  293.9323
 187  191.7789
 188  209.3354
 189  204.3583
 190  232.1897
 191  305.6473
 192  290.5434
 193  242.6741
 194  292.0537
 195  293.8488
 196  308.8198
 197  280.1839
 198  271.8039
 199  339.7277
 200  464.8509
 201  395.4243
 202  306.1307
 203  402.824
 204  483.7332
 205  270.9551
 206  302.5967
 207  287.9714
 208  437.1439
 209  422.5327
 210  315.4163
 211  448.4759
 212  346.2306
 213  428.8448
 214  344.9208
 215  121.0874
 216  295.272
 217  380.4652
 218  322.5041
 219  312.3054
 220  284.5674
 221  264.9177
 222  265.7055
 223  358.1315
 224  364.8586
 225  204.6519
 226  209.7612
 227  335.1481
 228  402.1117
 229  361.6527
 230  333.0916
 231  259.669
 232  377.1714
 233  390.1191
 234  280.7996
 235  269.9735
 236  317.0627
 237  357.4324
 238  375.8345
 239  253.1896
 240  378.3754
 241  396.3224
 242  314.1564
 243  388.7996
 244  307.7043
 245  337.9098
 246  458.7562
 247  442.651
 248  339.7897
 249  249.9345
 250  282.2151
 251  439.7579
 252  396.2114
 253  325.1761
 254  372.4423
 255  400.6992
 256  376.2176
 257  308.7406
 258  366.2859
 259  409.2872
 260  343.1289
 261  455.29
 262  355.334
 263  284.1556
 264  359.5042
 265  367.0162
 266  336.8137
 267  358.7245
 268  190.4779
 269  187.5607
 270  202.922
 271  379.47
 272  447.3686
 273  354.5393
 274  318.5288
 275  341.6416
 276  310.6634
 277  274.7086
 278  318.8211
 279  252.7922
 280  382.9859
 281  367.8287
 282  280.7307
 283  266.6715
 284  369.4254
 285  465.5428
 286  516.0981
 287  366.8217
 288  472.0822
 289  479.4616
 290  403.0444
 291  470.1519
 292  472.8533
 293  484.171
 294  396.6278
 295  307.8705
 296  392.9607
 297  381.8179
 298  402.6073
 299  318.7213
 300  342.2828
 301  352.9559
 302  391.2235
 303  260.5586
 304  305.9862
 305  292.9798
 306  204.4919
 307  156.0203
 308  201.1809
 309  323.9908
 310  438.0075
 311  347.272
 312  270.2846
 313  394.4834
 314  407.0573
 315  321.8711
 316  241.4633
 317  288.8543
 318  367.0799
 319  494.2743
 320  336.3893
 321  330.196
 322  373.2704
 323  370.4931
 324  321.1784
 325  247.5735
 326  230.0562
 327  254.3984
 328  273.4673
 329  393.9431
 330  370.3772
 331  408.7501
 332  420.5688
 333  329.0478
 334  348.3658
 335  408.588
 336  388.0137
 337  410.4884
 338  356.8315
 339  275.8328
 340  344.1292
 341  469.1182
 342  479.5695
 343  399.5793
 344  371.1026
 345  347.5648
 346  430.3696
 347  437.624
 348  440.3665
 349  425.7809
 350  362.0277
 351  242.8541
 352  342.0996
 353  416.3621
 354  392.362
 355  413.3526
 356  385.318
 357  388.3271
 358  313.4012
 359  329.8188
 360  377.0307
 361  350.1743
 362  483.3783
 363  417.0545
 364  275.146
 365  259.7072
 366  423.476
 367  405.8419
 368  319.5973
 369  282.4116
 370  262.9979
 371  366.2125
 372  402.4762
 373  351.2254
 374  340.0793
 375  396.6542
 376  453.0233
 377  406.2133
 378  366.0979
 379  344.7635
 380  363.3159
 381  450.4019
 382  382.5229
 383  337.1826
 384  430.8745
 385  472.9838
 386  505.4885
 387  489.766
 388  346.7066
 389  309.6749
 390  381.5962
 391  378.6828
 392  248.4461
 393  249.4474
 394  301.9469
 395  286.0061
 396  252.9783
 397  235.7644
 398  247.1475
 399  219.0177
 400  329.1326
 401  353.6889
 402  353.9466
 403  269.6978
 404  234.9447
 405  235.9408
 406  209.0324
 407  193.2319
 408  290.8925
 409  358.906
 410  307.5921
 411  379.5704
 412  463.8091
 413  492.4392
 414  390.3174
 415  315.1656
 416  362.4565
 417  432.0714
 418  403.1305
 419  394.1301
 420  609.6583
 421  721.3951
 422  566.9577
 423  478.6943
 424  433.8709
 425  409.1428
 426  333.0508
 427  368.7411
 428  473.6915
 429  463.2768
 430  397.4409
 431  377.9478
 432  335.8657
 433  437.8324
 434  402.0997
 435  306.9066
 436  317.5321
 437  415.7308
 438  374.2305
 439  399.5211
 440  411.9728
 441  350.7783
 442  337.1535
 443  335.2382
 444  341.0292
 445  342.0819
 446  418.5163
 447  402.3851
 448  387.8054
 449  324.6949
 450  330.0811
 451  240.5907
 452  261.571
 453  271.6512
 454  271.2675
 455  284.2776
 456  340.3768
 457  288.0018
 458  409.8135
 459  452.532
 460  407.0315
 461  444.811
 462  530.93
 463  390.3442
 464  306.9292
 465  376.9034
 466  404.0602
 467  377.8905
 468  368.2692
 469  296.0564
 470  240.4956
 471  280.1273
 472  374.3908
 473  283.6136
 474  207.4117
 475  157.1336
 476  289.1611
 477  357.4777
 478  134.3447
 479  67.06192
 480  211.4632
 481  291.1411
 482  251.7279
 483  163.2625
 484  192.9376
 485  257.4875
 486  357.7186
 487  262.3179
 488  281.9693
 489  312.8589
 490  369.6821
 491  389.4027
 492  264.0417
 493  253.9104
 494  366.8977
 495  432.5588
 496  367.1334
 497  389.7325
 498  360.3567
 499  414.2435
 500  341.8715
 501  448.5715
 502  435.8851
 503  469.9459
 504  555.0237
 505  487.7969
 506  541.6076
 507  501.4832
 508  411.1209
 509  414.0439
 510  500.1857
 511  447.1239
