# Input file       =  1181011511.105454_cleaned.dat
# Candidate        =  PSR_0332+5434
# Telescope        =  AR
# Epoch_topo       =  57913.114931776086
# Epoch_bary       =  N/A
# T_sample         =  0.002
# Data Folded      =  7143424
# Data Avg         =  0.0338408711593297
# Data StdDev      =  1.00005742937952 
# Profile Bins     =  512
# Profile Avg      =  472.041499970145 
# Profile StdDev   =  118.125367958883 
# Reduced chi-sqr  =  0.817
# Prob(Noise)      <  0.999   (~0.0 sigma)
# P_topo (ms)      =  714.508750707126  +/- 0.000522
# P'_topo (s/s)    =  -0                +/- 2.83e-10
# P''_topo (s/s^2) =  0                 +/- 1.28e-13
# P_bary (ms)      =  N/A
# P'_bary (s/s)    =  N/A
# P''_bary (s/s^2) =  N/A
# P_orb (s)        =  N/A
# asin(i)/c (s)    =  N/A
# eccentricity     =  N/A
# w (rad)          =  N/A
# T_peri           =  N/A
######################################################
   0  433.5119
   1  411.1336
   2  419.7053
   3  413.2961
   4  381.6975
   5  525.4385
   6  522.6745
   7  494.021
   8  524.0174
   9  511.4962
  10  423.7556
  11  441.3073
  12  409.1341
  13  485.7787
  14  480.3002
  15  434.2455
  16  429.0406
  17  396.687
  18  422.4445
  19  473.5841
  20  430.312
  21  311.0515
  22  429.2709
  23  477.8605
  24  395.9861
  25  446.6637
  26  426.7142
  27  419.4657
  28  372.361
  29  420.5338
  30  484.7321
  31  540.5157
  32  452.9126
  33  333.7755
  34  336.0764
  35  416.4794
  36  391.5225
  37  408.1137
  38  433.2343
  39  472.1061
  40  452.0618
  41  397.4474
  42  389.7821
  43  401.2409
  44  343.6456
  45  393.321
  46  409.8815
  47  511.213
  48  499.661
  49  507.456
  50  397.1949
  51  313.0019
  52  446.2623
  53  497.3264
  54  473.7092
  55  466.7869
  56  411.5196
  57  458.6429
  58  579.7668
  59  493.8149
  60  430.8621
  61  442.9619
  62  451.8448
  63  421.7844
  64  462.9139
  65  521.5115
  66  505.3471
  67  512.6104
  68  504.5781
  69  501.492
  70  503.0347
  71  442.8211
  72  437.1146
  73  358.9914
  74  414.8199
  75  398.868
  76  423.5824
  77  447.3542
  78  461.7742
  79  575.5213
  80  497.7271
  81  401.7731
  82  425.3709
  83  416.2497
  84  482.2741
  85  465.7023
  86  453.8244
  87  417.3387
  88  434.58
  89  385.4101
  90  394.8064
  91  479.9747
  92  487.7994
  93  275.8986
  94  394.6138
  95  494.1994
  96  510.0627
  97  366.7387
  98  398.9176
  99  417.2354
 100  427.7444
 101  473.0601
 102  527.6385
 103  565.6787
 104  526.8526
 105  520.4805
 106  544.3715
 107  428.7148
 108  405.8695
 109  328.6687
 110  382.461
 111  454.7074
 112  513.3083
 113  443.0044
 114  460.0876
 115  421.2081
 116  414.1775
 117  439.2595
 118  482.3508
 119  615.5771
 120  559.8011
 121  543.874
 122  551.5723
 123  529.5627
 124  518.1769
 125  502.547
 126  475.983
 127  485.8506
 128  486.2516
 129  511.4314
 130  479.188
 131  425.7903
 132  462.0897
 133  576.8282
 134  465.0841
 135  483.1544
 136  494.8885
 137  523.5291
 138  433.1676
 139  439.3451
 140  584.491
 141  548.9675
 142  495.3082
 143  420.4451
 144  365.9219
 145  456.6557
 146  469.8808
 147  550.9168
 148  537.8889
 149  540.3188
 150  543.695
 151  518.2274
 152  552.9753
 153  444.8173
 154  424.9574
 155  470.4612
 156  494.1159
 157  492.1954
 158  420.8869
 159  386.3553
 160  467.5449
 161  579.257
 162  520.664
 163  428.7212
 164  411.1344
 165  504.7723
 166  407.2564
 167  453.1417
 168  503.4665
 169  319.5947
 170  336.0601
 171  415.4221
 172  408.3213
 173  416.1062
 174  377.8036
 175  473.8806
 176  430.2404
 177  436.1732
 178  521.7095
 179  471.381
 180  482.54
 181  521.8528
 182  569.2319
 183  587.5062
 184  558.3448
 185  554.1384
 186  537.5612
 187  535.0738
 188  466.7204
 189  315.2982
 190  369.8689
 191  381.4331
 192  490.5562
 193  442.0647
 194  560.7009
 195  485.9793
 196  400.1245
 197  480.5317
 198  461.9015
 199  430.0856
 200  375.3501
 201  461.0198
 202  486.169
 203  480.1281
 204  557.505
 205  467.5465
 206  443.8007
 207  488.1758
 208  457.4926
 209  441.7531
 210  451.4745
 211  534.8795
 212  409.2232
 213  370.2883
 214  466.5277
 215  402.9778
 216  469.1909
 217  536.5563
 218  484.6502
 219  477.755
 220  364.5654
 221  460.8011
 222  450.341
 223  566.4217
 224  623.7164
 225  403.5995
 226  408.1945
 227  481.3061
 228  455.6122
 229  429.7596
 230  567.8018
 231  453.5157
 232  351.8799
 233  339.0791
 234  436.9597
 235  394.8863
 236  350.7509
 237  412.3907
 238  422.855
 239  449.4702
 240  386.6122
 241  322.3142
 242  418.4264
 243  434.4571
 244  403.1809
 245  403.4274
 246  423.6258
 247  528.3096
 248  519.2029
 249  449.2562
 250  395.9749
 251  482.8316
 252  468.9419
 253  344.9419
 254  365.0989
 255  423.4871
 256  468.7025
 257  427.8651
 258  477.2628
 259  442.037
 260  389.9415
 261  406.9684
 262  419.1318
 263  359.2247
 264  433.2492
 265  472.2482
 266  564.7234
 267  519.2391
 268  462.7925
 269  514.6016
 270  506.8198
 271  396.3106
 272  518.5081
 273  506.5981
 274  469.2312
 275  578.2816
 276  530.0328
 277  540.332
 278  531.0546
 279  408.1114
 280  493.9415
 281  577.0804
 282  420.1358
 283  383.0336
 284  421.6334
 285  414.0197
 286  373.2143
 287  409.3305
 288  492.6665
 289  397.7176
 290  392.2994
 291  455.2455
 292  565.6995
 293  572.0581
 294  571.0118
 295  517.7646
 296  563.728
 297  468.6801
 298  478.7426
 299  523.7927
 300  489.077
 301  562.0961
 302  607.2163
 303  484.5131
 304  411.8499
 305  361.9589
 306  380.1113
 307  368.5208
 308  407.8162
 309  468.3757
 310  482.0326
 311  517.7104
 312  489.5784
 313  427.8156
 314  378.0073
 315  438.4259
 316  360.2822
 317  458.9135
 318  355.5012
 319  347.2587
 320  395.6869
 321  381.888
 322  507.7355
 323  489.0644
 324  545.5725
 325  590.4092
 326  539.2773
 327  478.4489
 328  371.8408
 329  447.417
 330  449.3979
 331  571.6541
 332  544.9249
 333  536.6014
 334  560.641
 335  586.5846
 336  433.7462
 337  452.2313
 338  599.791
 339  633.1652
 340  630.3101
 341  727.1329
 342  869.288
 343  858.1285
 344  798.2499
 345  831.4943
 346  665.3176
 347  483.8776
 348  393.0848
 349  375.3531
 350  493.0498
 351  456.7476
 352  475.5011
 353  548.1589
 354  508.9705
 355  493.2582
 356  531.9479
 357  545.0939
 358  571.8322
 359  599.278
 360  486.7115
 361  345.7438
 362  475.2032
 363  488.239
 364  528.2005
 365  476.026
 366  446.4534
 367  475.2086
 368  403.4842
 369  431.4794
 370  488.9956
 371  430.3312
 372  388.8736
 373  467.9707
 374  485.5627
 375  407.3139
 376  549.3334
 377  538.8112
 378  505.4806
 379  533.8568
 380  541.5156
 381  447.6554
 382  428.8076
 383  451.6034
 384  512.1085
 385  470.9507
 386  446.7488
 387  356.5051
 388  549.8461
 389  587.3941
 390  571.6116
 391  522.9742
 392  502.2202
 393  522.1318
 394  547.4575
 395  525.819
 396  500.2213
 397  498.8571
 398  515.3264
 399  510.3742
 400  563.3599
 401  564.9366
 402  590.4916
 403  459.3969
 404  482.5088
 405  605.5829
 406  443.7692
 407  398.5063
 408  424.3434
 409  599.6028
 410  561.3867
 411  513.8328
 412  526.6344
 413  464.1024
 414  534.0074
 415  478.711
 416  553.5856
 417  483.2666
 418  393.9494
 419  446.7365
 420  320.7217
 421  412.9377
 422  411.3452
 423  352.2628
 424  461.8587
 425  440.4391
 426  349.227
 427  322.1656
 428  504.2173
 429  536.8997
 430  576.8922
 431  509.9084
 432  462.3722
 433  512.9371
 434  363.2102
 435  453.6569
 436  483.4274
 437  442.056
 438  556.2512
 439  504.5387
 440  553.0713
 441  567.5842
 442  484.4907
 443  576.0172
 444  634.6741
 445  552.1651
 446  681.308
 447  639.8649
 448  572.5288
 449  515.135
 450  580.2927
 451  664.2752
 452  545.9676
 453  417.0419
 454  500.2804
 455  611.9861
 456  506.8882
 457  449.6098
 458  530.9475
 459  497.1882
 460  266.3212
 461  416.3123
 462  510.6248
 463  522.6503
 464  489.3748
 465  471.2463
 466  459.2843
 467  437.618
 468  446.6745
 469  419.2415
 470  541.3107
 471  514.9398
 472  547.7838
 473  524.316
 474  478.1079
 475  466.6936
 476  524.3149
 477  490.9617
 478  555.2411
 479  585.6105
 480  473.6986
 481  405.0103
 482  298.1095
 483  351.971
 484  483.251
 485  507.3286
 486  430.1818
 487  409.7588
 488  311.9757
 489  328.0139
 490  546.1937
 491  562.2657
 492  560.6323
 493  506.7633
 494  388.7141
 495  443.9425
 496  477.7721
 497  508.3095
 498  564.6205
 499  480.8792
 500  541.4621
 501  495.8303
 502  424.0157
 503  381.8278
 504  388.26
 505  499.4752
 506  434.558
 507  371.8893
 508  417.489
 509  457.271
 510  460.3839
 511  479.3041
