# Input file       =  1181543118.119314_cleaned.dat
# Candidate        =  PSR_0332+5434
# Telescope        =  AR
# Epoch_topo       =  57919.267790732803
# Epoch_bary       =  N/A
# T_sample         =  0.002
# Data Folded      =  7340032
# Data Avg         =  0.0660455333969104
# Data StdDev      =  2.78714605151482 
# Profile Bins     =  1024
# Profile Avg      =  473.657631327477 
# Profile StdDev   =  235.971050237563 
# Reduced chi-sqr  =  0.909
# Prob(Noise)      <  0.983   (~0.0 sigma)
# P_topo (ms)      =  714.502996036316  +/- 0.000355
# P'_topo (s/s)    =  -0                +/- 1.87e-10
# P''_topo (s/s^2) =  0                 +/- 8.28e-14
# P_bary (ms)      =  N/A
# P'_bary (s/s)    =  N/A
# P''_bary (s/s^2) =  N/A
# P_orb (s)        =  N/A
# asin(i)/c (s)    =  N/A
# eccentricity     =  N/A
# w (rad)          =  N/A
# T_peri           =  N/A
######################################################
   0  384.8429
   1  311.311
   2  386.4594
   3  416.6855
   4  385.5965
   5  353.1201
   6  297.8248
   7  305.9124
   8  276.0508
   9  357.1142
  10  387.522
  11  392.2254
  12  345.6035
  13  421.152
  14  372.2167
  15  398.077
  16  409.1223
  17  419.5388
  18  399.5607
  19  346.5558
  20  393.8313
  21  356.6246
  22  261.6238
  23  277.6243
  24  398.2526
  25  371.6857
  26  361.0797
  27  355.7126
  28  452.9501
  29  423.0352
  30  433.7754
  31  371.7221
  32  335.3651
  33  281.5532
  34  366.6549
  35  381.8845
  36  361.9941
  37  374.7069
  38  307.7921
  39  321.5751
  40  389.6539
  41  469.2404
  42  473.7592
  43  453.5172
  44  502.3543
  45  474.5586
  46  381.8665
  47  326.3212
  48  382.473
  49  353.4294
  50  286.1554
  51  281.7323
  52  362.8095
  53  492.042
  54  473.8453
  55  502.4255
  56  348.4788
  57  307.8681
  58  237.6162
  59  308.4523
  60  346.8813
  61  347.1249
  62  328.3627
  63  333.3597
  64  444.6978
  65  468.3433
  66  485.0321
  67  465.6301
  68  496.8534
  69  546.5738
  70  504.0227
  71  407.9613
  72  418.7321
  73  513.338
  74  582.6363
  75  580.973
  76  447.5551
  77  480.5974
  78  476.6477
  79  516.3793
  80  520.4348
  81  542.0062
  82  534.769
  83  475.2387
  84  425.1199
  85  483.2245
  86  549.3809
  87  506.2578
  88  546.2159
  89  521.0999
  90  557.3013
  91  434.3054
  92  451.1417
  93  524.5311
  94  542.7618
  95  394.0526
  96  372.4466
  97  420.0559
  98  420.3636
  99  395.3818
 100  447.8386
 101  499.3851
 102  478.5728
 103  408.5821
 104  454.0112
 105  494.338
 106  555.6689
 107  558.8738
 108  468.2624
 109  527.7208
 110  470.1451
 111  429.077
 112  370.9897
 113  386.7142
 114  363.2082
 115  308.0598
 116  263.6744
 117  268.8692
 118  382.1199
 119  399.6699
 120  467.9762
 121  429.2539
 122  476.7728
 123  461.2099
 124  430.656
 125  403.2747
 126  431.7299
 127  455.7155
 128  420.8432
 129  218.0241
 130  104.8232
 131  122.3145
 132  284.2513
 133  436.3692
 134  468.151
 135  467.1476
 136  573.8073
 137  627.4144
 138  541.2887
 139  442.4279
 140  398.1185
 141  428.2395
 142  430.6754
 143  436.0294
 144  372.7125
 145  368.0526
 146  340.8619
 147  387.6259
 148  401.9369
 149  396.7795
 150  378.7448
 151  235.0006
 152  191.8624
 153  198.3666
 154  231.318
 155  303.465
 156  343.8312
 157  398.0439
 158  442.0663
 159  554.8693
 160  540.7338
 161  485.6695
 162  356.617
 163  405.1074
 164  422.2006
 165  445.0584
 166  485.2047
 167  516.7911
 168  569.1821
 169  480.7418
 170  553.8664
 171  540.1091
 172  547.484
 173  383.2365
 174  398.5808
 175  435.6612
 176  500.5564
 177  493.8116
 178  450.8132
 179  422.1656
 180  390.2791
 181  322.1814
 182  292.0764
 183  304.3226
 184  301.9024
 185  317.3916
 186  316.6071
 187  280.9663
 188  375.0718
 189  397.7893
 190  494.6555
 191  515.7015
 192  548.3948
 193  562.6409
 194  527.093
 195  455.8534
 196  361.0262
 197  389.9375
 198  639.7173
 199  763.8476
 200  802.1221
 201  749.4656
 202  812.3521
 203  807.652
 204  682.2832
 205  562.9891
 206  536.6997
 207  615.9085
 208  647.5616
 209  692.8387
 210  626.827
 211  548.8469
 212  487.0458
 213  481.1884
 214  410.5325
 215  366.7299
 216  390.0115
 217  492.9641
 218  489.5152
 219  522.8449
 220  553.9154
 221  498.2766
 222  415.8952
 223  363.0522
 224  468.9843
 225  477.5202
 226  504.0674
 227  524.5752
 228  686.3327
 229  673.9825
 230  602.45
 231  537.7343
 232  495.2333
 233  494.2101
 234  470.1004
 235  510.3123
 236  542.2122
 237  533.9588
 238  594.2197
 239  624.8893
 240  664.2216
 241  733.8348
 242  720.0488
 243  602.5655
 244  472.9527
 245  484.6907
 246  543.9059
 247  561.3738
 248  481.7403
 249  469.5233
 250  479.2996
 251  461.3721
 252  483.3981
 253  514.3879
 254  549.2562
 255  533.8219
 256  583.1815
 257  664.2449
 258  689.4515
 259  587.3226
 260  579.4564
 261  623.8037
 262  715.2407
 263  700.9713
 264  652.1128
 265  688.9089
 266  706.3091
 267  762.6002
 268  672.7829
 269  504.2177
 270  495.4364
 271  617.2443
 272  727.9541
 273  627.8972
 274  518.6815
 275  430.0281
 276  491.7048
 277  576.9297
 278  653.0685
 279  651.0699
 280  526.3749
 281  445.1039
 282  411.54
 283  450.3763
 284  476.2716
 285  470.0403
 286  505.1738
 287  531.1028
 288  553.8216
 289  465.4803
 290  535.7072
 291  467.6719
 292  447.8694
 293  433.8771
 294  448.8441
 295  496.5887
 296  479.4983
 297  545.6838
 298  551.7606
 299  492.1498
 300  468.0657
 301  483.0245
 302  525.7231
 303  494.0647
 304  485.5182
 305  500.9855
 306  644.8608
 307  625.0516
 308  615.641
 309  508.1588
 310  414.5521
 311  401.9681
 312  371.5603
 313  398.9305
 314  332.0116
 315  398.8109
 316  420.0639
 317  528.5247
 318  570.2971
 319  581.9352
 320  363.5775
 321  368.6461
 322  441.9706
 323  512.4715
 324  458.478
 325  453.3823
 326  466.943
 327  417.727
 328  404.2625
 329  372.883
 330  273.547
 331  248.029
 332  371.8344
 333  533.3726
 334  356.8626
 335  291.8649
 336  249.2488
 337  390.6942
 338  369.0056
 339  422.8406
 340  458.0351
 341  451.4611
 342  364.4113
 343  398.0639
 344  510.7452
 345  510.4526
 346  502.5527
 347  499.0321
 348  426.5932
 349  302.0614
 350  151.1321
 351  238.6438
 352  437.8005
 353  575.5372
 354  608.434
 355  562.5679
 356  505.8797
 357  493.1373
 358  381.4897
 359  450.4651
 360  479.6389
 361  576.5306
 362  594.124
 363  556.5456
 364  582.5816
 365  633.3444
 366  645.5313
 367  519.1367
 368  440.728
 369  385.8972
 370  421.7104
 371  396.2261
 372  417.1089
 373  359.6541
 374  430.7148
 375  493.3123
 376  404.7113
 377  351.7277
 378  303.1966
 379  377.5489
 380  256.246
 381  292.0732
 382  351.0694
 383  459.126
 384  475.8244
 385  489.5917
 386  472.051
 387  463.3831
 388  410.0172
 389  399.0488
 390  444.8477
 391  446.2307
 392  492.9955
 393  502.4336
 394  520.9744
 395  516.1571
 396  490.6052
 397  490.6736
 398  301.9783
 399  281.5823
 400  248.834
 401  342.4141
 402  352.1163
 403  440.7439
 404  554.3237
 405  594.8071
 406  577.6477
 407  523.6235
 408  533.3787
 409  527.0231
 410  423.8357
 411  386.0714
 412  482.4331
 413  574.7713
 414  624.5776
 415  556.4984
 416  685.3873
 417  693.28
 418  701.3343
 419  591.7139
 420  518.654
 421  480.1616
 422  445.1056
 423  458.0312
 424  410.3159
 425  353.898
 426  311.759
 427  358.8882
 428  361.508
 429  390.6442
 430  420.0272
 431  472.4858
 432  510.7141
 433  513.3011
 434  438.1569
 435  359.5293
 436  332.7151
 437  334.1227
 438  412.967
 439  393.8263
 440  344.8526
 441  389.3779
 442  423.3439
 443  583.1255
 444  534.4646
 445  550.3486
 446  378.3608
 447  328.2013
 448  333.5896
 449  388.0657
 450  458.5735
 451  448.1514
 452  410.6952
 453  364.7472
 454  495.6951
 455  564.5385
 456  630.9993
 457  523.1251
 458  437.5296
 459  416.984
 460  448.4751
 461  449.2774
 462  442.5661
 463  516.3925
 464  605.5129
 465  652.3664
 466  542.5546
 467  516.1777
 468  514.4025
 469  559.9478
 470  601.7411
 471  541.8397
 472  523.0085
 473  410.2717
 474  386.5372
 475  448.7255
 476  489.3357
 477  364.2376
 478  259.1939
 479  147.1174
 480  212.7234
 481  307.5562
 482  299.986
 483  354.2477
 484  360.3615
 485  461.0065
 486  421.5117
 487  350.6379
 488  279.7328
 489  337.5714
 490  368.9977
 491  375.8658
 492  264.7317
 493  391.8026
 494  576.0627
 495  673.6957
 496  544.4664
 497  413.5602
 498  364.608
 499  435.2292
 500  457.539
 501  396.7093
 502  431.0037
 503  538.2417
 504  726.2844
 505  661.5366
 506  639.2335
 507  515.3844
 508  386.4864
 509  406.4394
 510  562.9241
 511  761.7797
 512  700.3804
 513  619.5618
 514  465.9766
 515  459.0271
 516  506.2279
 517  562.2934
 518  647.024
 519  603.8747
 520  694.5203
 521  647.2055
 522  457.3289
 523  378.7514
 524  394.2246
 525  455.9058
 526  430.6926
 527  474.5063
 528  562.1299
 529  572.482
 530  480.5161
 531  489.8135
 532  512.542
 533  609.9275
 534  516.1082
 535  437.5854
 536  473.415
 537  513.1815
 538  506.1398
 539  443.6302
 540  504.9701
 541  482.0106
 542  480.718
 543  445.3409
 544  518.3608
 545  602.1073
 546  609.0743
 547  621.1727
 548  545.2699
 549  404.8244
 550  280.7383
 551  333.0429
 552  305.193
 553  367.5166
 554  310.0953
 555  399.6882
 556  428.8289
 557  409.3106
 558  443.2859
 559  454.4859
 560  523.1701
 561  585.9785
 562  626.2762
 563  499.4891
 564  480.6428
 565  451.7577
 566  554.0469
 567  489.2581
 568  378.7649
 569  378.9457
 570  497.8882
 571  514.5226
 572  525.3558
 573  485.2302
 574  478.8681
 575  497.9346
 576  470.8463
 577  413.5846
 578  354.0401
 579  399.9946
 580  467.5923
 581  410.5803
 582  351.8559
 583  399.5317
 584  457.3352
 585  407.3846
 586  413.0794
 587  409.7806
 588  489.1283
 589  410.4274
 590  239.5333
 591  328.4155
 592  406.1755
 593  479.8437
 594  345.4814
 595  443.3539
 596  510.829
 597  557.706
 598  514.2318
 599  406.5909
 600  371.9001
 601  283.0827
 602  349.2727
 603  328.9511
 604  370.0914
 605  391.9982
 606  345.485
 607  319.7779
 608  282.4991
 609  350.127
 610  383.2421
 611  432.1042
 612  429.6758
 613  413.8103
 614  467.9531
 615  545.1105
 616  518.8724
 617  624.4108
 618  526.9317
 619  579.9734
 620  523.9161
 621  535.011
 622  482.2574
 623  462.027
 624  528.675
 625  522.9924
 626  585.0486
 627  640.5754
 628  678.4545
 629  652.8333
 630  638.1022
 631  586.101
 632  544.4919
 633  526.5107
 634  548.0863
 635  567.1905
 636  542.6768
 637  508.3744
 638  493.8798
 639  586.9527
 640  598.8587
 641  692.026
 642  755.9661
 643  745.286
 644  630.0999
 645  596.6012
 646  609.1669
 647  729.9133
 648  796.5696
 649  846.5857
 650  898.8444
 651  931.0373
 652  1034.718
 653  1072.316
 654  1167.732
 655  1190.014
 656  1100.142
 657  998.6154
 658  859.8915
 659  816.6089
 660  818.1398
 661  826.8542
 662  784.6775
 663  707.4195
 664  571.8983
 665  437.2749
 666  459.5717
 667  446.7705
 668  465.2898
 669  427.3098
 670  529.8384
 671  644.8214
 672  627.5818
 673  590.0792
 674  537.6385
 675  482.9382
 676  571.2806
 677  623.9382
 678  633.1794
 679  561.6606
 680  472.2714
 681  444.2994
 682  437.8402
 683  438.9981
 684  568.8337
 685  646.5375
 686  648.8352
 687  660.8412
 688  741.7744
 689  717.6504
 690  677.2226
 691  528.4948
 692  519.6235
 693  466.8899
 694  517.1083
 695  535.2266
 696  460.9876
 697  446.8728
 698  485.342
 699  520.721
 700  419.7078
 701  382.071
 702  326.9204
 703  452.9443
 704  490.6676
 705  459.1064
 706  385.7476
 707  340.8004
 708  385.6092
 709  431.6334
 710  521.0852
 711  553.8286
 712  610.3801
 713  634.8967
 714  653.9395
 715  552.2038
 716  349.7978
 717  346.4038
 718  461.7572
 719  587.3376
 720  433.1228
 721  410.8397
 722  380.5586
 723  466.8434
 724  391.3236
 725  444.208
 726  517.5527
 727  695.8621
 728  731.5901
 729  582.2655
 730  414.0115
 731  322.2734
 732  501.5134
 733  607.0947
 734  638.4747
 735  526.1545
 736  507.5935
 737  603.0386
 738  571.4567
 739  488.2721
 740  385.2694
 741  424.6299
 742  501.3929
 743  506.7804
 744  574.0769
 745  583.5607
 746  577.7615
 747  627.1144
 748  639.5945
 749  668.8199
 750  556.679
 751  469.7081
 752  435.8528
 753  402.0503
 754  368.8447
 755  382.3377
 756  488.4744
 757  579.6677
 758  538.7038
 759  468.8148
 760  506.2939
 761  525.5487
 762  470.3894
 763  473.907
 764  560.5337
 765  705.9574
 766  709.2678
 767  670.245
 768  687.9783
 769  693.4997
 770  602.6752
 771  513.4427
 772  337.1532
 773  368.0337
 774  422.2707
 775  559.3763
 776  522.7484
 777  440.4873
 778  429.0784
 779  463.3904
 780  553.5736
 781  565.657
 782  638.4914
 783  540.8937
 784  480.6938
 785  419.6332
 786  389.1682
 787  401.0995
 788  447.3372
 789  496.8587
 790  508.5944
 791  480.1931
 792  605.5947
 793  682.0833
 794  792.4279
 795  668.1941
 796  551.7706
 797  359.1959
 798  417.8728
 799  320.3029
 800  374.9547
 801  365.8227
 802  435.9927
 803  470.8687
 804  466.1908
 805  567.9261
 806  609.6159
 807  638.6151
 808  552.4583
 809  417.0261
 810  302.7852
 811  348.0807
 812  460.9985
 813  590.3195
 814  589.3952
 815  487.2423
 816  442.1442
 817  383.0851
 818  378.3501
 819  244.0998
 820  272.4896
 821  373.3302
 822  601.1023
 823  569.5509
 824  540.8251
 825  467.0886
 826  483.7745
 827  522.7909
 828  483.1518
 829  477.3184
 830  437.38
 831  488.1048
 832  429.5582
 833  431.2235
 834  442.4479
 835  504.9042
 836  515.0811
 837  435.0961
 838  353.3597
 839  255.4449
 840  268.3663
 841  304.2507
 842  454.1028
 843  583.6779
 844  623.6597
 845  549.9332
 846  533.6285
 847  507.7162
 848  491.0779
 849  432.6483
 850  318.7212
 851  345.4982
 852  332.4095
 853  324.8788
 854  225.1882
 855  188.9671
 856  211.0119
 857  265.7528
 858  253.7197
 859  226.6426
 860  312.7802
 861  408.5047
 862  415.1742
 863  388.1262
 864  421.5718
 865  476.4492
 866  424.0705
 867  329.7294
 868  363.1213
 869  415.4788
 870  433.7744
 871  460.491
 872  429.3298
 873  501.3147
 874  448.5732
 875  470.1093
 876  464.2099
 877  482.3339
 878  483.4519
 879  536.0332
 880  569.5379
 881  599.7929
 882  493.2408
 883  527.274
 884  492.4823
 885  387.1681
 886  221.2713
 887  244.6281
 888  355.7773
 889  425.0068
 890  363.601
 891  363.0049
 892  306.7985
 893  369.1579
 894  333.1862
 895  307.9906
 896  300.0232
 897  276.6391
 898  360.5591
 899  380.5137
 900  441.6
 901  412.1999
 902  443.1113
 903  467.311
 904  446.9716
 905  382.3766
 906  296.8638
 907  282.8682
 908  407.6446
 909  474.9043
 910  478.6313
 911  490.6339
 912  594.837
 913  626.0771
 914  512.3757
 915  468.5266
 916  449.895
 917  424.5314
 918  421.6418
 919  398.0414
 920  505.997
 921  567.9808
 922  562.9633
 923  509.5216
 924  437.2678
 925  395.7043
 926  400.9954
 927  481.0701
 928  513.6475
 929  625.8895
 930  623.0903
 931  516.3671
 932  391.5108
 933  467.2709
 934  521.7963
 935  535.2299
 936  464.4557
 937  446.0888
 938  475.2467
 939  523.4234
 940  439.1668
 941  365.9387
 942  314.6714
 943  479.4466
 944  433.661
 945  417.8288
 946  338.187
 947  290.7854
 948  293.952
 949  515.5627
 950  668.2151
 951  716.3458
 952  590.3402
 953  571.3956
 954  509.9108
 955  498.3269
 956  468.1833
 957  442.3254
 958  418.2355
 959  514.8246
 960  505.0752
 961  478.8353
 962  456.4404
 963  397.8546
 964  432.3188
 965  404.7696
 966  524.5326
 967  553.9753
 968  488.2035
 969  481.9844
 970  470.2309
 971  504.0233
 972  422.067
 973  381.435
 974  401.5658
 975  445.2077
 976  490.4308
 977  597.7841
 978  548.2697
 979  451.4258
 980  321.7111
 981  372.7227
 982  431.3786
 983  450.0593
 984  523.2693
 985  478.0453
 986  533.6085
 987  415.1906
 988  528.4946
 989  490.2379
 990  337.6216
 991  251.8803
 992  265.3841
 993  434.6607
 994  504.0278
 995  549.5715
 996  605.0178
 997  644.5164
 998  572.2629
 999  544.9789
1000  424.6612
1001  414.9392
1002  442.6768
1003  483.1847
1004  485.6695
1005  376.8147
1006  427.7858
1007  472.7035
1008  516.9041
1009  418.6721
1010  316.9756
1011  293.8702
1012  331.9563
1013  442.5123
1014  441.7486
1015  529.218
1016  469.1886
1017  427.8459
1018  359.8494
1019  337.7405
1020  289.0468
1021  390.486
1022  415.5275
1023  473.8172
