# Input file       =  1182505911.106921-PSRB0329-2ms-sampling-dd.dat
# Candidate        =  PSR_0332+5434
# Telescope        =  AR
# Epoch_topo       =  57930.411228089361
# Epoch_bary       =  N/A
# T_sample         =  0.002
# Data Folded      =  7340032
# Data Avg         =  -5.22379482181353e-09
# Data StdDev      =  210.738935379706 
# Profile Bins     =  512
# Profile Avg      =  -0.175879090512008
# Profile StdDev   =  25232.4126158193 
# Reduced chi-sqr  =  1.160
# Prob(Noise)      <  0.00698   (~2.5 sigma)
# P_topo (ms)      =  714.493375690315  +/- 0.000591
# P'_topo (s/s)    =  -0                +/- 3.12e-10
# P''_topo (s/s^2) =  0                 +/- 1.38e-13
# P_bary (ms)      =  N/A
# P'_bary (s/s)    =  N/A
# P''_bary (s/s^2) =  N/A
# P_orb (s)        =  N/A
# asin(i)/c (s)    =  N/A
# eccentricity     =  N/A
# w (rad)          =  N/A
# T_peri           =  N/A
######################################################
   0  -9592.449
   1  -10759.26
   2  -9673.255
   3  -9828.112
   4  -8858.822
   5  -7591.502
   6  -8007.949
   7  -8611.738
   8  -8604.493
   9  -9314.587
  10  -9505.766
  11  -9384.017
  12  -10519.71
  13  -10610.36
  14  -11060.75
  15  -10756.87
  16  -11702.3
  17  -14125.29
  18  -14667
  19  -14019.63
  20  -13326.17
  21  -13894.19
  22  -13424.99
  23  -14156.33
  24  -14522.4
  25  -15467.43
  26  -16973.11
  27  -16260.1
  28  -16799.55
  29  -16817.78
  30  -16171.48
  31  -16025.18
  32  -15118
  33  -13632.78
  34  -11771.68
  35  -9913.783
  36  -8536.112
  37  -8001.828
  38  -7575.481
  39  -6256.192
  40  -7463.295
  41  -9172.057
  42  -12255.31
  43  -14012.87
  44  -16963.35
  45  -21049.37
  46  -24502.51
  47  -26316.96
  48  -28266.29
  49  -29483.34
  50  -29606.86
  51  -29157.29
  52  -27684.56
  53  -26300.93
  54  -25266.68
  55  -23474.5
  56  -21717.21
  57  -19583.78
  58  -19104.22
  59  -19162.76
  60  -19413.12
  61  -20077.95
  62  -20264.08
  63  -20049.82
  64  -20306.25
  65  -21115.35
  66  -20322.68
  67  -19387.53
  68  -18754.45
  69  -16810.9
  70  -14955.44
  71  -14286.52
  72  1157.946
  73  14423.27
  74  19833.38
  75  19636.75
  76  17954.83
  77  20366.79
  78  27463.48
  79  31485.8
  80  32973.29
  81  30334.34
  82  30004.06
  83  30002.33
  84  29803.41
  85  31409.95
  86  32048.93
  87  32370.44
  88  34311.61
  89  36574.12
  90  38117.82
  91  41059.28
  92  41278.64
  93  41111.45
  94  40382.27
  95  38714.7
  96  38598.39
  97  37547.63
  98  34004.6
  99  31190.42
 100  29228.74
 101  28627.25
 102  26959.82
 103  26930.07
 104  27694.53
 105  28898.62
 106  29872.07
 107  30397.3
 108  30815.13
 109  31406.92
 110  30350.71
 111  28471.63
 112  27236.57
 113  26268.11
 114  24462.14
 115  20085.49
 116  18020.1
 117  15470.38
 118  12686.01
 119  12077.21
 120  14949.3
 121  18354.89
 122  21576.97
 123  22824.45
 124  24012.06
 125  24782.92
 126  25458.21
 127  25697.26
 128  25766.99
 129  23918.79
 130  21296.48
 131  17463.16
 132  13707.44
 133  11370.13
 134  9797.691
 135  7994.018
 136  7102.351
 137  8602.602
 138  6505.482
 139  2703.807
 140  -4346.912
 141  -3623.753
 142  -545.922
 143  -685.6947
 144  494.7147
 145  -191.8333
 146  -1442.894
 147  -2277.425
 148  -4754.271
 149  -6030.837
 150  -7506.178
 151  -10039.12
 152  -11187.79
 153  -12190.88
 154  -13919.17
 155  -16306.79
 156  -17859.26
 157  -18471.62
 158  -19239.67
 159  -19944.15
 160  -19497.84
 161  -19137.83
 162  -23727.48
 163  -25264.66
 164  -22263.09
 165  -19570.19
 166  -18952.85
 167  -17535.64
 168  -14067.41
 169  -16161.81
 170  -19071.23
 171  -29699.12
 172  -27565.94
 173  -26211.31
 174  -25352.05
 175  -23044.05
 176  -22425.89
 177  -22015.89
 178  -20719.07
 179  -20291
 180  -19979.95
 181  -19538.8
 182  -19187.28
 183  -19527.96
 184  -21010.55
 185  -22479.54
 186  -25329.8
 187  -27168.92
 188  -28471.4
 189  -30290.98
 190  -32280.12
 191  -32138.49
 192  -32753.06
 193  -32809.18
 194  -32651.47
 195  -32183.04
 196  -32134.04
 197  -31867.66
 198  -30903.93
 199  -29554.78
 200  -28292.11
 201  -27459.03
 202  -24763.04
 203  -22492.26
 204  -20919.21
 205  -19722.5
 206  -18886.43
 207  -17597.8
 208  -17397.6
 209  -18431.7
 210  -17833.43
 211  -17668.52
 212  -18330.85
 213  -19633.85
 214  -20969.59
 215  -22814.47
 216  -21776.75
 217  -20176.65
 218  -19377.36
 219  -21539.58
 220  -22692.76
 221  -23380.86
 222  -23744.23
 223  -23135.53
 224  -21161.83
 225  -19709.95
 226  -20080.57
 227  -17962.06
 228  -16037.41
 229  -13946.72
 230  -12654.26
 231  -11124.73
 232  -9916.385
 233  -8480.097
 234  -7754.154
 235  -4773.149
 236  -10979
 237  -19166.08
 238  -28199.15
 239  -23833.14
 240  -20040.84
 241  -14627.36
 242  -16075.31
 243  -15183.69
 244  -13068.05
 245  -15797.44
 246  -18688.71
 247  -19902.73
 248  -20325.33
 249  -20210.03
 250  -18969.5
 251  -17173.83
 252  -15692.34
 253  -10564.28
 254  -2902.622
 255  14212.16
 256  17682.77
 257  20654.66
 258  23017.85
 259  24143.94
 260  23313.31
 261  20354.68
 262  20270.96
 263  12547.18
 264  4419.139
 265  -6127.632
 266  -4994.814
 267  -5188.599
 268  -5853.585
 269  -2932.2
 270  -1067.265
 271  549.8817
 272  3592.288
 273  5419.921
 274  7673.915
 275  12172.04
 276  12001.45
 277  11378.72
 278  10335.24
 279  10648.81
 280  10178.59
 281  11423.71
 282  11959.91
 283  14417.96
 284  17048.54
 285  19190.08
 286  22158.94
 287  26424.22
 288  28296.81
 289  31606.03
 290  33643.8
 291  32344.2
 292  38001.8
 293  37765.79
 294  34861.73
 295  28307.04
 296  23983.64
 297  16242.76
 298  8562.135
 299  3217.898
 300  -3453.944
 301  -8692.67
 302  -12437.53
 303  -16853.61
 304  -21458.45
 305  -24150.28
 306  -26420.32
 307  -27105.55
 308  -26629.53
 309  -25703.47
 310  -25731.44
 311  -24364.79
 312  -23278.57
 313  -21626.67
 314  -18958.41
 315  -19188.76
 316  -17012.38
 317  -13741.34
 318  -10907.04
 319  -8807.519
 320  -6969.405
 321  -6496.641
 322  -5859.497
 323  -5392.819
 324  -4241.75
 325  -3116.28
 326  -1918.668
 327  -1598.84
 328  -589.7237
 329  1007.162
 330  1466.928
 331  3866.934
 332  5744.851
 333  7831.76
 334  11363.27
 335  16241.4
 336  20153.44
 337  24327.92
 338  29079.7
 339  32367.33
 340  34768.68
 341  39613.93
 342  41752.3
 343  42206.03
 344  39652.58
 345  37722.32
 346  34713.36
 347  30221.68
 348  25230.69
 349  20942.9
 350  18064.1
 351  15388.83
 352  14438.31
 353  14276.01
 354  13111.79
 355  11724.01
 356  12029.29
 357  13932.38
 358  14521.02
 359  16467.99
 360  18887.15
 361  19381.36
 362  18519.34
 363  18083.3
 364  16983.26
 365  15908.4
 366  11705.66
 367  7257.292
 368  3350.323
 369  -676.7908
 370  -5678.98
 371  -8993.058
 372  -11711.63
 373  -13971.08
 374  -15138.62
 375  -15869.97
 376  -15242.08
 377  -14524.68
 378  -13308.15
 379  -10713.55
 380  -8380.352
 381  -6650.985
 382  -3431.257
 383  851.1735
 384  4458.128
 385  7583.788
 386  9195.683
 387  9486.852
 388  9502.401
 389  9965.74
 390  2304.81
 391  -891.8176
 392  -924.4371
 393  -2116.386
 394  -3177.417
 395  -4074.508
 396  -5078.368
 397  -5014.007
 398  -3839.746
 399  -3050.641
 400  -362.2636
 401  3906.425
 402  7475.715
 403  13243.79
 404  17044.61
 405  18274.55
 406  23310.32
 407  23825.61
 408  22523.1
 409  22138.38
 410  20679.63
 411  20710.32
 412  18693.15
 413  15156.69
 414  12011.55
 415  9516.612
 416  6025.983
 417  5341.995
 418  5156.09
 419  1588.529
 420  2644.168
 421  2860.898
 422  1403.624
 423  -542.2972
 424  -4598.59
 425  -6466.288
 426  -4791.871
 427  -4520.21
 428  -2824.484
 429  727.4283
 430  2817.307
 431  4628.256
 432  6856.667
 433  9775.411
 434  11962.49
 435  14730.26
 436  15247.78
 437  15938.75
 438  14612.64
 439  16048.18
 440  20064.77
 441  20740.12
 442  3708.673
 443  -11193.63
 444  -15608.5
 445  -13668.89
 446  -15382.96
 447  -15191.93
 448  -14721
 449  -15511.83
 450  -14276.95
 451  -14279.32
 452  -15379.88
 453  -12845.58
 454  -12992.16
 455  -15463
 456  -18995.79
 457  -17151.09
 458  -13958.08
 459  -10522.94
 460  -9013.326
 461  -7318.169
 462  -6430.317
 463  -7814.822
 464  -7696.472
 465  -6525.278
 466  -5352.809
 467  -4446.684
 468  -7458.825
 469  -9690.734
 470  -12137.39
 471  -14939.66
 472  -16728.8
 473  -18074.54
 474  -18165.17
 475  -17167.36
 476  -15469.91
 477  -12340.4
 478  -5565.193
 479  -303.1347
 480  5528.747
 481  14852.64
 482  21827.07
 483  27964.17
 484  34711.73
 485  38717.39
 486  40908.11
 487  44601.73
 488  43312.36
 489  41715.41
 490  41611.16
 491  40483.83
 492  38767.39
 493  36494.86
 494  33536.3
 495  29612.07
 496  25307.79
 497  22433.96
 498  21494.41
 499  21071.79
 500  19267.74
 501  17997.68
 502  16779.12
 503  13548.93
 504  9875.009
 505  7371.291
 506  4915.289
 507  1949.81
 508  519.969
 509  -1083.624
 510  -4269.414
 511  -6701.768
