# Input file       =  1182404838.106733_cleaned.dat
# Candidate        =  PSR_0332+5434
# Telescope        =  AR
# Epoch_topo       =  57929.241401698302
# Epoch_bary       =  N/A
# T_sample         =  0.002
# Data Folded      =  7340032
# Data Avg         =  0.169421054758589
# Data StdDev      =  3.48451544850419 
# Profile Bins     =  256
# Profile Avg      =  4857.58294496274 
# Profile StdDev   =  590.026324243506 
# Reduced chi-sqr  =  1.233
# Prob(Noise)      <  0.00661   (~2.5 sigma)
# P_topo (ms)      =  714.494044451887  +/- 0.000217
# P'_topo (s/s)    =  -0                +/- 1.14e-10
# P''_topo (s/s^2) =  0                 +/- 5.05e-14
# P_bary (ms)      =  N/A
# P'_bary (s/s)    =  N/A
# P''_bary (s/s^2) =  N/A
# P_orb (s)        =  N/A
# asin(i)/c (s)    =  N/A
# eccentricity     =  N/A
# w (rad)          =  N/A
# T_peri           =  N/A
######################################################
   0  5410.77
   1  6211.151
   2  6064.457
   3  5915.194
   4  5165.335
   5  4935.214
   6  5370.955
   7  4839.483
   8  4799.793
   9  5171.161
  10  4824.764
  11  5327.975
  12  5008.086
  13  4984.38
  14  4895.373
  15  4400.04
  16  4400.91
  17  5363.097
  18  5834.958
  19  5487.563
  20  5326.02
  21  5113.938
  22  5324.687
  23  5032.898
  24  5604.639
  25  5488.319
  26  4863.119
  27  4427.489
  28  4522.539
  29  4873.804
  30  4143.035
  31  3576.091
  32  4426.729
  33  5041.073
  34  4284.239
  35  5006.329
  36  4886.327
  37  4864.031
  38  4410.544
  39  4709.658
  40  5472.604
  41  5606.702
  42  5418.038
  43  5316.015
  44  5413.292
  45  5099.755
  46  5401.833
  47  5674.51
  48  5078.902
  49  4474.41
  50  4652.498
  51  4859.901
  52  4477.968
  53  4388.558
  54  4240.664
  55  3859.383
  56  4996.012
  57  4086.833
  58  4173.836
  59  4807.158
  60  5399.356
  61  4541.807
  62  4942.415
  63  4728.177
  64  4901.092
  65  4611.824
  66  4394.72
  67  4338.26
  68  4793.936
  69  4954.173
  70  4084.697
  71  4655.41
  72  4357.876
  73  4454.05
  74  4849.636
  75  4609.153
  76  4667.547
  77  4762.177
  78  5127.822
  79  5434.548
  80  5242.6
  81  5475.927
  82  5299.966
  83  5504.113
  84  5467.812
  85  6015.56
  86  5671.393
  87  4947.479
  88  4996.979
  89  5173.119
  90  5447.966
  91  5375.048
  92  4468.239
  93  4721.738
  94  4838.472
  95  4398.013
  96  4179.212
  97  4701.535
  98  4181.935
  99  4675.486
 100  5246.698
 101  5369.463
 102  5039.891
 103  5130.678
 104  6648.131
 105  6365.494
 106  5733.065
 107  5107.408
 108  5610.214
 109  4852.478
 110  4698.675
 111  4730.479
 112  4217.889
 113  5216.366
 114  4722.229
 115  4101.076
 116  4145.896
 117  4493.2
 118  4837.097
 119  5093.31
 120  4469.276
 121  4650.379
 122  4693.406
 123  4684.075
 124  5322.006
 125  5059.749
 126  5040.043
 127  5009.267
 128  4971.374
 129  4757.98
 130  5321.086
 131  5151.535
 132  4243.187
 133  3510.329
 134  3918.127
 135  4142.942
 136  3888.728
 137  4078.519
 138  3730.826
 139  4024.254
 140  4019.524
 141  3937.662
 142  4036.678
 143  3774.724
 144  4683.478
 145  5028.344
 146  4725.996
 147  5154.421
 148  5180.893
 149  4491.185
 150  5046.955
 151  4603.354
 152  4418.234
 153  5010.846
 154  4542.171
 155  4531.528
 156  4448.554
 157  4412.228
 158  3945.711
 159  4102.487
 160  4070.914
 161  4723.437
 162  5863.672
 163  7686.056
 164  7108.45
 165  5541.469
 166  4532.515
 167  4660.811
 168  4900.894
 169  5586.847
 170  5532.496
 171  5800.724
 172  5187.365
 173  4813.525
 174  4845.461
 175  5139.336
 176  4393.264
 177  4497.14
 178  4709.039
 179  3875.39
 180  4235.288
 181  4394.668
 182  4408.663
 183  4689.061
 184  4564.131
 185  4198.365
 186  4673.552
 187  4889.179
 188  5030.77
 189  4959.69
 190  5730.08
 191  4853.63
 192  4786.208
 193  4451.439
 194  4559.461
 195  5147.993
 196  4460.836
 197  4732.864
 198  4549.024
 199  4806.22
 200  4999.422
 201  4534.207
 202  4325.918
 203  4290.263
 204  4280.036
 205  4331.216
 206  4628.279
 207  4413.93
 208  4391.45
 209  4269.945
 210  5140.699
 211  5294.667
 212  5126.507
 213  5389.344
 214  5354.06
 215  5177.856
 216  5286.127
 217  4331.262
 218  4197.084
 219  3966.794
 220  4417.688
 221  4770.814
 222  5204.238
 223  5080.547
 224  5066.29
 225  4707.236
 226  4280.225
 227  4047.965
 228  4332.349
 229  4689.115
 230  5027.5
 231  5325.607
 232  5060.718
 233  5430.674
 234  5005.802
 235  4936.257
 236  5433.087
 237  5020.269
 238  4963.271
 239  5182.238
 240  5403.149
 241  5332.738
 242  5097.665
 243  4752.528
 244  4247.832
 245  4144.703
 246  4507.51
 247  4620.074
 248  4492.825
 249  4767.577
 250  4951.232
 251  4944.066
 252  4685.747
 253  5581.495
 254  5583.026
 255  5780.08
