# Input file       =  1182734782.112887-PSRB0329-2ms-sampling-dd.dat
# Candidate        =  PSR_0332+5434
# Telescope        =  AR
# Epoch_topo       =  57933.060198065818
# Epoch_bary       =  N/A
# T_sample         =  0.002
# Data Folded      =  7208960
# Data Avg         =  -7.4921899358339e-10
# Data StdDev      =  6.38589238620254 
# Profile Bins     =  512
# Profile Avg      =  -0.198858787018829
# Profile StdDev   =  757.744727252976 
# Reduced chi-sqr  =  0.494
# Prob(Noise)      <  1   (~0.0 sigma)
# P_topo (ms)      =  714.490806056609  +/- 9.89e-05
# P'_topo (s/s)    =  -0                +/- 5.32e-11
# P''_topo (s/s^2) =  0                 +/- 2.39e-14
# P_bary (ms)      =  N/A
# P'_bary (s/s)    =  N/A
# P''_bary (s/s^2) =  N/A
# P_orb (s)        =  N/A
# asin(i)/c (s)    =  N/A
# eccentricity     =  N/A
# w (rad)          =  N/A
# T_peri           =  N/A
######################################################
   0  -38.00694
   1  101.998
   2  -4.476307
   3  28.07669
   4  169.3992
   5  61.21521
   6  -124.0299
   7  -14.54041
   8  48.26727
   9  -399.5483
  10  -130.2715
  11  353.1621
  12  25.72163
  13  493.6483
  14  252.4336
  15  -253.4245
  16  -138.4442
  17  -283.2175
  18  -47.10891
  19  250.6867
  20  364.9227
  21  -95.64223
  22  -11.66901
  23  -212.546
  24  -461.2955
  25  -52.27546
  26  -317.1244
  27  -439.0624
  28  -118.9895
  29  538.478
  30  554.3384
  31  53.65034
  32  -107.6579
  33  -136.3627
  34  -152.6447
  35  -58.34187
  36  258.9411
  37  -13.12352
  38  170.8871
  39  -407.0731
  40  -390.6847
  41  -237.0789
  42  -54.37782
  43  254.9663
  44  522.2723
  45  702.2493
  46  -54.04354
  47  -239.3782
  48  342.8359
  49  444.8204
  50  211.9386
  51  487.3649
  52  901.1834
  53  412.876
  54  -279.4135
  55  -287.8463
  56  -318.5948
  57  -225.1701
  58  -22.56206
  59  -17.76799
  60  163.2854
  61  -94.44709
  62  -40.20059
  63  237.1856
  64  438.3588
  65  465.757
  66  746.143
  67  385.3452
  68  -24.1391
  69  -37.25596
  70  -81.60984
  71  -66.8625
  72  65.30336
  73  91.46643
  74  -76.33424
  75  -216.4856
  76  -340.352
  77  -160.8643
  78  153.5057
  79  182.2637
  80  -181.4668
  81  -501.8632
  82  -78.07018
  83  -296.4074
  84  -112.3914
  85  123.1936
  86  52.8044
  87  -224.7699
  88  -223.515
  89  -69.22736
  90  78.18725
  91  -184.94
  92  -304.2396
  93  -103.2747
  94  23.92691
  95  -84.10988
  96  58.80962
  97  705.551
  98  424.8422
  99  163.4418
 100  -80.05223
 101  -379.391
 102  -424.7404
 103  535.4197
 104  400.0739
 105  437.7382
 106  -57.4848
 107  251.8951
 108  -114.7737
 109  -515.2114
 110  -89.88317
 111  2.928485
 112  496.2638
 113  -236.7504
 114  202.7729
 115  287.0878
 116  237.0306
 117  -126.1449
 118  -48.22066
 119  356.5024
 120  -399.8497
 121  -420.1823
 122  -221.8851
 123  -209.2246
 124  -346.0784
 125  123.7573
 126  513.4851
 127  376.2946
 128  -377.9326
 129  -450.0159
 130  -292.1574
 131  -16.22191
 132  -60.99124
 133  380.3615
 134  365.7726
 135  -71.53989
 136  -443.5806
 137  -548.9546
 138  -532.6106
 139  -452.4091
 140  -70.36172
 141  -203.7737
 142  -322.9059
 143  -997.7556
 144  -633.1873
 145  -751.3148
 146  -697.4713
 147  -455.3756
 148  -514.1085
 149  174.9345
 150  -239.229
 151  -135.3543
 152  -366.0457
 153  -729.9463
 154  -499.0058
 155  -76.04668
 156  300.257
 157  50.85713
 158  -408.3003
 159  -191.1879
 160  -709.0017
 161  -586.878
 162  -123.4861
 163  98.68629
 164  -191.7289
 165  -72.83501
 166  86.13365
 167  -282.5893
 168  -123.5447
 169  -99.42091
 170  -158.0911
 171  -172.6889
 172  -39.78137
 173  171.9257
 174  189.4781
 175  -242.9188
 176  -573.1804
 177  -306.9685
 178  -437.7567
 179  -172.953
 180  -306.0881
 181  280.2314
 182  -230.4487
 183  -353.9087
 184  -800.3243
 185  -419.6723
 186  8.462384
 187  -730.5015
 188  -2.963877
 189  -206.413
 190  -84.15938
 191  15.19986
 192  271.4993
 193  38.6377
 194  86.06673
 195  370.027
 196  111.0961
 197  -117.3099
 198  -42.32821
 199  97.77785
 200  92.7938
 201  -212.2963
 202  -445.4077
 203  -336.581
 204  -424.5376
 205  -38.68081
 206  -48.81681
 207  234.8892
 208  -238.303
 209  -308.1597
 210  -400.8108
 211  -580.7664
 212  -562.5894
 213  -272.2017
 214  87.9981
 215  280.2081
 216  439.6539
 217  -197.4235
 218  -75.09544
 219  -384.6499
 220  -386.1224
 221  -215.0489
 222  292.791
 223  467.4609
 224  553.4803
 225  393.2538
 226  -86.86115
 227  -147.8107
 228  -273.8488
 229  -484.8469
 230  -188.541
 231  -311.0402
 232  -37.27543
 233  170.4531
 234  -199.392
 235  269.3491
 236  474.0531
 237  572.2061
 238  944.007
 239  1175.068
 240  1731.753
 241  1446.206
 242  670.7318
 243  22.51559
 244  96.30219
 245  -209.1846
 246  -92.37961
 247  45.17214
 248  524.4972
 249  232.2677
 250  -49.586
 251  48.58889
 252  60.66718
 253  -151.178
 254  -6.44667
 255  542.36
 256  31.80546
 257  -43.88708
 258  5.813427
 259  -234.4387
 260  -66.14302
 261  -284.6223
 262  472.9912
 263  460.9056
 264  127.4723
 265  79.67717
 266  191.5931
 267  36.71058
 268  -299.1925
 269  -22.65633
 270  161.1148
 271  101.5335
 272  253.0189
 273  245.7475
 274  252.4475
 275  166.7386
 276  -4.558371
 277  23.60378
 278  33.60113
 279  15.89794
 280  -89.96678
 281  417.196
 282  278.5699
 283  -150.1601
 284  96.55447
 285  443.8811
 286  -2.596187
 287  -58.95034
 288  651.837
 289  530.7603
 290  532.8161
 291  302.5394
 292  333.8329
 293  -69.95955
 294  -435.6008
 295  -472.7214
 296  35.25189
 297  355.7463
 298  267.5408
 299  598.0892
 300  294.0478
 301  86.96674
 302  2.789203
 303  -92.10237
 304  110.6866
 305  -260.6736
 306  55.28024
 307  469.5685
 308  539.7982
 309  376.4588
 310  131.6919
 311  274.0439
 312  10.17858
 313  -46.61435
 314  405.5146
 315  541.1758
 316  391.9428
 317  185.7568
 318  303.7307
 319  330.0485
 320  355.6095
 321  465.8048
 322  512.3192
 323  691.0058
 324  897.5766
 325  532.0851
 326  334.3477
 327  481.0477
 328  540.7411
 329  963.1781
 330  709.748
 331  785.5106
 332  649.2678
 333  138.1767
 334  -280.1504
 335  188.9505
 336  1198.203
 337  1091.862
 338  1139.627
 339  1012.297
 340  608.5771
 341  543.5214
 342  800.1893
 343  1017.177
 344  1221.048
 345  1089.263
 346  546.032
 347  -335.9405
 348  362.0814
 349  122.4588
 350  67.72846
 351  255.4311
 352  100.0184
 353  603.5805
 354  822.8127
 355  242.2037
 356  -564.7411
 357  220.2989
 358  580.5565
 359  160.548
 360  -8.35601
 361  384.5171
 362  222.5544
 363  -29.37803
 364  -145.8953
 365  104.9367
 366  53.08646
 367  -267.3491
 368  220.6566
 369  114.5393
 370  -174.5064
 371  -456.3224
 372  -23.88046
 373  344.8878
 374  270.04
 375  268.1251
 376  29.79123
 377  -55.66529
 378  -245.4634
 379  -645.7408
 380  -190.9436
 381  104.9997
 382  60.98437
 383  272.4814
 384  15.52872
 385  -55.39792
 386  -536.5581
 387  -328.701
 388  -305.193
 389  -389.1717
 390  4.788907
 391  21.78384
 392  -155.088
 393  -38.30943
 394  -228.1559
 395  -401.3718
 396  -110.9033
 397  -343.2898
 398  -85.20535
 399  81.41444
 400  -217.3403
 401  -304.0199
 402  -366.9249
 403  -510.6524
 404  -593.6147
 405  142.9529
 406  -114.3662
 407  -76.1561
 408  -661.2173
 409  -529.0223
 410  -614.9812
 411  -705.3375
 412  -385.5211
 413  -23.31986
 414  104.8835
 415  34.11472
 416  -201.4035
 417  -365.074
 418  -683.7891
 419  -652.1496
 420  -272.5907
 421  -718.433
 422  -584.2206
 423  -535.9903
 424  -561.6487
 425  -120.4536
 426  -47.57053
 427  47.73791
 428  14.71577
 429  -87.46417
 430  -595.0836
 431  -920.7402
 432  -572.0717
 433  -732.5542
 434  -573.9105
 435  -416.1715
 436  -510.2377
 437  -715.6827
 438  -844.8226
 439  -288.7357
 440  -393.6857
 441  -130.4927
 442  145.3304
 443  86.67171
 444  -5.056338
 445  -571.1813
 446  -471.0825
 447  -442.0331
 448  -138.2833
 449  245.8407
 450  110.849
 451  -408.2039
 452  -428.4124
 453  -250.2913
 454  -553.1393
 455  -604.7081
 456  186.0359
 457  426.8664
 458  65.34611
 459  -43.54578
 460  -194.1138
 461  -231.388
 462  -488.3318
 463  -500.3121
 464  -560.5463
 465  14.5719
 466  77.38609
 467  -245.9844
 468  -703.4019
 469  -250.9547
 470  -582.9277
 471  -818.6579
 472  -224.1414
 473  94.81831
 474  -91.30034
 475  -145.4304
 476  36.67775
 477  -140.6653
 478  -222.8412
 479  170.382
 480  253.5968
 481  534.4092
 482  420.6486
 483  239.6648
 484  -67.1214
 485  -252.3246
 486  -232.7298
 487  8.152404
 488  137.9369
 489  171.7597
 490  145.7642
 491  -57.73124
 492  -57.43062
 493  3.255356
 494  -233.8939
 495  -72.84875
 496  -33.56822
 497  -596.5552
 498  -111.2313
 499  15.0465
 500  -102.8857
 501  262.1872
 502  410.9068
 503  -20.09623
 504  85.17196
 505  218.6843
 506  55.37062
 507  111.6139
 508  427.5508
 509  712.9056
 510  450.0893
 511  461.6588
