# Input file       =  1182921607.112785_cleaned.dat
# Candidate        =  PSR_0332+5434
# Telescope        =  AR
# Epoch_topo       =  57935.222524453529
# Epoch_bary       =  N/A
# T_sample         =  0.002
# Data Folded      =  7340032
# Data Avg         =  0.152663607451749
# Data StdDev      =  3.15315566304942 
# Profile Bins     =  256
# Profile Avg      =  4377.32120390749 
# Profile StdDev   =  533.917806688239 
# Reduced chi-sqr  =  1.250
# Prob(Noise)      <  0.00406   (~2.6 sigma)
# P_topo (ms)      =  714.489051418912  +/- 0.000884
# P'_topo (s/s)    =  -0                +/- 4.66e-10
# P''_topo (s/s^2) =  0                 +/- 2.06e-13
# P_bary (ms)      =  N/A
# P'_bary (s/s)    =  N/A
# P''_bary (s/s^2) =  N/A
# P_orb (s)        =  N/A
# asin(i)/c (s)    =  N/A
# eccentricity     =  N/A
# w (rad)          =  N/A
# T_peri           =  N/A
######################################################
   0  4459.729
   1  4670.202
   2  4697.707
   3  4089.628
   4  3983.115
   5  4382.289
   6  4048.042
   7  3712.415
   8  4564.988
   9  4858.18
  10  3980.179
  11  4499.821
  12  4455.148
  13  4447.959
  14  3681.026
  15  4104.366
  16  3856.994
  17  4263.479
  18  4607.56
  19  5091.078
  20  4637.936
  21  5237.696
  22  5035.852
  23  4961.594
  24  4442.089
  25  4136.783
  26  4586.367
  27  4317.415
  28  4450.349
  29  4308.389
  30  4398.269
  31  4390.667
  32  3931.702
  33  4334.018
  34  3928.523
  35  4005.385
  36  4471.671
  37  4678.748
  38  5091.416
  39  4940.959
  40  4526.694
  41  4460.912
  42  4794.844
  43  4564.17
  44  4761.075
  45  4556.002
  46  4817.489
  47  5014.927
  48  4837.421
  49  5118.223
  50  5011.931
  51  4457.431
  52  5034.571
  53  4821.357
  54  4499.329
  55  4321.607
  56  4507.6
  57  4506.241
  58  4607.142
  59  4952.275
  60  4545.938
  61  4270.774
  62  4466.629
  63  4697.339
  64  4518.666
  65  4960.482
  66  5086.174
  67  4251.089
  68  4925.534
  69  5493.754
  70  4718.91
  71  4487.569
  72  5057.203
  73  5245.447
  74  5021.474
  75  4214.183
  76  4231.618
  77  4760.131
  78  5191.352
  79  5466.75
  80  5174.359
  81  5243.527
  82  5081.523
  83  4740.534
  84  4986.492
  85  4759.25
  86  4522.434
  87  4451.92
  88  4933.674
  89  4490.672
  90  4257.587
  91  4204.495
  92  4165.998
  93  3686.066
  94  4415.457
  95  4170.36
  96  3982.794
  97  4554.023
  98  4393.157
  99  4149.602
 100  3895.933
 101  4553.077
 102  3938.951
 103  4062.537
 104  4644.501
 105  4159.728
 106  4165.29
 107  4339.396
 108  4041.489
 109  3745.295
 110  3156.534
 111  4109.947
 112  4139.41
 113  3564.722
 114  3808.9
 115  3509.028
 116  3410.438
 117  3946.957
 118  3874.843
 119  3393.457
 120  4183.269
 121  3554.354
 122  3750.454
 123  4482.793
 124  3955.969
 125  3916.76
 126  3977.984
 127  4136.717
 128  3892.731
 129  4373.872
 130  3410.978
 131  4113.508
 132  3524.483
 133  3802.969
 134  3595.749
 135  3650.059
 136  3719.792
 137  3628.976
 138  3438.886
 139  3768.781
 140  3928.238
 141  4144.498
 142  4455.497
 143  4067.076
 144  4197.362
 145  3873.736
 146  4379.209
 147  4147.228
 148  3461.616
 149  3661.157
 150  3879.827
 151  3973.786
 152  3660.243
 153  3914.278
 154  4574.483
 155  4306.333
 156  4675.079
 157  5093.107
 158  4355.378
 159  4476.649
 160  4427.944
 161  4695.449
 162  5980.967
 163  6943.153
 164  6672.154
 165  5101.074
 166  4023.632
 167  4176.217
 168  4375.84
 169  4330.871
 170  4188.448
 171  4255.219
 172  4223.006
 173  4031.858
 174  4337.108
 175  4506.096
 176  4563.321
 177  4711.264
 178  4789.991
 179  4441.918
 180  4360.032
 181  4720.185
 182  4334.896
 183  4084.611
 184  4594.866
 185  4597.589
 186  3974.67
 187  3602.122
 188  3906.004
 189  3832.59
 190  3463.229
 191  3939.684
 192  3951.082
 193  3384.577
 194  2834.396
 195  3861.825
 196  4026.62
 197  3815.391
 198  3795.83
 199  3907.084
 200  3586.885
 201  4252.553
 202  4045.452
 203  4389.065
 204  4308.987
 205  4157.235
 206  4475.011
 207  4157.359
 208  3988.531
 209  4691.123
 210  4501.964
 211  5085.413
 212  4769.383
 213  4661.062
 214  4852.908
 215  4728.304
 216  4395.297
 217  4290.988
 218  4892.158
 219  4281.746
 220  4227.995
 221  4252.345
 222  4535.907
 223  4320.398
 224  4743.135
 225  4760.186
 226  5218.28
 227  4174.274
 228  4588.584
 229  4380.646
 230  4309.662
 231  4516.649
 232  4439.491
 233  4943.707
 234  4386.468
 235  4517.581
 236  4762.273
 237  4405.622
 238  4019.091
 239  5068.007
 240  4147.801
 241  4933.752
 242  4471.722
 243  3789.384
 244  4197.151
 245  3844.049
 246  4399.973
 247  4459.103
 248  4359.47
 249  4990.612
 250  4670.996
 251  4716.888
 252  5280.19
 253  5050.968
 254  4726.849
 255  4260.563
