# Input file       =  1182390233.108874_cleaned.dat
# Candidate        =  PSR_0332+5434
# Telescope        =  AR
# Epoch_topo       =  57929.072362371226
# Epoch_bary       =  N/A
# T_sample         =  0.002
# Data Folded      =  7143424
# Data Avg         =  0.0195645552625004
# Data StdDev      =  0.99999594995103 
# Profile Bins     =  512
# Profile Avg      =  272.956070396668 
# Profile StdDev   =  118.118106095816 
# Reduced chi-sqr  =  1.686
# Prob(Noise)      <  2.39e-20   (~9.2 sigma)
# P_topo (ms)      =  714.494176492533  +/- 0.000137
# P'_topo (s/s)    =  -0                +/- 7.43e-11
# P''_topo (s/s^2) =  0                 +/- 3.37e-14
# P_bary (ms)      =  N/A
# P'_bary (s/s)    =  N/A
# P''_bary (s/s^2) =  N/A
# P_orb (s)        =  N/A
# asin(i)/c (s)    =  N/A
# eccentricity     =  N/A
# w (rad)          =  N/A
# T_peri           =  N/A
######################################################
   0  1101.369
   1  892.6175
   2  681.3837
   3  407.9073
   4  449.7349
   5  359.9072
   6  254.6924
   7  305.0557
   8  439.4119
   9  286.546
  10  254.1667
  11  197.8351
  12  180.3328
  13  298.6347
  14  348.4744
  15  409.4469
  16  362.8561
  17  278.8907
  18  184.4379
  19  199.6446
  20  180.0389
  21  218.274
  22  359.2947
  23  412.1409
  24  295.9771
  25  245.0697
  26  243.9787
  27  267.3696
  28  302.6998
  29  247.9045
  30  396.5439
  31  355.5297
  32  300.9066
  33  167.5189
  34  207.1604
  35  232.4127
  36  187.678
  37  191.5142
  38  240.5379
  39  174.5132
  40  248.7228
  41  169.1867
  42  91.91317
  43  274.6935
  44  313.6231
  45  272.9321
  46  268.5535
  47  323.4666
  48  330.7468
  49  331.2886
  50  234.4187
  51  321.3978
  52  288.5752
  53  183.8238
  54  363.9072
  55  292.7935
  56  298.2889
  57  296.5933
  58  293.2743
  59  385.3992
  60  309.6535
  61  309.9124
  62  213.6241
  63  320.5394
  64  410.2407
  65  461.5448
  66  381.9376
  67  328.8933
  68  245.3751
  69  273.6474
  70  248.9533
  71  250.9631
  72  328.2191
  73  362.3264
  74  154.5297
  75  166.8212
  76  236.6315
  77  302.0107
  78  229.0116
  79  345.895
  80  349.296
  81  347.1075
  82  254.413
  83  212.9603
  84  152.0567
  85  200.1372
  86  247.3454
  87  286.8206
  88  309.243
  89  421.8321
  90  340.0989
  91  307.0751
  92  262.5022
  93  307.7402
  94  304.4959
  95  304.9044
  96  246.1146
  97  210.5771
  98  302.9483
  99  301.2524
 100  274.1382
 101  278.128
 102  147.1453
 103  23.56261
 104  232.2831
 105  245.4958
 106  175.1513
 107  184.2472
 108  273.1476
 109  308.0714
 110  351.2291
 111  232.3597
 112  248.271
 113  256.9201
 114  218.4966
 115  296.7696
 116  258.0008
 117  220.5227
 118  64.63766
 119  99.43829
 120  241.4445
 121  306.877
 122  436.5848
 123  449.6429
 124  243.414
 125  159.5245
 126  168.1042
 127  293.7818
 128  265.6829
 129  219.4893
 130  271.6037
 131  259.3362
 132  336.6714
 133  276.5537
 134  319.0998
 135  259.5539
 136  371.1417
 137  398.5758
 138  270.7509
 139  87.24079
 140  95.12354
 141  208.5579
 142  376.7874
 143  440.9381
 144  374.9416
 145  356.9498
 146  280.5112
 147  315.4496
 148  305.8392
 149  279.9836
 150  224.8424
 151  221.936
 152  410.0512
 153  314.0124
 154  307.732
 155  243.2068
 156  193.0808
 157  269.1512
 158  357.652
 159  347.5118
 160  206.3338
 161  215.337
 162  258.577
 163  351.7867
 164  227.5934
 165  103.7179
 166  168.1261
 167  189.224
 168  254.1488
 169  195.7735
 170  257.2816
 171  297.7486
 172  237.7171
 173  305.3142
 174  138.6007
 175  95.80702
 176  361.4948
 177  286.9729
 178  323.1416
 179  295.5712
 180  378.9098
 181  439.4901
 182  324.2076
 183  312.6505
 184  274.0649
 185  247.7215
 186  275.4361
 187  349.4002
 188  237.5054
 189  281.3466
 190  234.3538
 191  285.2154
 192  230.5598
 193  197.6569
 194  380.4521
 195  334.7682
 196  194.1619
 197  164.3852
 198  224.7972
 199  301.2307
 200  245.8615
 201  277.6236
 202  320.4239
 203  250.6467
 204  225.8919
 205  253.6407
 206  293.9406
 207  166.7819
 208  197.5427
 209  242.4386
 210  275.6725
 211  232.4066
 212  277.8929
 213  348.1626
 214  332.8455
 215  154.3933
 216  216.6836
 217  239.965
 218  229.637
 219  360.063
 220  404.2308
 221  393.4436
 222  282.7058
 223  125.3611
 224  88.50329
 225  148.9848
 226  149.6281
 227  357.6679
 228  302.4283
 229  132.1807
 230  141.8192
 231  189.877
 232  269.7842
 233  203.9715
 234  66.57552
 235  123.6202
 236  193.1209
 237  268.2932
 238  260.0653
 239  124.301
 240  140.0586
 241  218.2677
 242  193.5047
 243  137.8273
 244  126.679
 245  177.5946
 246  165.7742
 247  197.7774
 248  146.1734
 249  192.951
 250  203.8725
 251  204.9289
 252  244.4063
 253  286.4344
 254  224.7554
 255  351.849
 256  476.8088
 257  245.9817
 258  151.4481
 259  172.2321
 260  145.6632
 261  180.1082
 262  265.5311
 263  359.361
 264  328.9915
 265  309.7827
 266  163.9668
 267  105.187
 268  233.4026
 269  320.6164
 270  262.7648
 271  226.505
 272  184.7592
 273  340.4649
 274  339.3589
 275  256.7868
 276  140.3475
 277  295.0675
 278  308.4319
 279  178.8947
 280  243.6069
 281  241.334
 282  223.6687
 283  289.7476
 284  144.9191
 285  186.2231
 286  334.5069
 287  224.3464
 288  291.8994
 289  267.768
 290  234.7167
 291  62.03173
 292  84.41824
 293  179.077
 294  224.336
 295  243.9928
 296  250.6677
 297  177.197
 298  326.5184
 299  268.9291
 300  226.9232
 301  308.5446
 302  280.1389
 303  278.0786
 304  387.3219
 305  347.7508
 306  248.9062
 307  282.2115
 308  184.4294
 309  187.146
 310  264.1504
 311  225.6026
 312  157.5678
 313  73.6541
 314  267.8287
 315  214.8326
 316  150.3759
 317  201.1879
 318  349.4166
 319  289.5717
 320  88.74036
 321  117.3214
 322  204.7883
 323  284.7473
 324  209.7137
 325  207.7031
 326  223.8038
 327  433.6016
 328  551.6527
 329  388.3027
 330  344.5898
 331  249.4499
 332  295.4058
 333  232.5676
 334  189.4784
 335  195.0223
 336  302.2754
 337  303.5601
 338  298.1505
 339  176.6775
 340  132.9078
 341  206.731
 342  178.6416
 343  334.4811
 344  481.4776
 345  428.2097
 346  368.0904
 347  408.2298
 348  358.0633
 349  303.9072
 350  343.4467
 351  280.5627
 352  346.97
 353  280.8088
 354  367.8983
 355  299.559
 356  235.6959
 357  218.4421
 358  268.8267
 359  160.1474
 360  227.1669
 361  230.9626
 362  313.2021
 363  415.3485
 364  327.1966
 365  341.4344
 366  391.3814
 367  398.4697
 368  282.2347
 369  250.5824
 370  373.9251
 371  387.1003
 372  354.1455
 373  384.7014
 374  229.6395
 375  249.1915
 376  283.5463
 377  320.4775
 378  325.1735
 379  362.7364
 380  253.9179
 381  215.1034
 382  155.1354
 383  237.4619
 384  330.2953
 385  322.4159
 386  353.3041
 387  272.7636
 388  180.817
 389  162.7563
 390  171.7703
 391  188.966
 392  185.2099
 393  191.4121
 394  177.781
 395  324.3698
 396  261.4301
 397  314.8051
 398  215.0165
 399  361.6106
 400  266.0151
 401  170.1314
 402  231.565
 403  270.5039
 404  166.6685
 405  100.4859
 406  56.52496
 407  177.8165
 408  191.1748
 409  121.2799
 410  264.1133
 411  369.6118
 412  311.3627
 413  368.0274
 414  360.3945
 415  406.4725
 416  332.6518
 417  333.439
 418  376.6849
 419  325.0593
 420  336.9531
 421  408.4612
 422  373.1096
 423  314.4454
 424  242.616
 425  223.434
 426  368.1931
 427  369.9526
 428  437.8046
 429  305.8336
 430  171.9033
 431  162.1152
 432  195.8952
 433  248.4266
 434  307.5259
 435  282.9995
 436  333.8725
 437  236.4811
 438  103.1179
 439  64.82104
 440  217.8767
 441  278.9959
 442  217.6951
 443  258.7683
 444  300.3111
 445  240.7891
 446  212.5612
 447  340.425
 448  337.4713
 449  139.7218
 450  130.5593
 451  313.1712
 452  204.728
 453  175.0185
 454  156.6217
 455  232.492
 456  229.8632
 457  206.1795
 458  213.042
 459  301.9472
 460  190.235
 461  141.4593
 462  189.5066
 463  184.7244
 464  243.3024
 465  152.4207
 466  247.7378
 467  168.2005
 468  173.451
 469  212.9403
 470  384.8209
 471  368.7497
 472  235.4979
 473  294.3092
 474  232.5108
 475  150.7837
 476  205.9743
 477  358.5728
 478  270.9492
 479  336.9395
 480  332.6806
 481  208.4502
 482  276.5036
 483  284.1299
 484  189.2906
 485  296.7489
 486  376.6891
 487  369.971
 488  315.9904
 489  336.0445
 490  331.9776
 491  175.0297
 492  217.8021
 493  305.2641
 494  264.9976
 495  366.9587
 496  356.1344
 497  309.7088
 498  348.9188
 499  289.4711
 500  198.5055
 501  367.7005
 502  328.6083
 503  347.7262
 504  531.7957
 505  457.1287
 506  403.3094
 507  421.4234
 508  477.3777
 509  856.353
 510  950.9579
 511  1055.457
