# Input file       =  1182404838.106733-PSRB0329-2ms-sampling-dd.dat
# Candidate        =  PSR_0332+5434
# Telescope        =  AR
# Epoch_topo       =  57929.241401698302
# Epoch_bary       =  N/A
# T_sample         =  0.002
# Data Folded      =  7340032
# Data Avg         =  -4.76151959026338e-10
# Data StdDev      =  4.56590125996369 
# Profile Bins     =  512
# Profile Avg      =  0.356577579564251
# Profile StdDev   =  546.689221651955 
# Reduced chi-sqr  =  0.530
# Prob(Noise)      <  1   (~0.0 sigma)
# P_topo (ms)      =  714.494044424056  +/- 0.000242
# P'_topo (s/s)    =  -0                +/- 1.28e-10
# P''_topo (s/s^2) =  0                 +/- 5.63e-14
# P_bary (ms)      =  N/A
# P'_bary (s/s)    =  N/A
# P''_bary (s/s^2) =  N/A
# P_orb (s)        =  N/A
# asin(i)/c (s)    =  N/A
# eccentricity     =  N/A
# w (rad)          =  N/A
# T_peri           =  N/A
######################################################
   0  -139.1517
   1  358.5877
   2  743.4243
   3  781.7256
   4  332.6466
   5  339.2786
   6  -3.371036
   7  -139.5323
   8  -280.4193
   9  -35.46941
  10  116.5514
  11  -122.925
  12  -378.1913
  13  -159.5108
  14  -210.0848
  15  -95.89237
  16  -123.3583
  17  -552.8276
  18  -321.8789
  19  -212.5448
  20  202.0086
  21  333.5527
  22  108.6737
  23  -174.3965
  24  -217.3535
  25  -253.861
  26  -202.7606
  27  -195.2396
  28  -118.5961
  29  61.98488
  30  173.6252
  31  322.9413
  32  349.5988
  33  21.77472
  34  -244.9298
  35  -217.7835
  36  -57.91737
  37  33.09744
  38  -75.90962
  39  -145.0053
  40  -150.2023
  41  -19.20372
  42  207.1263
  43  47.03067
  44  -133.3589
  45  -255.6245
  46  47.27591
  47  335.0387
  48  -16.98442
  49  26.72177
  50  -116.5847
  51  -12.56534
  52  -205.732
  53  -122.0825
  54  258.9271
  55  319.8004
  56  205.899
  57  -74.95382
  58  -495.8027
  59  -613.6063
  60  -674.3696
  61  -766.1478
  62  -184.8681
  63  -43.74771
  64  -193.8596
  65  -493.89
  66  -282.2244
  67  -144.5387
  68  -23.02459
  69  -229.6357
  70  -157.6208
  71  -230.129
  72  -47.27369
  73  -49.40117
  74  -278.7865
  75  -521.8835
  76  -182.2789
  77  -75.73589
  78  -163.4245
  79  -318.9305
  80  -281.2939
  81  -248.5942
  82  83.8025
  83  247.7762
  84  99.54543
  85  -27.27738
  86  -168.6905
  87  169.9645
  88  58.38339
  89  -51.51628
  90  -89.27509
  91  -188.9696
  92  -712.871
  93  -474.0435
  94  -51.33194
  95  -244.8694
  96  -412.0937
  97  -416.1495
  98  -295.0982
  99  -222.8685
 100  -256.6686
 101  -104.7947
 102  -353.9042
 103  -269.408
 104  -205.7218
 105  -272.4214
 106  -119.6461
 107  -63.35593
 108  -209.7381
 109  -453.3249
 110  -457.8149
 111  -253.3215
 112  -296.9609
 113  -45.96545
 114  -79.26886
 115  7.600049
 116  42.09381
 117  379.8627
 118  717.3224
 119  1325.942
 120  1782.543
 121  1390.337
 122  1120.093
 123  1028.236
 124  164.0167
 125  -356.9681
 126  -220.5264
 127  -234.6263
 128  -193.0179
 129  -255.8381
 130  -330.8232
 131  -59.54472
 132  -49.66335
 133  -174.2421
 134  -7.260751
 135  425.7582
 136  175.4023
 137  -45.78262
 138  -145.3732
 139  -193.8613
 140  -310.9407
 141  -347.0796
 142  -61.36637
 143  425.9696
 144  331.6429
 145  53.62463
 146  -79.01062
 147  -75.40574
 148  -57.89452
 149  -290.8323
 150  127.8502
 151  230.2309
 152  -179.6521
 153  -81.2877
 154  -28.38837
 155  -279.0419
 156  -97.25844
 157  -139.9046
 158  -94.66243
 159  -79.80312
 160  157.9442
 161  260.058
 162  24.32587
 163  52.4104
 164  -127.0489
 165  -78.45148
 166  80.93517
 167  -102.0744
 168  73.58936
 169  180.7739
 170  142.6387
 171  42.96935
 172  -35.12561
 173  -13.27937
 174  183.1407
 175  48.8871
 176  -118.7974
 177  78.32666
 178  -147.2488
 179  -93.1371
 180  -300.5554
 181  -158.9036
 182  -34.04415
 183  -19.94522
 184  391.5473
 185  139.9161
 186  -248.1855
 187  114.9603
 188  -211.2695
 189  -288.8382
 190  -88.40043
 191  13.21799
 192  94.06635
 193  483.0045
 194  260.1796
 195  91.94039
 196  216.9328
 197  46.95147
 198  -177.6083
 199  -175.06
 200  -112.3978
 201  236.1055
 202  141.3697
 203  172.8086
 204  160.218
 205  89.40884
 206  124.1533
 207  166.0193
 208  -109.0161
 209  -12.10591
 210  202.9945
 211  245.5883
 212  -74.24706
 213  -114.2013
 214  14.68411
 215  64.07899
 216  -62.16682
 217  -101.3055
 218  68.72492
 219  -220.4735
 220  -40.52847
 221  -176.9424
 222  -203.5364
 223  -166.7969
 224  -62.98819
 225  232.5684
 226  279.6921
 227  67.95193
 228  -297.912
 229  -471.9868
 230  -292.5706
 231  -306.0833
 232  -353.7166
 233  -69.02764
 234  -47.07593
 235  -43.72205
 236  -1.894113
 237  -38.2527
 238  226.9922
 239  7.780337
 240  173.8456
 241  169.5241
 242  243.4873
 243  455.4648
 244  286.5479
 245  54.18667
 246  30.50773
 247  -90.49946
 248  -135.6782
 249  -230.7142
 250  25.46344
 251  90.64437
 252  -140.2103
 253  -264.1441
 254  -80.94588
 255  54.623
 256  -80.0935
 257  -159.4264
 258  -242.4778
 259  130.1602
 260  229.0377
 261  66.61492
 262  -129.2689
 263  -506.886
 264  -267.719
 265  -5.108872
 266  144.1845
 267  486.3481
 268  180.1156
 269  105.1837
 270  195.5849
 271  137.2384
 272  301.9798
 273  529.8987
 274  686.6697
 275  904.0146
 276  731.0433
 277  592.9913
 278  454.9367
 279  134.6836
 280  252.6592
 281  -115.8549
 282  -244.5169
 283  -86.04019
 284  -311.2216
 285  -228.7059
 286  -255.611
 287  35.94525
 288  -295.7473
 289  17.37971
 290  -142.3855
 291  99.22849
 292  226.8074
 293  129.492
 294  265.0782
 295  -125.2505
 296  -126.3081
 297  -146.7566
 298  -237.0283
 299  -174.55
 300  344.6302
 301  306.1064
 302  176.587
 303  360.6631
 304  291.4022
 305  -110.8051
 306  -103.594
 307  345.3168
 308  467.7238
 309  551.6358
 310  527.2925
 311  556.1475
 312  600.2665
 313  402.899
 314  88.96505
 315  10.02794
 316  34.9241
 317  84.92094
 318  524.7464
 319  268.3641
 320  144.5874
 321  -19.32435
 322  108.0615
 323  176.3116
 324  369.2538
 325  217.7081
 326  257.5239
 327  161.1102
 328  512.3871
 329  319.1077
 330  305.1848
 331  140.0444
 332  230.2112
 333  246.8217
 334  219.2063
 335  185.3471
 336  -181.8699
 337  -249.8419
 338  -140.6073
 339  42.97171
 340  361.113
 341  317.2368
 342  599.3619
 343  486.0586
 344  102.6997
 345  -130.5281
 346  -55.46186
 347  77.85836
 348  -245.1929
 349  -84.03634
 350  67.59233
 351  14.14888
 352  -30.83088
 353  -191.9305
 354  307.5802
 355  565.8255
 356  233.9746
 357  -155.5249
 358  59.51924
 359  -210.1222
 360  -337.0355
 361  -197.5821
 362  156.2754
 363  291.5576
 364  278.5808
 365  354.3931
 366  -28.49847
 367  -255.2489
 368  -306.4619
 369  -35.03557
 370  415.1852
 371  505.6103
 372  689.7274
 373  238.0274
 374  -44.47608
 375  219.0061
 376  406.8372
 377  175.4799
 378  187.9856
 379  378.9929
 380  107.322
 381  -213.4987
 382  -136.6932
 383  -67.01798
 384  -140.9735
 385  81.36676
 386  -128.9447
 387  115.9994
 388  98.44771
 389  -69.65617
 390  190.623
 391  151.8709
 392  4.198155
 393  157.7821
 394  53.49874
 395  -50.56349
 396  -32.733
 397  234.7964
 398  310.3031
 399  267.6521
 400  519.0048
 401  157.1123
 402  6.755591
 403  146.0062
 404  -176.6242
 405  -138.7712
 406  -2.501812
 407  257.3171
 408  108.676
 409  -300.044
 410  4.152249
 411  -49.8691
 412  -12.60557
 413  45.20803
 414  -106.1963
 415  -292.2089
 416  -274.6313
 417  8.754762
 418  30.68829
 419  60.01976
 420  -573.107
 421  -561.3713
 422  -447.173
 423  -206.7424
 424  -117.3629
 425  -56.72559
 426  16.30979
 427  -287.4585
 428  -588.9221
 429  -617.5992
 430  -320.9698
 431  -351.2423
 432  -430.2484
 433  -364.2385
 434  -282.8187
 435  -540.0344
 436  -486.592
 437  -521.6794
 438  -603.8347
 439  -423.5926
 440  -597.1647
 441  -461.5221
 442  -237.131
 443  -288.3435
 444  -43.96323
 445  -81.36374
 446  -306.5392
 447  -464.1049
 448  -168.9741
 449  -229.8868
 450  -141.6635
 451  -180.7159
 452  -175.5688
 453  17.48563
 454  -53.41567
 455  -171.5778
 456  -108.9535
 457  -222.4097
 458  -46.62311
 459  39.38776
 460  -75.31152
 461  -224.5154
 462  22.67559
 463  41.80083
 464  142.423
 465  -193.0307
 466  -1.551567
 467  76.10329
 468  -37.34665
 469  -105.7555
 470  -155.0954
 471  -205.8887
 472  -145.9695
 473  -270.0132
 474  -158.911
 475  43.99218
 476  85.10925
 477  202.4982
 478  52.59581
 479  -241.5121
 480  -9.919269
 481  -68.72526
 482  -94.7732
 483  -25.41244
 484  50.36518
 485  140.9238
 486  127.8707
 487  14.1379
 488  223.3901
 489  -21.61413
 490  -367.6527
 491  -191.7635
 492  23.56619
 493  165.2596
 494  255.7274
 495  83.54913
 496  135.181
 497  63.7124
 498  13.50964
 499  113.3305
 500  424.7363
 501  -10.42961
 502  -210.0993
 503  -77.14951
 504  -51.99437
 505  37.97058
 506  340.2306
 507  392.5483
 508  288.678
 509  161.6192
 510  39.99241
 511  130.9086
