# Input file       =  1182749466.114012-PSRB0329-2ms-sampling-dd.dat
# Candidate        =  PSR_0332+5434
# Telescope        =  AR
# Epoch_topo       =  57933.230151782547
# Epoch_bary       =  N/A
# T_sample         =  0.002
# Data Folded      =  7340032
# Data Avg         =  3.54303016309947e-10
# Data StdDev      =  6.70879408889449 
# Profile Bins     =  512
# Profile Avg      =  -0.0441419446436154
# Profile StdDev   =  803.264286689837 
# Reduced chi-sqr  =  1.024
# Prob(Noise)      <  0.347   (~0.4 sigma)
# P_topo (ms)      =  714.490677237552  +/- 0.000142
# P'_topo (s/s)    =  -0                +/- 7.51e-11
# P''_topo (s/s^2) =  0                 +/- 3.32e-14
# P_bary (ms)      =  N/A
# P'_bary (s/s)    =  N/A
# P''_bary (s/s^2) =  N/A
# P_orb (s)        =  N/A
# asin(i)/c (s)    =  N/A
# eccentricity     =  N/A
# w (rad)          =  N/A
# T_peri           =  N/A
######################################################
   0  -714.8766
   1  -622.4221
   2  -500.5169
   3  -483.4063
   4  -610.6458
   5  -631.4239
   6  -484.7816
   7  -907.6844
   8  -994.5177
   9  -789.0688
  10  -673.0579
  11  -693.7814
  12  -785.5823
  13  -831.4686
  14  -974.1245
  15  -1070.892
  16  -686.5271
  17  -585.3704
  18  -935.8108
  19  -792.833
  20  -677.413
  21  -494.7568
  22  -564.1362
  23  -961.2111
  24  -876.3361
  25  -599.0061
  26  -303.413
  27  -381.4093
  28  -332.9292
  29  -404.88
  30  -675.0787
  31  -384.0722
  32  -599.6332
  33  -623.0827
  34  -300.7818
  35  0.2379947
  36  -148.4806
  37  -107.8819
  38  -337.2824
  39  -150.206
  40  79.14246
  41  -410.3018
  42  -566.0438
  43  -410.9948
  44  -303.9737
  45  -226.8583
  46  -490.691
  47  -317.6121
  48  -324.8527
  49  -236.7945
  50  -457.3103
  51  -747.8784
  52  -404.5241
  53  -152.8855
  54  -201.2634
  55  63.81088
  56  -278.2497
  57  -371.444
  58  -102.2577
  59  -108.8472
  60  -31.1309
  61  -91.02573
  62  72.20718
  63  410.6861
  64  342.6096
  65  -188.7507
  66  -229.7129
  67  -220.374
  68  224.9765
  69  162.8152
  70  133.2536
  71  -7.709194
  72  -44.35032
  73  229.0527
  74  -42.70855
  75  -264.4437
  76  -194.363
  77  10.99531
  78  -0.5417945
  79  178.4295
  80  31.1485
  81  -517.7826
  82  -696.176
  83  -124.2622
  84  -144.3091
  85  -209.4775
  86  -180.8529
  87  80.97024
  88  373.9155
  89  -146.9127
  90  -496.285
  91  -354.0093
  92  75.48763
  93  -96.55842
  94  -206.024
  95  -9.425066
  96  -572.0492
  97  -206.8241
  98  90.9214
  99  77.00121
 100  312.2533
 101  288.1902
 102  360.7234
 103  -68.98239
 104  -552.8734
 105  -567.0402
 106  -21.60257
 107  299.597
 108  225.8364
 109  180.5643
 110  -85.62776
 111  374.1784
 112  1777.347
 113  2869.317
 114  3027.446
 115  3528.548
 116  1882.347
 117  620.6576
 118  74.1452
 119  2662.41
 120  2335.787
 121  2138.381
 122  1448.973
 123  424.3058
 124  -253.1065
 125  -120.3196
 126  -226.2847
 127  -350.7166
 128  -218.7932
 129  -390.15
 130  -79.21269
 131  -426.3976
 132  -434.7641
 133  -289.1928
 134  -506.2796
 135  -321.6862
 136  -205.8131
 137  -109.669
 138  -206.6041
 139  -281.4199
 140  -428.8791
 141  -234.7499
 142  -297.198
 143  -136.965
 144  -126.2057
 145  -312.0446
 146  88.31355
 147  -119.6502
 148  -129.146
 149  -38.94873
 150  -75.40781
 151  127.4135
 152  -713.5428
 153  -516.9417
 154  -296.2105
 155  76.68196
 156  -253.6094
 157  -972.1562
 158  -560.4649
 159  -212.6372
 160  -116.4162
 161  -350.6879
 162  -282.1661
 163  -54.89328
 164  -227.857
 165  -337.2256
 166  -221.3376
 167  -454.9204
 168  -219.3925
 169  102.6777
 170  47.30909
 171  -412.297
 172  -316.6395
 173  -136.7876
 174  -207.8614
 175  -349.0626
 176  -294.5434
 177  -442.7824
 178  -312.3014
 179  -160.493
 180  -196.1984
 181  -198.9291
 182  137.3678
 183  313.6972
 184  -216.8211
 185  -439.3529
 186  -268.8009
 187  -337.944
 188  -14.26142
 189  -229.077
 190  -619.3495
 191  -278.0291
 192  155.5788
 193  257.0191
 194  41.56779
 195  -233.4701
 196  -203.9082
 197  44.9623
 198  120.7847
 199  645.5467
 200  247.2719
 201  313.5712
 202  465.3043
 203  515.5422
 204  459.4176
 205  479.8897
 206  678.4094
 207  544.2789
 208  394.8538
 209  314.3971
 210  381.0489
 211  641.2067
 212  466.7835
 213  607.5971
 214  446.1732
 215  293.3202
 216  575.6094
 217  584.5866
 218  726.6525
 219  671.0743
 220  638.3311
 221  668.9924
 222  570.2499
 223  558.2382
 224  115.9503
 225  225.5249
 226  568.1448
 227  775.0937
 228  548.0677
 229  399.6335
 230  128.6619
 231  265.3353
 232  293.7051
 233  238.9304
 234  124.9254
 235  365.0159
 236  590.0933
 237  403.8306
 238  80.98054
 239  -93.67828
 240  215.3591
 241  413.0848
 242  306.107
 243  7.290713
 244  -15.90296
 245  160.1233
 246  287.9917
 247  28.54145
 248  126.2607
 249  494.166
 250  504.8599
 251  276.8657
 252  -207.5045
 253  -98.79642
 254  161.6995
 255  107.3742
 256  402.6301
 257  -7.344118
 258  122.571
 259  29.99465
 260  40.48536
 261  66.79676
 262  288.4767
 263  368.7077
 264  532.557
 265  458.082
 266  467.5538
 267  350.3816
 268  335.0476
 269  505.0002
 270  646.9622
 271  380.8611
 272  413.6797
 273  786.631
 274  859.4547
 275  605.0352
 276  588.7451
 277  172.5169
 278  295.0217
 279  98.59525
 280  300.2535
 281  205.4706
 282  29.336
 283  167.9738
 284  164.7692
 285  181.4032
 286  -279.9232
 287  9.496165
 288  236.8091
 289  111.7586
 290  -54.42842
 291  -73.87377
 292  40.17638
 293  85.74881
 294  485.1059
 295  -142.0878
 296  -364.8022
 297  -70.70673
 298  569.2739
 299  620.1673
 300  377.9282
 301  702.8027
 302  227.4668
 303  190.5645
 304  639.048
 305  1378.872
 306  1046.895
 307  996.3251
 308  730.7458
 309  287.0814
 310  209.3409
 311  436.8968
 312  496.1889
 313  430.7274
 314  613.9856
 315  349.26
 316  139.7159
 317  207.8964
 318  82.58017
 319  -251.8716
 320  -145.1096
 321  37.5349
 322  192.5551
 323  180.057
 324  221.7798
 325  -30.28198
 326  -89.88093
 327  -49.34949
 328  -245.8418
 329  -295.3611
 330  -642.4385
 331  -440.3797
 332  79.19304
 333  241.6701
 334  -4.363811
 335  66.80457
 336  -47.55399
 337  -288.6778
 338  -374.0619
 339  -166.7468
 340  134.752
 341  132.0835
 342  187.9433
 343  180.4981
 344  -311.7315
 345  -458.652
 346  -462.2823
 347  -92.85654
 348  -382.2414
 349  -237.9351
 350  -152.5155
 351  206.3584
 352  -99.15458
 353  -596.6281
 354  -631.5961
 355  -381.4944
 356  -356.2852
 357  -552.2585
 358  -902.7873
 359  -1017.72
 360  -681.8102
 361  -415.9924
 362  -866.7044
 363  -738.4576
 364  -606.0998
 365  -367.8628
 366  -444.9202
 367  -662.6828
 368  -618.4777
 369  -278.315
 370  -207.0447
 371  -14.5252
 372  92.13425
 373  -353.4008
 374  -543.115
 375  -143.9142
 376  99.37045
 377  -179.7673
 378  -63.53545
 379  16.79989
 380  -89.41835
 381  -305.3139
 382  -523.2797
 383  -236.1476
 384  -127.4791
 385  -158.1448
 386  -214.0423
 387  -302.146
 388  213.9151
 389  860.8901
 390  1105.831
 391  976.5497
 392  1164.621
 393  1252.145
 394  539.1801
 395  88.80801
 396  -64.39396
 397  -339.5085
 398  -108.5801
 399  144.5948
 400  161.5349
 401  439.702
 402  1537.447
 403  2134.131
 404  2297.161
 405  1843.823
 406  -524.579
 407  177.9144
 408  1172.882
 409  1942.833
 410  861.658
 411  556.276
 412  500.4692
 413  -154.6431
 414  -222.6084
 415  -240.0724
 416  -134.5376
 417  -348.9037
 418  -174.8864
 419  -313.5224
 420  -590.2555
 421  -741.0536
 422  -594.5787
 423  -105.5512
 424  10.21511
 425  -302.9682
 426  -248.2432
 427  -307.0444
 428  -343.4712
 429  -391.2927
 430  -511.8109
 431  -216.67
 432  26.05455
 433  -198.7677
 434  -497.7722
 435  -454.823
 436  -691.2214
 437  -172.3396
 438  148.0719
 439  -220.3556
 440  -451.6995
 441  142.8829
 442  -50.57768
 443  719.5814
 444  1237.418
 445  1642.443
 446  2100.48
 447  1255.181
 448  462.4444
 449  -254.5986
 450  602.0175
 451  1030.201
 452  689.0002
 453  736.5901
 454  278.8707
 455  -72.232
 456  57.74545
 457  67.95687
 458  -324.8842
 459  -738.8035
 460  197.9077
 461  281.8603
 462  -131.9056
 463  -781.9647
 464  -534.6125
 465  -333.17
 466  -325.4975
 467  -571.7852
 468  -1013.852
 469  -1153.905
 470  -809.9976
 471  -273.4663
 472  -452.2589
 473  -633.482
 474  -520.4854
 475  -100.4109
 476  -22.52831
 477  -474.6788
 478  -875.645
 479  -744.0253
 480  -348.0264
 481  -441.6712
 482  -672.6016
 483  -451.1211
 484  -356.9889
 485  -399.4228
 486  -717.481
 487  -721.6185
 488  -475.2067
 489  -18.40769
 490  -19.52149
 491  27.59356
 492  -235.2683
 493  -688.2443
 494  -652.5058
 495  -407.6158
 496  -246.6177
 497  -308.0682
 498  -366.9115
 499  -7.985337
 500  116.9751
 501  -179.1568
 502  -431.9128
 503  -329.0475
 504  -49.94273
 505  -105.0556
 506  -258.7542
 507  -229.5587
 508  -224.2844
 509  230.3115
 510  -324.1478
 511  -635.671
