# Input file       =  1182907142.112401_cleaned.dat
# Candidate        =  PSR_0332+5434
# Telescope        =  AR
# Epoch_topo       =  57935.055105467603
# Epoch_bary       =  N/A
# T_sample         =  0.002
# Data Folded      =  7143424
# Data Avg         =  0.0322308220697449
# Data StdDev      =  1.00001202255137 
# Profile Bins     =  512
# Profile Avg      =  449.76503444029  
# Profile StdDev   =  118.120004568616 
# Reduced chi-sqr  =  1.006
# Prob(Noise)      <  0.455   (~0.1 sigma)
# P_topo (ms)      =  714.489176943894  +/- 0.000342
# P'_topo (s/s)    =  -0                +/- 1.86e-10
# P''_topo (s/s^2) =  0                 +/- 8.42e-14
# P_bary (ms)      =  N/A
# P'_bary (s/s)    =  N/A
# P''_bary (s/s^2) =  N/A
# P_orb (s)        =  N/A
# asin(i)/c (s)    =  N/A
# eccentricity     =  N/A
# w (rad)          =  N/A
# T_peri           =  N/A
######################################################
   0  343.1884
   1  431.392
   2  552.4977
   3  523.3109
   4  408.9151
   5  350.3434
   6  428.4167
   7  395.4985
   8  390.8937
   9  374.568
  10  455.0771
  11  438.6657
  12  370.1258
  13  347.375
  14  387.7086
  15  374.9745
  16  417.359
  17  471.1525
  18  398.9951
  19  398.2596
  20  467.054
  21  427.1175
  22  446.9676
  23  389.7563
  24  397.7975
  25  461.2158
  26  425.0309
  27  358.965
  28  249.0395
  29  262.3839
  30  477.59
  31  472.2936
  32  470.0935
  33  389.2156
  34  390.9315
  35  448.0807
  36  425.2469
  37  371.4793
  38  410.9008
  39  369.4571
  40  349.3377
  41  402.6745
  42  409.7046
  43  354.5778
  44  384.3624
  45  433.2487
  46  432.4889
  47  550.8787
  48  439.5892
  49  476.419
  50  521.9958
  51  487.8131
  52  511.4051
  53  492.509
  54  470.02
  55  415.4182
  56  420.964
  57  445.8103
  58  489.2137
  59  468.056
  60  484.8661
  61  408.6196
  62  522.7953
  63  521.853
  64  496.1354
  65  434.9963
  66  399.8053
  67  500.3254
  68  549.2886
  69  475.3324
  70  536.5261
  71  474.5666
  72  391.4435
  73  392.783
  74  423.4178
  75  404.1206
  76  406.4586
  77  443.1924
  78  398.8233
  79  408.9887
  80  486.1152
  81  441.5541
  82  380.2241
  83  493.0123
  84  470.1804
  85  477.3379
  86  514.8176
  87  504.4185
  88  511.9275
  89  461.493
  90  531.0787
  91  456.04
  92  461.5336
  93  450.6016
  94  475.8116
  95  322.682
  96  382.6685
  97  454.8143
  98  440.4341
  99  341.0039
 100  397.6641
 101  408.2393
 102  436.1872
 103  491.5094
 104  583.1279
 105  475.181
 106  468.3913
 107  501.6204
 108  455.9941
 109  473.1112
 110  456.3045
 111  503.6261
 112  553.091
 113  552.2209
 114  418.1175
 115  437.1489
 116  398.7027
 117  477.4912
 118  506.7095
 119  523.0601
 120  646.8206
 121  577.8979
 122  623.1854
 123  566.6554
 124  396.8029
 125  424.3982
 126  539.6991
 127  553.8049
 128  462.2592
 129  504.0265
 130  559.2864
 131  573.4639
 132  554.6942
 133  500.1191
 134  500.4297
 135  460.1081
 136  598.9512
 137  636.0026
 138  541.9905
 139  486.8941
 140  572.2375
 141  573.9396
 142  512.4348
 143  528.3857
 144  677.4869
 145  524.8158
 146  496.4527
 147  457.1563
 148  422.7328
 149  397.6305
 150  373.4469
 151  473.3696
 152  421.628
 153  457.8168
 154  421.5005
 155  375.105
 156  326.3162
 157  296.2858
 158  330.0918
 159  486.9749
 160  430.8243
 161  383.0847
 162  356.3114
 163  422.1113
 164  363.5698
 165  367.3855
 166  436.9821
 167  304.7985
 168  376.5174
 169  455.2802
 170  317.2026
 171  330.1326
 172  328.029
 173  338.167
 174  528.0745
 175  452.6917
 176  300.4706
 177  320.5887
 178  367.4469
 179  430.2162
 180  379.0374
 181  440.1338
 182  508.4706
 183  530.2957
 184  439.2164
 185  375.9454
 186  375.7201
 187  468.489
 188  412.2857
 189  341.3316
 190  367.6664
 191  399.4619
 192  398.0129
 193  371.7488
 194  350.5389
 195  443.8365
 196  518.8628
 197  474.2951
 198  483.4941
 199  423.07
 200  403.9532
 201  368.2276
 202  474.6006
 203  495.0243
 204  382.4179
 205  339.6107
 206  485.1794
 207  606.4409
 208  376.1212
 209  339.4065
 210  420.3175
 211  459.9569
 212  343.9482
 213  435.5788
 214  514.6736
 215  548.2368
 216  437.8298
 217  426.2346
 218  462.9797
 219  483.6619
 220  454.6646
 221  400.7089
 222  447.5166
 223  330.2921
 224  365.3393
 225  444.8279
 226  477.3763
 227  413.3331
 228  428.6201
 229  475.428
 230  457.2999
 231  435.1846
 232  471.2922
 233  432.9624
 234  357.8512
 235  393.3797
 236  354.767
 237  408.597
 238  428.6026
 239  440.5322
 240  404.5283
 241  400.2799
 242  335.7063
 243  384.9571
 244  435.7543
 245  399.6082
 246  380.7868
 247  399.7999
 248  485.4903
 249  521.8046
 250  403.1575
 251  417.4895
 252  464.7179
 253  394.2799
 254  442.9069
 255  378.8145
 256  386.4526
 257  558.3565
 258  575.2207
 259  536.3467
 260  426.4603
 261  361.2364
 262  399.0973
 263  443.0981
 264  471.561
 265  512.2349
 266  475.8737
 267  494.9286
 268  498.4679
 269  402.1159
 270  429.3507
 271  519.334
 272  487.5888
 273  415.7667
 274  373.5167
 275  306.1295
 276  415.9402
 277  536.149
 278  551.2551
 279  485.1924
 280  527.3127
 281  565.358
 282  491.192
 283  519.2546
 284  573.028
 285  678.7766
 286  711.9196
 287  713.8657
 288  894.2667
 289  1057.243
 290  1026.943
 291  857.3654
 292  664.8879
 293  547.1454
 294  557.0056
 295  495.2446
 296  451.1289
 297  330.7093
 298  423.6223
 299  537.2941
 300  457.3183
 301  478.8483
 302  612.3611
 303  502.6158
 304  513.2869
 305  500.271
 306  442.6822
 307  444.2475
 308  402.2915
 309  326.5481
 310  449.0989
 311  494.0773
 312  489.5276
 313  451.044
 314  385.5266
 315  327.1403
 316  454.7876
 317  431.4975
 318  444.6944
 319  431.5536
 320  437.1995
 321  476.7193
 322  474.811
 323  464.3072
 324  467.5158
 325  427.1664
 326  440.2191
 327  412.8529
 328  423.1469
 329  467.2647
 330  442.0724
 331  476.7366
 332  522.5218
 333  508.7853
 334  510.6094
 335  557.135
 336  495.6817
 337  453.552
 338  490.8971
 339  458.6037
 340  506.5771
 341  452.7442
 342  399.179
 343  468.7217
 344  457.5009
 345  388.2914
 346  419.6189
 347  329.9838
 348  393.3604
 349  431.1009
 350  409.1263
 351  498.0394
 352  492.2647
 353  452.5741
 354  369.7696
 355  371.7676
 356  324.8425
 357  360.5054
 358  404.3796
 359  395.2949
 360  462.2884
 361  503.9622
 362  447.1646
 363  490.6464
 364  450.0087
 365  422.7958
 366  444.3439
 367  456.4128
 368  526.8408
 369  485.7619
 370  379.4849
 371  425.1602
 372  341.524
 373  459.9872
 374  429.1179
 375  414.1791
 376  435.0352
 377  392.2908
 378  398.8868
 379  364.9727
 380  400.451
 381  371.2617
 382  387.4839
 383  283.5893
 384  429.1405
 385  420.9492
 386  290.8688
 387  215.4659
 388  241.2867
 389  241.9249
 390  359.5563
 391  415.1462
 392  391.5492
 393  484.7842
 394  491.3495
 395  316.6275
 396  337.0231
 397  364.1543
 398  377.1796
 399  398.9465
 400  503.3556
 401  459.5516
 402  439.8303
 403  463.7102
 404  386.6747
 405  442.4553
 406  440.4675
 407  556.5469
 408  619.3132
 409  477.9321
 410  434.4131
 411  455.834
 412  440.5062
 413  439.8865
 414  477.2632
 415  508.9061
 416  491.8138
 417  562.6058
 418  516.5609
 419  388.1133
 420  367.9297
 421  461.2524
 422  469.3842
 423  472.851
 424  537.6775
 425  449.8585
 426  529.8142
 427  504.868
 428  513.0701
 429  506.8607
 430  486.8589
 431  507.7941
 432  468.917
 433  456.3007
 434  485.9915
 435  522.1788
 436  467.0547
 437  548.5462
 438  609.6788
 439  538.1827
 440  422.295
 441  582.8712
 442  597.15
 443  495.3312
 444  443.2579
 445  444.0605
 446  508.8481
 447  464.8379
 448  393.1348
 449  343.304
 450  470.4496
 451  530.8916
 452  483.3665
 453  393.9283
 454  333.1449
 455  372.4534
 456  402.6747
 457  333.127
 458  536.6261
 459  547.7669
 460  374.639
 461  353.4116
 462  412.6812
 463  342.1302
 464  321.9277
 465  469.3017
 466  502.0926
 467  354.1855
 468  319.4825
 469  398.4588
 470  418.6936
 471  387.5772
 472  351.1116
 473  385.9309
 474  382.2279
 475  389.17
 476  419.0281
 477  456.8857
 478  574.3273
 479  499.6421
 480  498.4782
 481  411.5331
 482  421.0373
 483  494.3478
 484  537.9421
 485  455.8044
 486  390.4326
 487  509.278
 488  485.5192
 489  399.8118
 490  455.2471
 491  498.8755
 492  457.1405
 493  510.7498
 494  488.9295
 495  373.22
 496  304.5062
 497  348.577
 498  477.4777
 499  494.9826
 500  478.5075
 501  492.252
 502  450.9669
 503  476.951
 504  331.4885
 505  444.0125
 506  482.2002
 507  456.0367
 508  533.642
 509  478.5294
 510  432.0707
 511  384.6572
