# Input file       =  1182562564.1136_cleaned.dat
# Candidate        =  PSR_0332+5434
# Telescope        =  AR
# Epoch_topo       =  57931.066934185183
# Epoch_bary       =  N/A
# T_sample         =  0.002
# Data Folded      =  7143424
# Data Avg         =  0.0326716050012062
# Data StdDev      =  1.00004240340113 
# Profile Bins     =  512
# Profile Avg      =  455.818699639491 
# Profile StdDev   =  118.123593111586 
# Reduced chi-sqr  =  1.113
# Prob(Noise)      <  0.0392   (~1.8 sigma)
# P_topo (ms)      =  714.4924712908    +/- 0.000203
# P'_topo (s/s)    =  -0                +/- 1.1e-10
# P''_topo (s/s^2) =  0                 +/- 5e-14
# P_bary (ms)      =  N/A
# P'_bary (s/s)    =  N/A
# P''_bary (s/s^2) =  N/A
# P_orb (s)        =  N/A
# asin(i)/c (s)    =  N/A
# eccentricity     =  N/A
# w (rad)          =  N/A
# T_peri           =  N/A
######################################################
   0  429.6039
   1  422.2862
   2  296.9209
   3  284.433
   4  431.4585
   5  403.6991
   6  438.6234
   7  494.6734
   8  504.7101
   9  458.5821
  10  428.6553
  11  535.1252
  12  471.7232
  13  406.387
  14  330.1136
  15  401.548
  16  497.3289
  17  604.3531
  18  535.1732
  19  473.7169
  20  336.8441
  21  342.6196
  22  398.2046
  23  481.2824
  24  517.5525
  25  454.1545
  26  484.8043
  27  510.643
  28  554.3443
  29  540.4658
  30  629.2784
  31  594.3688
  32  520.8032
  33  535.5535
  34  716.7157
  35  871.5165
  36  953.8811
  37  993.8195
  38  1017.141
  39  873.2167
  40  625.8618
  41  562.964
  42  421.7474
  43  334.0384
  44  397.1427
  45  403.9403
  46  415.2523
  47  478.9521
  48  467.7874
  49  400.9806
  50  422.4431
  51  454.6429
  52  439.4452
  53  555.9663
  54  578.2631
  55  533.0922
  56  450.99
  57  447.7502
  58  438.7487
  59  385.6566
  60  360.479
  61  382.9381
  62  372.9079
  63  395.685
  64  271.8234
  65  326.7538
  66  469.4665
  67  456.8403
  68  441.2693
  69  255.6674
  70  302.6084
  71  383.6353
  72  370.1077
  73  386.867
  74  361.6162
  75  471.9554
  76  283.6731
  77  269.0309
  78  460.1349
  79  335.5784
  80  385.4591
  81  413.6183
  82  349.5501
  83  275.4939
  84  287.8807
  85  448.8553
  86  339.9109
  87  415.527
  88  393.8262
  89  501.0547
  90  449.9914
  91  404.4554
  92  407.711
  93  410.7385
  94  379.0804
  95  452.1952
  96  413.6468
  97  354.0041
  98  265.8539
  99  288.3252
 100  343.7407
 101  367.023
 102  350.9854
 103  459.3571
 104  456.3828
 105  272.852
 106  330.5907
 107  293.4247
 108  331.1833
 109  356.2932
 110  417.3901
 111  439.5968
 112  433.9248
 113  390.7595
 114  439.1161
 115  416.3378
 116  422.4372
 117  385.4232
 118  498.2002
 119  463.6623
 120  448.4877
 121  503.4586
 122  491.4525
 123  627.5999
 124  578.9191
 125  469.272
 126  469.6545
 127  476.3586
 128  338.8322
 129  370.8925
 130  408.8339
 131  467.7651
 132  481.3104
 133  541.0004
 134  395.7613
 135  405.6338
 136  411.4724
 137  303.1731
 138  324.7307
 139  306.9933
 140  361.1553
 141  438.8116
 142  537.2388
 143  583.6689
 144  434.4019
 145  468.1828
 146  525.2751
 147  536.4631
 148  442.8808
 149  473.7795
 150  446.7431
 151  445.3947
 152  429.4071
 153  411.7459
 154  463.2665
 155  602.214
 156  574.4435
 157  451.5603
 158  446.1382
 159  391.4575
 160  512.5098
 161  367.6524
 162  314.9158
 163  376.7115
 164  445.9384
 165  495.4432
 166  503.7132
 167  427.0706
 168  415.3569
 169  497.0823
 170  464.081
 171  459.0938
 172  549.3126
 173  476.4737
 174  551.558
 175  416.3057
 176  365.3183
 177  518.9684
 178  427.9624
 179  458.843
 180  416.7462
 181  410.1226
 182  469.3176
 183  563.7365
 184  517.0884
 185  363.7019
 186  420.4665
 187  536.7504
 188  511.6205
 189  477.6981
 190  577.77
 191  524.0236
 192  501.5466
 193  469.9358
 194  546.1375
 195  486.4003
 196  509.6124
 197  499.4828
 198  453.8424
 199  525.1498
 200  529.0906
 201  509.2751
 202  463.9011
 203  366.4965
 204  377.3689
 205  500.369
 206  490.5117
 207  481.6186
 208  553.2429
 209  504.0043
 210  515.0118
 211  569.0382
 212  491.6998
 213  502.4019
 214  525.9416
 215  513.5037
 216  564.9469
 217  524.7301
 218  444.9609
 219  457.7755
 220  453.0648
 221  549.804
 222  532.6192
 223  422.8969
 224  370.6385
 225  304.6802
 226  354.8489
 227  411.5422
 228  448.939
 229  523.48
 230  511.964
 231  447.936
 232  454.6715
 233  400.4707
 234  461.7947
 235  509.8303
 236  518.5529
 237  483.5415
 238  456.7362
 239  409.6208
 240  353.2171
 241  450.4489
 242  515.7373
 243  405.8806
 244  304.7759
 245  264.8528
 246  305.1306
 247  466.2066
 248  408.7762
 249  402.107
 250  526.8861
 251  525.7631
 252  529.2545
 253  608.5206
 254  502.6962
 255  389.9788
 256  387.0291
 257  315.3898
 258  316.2035
 259  282.4119
 260  368.653
 261  452.751
 262  420.5548
 263  523.8711
 264  562.2645
 265  373.1157
 266  384.1613
 267  397.2419
 268  486.2902
 269  699.8591
 270  667.217
 271  615.7378
 272  503.8053
 273  458.8491
 274  455.0981
 275  489.5886
 276  482.8667
 277  355.2649
 278  459.8984
 279  588.3346
 280  588.5875
 281  489.7427
 282  480.7974
 283  498.1456
 284  385.6707
 285  370.1689
 286  491.3502
 287  550.7653
 288  419.0223
 289  331.6784
 290  295.1717
 291  385.3984
 292  458.4072
 293  500.3733
 294  487.8028
 295  457.5112
 296  444.126
 297  497.1892
 298  517.4409
 299  398.3135
 300  324.1882
 301  509.1046
 302  520.7982
 303  563.8422
 304  491.1886
 305  415.946
 306  399.3436
 307  436.1358
 308  430.2561
 309  385.9138
 310  324.7996
 311  362.7077
 312  433.0565
 313  401.111
 314  282.3587
 315  394.3638
 316  315.3016
 317  341.5636
 318  467.3188
 319  397.1988
 320  519.2469
 321  456.0467
 322  520.7288
 323  411.0594
 324  394.3969
 325  470.562
 326  514.0807
 327  506.6919
 328  525.43
 329  501.619
 330  414.4077
 331  406.5143
 332  346.2931
 333  377.769
 334  521.966
 335  510.8315
 336  463.2418
 337  505.0599
 338  492.4618
 339  428.8926
 340  287.8787
 341  437.0803
 342  428.8077
 343  366.4236
 344  457.8399
 345  562.5358
 346  527.7064
 347  419.24
 348  443.0473
 349  449.6349
 350  496.0242
 351  496.8174
 352  442.9287
 353  382.5148
 354  447.2276
 355  466.7419
 356  489.6919
 357  454.1725
 358  494.9578
 359  542.0032
 360  500.8897
 361  350.306
 362  469.7937
 363  461.2903
 364  406.1176
 365  393.0716
 366  475.7834
 367  361.6266
 368  412.2673
 369  472.869
 370  457.7907
 371  508.5798
 372  545.5826
 373  460.9475
 374  314.1884
 375  358.9303
 376  407.1834
 377  367.2008
 378  342.541
 379  361.8744
 380  447.3796
 381  509.6146
 382  488.45
 383  373.46
 384  407.5896
 385  400.0622
 386  468.296
 387  401.0451
 388  321.6553
 389  472.0778
 390  533.1649
 391  546.8716
 392  530.2143
 393  536.6579
 394  555.4856
 395  484.2386
 396  466.8229
 397  373.7177
 398  426.7859
 399  390.6644
 400  420.8799
 401  531.1067
 402  438.6949
 403  520.3539
 404  522.8418
 405  472.5194
 406  425.8393
 407  500.0048
 408  530.6643
 409  477.0328
 410  435.9956
 411  501.6822
 412  509.6199
 413  590.4321
 414  527.9454
 415  486.1758
 416  462.0258
 417  480.3539
 418  509.8633
 419  522.1984
 420  512.6583
 421  583.8579
 422  596.3179
 423  616.2524
 424  471.6958
 425  401.1223
 426  506.0523
 427  577.0876
 428  570.4908
 429  577.2661
 430  471.3879
 431  509.7101
 432  492.4614
 433  479.0583
 434  352.9409
 435  349.27
 436  476.7262
 437  414.0183
 438  440.3193
 439  470.9557
 440  401.1422
 441  356.9786
 442  480.0502
 443  427.3516
 444  462.8424
 445  419.8218
 446  387.7892
 447  482.9324
 448  528.7043
 449  435.6129
 450  395.448
 451  415.4124
 452  514.678
 453  486.9248
 454  368.9972
 455  378.5175
 456  410.7139
 457  444.8509
 458  408.0674
 459  381.0422
 460  421.5166
 461  460.6402
 462  464.6177
 463  546.4044
 464  495.1112
 465  507.595
 466  406.4674
 467  498.8975
 468  460.2684
 469  394.3467
 470  540.2413
 471  555.0441
 472  521.8646
 473  459.6977
 474  548.3382
 475  514.7204
 476  502.8617
 477  518.4797
 478  599.7216
 479  507.5499
 480  477.615
 481  483.3141
 482  497.6882
 483  431.5799
 484  340.916
 485  404.3066
 486  516.8923
 487  519.4709
 488  517.168
 489  604.3465
 490  513.6196
 491  390.6078
 492  383.5952
 493  459.3051
 494  337.4872
 495  362.0068
 496  386.1523
 497  496.1948
 498  502.2486
 499  463.7991
 500  463.6629
 501  423.9381
 502  460.3863
 503  427.1267
 504  488.8976
 505  510.428
 506  490.4228
 507  496.157
 508  456.7864
 509  477.0337
 510  437.3109
 511  434.354
