# Input file       =  1182304229.116146-PSRB0329-2ms-sampling-dd.dat
# Candidate        =  PSR_0332+5434
# Telescope        =  AR
# Epoch_topo       =  57928.076945788729
# Epoch_bary       =  N/A
# T_sample         =  0.002
# Data Folded      =  7405568
# Data Avg         =  -2.99301234701142e-10
# Data StdDev      =  6.39695978403577 
# Profile Bins     =  512
# Profile Avg      =  0.373468692080715
# Profile StdDev   =  769.339138831536 
# Reduced chi-sqr  =  0.594
# Prob(Noise)      <  1   (~0.0 sigma)
# P_topo (ms)      =  714.495039942779  +/- 0.000129
# P'_topo (s/s)    =  -0                +/- 6.75e-11
# P''_topo (s/s^2) =  0                 +/- 2.95e-14
# P_bary (ms)      =  N/A
# P'_bary (s/s)    =  N/A
# P''_bary (s/s^2) =  N/A
# P_orb (s)        =  N/A
# asin(i)/c (s)    =  N/A
# eccentricity     =  N/A
# w (rad)          =  N/A
# T_peri           =  N/A
######################################################
   0  454.654
   1  149.5559
   2  -348.9274
   3  -450.3684
   4  -246.297
   5  462.0948
   6  521.9273
   7  470.3411
   8  -271.2803
   9  -217.1691
  10  -550.613
  11  -58.04047
  12  96.919
  13  31.34872
  14  76.26135
  15  72.43613
  16  412.6568
  17  -112.2537
  18  -346.5063
  19  -650.8007
  20  -287.684
  21  51.99898
  22  424.0469
  23  834.6362
  24  826.7312
  25  717.0201
  26  375.454
  27  129.1877
  28  419.5946
  29  -64.99011
  30  -15.16839
  31  -1.472329
  32  256.6073
  33  166.2339
  34  -248.5443
  35  -30.44263
  36  -403.7166
  37  -241.482
  38  -664.854
  39  -373.3949
  40  -193.1851
  41  -114.4081
  42  -135.9613
  43  -498.6453
  44  106.332
  45  326.4709
  46  560.7985
  47  349.1126
  48  366.4548
  49  -292.5232
  50  -854.2264
  51  -611.1098
  52  -381.3084
  53  26.19701
  54  -240.1282
  55  -3.522898
  56  242.6419
  57  287.6422
  58  234.8822
  59  -377.0091
  60  352.5402
  61  175.2209
  62  657.0857
  63  372.6596
  64  17.9111
  65  204.2644
  66  -115.7235
  67  197.4286
  68  -193.6
  69  122.7827
  70  -83.81004
  71  -219.3013
  72  -70.74274
  73  -191.6546
  74  7.046632
  75  -222.1228
  76  76.48665
  77  584.3713
  78  619.4473
  79  376.013
  80  155.5472
  81  -89.55258
  82  -552.52
  83  -562.8478
  84  -763.0922
  85  -454.2833
  86  -386.8336
  87  -683.6098
  88  -378.9884
  89  -364.9838
  90  -115.7237
  91  -517.4888
  92  -576.142
  93  -848.4768
  94  -644.2192
  95  -277.3127
  96  -121.5633
  97  -9.071253
  98  -231.012
  99  -726.4559
 100  -806.7664
 101  -345.6577
 102  -277.8967
 103  -322.2364
 104  -380.9869
 105  -896.5367
 106  -565.5081
 107  -358.8033
 108  -437.8271
 109  -477.0921
 110  -871.7786
 111  -392.5375
 112  -929.8337
 113  -604.1279
 114  -252.6363
 115  -110.9102
 116  -269.9389
 117  -777.2166
 118  -464.3796
 119  -292.8914
 120  -478.807
 121  -533.6757
 122  -306.9251
 123  -211.6686
 124  -377.7868
 125  -122.9871
 126  -91.01336
 127  453.6032
 128  39.68325
 129  -426.2679
 130  -204.6046
 131  243.2116
 132  397.2546
 133  227.4005
 134  515.6689
 135  696.5507
 136  279.3751
 137  151.0074
 138  82.23804
 139  -21.44703
 140  254.1778
 141  509.8553
 142  653.152
 143  901.3334
 144  173.7345
 145  -383.7228
 146  -437.9759
 147  -143.3283
 148  614.6567
 149  305.5819
 150  257.9404
 151  101.0917
 152  -148.2532
 153  -123.7388
 154  -652.3784
 155  -408.7133
 156  -205.5161
 157  393.4387
 158  -7.70674
 159  -80.71366
 160  348.4503
 161  93.21319
 162  -10.41962
 163  -139.4371
 164  290.4314
 165  -9.111969
 166  115.0233
 167  -142.133
 168  -190.8445
 169  -466.6497
 170  -133.5931
 171  -167.3651
 172  -477.3697
 173  -38.57514
 174  79.34338
 175  38.53871
 176  -34.56726
 177  -181.4969
 178  -250.0698
 179  -633.4434
 180  -872.4755
 181  -211.5538
 182  -81.87408
 183  -356.6723
 184  -788.8484
 185  -597.4993
 186  -681.7641
 187  -555.6345
 188  -637.8226
 189  -527.1035
 190  -461.4512
 191  -782.5709
 192  -504.1646
 193  -382.4725
 194  -305.9603
 195  -360.1693
 196  -217.0084
 197  -73.78673
 198  86.27892
 199  -27.57851
 200  -138.1262
 201  19.08755
 202  64.28008
 203  -295.7192
 204  -162.8354
 205  -53.44638
 206  103.1772
 207  45.13134
 208  411.2781
 209  680.1264
 210  550.3151
 211  39.6515
 212  -68.75735
 213  -262.6391
 214  28.24461
 215  -128.3047
 216  281.9583
 217  695.9412
 218  608.6819
 219  444.4235
 220  -901.0604
 221  -1303.488
 222  -430.7544
 223  -38.91061
 224  55.38409
 225  171.5002
 226  197.9369
 227  -155.1953
 228  -809.0514
 229  -704.242
 230  -535.0164
 231  -252.5829
 232  -99.24983
 233  -238.1405
 234  -180.0653
 235  -289.1538
 236  -149.3723
 237  -216.0206
 238  -164.4805
 239  -205.336
 240  -214.4858
 241  -165.8952
 242  446.9032
 243  814.9932
 244  898.5337
 245  -87.62685
 246  -578.2591
 247  -408.4823
 248  -219.6435
 249  423.3533
 250  499.5269
 251  681.0596
 252  127.0372
 253  -49.13014
 254  -281.5537
 255  -312.5932
 256  -118.368
 257  66.35015
 258  -127.8128
 259  203.9023
 260  228.1033
 261  -473.904
 262  -747.9033
 263  -479.577
 264  83.93954
 265  65.63581
 266  -377.0901
 267  -658.4381
 268  -596.3046
 269  -579.7928
 270  -635.1513
 271  -458.9236
 272  96.25066
 273  561.098
 274  295.8544
 275  -55.3176
 276  -75.15109
 277  -33.25215
 278  24.7704
 279  165.1696
 280  465.8376
 281  664.6713
 282  625.307
 283  203.987
 284  213.643
 285  48.54061
 286  -400.2209
 287  -499.0419
 288  159.9616
 289  807.9572
 290  685.7816
 291  746.1743
 292  679.9246
 293  965.5281
 294  432.7134
 295  -113.0434
 296  -118.0252
 297  79.11522
 298  177.5916
 299  576.5891
 300  826.2416
 301  703.0512
 302  373.9648
 303  -415.4488
 304  37.67164
 305  654.3968
 306  1474.867
 307  1952.928
 308  1630.544
 309  1798.702
 310  1573.375
 311  1161.997
 312  664.1829
 313  297.0424
 314  478.4115
 315  206.2181
 316  170.8173
 317  426.1717
 318  881.3478
 319  982.3491
 320  800.1368
 321  638.7234
 322  505.7762
 323  247.3663
 324  143.204
 325  503.9057
 326  805.2286
 327  963.7773
 328  329.1314
 329  351.41
 330  -64.95602
 331  -124.6766
 332  -43.20166
 333  6.889976
 334  199.0265
 335  427.8043
 336  70.70712
 337  -86.75409
 338  -226.4593
 339  -222.0657
 340  -87.95261
 341  271.2888
 342  672.8986
 343  114.5397
 344  -56.81121
 345  -114.9272
 346  276.169
 347  646.8284
 348  489.7977
 349  28.71419
 350  9.090172
 351  115.2665
 352  -287.846
 353  291.4736
 354  787.7784
 355  751.1608
 356  363.0162
 357  541.2383
 358  405.0781
 359  -9.368481
 360  -13.2023
 361  116.9789
 362  10.68196
 363  467.2266
 364  730.8304
 365  549.6027
 366  400.2171
 367  586.3132
 368  196.4142
 369  169.2613
 370  -90.84546
 371  135.4191
 372  306.1166
 373  343.3764
 374  518.1074
 375  269.8174
 376  564.9009
 377  275.0794
 378  -195.855
 379  5.417866
 380  308.6951
 381  425.6773
 382  397.4984
 383  816.4504
 384  895.528
 385  272.4094
 386  -366.993
 387  -497.8681
 388  -316.0966
 389  -159.7859
 390  66.19421
 391  153.3246
 392  155.0001
 393  -202.9355
 394  -181.272
 395  -466.1148
 396  -522.9937
 397  -470.5172
 398  -150.5546
 399  272.7827
 400  -88.33681
 401  98.22344
 402  -146.677
 403  -139.0677
 404  -236.5289
 405  -765.7719
 406  -640.7803
 407  -639.0873
 408  -353.5827
 409  137.8058
 410  371.0039
 411  91.81982
 412  -80.8296
 413  -254.3564
 414  -162.8695
 415  -463.0975
 416  -25.89773
 417  -6.056807
 418  434.8783
 419  118.0867
 420  450.7664
 421  -135.6511
 422  -420.9582
 423  -478.2296
 424  -316.8293
 425  -323.4254
 426  -521.8917
 427  101.1555
 428  218.4322
 429  -138.9947
 430  -48.69906
 431  -168.0881
 432  -398.3035
 433  -194.9455
 434  -134.3855
 435  -119.0398
 436  -405.3598
 437  -502.0299
 438  -155.3717
 439  118.488
 440  -216.1382
 441  133.6836
 442  -413.4436
 443  -276.0986
 444  -408.9493
 445  -200.0183
 446  89.72802
 447  -23.76022
 448  217.1431
 449  210.5721
 450  224.0435
 451  -70.52625
 452  -237.6754
 453  -168.8502
 454  -95.94244
 455  -189.2862
 456  76.42768
 457  -132.4998
 458  -187.3073
 459  -190.5493
 460  49.39115
 461  24.58065
 462  -136.2839
 463  -417.5229
 464  -508.3963
 465  -268.9643
 466  183.5229
 467  -274.1826
 468  -106.0762
 469  -125.4487
 470  -342.0232
 471  -91.04682
 472  -68.53672
 473  -28.26912
 474  -557.411
 475  -221.5857
 476  -286.8546
 477  -285.4731
 478  -89.15594
 479  -55.16821
 480  29.04991
 481  -198.8341
 482  183.667
 483  169.6346
 484  402.086
 485  -49.13734
 486  -63.76828
 487  -49.54126
 488  -569.6617
 489  -491.6719
 490  -310.5811
 491  45.92166
 492  345.257
 493  -172.5774
 494  -147.1296
 495  -27.28431
 496  78.67197
 497  -273.8826
 498  371.3081
 499  -24.678
 500  -151.328
 501  275.0874
 502  244.4925
 503  716.8695
 504  -128.8767
 505  6.69802
 506  -133.2768
 507  304.8604
 508  538.1401
 509  475.6871
 510  510.9715
 511  542.5311
