# Input file       =  1182663277.113445_cleaned.dat
# Candidate        =  PSR_0332+5434
# Telescope        =  AR
# Epoch_topo       =  57932.232593905617
# Epoch_bary       =  N/A
# T_sample         =  0.002
# Data Folded      =  7340032
# Data Avg         =  0.0330952084113597
# Data StdDev      =  1.00013024723769 
# Profile Bins     =  512
# Profile Avg      =  474.454427386601 
# Profile StdDev   =  119.748631274014 
# Reduced chi-sqr  =  1.236
# Prob(Noise)      <  0.00021   (~3.5 sigma)
# P_topo (ms)      =  714.491503972801  +/- 5.11e-05
# P'_topo (s/s)    =  -0                +/- 2.7e-11
# P''_topo (s/s^2) =  0                 +/- 1.19e-14
# P_bary (ms)      =  N/A
# P'_bary (s/s)    =  N/A
# P''_bary (s/s^2) =  N/A
# P_orb (s)        =  N/A
# asin(i)/c (s)    =  N/A
# eccentricity     =  N/A
# w (rad)          =  N/A
# T_peri           =  N/A
######################################################
   0  1240.536
   1  1124.85
   2  893.1708
   3  638.2625
   4  488.5434
   5  599.4755
   6  607.6437
   7  446.6206
   8  505.5886
   9  544.8427
  10  550.8059
  11  486.3437
  12  515.7045
  13  526.0248
  14  448.4065
  15  480.1476
  16  454.5453
  17  510.2146
  18  358.2687
  19  366.3474
  20  452.8213
  21  451.2117
  22  381.2038
  23  413.9565
  24  382.9914
  25  446.0836
  26  308.484
  27  389.1868
  28  384.6156
  29  383.0543
  30  451.5408
  31  439.2522
  32  346.7915
  33  409.8104
  34  499.4164
  35  505.4382
  36  430.1451
  37  415.6699
  38  461.5478
  39  483.0307
  40  348.1927
  41  409.395
  42  361.4392
  43  394.628
  44  468.6166
  45  374.8799
  46  397.8001
  47  418.2132
  48  516.2606
  49  426.8272
  50  383.7425
  51  451.8876
  52  536.4942
  53  525.0532
  54  496.5375
  55  397.7747
  56  420.8132
  57  487.0581
  58  458.6312
  59  566.7635
  60  586.6375
  61  483.8344
  62  538.3654
  63  613.165
  64  476.2606
  65  466.6249
  66  552.5726
  67  492.7526
  68  559.6221
  69  514.0795
  70  523.1782
  71  478.0002
  72  455.9212
  73  449.3642
  74  380.2979
  75  334.4852
  76  563.1398
  77  563.1019
  78  493.5995
  79  472.1212
  80  560.45
  81  533.8805
  82  519.9935
  83  489.7707
  84  469.3467
  85  400.1261
  86  494.699
  87  457.295
  88  377.7254
  89  428.1466
  90  441.5478
  91  352.6417
  92  382.5203
  93  458.6376
  94  391.7529
  95  414.3439
  96  444.3266
  97  558.7122
  98  486.7089
  99  470.5879
 100  590.7615
 101  575.288
 102  483.0299
 103  484.9146
 104  401.4239
 105  445.3657
 106  448.6411
 107  437.6094
 108  427.933
 109  422.8771
 110  524.5114
 111  514.3598
 112  618.3259
 113  501.3134
 114  461.4648
 115  495.909
 116  434.1417
 117  386.5309
 118  354.1679
 119  295.4247
 120  396.673
 121  397.1105
 122  384.6169
 123  398.9575
 124  411.0164
 125  445.2687
 126  501.4698
 127  323.6018
 128  338.197
 129  396.9343
 130  464.7142
 131  365.8713
 132  418.5594
 133  421.9147
 134  455.0842
 135  551.4049
 136  529.5945
 137  463.7523
 138  446.9857
 139  540.8831
 140  597.9289
 141  514.3817
 142  453.1164
 143  458.1233
 144  517.1524
 145  612.7861
 146  519.1701
 147  407.3882
 148  468.6821
 149  453.8909
 150  428.8553
 151  352.1149
 152  376.7223
 153  378.5653
 154  423.8575
 155  407.8577
 156  441.27
 157  404.6222
 158  429.066
 159  426.5971
 160  424.5092
 161  374.2581
 162  377.2993
 163  437.9679
 164  500.1938
 165  422.3028
 166  373.114
 167  350.1536
 168  507.0671
 169  532.4553
 170  444.3097
 171  421.4254
 172  592.1337
 173  585.974
 174  506.8903
 175  526.9847
 176  511.5954
 177  528.5186
 178  516.3862
 179  387.4205
 180  327.9874
 181  403.5793
 182  559.9527
 183  506.4449
 184  491.0607
 185  392.7284
 186  428.8026
 187  404.1841
 188  425.1339
 189  342.475
 190  382.0641
 191  416.3167
 192  391.7487
 193  424.518
 194  424.0684
 195  385.4478
 196  325.1135
 197  391.4991
 198  471.7087
 199  496.6473
 200  476.5874
 201  493.7513
 202  466.5529
 203  365.7858
 204  394.2797
 205  386.2276
 206  467.4729
 207  385.8059
 208  339.7142
 209  388.1306
 210  512.2491
 211  458.6889
 212  410.1319
 213  475.4812
 214  435.5547
 215  371.5155
 216  411.1567
 217  372.0066
 218  243.1957
 219  312.6766
 220  362.2279
 221  447.351
 222  488.2594
 223  383.9755
 224  412.4477
 225  431.342
 226  342.41
 227  457.3613
 228  398.537
 229  399.2232
 230  522.0465
 231  434.2692
 232  473.6796
 233  418.4633
 234  474.9553
 235  585.1674
 236  441.0019
 237  358.2375
 238  375.4065
 239  452.1353
 240  456.7539
 241  428.5417
 242  429.7257
 243  528.2072
 244  531.9929
 245  484.6893
 246  438.2501
 247  374.397
 248  471.6226
 249  537.3645
 250  507.6063
 251  386.9499
 252  400.7065
 253  424.9734
 254  436.6784
 255  487.4327
 256  453.394
 257  397.0882
 258  459.2272
 259  356.7454
 260  427.3712
 261  317.4864
 262  338.9204
 263  448.5757
 264  472.9985
 265  437.8503
 266  436.6191
 267  568.9822
 268  548.0043
 269  498.8492
 270  559.7042
 271  534.6197
 272  569.2
 273  636.0873
 274  608.9567
 275  502.7304
 276  502.4753
 277  512.5986
 278  499.3529
 279  525.2548
 280  440.7331
 281  373.1439
 282  386.8949
 283  543.14
 284  510.3922
 285  417.1175
 286  383.6306
 287  350.5648
 288  383.089
 289  380.683
 290  358.5601
 291  362.4492
 292  432.1671
 293  562.2716
 294  507.7014
 295  528.6328
 296  476.8148
 297  545.8373
 298  541.1157
 299  408.5041
 300  350.6799
 301  362.1214
 302  429.3113
 303  472.7997
 304  399.7444
 305  420.4979
 306  538.5234
 307  457.5787
 308  399.2422
 309  406.3719
 310  367.9105
 311  382.7646
 312  432.5889
 313  496.8579
 314  421.4004
 315  366.675
 316  433.6366
 317  514.5721
 318  413.7496
 319  385.643
 320  386.8571
 321  504.6191
 322  515.4825
 323  384.9466
 324  379.0655
 325  516.837
 326  497.3636
 327  466.9831
 328  428.0951
 329  399.533
 330  480.9507
 331  567.0621
 332  498.6912
 333  434.2704
 334  557.0892
 335  469.4341
 336  487.591
 337  410.6876
 338  453.1722
 339  525.4551
 340  640.001
 341  636.5911
 342  520.7154
 343  410.661
 344  445.5928
 345  434.0043
 346  523.826
 347  474.3648
 348  419.3421
 349  472.9861
 350  535.1184
 351  594.2864
 352  594.8718
 353  554.9792
 354  528.4453
 355  559.5958
 356  651.4354
 357  586.888
 358  516.483
 359  430.6681
 360  388.2595
 361  517.4251
 362  430.7416
 363  407.6431
 364  568.7573
 365  455.8029
 366  324.1131
 367  446.936
 368  387.6523
 369  421.4634
 370  463.5293
 371  469.695
 372  496.8672
 373  494.5544
 374  557.6817
 375  555.7853
 376  491.3321
 377  488.8748
 378  538.4893
 379  529.8388
 380  535.0744
 381  473.8338
 382  512.4517
 383  552.0966
 384  621.2073
 385  637.5793
 386  463.961
 387  395.9893
 388  418.9313
 389  473.4474
 390  457.6033
 391  452.4731
 392  576.6867
 393  608.9655
 394  568.525
 395  578.3569
 396  548.0903
 397  605.1197
 398  674.2439
 399  659.4843
 400  492.6039
 401  376.7095
 402  485.3569
 403  585.7947
 404  396.0674
 405  447.0017
 406  472.3307
 407  583.8438
 408  601.0262
 409  463.7726
 410  408.1592
 411  410.6778
 412  371.897
 413  450.8103
 414  365.7139
 415  379.9643
 416  366.614
 417  406.1307
 418  453.2102
 419  526.9224
 420  530.9954
 421  566.6766
 422  536.968
 423  485.8307
 424  460.9025
 425  516.0397
 426  478.1361
 427  519.1741
 428  421.5938
 429  398.3799
 430  509.9513
 431  566.5582
 432  535.8548
 433  410.9747
 434  507.0379
 435  571.0966
 436  512.7783
 437  455.127
 438  498.0187
 439  523.2863
 440  520.1776
 441  453.3072
 442  422.9532
 443  407.9912
 444  345.0638
 445  432.2695
 446  479.4539
 447  447.3727
 448  364.8692
 449  353.1545
 450  453.4613
 451  597.9218
 452  552.7493
 453  425.5555
 454  456.3216
 455  546.1505
 456  605.3998
 457  448.7151
 458  453.8886
 459  516.2648
 460  613.5513
 461  461.6673
 462  445.7029
 463  369.737
 464  352.46
 465  339.3166
 466  351.8713
 467  476.6928
 468  420.1928
 469  446.4077
 470  523.2012
 471  519.8259
 472  426.2941
 473  462.6088
 474  552.2544
 475  531.7316
 476  552.9911
 477  538.8716
 478  425.8513
 479  445.3668
 480  556.67
 481  572.253
 482  491.2487
 483  570.3683
 484  606.366
 485  492.5063
 486  435.636
 487  456.5918
 488  513.9612
 489  605.6567
 490  459.9563
 491  497.9703
 492  624.4716
 493  557.8135
 494  535.5684
 495  492.1751
 496  601.2152
 497  613.7374
 498  724.276
 499  723.1826
 500  506.7876
 501  532.2616
 502  559.6237
 503  564.3749
 504  578.2503
 505  649.6604
 506  565.9226
 507  648.1298
 508  760.723
 509  774.8928
 510  859.9346
 511  1008.559
