# Input file       =  1182419751.099498_cleaned.dat
# Candidate        =  PSR_0332+5434
# Telescope        =  AR
# Epoch_topo       =  57929.414005781226
# Epoch_bary       =  N/A
# T_sample         =  0.002
# Data Folded      =  7340032
# Data Avg         =  0.0187679154939202
# Data StdDev      =  1.00011115895106 
# Profile Bins     =  512
# Profile Avg      =  269.099050525637 
# Profile StdDev   =  119.746345775497 
# Reduced chi-sqr  =  1.332
# Prob(Noise)      <  6.65e-07   (~4.8 sigma)
# P_topo (ms)      =  714.494230044565  +/- 0.000166
# P'_topo (s/s)    =  -0                +/- 8.78e-11
# P''_topo (s/s^2) =  0                 +/- 3.87e-14
# P_bary (ms)      =  N/A
# P'_bary (s/s)    =  N/A
# P''_bary (s/s^2) =  N/A
# P_orb (s)        =  N/A
# asin(i)/c (s)    =  N/A
# eccentricity     =  N/A
# w (rad)          =  N/A
# T_peri           =  N/A
######################################################
   0  204.8986
   1  262.8934
   2  289.1677
   3  291.6856
   4  216.0774
   5  283.3944
   6  241.5128
   7  145.3976
   8  129.8653
   9  179.3685
  10  187.0949
  11  177.794
  12  290.4675
  13  481.064
  14  424.1808
  15  318.9601
  16  303.1129
  17  288.7542
  18  295.4258
  19  263.5657
  20  304.6602
  21  344.8119
  22  166.4294
  23  315.9234
  24  376.5833
  25  225.9798
  26  152.7352
  27  205.0182
  28  172.6201
  29  349.5406
  30  326.7514
  31  262.3617
  32  164.9193
  33  324.0857
  34  361.1831
  35  357.5516
  36  321.7116
  37  250.15
  38  375.1714
  39  355.2707
  40  287.0974
  41  267.1475
  42  250.9453
  43  261.6456
  44  274.8804
  45  258.0297
  46  179.1082
  47  216.0467
  48  297.9563
  49  388.1992
  50  261.3604
  51  226.3054
  52  257.2399
  53  260.2455
  54  274.6687
  55  315.0598
  56  395.2202
  57  308.155
  58  253.7662
  59  398.5342
  60  412.8959
  61  322.9778
  62  407.4466
  63  401.2
  64  315.7606
  65  470.2523
  66  621.9977
  67  736.0164
  68  818.1612
  69  914.5264
  70  1022.928
  71  821.8072
  72  471.9246
  73  275.1208
  74  249.8714
  75  232.6249
  76  246.9761
  77  250.7982
  78  194.3529
  79  315.5652
  80  258.3602
  81  293.6963
  82  338.4929
  83  387.981
  84  385.7728
  85  269.2252
  86  256.8391
  87  269.557
  88  315.9359
  89  252.9109
  90  152.8688
  91  249.9757
  92  361.927
  93  293.7244
  94  282.5418
  95  295.5249
  96  296.8796
  97  275.8134
  98  352.7544
  99  217.9274
 100  237.2829
 101  291.751
 102  221.8193
 103  386.5665
 104  383.9021
 105  262.6479
 106  316.9618
 107  397.6603
 108  334.7895
 109  258.4254
 110  324.7075
 111  360.5461
 112  262.0126
 113  296.6012
 114  310.0628
 115  376.5299
 116  248.3353
 117  243.5164
 118  298.3953
 119  357.0742
 120  253.8128
 121  176.6031
 122  237.8211
 123  290.9322
 124  302.9496
 125  407.8055
 126  441.3469
 127  390.4765
 128  277.0924
 129  243.3713
 130  174.163
 131  189.6849
 132  328.7821
 133  390.2972
 134  281.5225
 135  321.4416
 136  252.3851
 137  201.7927
 138  147.9872
 139  145.0954
 140  157.8589
 141  224.0019
 142  193.1786
 143  292.6245
 144  281.5167
 145  319.7243
 146  367.1378
 147  249.5167
 148  257.2562
 149  258.9598
 150  306.2184
 151  347.9523
 152  300.1223
 153  264.2413
 154  326.5499
 155  384.7176
 156  196.7513
 157  253.7027
 158  280.2081
 159  226.9123
 160  311.1241
 161  359.5538
 162  486.597
 163  241.46
 164  88.51726
 165  105.9172
 166  241.8646
 167  187.1154
 168  242.1358
 169  259.8334
 170  356.5821
 171  361.1783
 172  325.6373
 173  289.1964
 174  334.0456
 175  312.109
 176  315.2752
 177  292.6894
 178  307.3073
 179  301.1324
 180  319.5227
 181  363.781
 182  380.6191
 183  237.4263
 184  289.3019
 185  210.3671
 186  298.1776
 187  409.0529
 188  289.7567
 189  308.5983
 190  292.8814
 191  283.8955
 192  337.9843
 193  310.2576
 194  306.1362
 195  416.6606
 196  384.0106
 197  348.6836
 198  313.2249
 199  204.8442
 200  197.5545
 201  273.3604
 202  302.1074
 203  207.7148
 204  266.7702
 205  425.569
 206  283.0624
 207  219.454
 208  148.2963
 209  199.7368
 210  282.1229
 211  152.1774
 212  183.5576
 213  206.9846
 214  273.4992
 215  248.7154
 216  299.0038
 217  208.1353
 218  235.4161
 219  208.1145
 220  268.431
 221  234.1263
 222  86.65867
 223  141.9259
 224  186.6041
 225  172.8908
 226  298.4185
 227  160.4938
 228  102.4425
 229  176.7232
 230  164.3312
 231  174.235
 232  176.3929
 233  219.6913
 234  191.3665
 235  288.7752
 236  246.0198
 237  148.6579
 238  187.2623
 239  142.9195
 240  129.7514
 241  19.82108
 242  43.68882
 243  177.4247
 244  167.3908
 245  327.8591
 246  262.9086
 247  -15.14855
 248  16.34806
 249  180.2731
 250  165.9684
 251  250.8782
 252  272.1079
 253  342.3621
 254  282.3732
 255  161.0181
 256  147.3323
 257  253.1177
 258  263.8783
 259  157.0096
 260  218.0137
 261  282.9899
 262  269.324
 263  288.6206
 264  324.101
 265  377.3429
 266  247.0391
 267  248.034
 268  206.1704
 269  164.3941
 270  198.0789
 271  211.9696
 272  226.631
 273  297.2047
 274  242.3837
 275  233.7962
 276  209.7739
 277  161.5853
 278  225.6453
 279  198.0693
 280  296.2032
 281  223.5026
 282  230.8414
 283  144.6795
 284  143.2267
 285  127.8944
 286  278.6481
 287  164.4365
 288  135.6924
 289  276.1437
 290  198.608
 291  153.7031
 292  149.4765
 293  254.5314
 294  236.1227
 295  389.1114
 296  259.7871
 297  233.0114
 298  225.8996
 299  194.206
 300  190.6154
 301  232.3761
 302  299.4992
 303  239.4686
 304  264.9886
 305  236.3306
 306  231.0989
 307  164.7992
 308  172.7554
 309  162.8053
 310  289.9891
 311  258.1682
 312  303.801
 313  364.1003
 314  338.6294
 315  296.6653
 316  225.4444
 317  317.3026
 318  348.1834
 319  371.6561
 320  292.8219
 321  304.619
 322  367.0482
 323  297.983
 324  361.098
 325  229.5269
 326  273.7661
 327  281.6158
 328  331.1152
 329  235.0142
 330  183.3029
 331  252.7388
 332  336.5621
 333  254.9849
 334  134.845
 335  304.3783
 336  345.8388
 337  163.7532
 338  190.5958
 339  261.7054
 340  218.1656
 341  195.3526
 342  262.3419
 343  289.2756
 344  369.0566
 345  347.2559
 346  329.579
 347  296.1969
 348  340.9015
 349  304.0672
 350  387.2936
 351  357.8662
 352  272.0301
 353  166.3799
 354  200.922
 355  225.7124
 356  239.3391
 357  226.9474
 358  110.1283
 359  175.3719
 360  260.4488
 361  244.5751
 362  212.093
 363  108.0856
 364  218.1142
 365  278.8025
 366  338.2745
 367  498.8621
 368  394.3671
 369  273.5767
 370  220.3638
 371  230.9984
 372  314.7085
 373  371.9051
 374  417.6699
 375  248.3865
 376  274.1264
 377  367.377
 378  309.9148
 379  205.5614
 380  249.416
 381  234.8663
 382  290.9751
 383  328.6528
 384  218.5343
 385  208.2403
 386  376.6161
 387  311.4201
 388  282.6038
 389  258.7496
 390  282.6335
 391  230.9532
 392  206.277
 393  387.0654
 394  397.9271
 395  279.2092
 396  461.3159
 397  469.0807
 398  216.1463
 399  165.9517
 400  220.9408
 401  253.5624
 402  271.0035
 403  325.0691
 404  265.239
 405  143.7002
 406  110.5416
 407  184.6732
 408  233.2453
 409  162.7531
 410  145.5163
 411  26.93208
 412  148.8903
 413  152.1176
 414  253.6869
 415  229.2041
 416  105.9836
 417  176.7645
 418  198.9999
 419  154.0928
 420  151.1826
 421  210.8405
 422  262.6114
 423  302.5674
 424  275.4985
 425  109.7667
 426  246.8924
 427  246.6948
 428  277.5323
 429  232.2617
 430  275.1946
 431  184.5204
 432  91.31735
 433  116.1754
 434  237.0913
 435  215.9073
 436  216.9985
 437  167.5615
 438  147.5498
 439  135.3844
 440  212.1403
 441  171.4903
 442  148.7336
 443  131.727
 444  264.5072
 445  213.0302
 446  362.9132
 447  251.0049
 448  268.3167
 449  226.1187
 450  256.1677
 451  367.2293
 452  346.487
 453  240.1589
 454  321.8637
 455  338.725
 456  312.4894
 457  275.5964
 458  261.4544
 459  233.6541
 460  243.3351
 461  349.0867
 462  269.7826
 463  256.5475
 464  329.6196
 465  233.6962
 466  201.3725
 467  357.4285
 468  351.3264
 469  238.7538
 470  237.592
 471  227.7663
 472  382.4669
 473  364.1294
 474  329.9555
 475  226.6448
 476  200.5187
 477  238.2087
 478  246.9582
 479  225.3467
 480  282.3441
 481  384.4582
 482  408.8849
 483  203.3501
 484  196.659
 485  235.4811
 486  349.0539
 487  363.4993
 488  312.2612
 489  263.8076
 490  280.6122
 491  259.2438
 492  357.5034
 493  351.4441
 494  226.0179
 495  107.3231
 496  198.6374
 497  283.0838
 498  303.4307
 499  264.5784
 500  281.2606
 501  208.6885
 502  296.6071
 503  350.9689
 504  283.6174
 505  314.5193
 506  228.132
 507  297.5488
 508  326.7685
 509  345.0712
 510  350.3472
 511  198.4856
