# Input file       =  1182764375.119632_cleaned.dat
# Candidate        =  PSR_0332+5434
# Telescope        =  AR
# Epoch_topo       =  57933.402709717964
# Epoch_bary       =  N/A
# T_sample         =  0.002
# Data Folded      =  7340032
# Data Avg         =  0.143492149733772
# Data StdDev      =  4.62611464735983 
# Profile Bins     =  512
# Profile Avg      =  2057.21386295926 
# Profile StdDev   =  553.898753355426 
# Reduced chi-sqr  =  1.047
# Prob(Noise)      <  0.222   (~0.8 sigma)
# P_topo (ms)      =  714.490869371576  +/- 1.86e-05
# P'_topo (s/s)    =  -0                +/- 9.82e-12
# P''_topo (s/s^2) =  0                 +/- 4.33e-15
# P_bary (ms)      =  N/A
# P'_bary (s/s)    =  N/A
# P''_bary (s/s^2) =  N/A
# P_orb (s)        =  N/A
# asin(i)/c (s)    =  N/A
# eccentricity     =  N/A
# w (rad)          =  N/A
# T_peri           =  N/A
######################################################
   0  2492.426
   1  2164.236
   2  1670.036
   3  1633.396
   4  1915.143
   5  2273.837
   6  2219.564
   7  1394.832
   8  1799.426
   9  2148.867
  10  2047.125
  11  1914.861
  12  1925.352
  13  2148.871
  14  2286.38
  15  2063.108
  16  1913.278
  17  2098.458
  18  2165.25
  19  2214.433
  20  1578.772
  21  1212.041
  22  1679.453
  23  2070.614
  24  2644.958
  25  2152.879
  26  1859.849
  27  2289.593
  28  2697.281
  29  2466.599
  30  2176.579
  31  1495.791
  32  1713.932
  33  2531.302
  34  2141.744
  35  1909.803
  36  1657.672
  37  2104.205
  38  2217.045
  39  1904.727
  40  1536.604
  41  1514.307
  42  2150.312
  43  2243.237
  44  2050.227
  45  1913.171
  46  2292.506
  47  2731.461
  48  2315.219
  49  2149.441
  50  2031.038
  51  2236.407
  52  2690.988
  53  2798.428
  54  2084.336
  55  1754.096
  56  2135.403
  57  2449.871
  58  2375.241
  59  1900.191
  60  1759.876
  61  1849.67
  62  2693.342
  63  2263.038
  64  1662.283
  65  2184.351
  66  2668.27
  67  2382.238
  68  2112.532
  69  2144.417
  70  2223.614
  71  2427.799
  72  2933.333
  73  2509.498
  74  2587.082
  75  3147.094
  76  3611.626
  77  3523.296
  78  2517.167
  79  1954.871
  80  2180.801
  81  2551.329
  82  2218.72
  83  1958.096
  84  1932.224
  85  2246.378
  86  2156.174
  87  2207.911
  88  1830.582
  89  1525.975
  90  2230.945
  91  2872.171
  92  2612.064
  93  2052.451
  94  2108.441
  95  2422.541
  96  2057.638
  97  1909.583
  98  2002.848
  99  2071.509
 100  2398.269
 101  1988.541
 102  1473.455
 103  1356.598
 104  1429.591
 105  1996.213
 106  1818.819
 107  1472.316
 108  1625.729
 109  1945.617
 110  1982.262
 111  2250.97
 112  1893.333
 113  1564.814
 114  2080.062
 115  2392.989
 116  1904.51
 117  1671.105
 118  2157.256
 119  2163.127
 120  2343.65
 121  1884.899
 122  1443.362
 123  2087.415
 124  2435.452
 125  2158.911
 126  1937.963
 127  1634.122
 128  2051.266
 129  2383.58
 130  2018.491
 131  1578.821
 132  1752.623
 133  2606.623
 134  2984.266
 135  2434.102
 136  1630.529
 137  1702.266
 138  2098.816
 139  2928.513
 140  2533.171
 141  1971.667
 142  2112.929
 143  2285.81
 144  2039.883
 145  1680.539
 146  1826.514
 147  2182.171
 148  2571.859
 149  2528.159
 150  2107.788
 151  2125.758
 152  2232.381
 153  2342.727
 154  2162.118
 155  2032.167
 156  2042.713
 157  2731.341
 158  2877.985
 159  2476.195
 160  2124.222
 161  2202.528
 162  2443.297
 163  2005.243
 164  2179.497
 165  1716.337
 166  1651.861
 167  2472.236
 168  2214.113
 169  1506.783
 170  1500.713
 171  2434.523
 172  2470.191
 173  2286.728
 174  2086.239
 175  1936.979
 176  2117.767
 177  1870.593
 178  1570.121
 179  1448.546
 180  1926.586
 181  1787.455
 182  1937.514
 183  1936.082
 184  1445.008
 185  1614.493
 186  2157.812
 187  2200.586
 188  2047.729
 189  1692.979
 190  1800.81
 191  2247.655
 192  2063.441
 193  1910.136
 194  1559.197
 195  2013.754
 196  1935.414
 197  1524.173
 198  1583.836
 199  1458.603
 200  1948.326
 201  2493.829
 202  2266.819
 203  2104.299
 204  1642.563
 205  1772.088
 206  2137.423
 207  1901.731
 208  1672.791
 209  2082.095
 210  2422.47
 211  2175.884
 212  1824.735
 213  1679.94
 214  2063.396
 215  2425.912
 216  2498.773
 217  1751.133
 218  1711.128
 219  2412.327
 220  2528.874
 221  2842.972
 222  1870.816
 223  2116.307
 224  2699.185
 225  2679.917
 226  2570.354
 227  2226.171
 228  2142.43
 229  2542.174
 230  2382.178
 231  2146.344
 232  1921.274
 233  1837.583
 234  2199.294
 235  2214.379
 236  2253.702
 237  2019.965
 238  2206.951
 239  2372.995
 240  1936.161
 241  1643.1
 242  1878.65
 243  2243.618
 244  2722.526
 245  2281.118
 246  1488.515
 247  1603.973
 248  2227.2
 249  2257.382
 250  1898.502
 251  1483.21
 252  1697.095
 253  2089.654
 254  2153.215
 255  1576.249
 256  1684.983
 257  1867.924
 258  2262.051
 259  2221.167
 260  1771.773
 261  1677.346
 262  2261.951
 263  2192.921
 264  1703.897
 265  1453.463
 266  1697.581
 267  2519.48
 268  2485.381
 269  1796.519
 270  1425.551
 271  1640.358
 272  2350.013
 273  2657.894
 274  1893.191
 275  1504.555
 276  1685.126
 277  2036.342
 278  2340.636
 279  1810.891
 280  1512.615
 281  1672.586
 282  1668.581
 283  1772.894
 284  855.062
 285  934.5768
 286  1748.245
 287  2236.82
 288  1997.266
 289  1919.748
 290  1470.57
 291  1923.555
 292  2098.969
 293  2194.251
 294  1964.466
 295  1648.883
 296  2121.455
 297  2281.676
 298  2097.286
 299  1649.596
 300  1742.61
 301  1924.349
 302  1803.419
 303  1944.504
 304  1890.412
 305  1934.367
 306  2046.068
 307  2188.892
 308  1792.88
 309  1827.137
 310  2025.24
 311  2446.932
 312  1921.227
 313  1553.548
 314  1909.001
 315  2315.288
 316  2477.346
 317  1648.51
 318  1733.638
 319  1929.707
 320  2301.416
 321  2115.463
 322  1602.993
 323  1425.649
 324  1987.912
 325  2335.768
 326  1853.824
 327  1256.162
 328  1525.608
 329  1910.883
 330  2294.05
 331  2327.958
 332  1806.518
 333  1815.237
 334  2497.364
 335  2342.131
 336  2105.35
 337  1803.103
 338  2169.396
 339  2605.663
 340  2439.068
 341  2093.921
 342  1863.323
 343  2096.471
 344  2537.843
 345  2429.812
 346  1657.444
 347  1468.131
 348  1953.927
 349  2119.559
 350  2435.87
 351  2088.9
 352  1940.723
 353  1888.927
 354  1739.006
 355  1462.403
 356  1216.622
 357  1502.111
 358  1482.457
 359  1572.036
 360  1570.883
 361  1181.979
 362  1068.064
 363  1417.882
 364  1602.049
 365  1057.3
 366  859.8613
 367  1538.873
 368  2071.522
 369  1781.403
 370  1206.467
 371  809.9894
 372  1610.481
 373  2181.392
 374  1801.616
 375  1238.579
 376  1462.731
 377  1860
 378  2061.298
 379  2065.532
 380  1549.593
 381  1702.437
 382  2340.915
 383  2447.542
 384  1972.764
 385  1412.401
 386  1739.186
 387  2262.975
 388  1964.498
 389  1498.331
 390  1193.942
 391  1832.137
 392  2329.232
 393  2264.419
 394  1625.807
 395  1561.924
 396  1976.796
 397  2193.232
 398  2248.754
 399  1842.905
 400  1796.376
 401  1995.809
 402  1843.978
 403  1669.419
 404  1207.331
 405  1235.119
 406  1634.481
 407  1818.82
 408  1693.509
 409  1608.417
 410  1703.425
 411  2129.995
 412  2139.982
 413  1668.61
 414  1605.27
 415  1776.355
 416  2541.029
 417  2460.654
 418  1994.917
 419  1739.809
 420  1665.355
 421  1902.375
 422  1917.726
 423  1905.843
 424  1861.803
 425  2244.811
 426  2128.637
 427  1662.463
 428  1379.593
 429  1470.531
 430  2217.242
 431  2175.626
 432  1902.233
 433  1825.836
 434  2374.756
 435  2682.367
 436  2896.056
 437  2475.885
 438  2386.743
 439  2949.03
 440  3048.884
 441  2698.391
 442  2044.402
 443  1757.56
 444  2201.636
 445  2473.63
 446  2265.69
 447  1944.377
 448  1979.833
 449  2659.513
 450  2716.279
 451  1921.504
 452  2163.071
 453  2825.28
 454  3123.317
 455  2604.041
 456  2078.643
 457  1787.815
 458  2065.342
 459  2513.516
 460  2711.562
 461  2362.013
 462  2197.912
 463  2151.085
 464  2689.784
 465  2715.958
 466  1837.752
 467  2065.809
 468  2277.194
 469  2836.919
 470  2304.838
 471  1804.66
 472  1796.703
 473  2558.383
 474  2962.146
 475  2666.309
 476  2235.382
 477  1991.081
 478  2322.039
 479  2532.521
 480  1893.444
 481  1900.453
 482  2358.49
 483  2803.723
 484  2597.534
 485  2701.395
 486  2418.261
 487  2841.368
 488  3064.312
 489  2404.893
 490  2519.488
 491  2826.598
 492  2806.831
 493  2521.108
 494  2064.215
 495  2267.768
 496  2250.182
 497  2260.332
 498  2426.122
 499  1954.188
 500  1889.149
 501  2233.917
 502  2825.951
 503  2365.723
 504  2082.744
 505  2029.314
 506  2778.604
 507  2950.252
 508  2632.495
 509  2028.019
 510  1750.753
 511  2222.444
