# Input file       =  1182334205.111209_cleaned.dat
# Candidate        =  PSR_0332+5434
# Telescope        =  AR
# Epoch_topo       =  57928.423890176033
# Epoch_bary       =  N/A
# T_sample         =  0.002
# Data Folded      =  7340032
# Data Avg         =  0.020360482632536
# Data StdDev      =  1.00000878758027 
# Profile Bins     =  512
# Profile Avg      =  291.92009654395  
# Profile StdDev   =  119.734088540435 
# Reduced chi-sqr  =  1.410
# Prob(Noise)      <  2.47e-09   (~5.8 sigma)
# P_topo (ms)      =  714.495102837565  +/- 0.00026
# P'_topo (s/s)    =  -0                +/- 1.37e-10
# P''_topo (s/s^2) =  0                 +/- 6.06e-14
# P_bary (ms)      =  N/A
# P'_bary (s/s)    =  N/A
# P''_bary (s/s^2) =  N/A
# P_orb (s)        =  N/A
# asin(i)/c (s)    =  N/A
# eccentricity     =  N/A
# w (rad)          =  N/A
# T_peri           =  N/A
######################################################
   0  937.4556
   1  930.2468
   2  780.2383
   3  544.7077
   4  386.015
   5  387.3362
   6  368.0009
   7  346.1463
   8  378.7479
   9  291.851
  10  213.9468
  11  365.3105
  12  416.0039
  13  403.0749
  14  381.7651
  15  322.0643
  16  404.2401
  17  422.1144
  18  442.7534
  19  272.3595
  20  273.7238
  21  294.5503
  22  259.0951
  23  244.8921
  24  399.467
  25  421.6184
  26  386.6306
  27  434.6586
  28  345.1844
  29  326.5059
  30  379.3745
  31  309.8466
  32  274.69
  33  293.1425
  34  416.4342
  35  452.5125
  36  396.6914
  37  344.176
  38  325.4415
  39  266.1654
  40  306.5409
  41  257.9974
  42  258.6444
  43  231.098
  44  346.5052
  45  257.4366
  46  160.8791
  47  222.7907
  48  353.4184
  49  294.8831
  50  262.4696
  51  249.9586
  52  433.2716
  53  412.053
  54  406.5309
  55  472.0298
  56  306.3308
  57  256.8187
  58  345.1689
  59  387.2505
  60  316.7065
  61  339.8031
  62  250.6665
  63  302.5622
  64  281.077
  65  394.2872
  66  386.3524
  67  323.5001
  68  323.0017
  69  257.1866
  70  344.3819
  71  332.661
  72  323.6863
  73  329.7034
  74  245.9198
  75  199.7724
  76  237.6965
  77  299.4868
  78  348.851
  79  344.1431
  80  307.6451
  81  271.4096
  82  302.6386
  83  370.3933
  84  274.2341
  85  371.882
  86  509.5958
  87  342.2784
  88  274.3336
  89  253.3911
  90  170.4248
  91  204.5486
  92  254.1841
  93  281.7383
  94  354.6121
  95  327.4106
  96  235.4657
  97  196.9437
  98  256.5849
  99  108.4274
 100  277.3775
 101  339.1792
 102  272.5992
 103  208.4738
 104  296.8825
 105  330.944
 106  439.2587
 107  399.5185
 108  221.7905
 109  139.0108
 110  241.3061
 111  343.2727
 112  310.052
 113  363.6965
 114  291.0946
 115  157.7521
 116  209.0969
 117  366.3388
 118  287.7729
 119  281.8344
 120  333.4449
 121  405.5501
 122  308.6586
 123  233.3535
 124  311.3376
 125  343.6233
 126  294.0627
 127  166.8615
 128  129.7008
 129  346.2244
 130  383.7136
 131  356.2267
 132  253.3587
 133  262.8777
 134  286.2799
 135  190.5623
 136  65.96266
 137  307.2973
 138  419.4055
 139  388.0327
 140  404.9564
 141  256.9777
 142  320.4612
 143  341.4072
 144  345.2772
 145  316.5768
 146  303.2697
 147  339.8516
 148  277.8284
 149  239.0249
 150  193.5155
 151  136.2091
 152  230.8952
 153  205.8722
 154  391.3003
 155  355.8638
 156  340.567
 157  316.9494
 158  234.2294
 159  197.315
 160  251.7767
 161  279.4553
 162  243.8324
 163  267.5898
 164  265.6859
 165  266.3428
 166  245.6354
 167  242.7758
 168  213.7554
 169  224.6533
 170  134.1586
 171  222.5311
 172  265.8788
 173  314.2502
 174  208.2082
 175  228.0925
 176  113.7439
 177  175.3907
 178  230.9169
 179  233.0058
 180  315.3311
 181  207.9191
 182  168.8235
 183  157.9351
 184  253.0455
 185  242.6596
 186  70.04301
 187  106.0226
 188  243.0715
 189  371.9133
 190  356.5026
 191  325.6516
 192  322.6031
 193  268.2622
 194  303.4929
 195  386.5588
 196  334.5237
 197  146.0873
 198  159.3062
 199  297.6466
 200  392.6589
 201  339.9842
 202  310.7407
 203  222.928
 204  200.2245
 205  292.058
 206  309.8498
 207  370.2298
 208  424.5433
 209  518.9888
 210  347.739
 211  224.2987
 212  273.621
 213  392.4808
 214  221.7181
 215  322.8965
 216  380.1522
 217  386.3576
 218  439.2452
 219  281.7728
 220  193.9759
 221  230.806
 222  287.6444
 223  146.0195
 224  134.7857
 225  133.9165
 226  356.8593
 227  308.4827
 228  296.1269
 229  254.2297
 230  253.063
 231  401.6014
 232  391.1094
 233  264.0305
 234  345.0612
 235  304.1772
 236  348.2504
 237  380.3416
 238  421.6082
 239  354.6094
 240  266.4789
 241  425.2547
 242  347.2091
 243  249.6698
 244  245.1892
 245  328.671
 246  287.912
 247  301.7373
 248  266.6597
 249  202.9334
 250  214.8157
 251  282.8993
 252  344.8436
 253  290.7724
 254  358.3125
 255  277.6811
 256  267.1508
 257  275.6386
 258  416.4386
 259  280.2532
 260  301.1577
 261  408.8488
 262  297.0883
 263  239.9433
 264  285.9455
 265  375.7421
 266  329.5299
 267  363.2965
 268  262.2878
 269  325.1652
 270  282.2581
 271  239.7235
 272  341.5394
 273  361.771
 274  281.1714
 275  379.4825
 276  403.36
 277  379.1659
 278  183.7819
 279  155.7956
 280  212.5939
 281  177.0067
 282  270.7959
 283  280.8823
 284  340.4003
 285  201.7228
 286  174.1879
 287  265.6509
 288  182.8065
 289  130.5434
 290  292.2433
 291  274.8391
 292  305.9102
 293  96.05802
 294  67.53419
 295  198.3344
 296  310.3752
 297  211.4849
 298  217.2585
 299  252.8157
 300  192.0225
 301  247.1107
 302  339.4876
 303  297.4411
 304  241.7558
 305  296.0916
 306  261.1475
 307  224.0833
 308  199.895
 309  142.7287
 310  176.8755
 311  197.9841
 312  87.37717
 313  133.8445
 314  226.1678
 315  299.4211
 316  271.5394
 317  170.66
 318  241.0677
 319  258.2398
 320  274.4058
 321  229.1271
 322  178.6421
 323  121.5316
 324  91.66458
 325  182.8265
 326  113.0561
 327  188.734
 328  300.5838
 329  290.3834
 330  168.0838
 331  201.3336
 332  273.8311
 333  227.0635
 334  253.5572
 335  150.9083
 336  202.1992
 337  218.3427
 338  185.6629
 339  220.8404
 340  208.2852
 341  256.1048
 342  246.0329
 343  154.8117
 344  195.6678
 345  148.3062
 346  127.8354
 347  242.0035
 348  199.0871
 349  96.37443
 350  283.3189
 351  264.0894
 352  180.2924
 353  195.4655
 354  278.9524
 355  268.4694
 356  190.4446
 357  157.773
 358  126.247
 359  325.5312
 360  320.1694
 361  183.3478
 362  71.42532
 363  226.2089
 364  222.9245
 365  177.9996
 366  180.5597
 367  315.1619
 368  308.3246
 369  280.0163
 370  297.7996
 371  255.8443
 372  260.2925
 373  282.818
 374  329.3362
 375  237.6685
 376  334.5434
 377  454.2572
 378  366.7875
 379  410.3061
 380  306.7815
 381  246.9503
 382  176.0151
 383  145.2767
 384  87.73672
 385  140.7593
 386  291.9843
 387  300.8799
 388  347.9088
 389  317.9904
 390  241.9096
 391  342.6426
 392  315.3135
 393  267.3314
 394  277.1642
 395  354.938
 396  385.7256
 397  257.1846
 398  228.2484
 399  303.0588
 400  202.8281
 401  294.5961
 402  382.172
 403  370.3821
 404  337.8462
 405  119.1494
 406  235.8499
 407  337.8214
 408  207.4003
 409  200.2275
 410  312.3741
 411  354.3983
 412  290.4689
 413  262.3157
 414  256.7188
 415  219.2996
 416  325.8107
 417  321.9571
 418  359.0128
 419  339.5641
 420  251.8236
 421  246.6572
 422  294.2993
 423  324.6931
 424  310.1052
 425  268.7557
 426  324.2699
 427  285.3556
 428  255.0855
 429  318.872
 430  269.4182
 431  380.5835
 432  445.7701
 433  340.4868
 434  339.1558
 435  368.6683
 436  302.864
 437  224.9199
 438  276.7153
 439  229.2595
 440  148.9259
 441  121.2653
 442  200.5231
 443  106.7778
 444  150.948
 445  240.5958
 446  217.7354
 447  259.5062
 448  175.696
 449  203.2247
 450  286.0077
 451  364.8376
 452  281.0265
 453  259.0511
 454  275.3548
 455  274.343
 456  379.472
 457  335.6126
 458  309.3845
 459  326.1259
 460  270.5204
 461  254.4381
 462  178.3768
 463  293.9406
 464  308.3651
 465  356.1431
 466  337.0824
 467  194.091
 468  281.7223
 469  293.2051
 470  346.791
 471  358.6083
 472  297.1896
 473  378.4835
 474  426.85
 475  387.3494
 476  324.7036
 477  222.3498
 478  365.6356
 479  447.5377
 480  271.41
 481  229.9493
 482  389.2581
 483  493.0633
 484  478.3874
 485  427.8596
 486  327.7008
 487  271.9998
 488  203.683
 489  341.0889
 490  439.1581
 491  459.5546
 492  361.2054
 493  219.8647
 494  376.0066
 495  335.2548
 496  317.106
 497  337.642
 498  428.8864
 499  346.817
 500  310.4505
 501  293.8378
 502  322.1855
 503  418.4537
 504  524.3486
 505  456.0988
 506  331.0928
 507  368.7323
 508  503.6693
 509  696.7062
 510  769.101
 511  872.1041
