# Input file       =  1182334205.111209_cleaned.dat
# Candidate        =  PSR_0332+5434
# Telescope        =  AR
# Epoch_topo       =  57928.423890176033
# Epoch_bary       =  N/A
# T_sample         =  0.002
# Data Folded      =  7340032
# Data Avg         =  0.079476538574714
# Data StdDev      =  3.18251219860452 
# Profile Bins     =  256
# Profile Avg      =  2278.88840765213 
# Profile StdDev   =  538.888692603965 
# Reduced chi-sqr  =  1.534
# Prob(Noise)      <  8.43e-08   (~5.2 sigma)
# P_topo (ms)      =  714.49510349084   +/- 0.000523
# P'_topo (s/s)    =  -0                +/- 2.76e-10
# P''_topo (s/s^2) =  0                 +/- 1.22e-13
# P_bary (ms)      =  N/A
# P'_bary (s/s)    =  N/A
# P''_bary (s/s^2) =  N/A
# P_orb (s)        =  N/A
# asin(i)/c (s)    =  N/A
# eccentricity     =  N/A
# w (rad)          =  N/A
# T_peri           =  N/A
######################################################
   0  1705.183
   1  1368.119
   2  2598.472
   3  2567.956
   4  2185.951
   5  2665.594
   6  1563.173
   7  2165.897
   8  2723.774
   9  1883.229
  10  2108.999
  11  2775.44
  12  3221.936
  13  1932.196
  14  2662.666
  15  2554.438
  16  2796.816
  17  2240.302
  18  2105.456
  19  1561.318
  20  1615.81
  21  2481.002
  22  2364.099
  23  3020.597
  24  2657.494
  25  2845.279
  26  3156.511
  27  2942.664
  28  3223.272
  29  2484.714
  30  2607.113
  31  2580.859
  32  1941.435
  33  2381.105
  34  2613.577
  35  2520.972
  36  2232.833
  37  2512.258
  38  2976.058
  39  2219.651
  40  2616.089
  41  2583.543
  42  2292.361
  43  2134.58
  44  2495.818
  45  2764.586
  46  2532.773
  47  1477.402
  48  1871.44
  49  2330.165
  50  1563.614
  51  1817.82
  52  1492.577
  53  2110.168
  54  1221.651
  55  1765.77
  56  1769.649
  57  1823.918
  58  2104.83
  59  2146.764
  60  2238.193
  61  1938.493
  62  1598.11
  63  1641.947
  64  1367.516
  65  2407.054
  66  1948.889
  67  2228.331
  68  2125.844
  69  1461.913
  70  1362.39
  71  1681.218
  72  2037.472
  73  1647.254
  74  2070.508
  75  1611.598
  76  1804.857
  77  1729.012
  78  2118.121
  79  1553.161
  80  1419.137
  81  1695.132
  82  1544.31
  83  1799.089
  84  1609.822
  85  1816.682
  86  1629.482
  87  2230.794
  88  1578.547
  89  1609.26
  90  1723.193
  91  2351.437
  92  2305.062
  93  2167.359
  94  2464.375
  95  2306.66
  96  3141.205
  97  2831.376
  98  2243.8
  99  1394.79
 100  1398.036
 101  2232.131
 102  2235.872
 103  2185.855
 104  2015.413
 105  2577.553
 106  2335.826
 107  2178.54
 108  2310.99
 109  2575.111
 110  1565.735
 111  2371.149
 112  1695.921
 113  2449.378
 114  2162.615
 115  1937.487
 116  2435.453
 117  2580.342
 118  1976.727
 119  2423.819
 120  2167.364
 121  2203.188
 122  2311.87
 123  2802.208
 124  2682.461
 125  2458.805
 126  1929.888
 127  1818.02
 128  1558.869
 129  1618.681
 130  1834.219
 131  1951.433
 132  1688.857
 133  2449.729
 134  2013.805
 135  2217.309
 136  2792.269
 137  2352.684
 138  1771.921
 139  2219.766
 140  2624.396
 141  1875.064
 142  2377.894
 143  2367.967
 144  2645.191
 145  2811.73
 146  2330.206
 147  2887.246
 148  2166.813
 149  3354.456
 150  3033.564
 151  2213.701
 152  2645.36
 153  3257.185
 154  2262.406
 155  2787.392
 156  3021.263
 157  2880.851
 158  2401.028
 159  2934.16
 160  3184.246
 161  2653.296
 162  4323.196
 163  5518.84
 164  5737.731
 165  3860.302
 166  2748.737
 167  2673.034
 168  2444.359
 169  3011.731
 170  3058.72
 171  2583.983
 172  2974.488
 173  2488.869
 174  2171.84
 175  2192.624
 176  2919.717
 177  3181.501
 178  2591.366
 179  2375.25
 180  2385.972
 181  2880.773
 182  2634.314
 183  2084.932
 184  1949.794
 185  1980.352
 186  1931.23
 187  1882.124
 188  2383.083
 189  2200.676
 190  3164.575
 191  3261.993
 192  2280.402
 193  2780.014
 194  2678.527
 195  2291.541
 196  2990.638
 197  2685.825
 198  2335.764
 199  2708.806
 200  2608.075
 201  1982.023
 202  2406.406
 203  2477.63
 204  2143.536
 205  2354.72
 206  2695.119
 207  2531.032
 208  1874.213
 209  1887.424
 210  2359.792
 211  2446.912
 212  1952.361
 213  1523.848
 214  2461.087
 215  1889.623
 216  2584.154
 217  2646.082
 218  1444.58
 219  2652.794
 220  2708.392
 221  1824.85
 222  2390.75
 223  2131.253
 224  2782.571
 225  1931.564
 226  2337.495
 227  1672.038
 228  2360.999
 229  2581.706
 230  1911.8
 231  1745.02
 232  2176.872
 233  2732.539
 234  2412.801
 235  2483.178
 236  2303.267
 237  2238.09
 238  1675.469
 239  1414.169
 240  1894.863
 241  2580.064
 242  2207.533
 243  1768.497
 244  2072.158
 245  2082.831
 246  1964.717
 247  1553.417
 248  1444.556
 249  1662.149
 250  1866.35
 251  1451.784
 252  1364.775
 253  1915.936
 254  1845.302
 255  1320.805
