# Input file       =  1182648610.116692_cleaned.dat
# Candidate        =  PSR_0332+5434
# Telescope        =  AR
# Epoch_topo       =  57932.062836998753
# Epoch_bary       =  N/A
# T_sample         =  0.002
# Data Folded      =  7208960
# Data Avg         =  0.247439938713797
# Data StdDev      =  5.20424165019286 
# Profile Bins     =  256
# Profile Avg      =  6967.9264449487  
# Profile StdDev   =  873.320750518065 
# Reduced chi-sqr  =  0.562
# Prob(Noise)      <  1   (~0.0 sigma)
# P_topo (ms)      =  714.491635203614  +/- 8.13e-05
# P'_topo (s/s)    =  -0                +/- 4.37e-11
# P''_topo (s/s^2) =  0                 +/- 1.96e-14
# P_bary (ms)      =  N/A
# P'_bary (s/s)    =  N/A
# P''_bary (s/s^2) =  N/A
# P_orb (s)        =  N/A
# asin(i)/c (s)    =  N/A
# eccentricity     =  N/A
# w (rad)          =  N/A
# T_peri           =  N/A
######################################################
   0  7134.117
   1  7415.461
   2  6183.665
   3  6513.125
   4  6842.148
   5  6854.269
   6  6311.509
   7  6884.466
   8  7609.375
   9  7204.999
  10  6544.885
  11  6242.043
  12  6831.484
  13  6715.833
  14  6266.38
  15  6362.961
  16  7133.293
  17  7137.917
  18  6843.544
  19  6657.703
  20  6346.261
  21  6854.273
  22  6936.8
  23  7466.046
  24  6740.312
  25  7454.13
  26  7144.943
  27  7212.447
  28  6495.692
  29  6884.607
  30  7115.572
  31  6844.131
  32  6738.678
  33  7161.132
  34  8040.429
  35  6970.284
  36  6524.385
  37  6634.879
  38  7533.064
  39  6243.841
  40  6565.132
  41  7083.409
  42  7126.701
  43  6597.441
  44  5858.823
  45  7237.5
  46  6831.181
  47  6829.701
  48  6151.637
  49  6984.936
  50  7036.18
  51  6216.126
  52  5903.918
  53  6298.974
  54  7214.08
  55  7015.343
  56  6169.472
  57  6767.477
  58  7579.21
  59  6956.704
  60  6671.764
  61  6636.793
  62  7333.123
  63  7135.999
  64  7250.018
  65  6919.266
  66  7819.874
  67  7548.116
  68  7810.945
  69  7931.523
  70  6803.668
  71  7626.06
  72  7042.369
  73  7373.764
  74  7416.954
  75  7676.579
  76  7296.73
  77  6917.486
  78  7133.681
  79  7294.695
  80  6677.33
  81  6095.292
  82  7572.233
  83  7229.01
  84  6193.142
  85  5768.647
  86  7011.327
  87  7572.309
  88  7211.402
  89  5752.414
  90  7562.31
  91  8272.443
  92  7424.507
  93  6134.278
  94  6512.318
  95  7586.842
  96  7631.556
  97  7353.239
  98  7079.319
  99  7427.332
 100  6913.512
 101  6984.004
 102  7061.753
 103  7054.348
 104  7010.149
 105  7501.803
 106  7350.707
 107  6339.66
 108  6752.922
 109  7062.444
 110  7355.556
 111  6273.801
 112  6934.439
 113  6823.977
 114  7025.027
 115  6768.134
 116  7590.07
 117  7194.303
 118  6970.959
 119  6610.988
 120  6880.987
 121  6827.718
 122  6318.762
 123  7128.292
 124  7692.555
 125  7501.512
 126  6378.274
 127  6208.74
 128  6873.288
 129  6971.814
 130  6668.716
 131  6984.768
 132  7921.053
 133  7573.28
 134  6700.692
 135  6193.061
 136  6763.626
 137  7377.9
 138  7256.989
 139  6872.77
 140  6859.529
 141  7378.729
 142  6935.725
 143  6734.417
 144  6468.512
 145  6421.319
 146  6772.904
 147  7288.703
 148  7173.181
 149  7135.306
 150  7042.291
 151  7166.193
 152  6809.167
 153  6610.018
 154  7169.776
 155  7148.544
 156  6646.828
 157  6233.208
 158  7224.092
 159  6957.201
 160  5893.365
 161  7697.292
 162  9369.975
 163  9433.958
 164  9461.458
 165  8971.812
 166  8135.196
 167  7332.458
 168  6304.979
 169  7397.043
 170  7393.727
 171  7455.358
 172  6134.705
 173  7399.636
 174  7631.685
 175  6385.442
 176  6910.845
 177  7660.619
 178  7292.084
 179  6126.668
 180  6748.954
 181  7310.016
 182  7691.591
 183  7037.352
 184  7002.09
 185  7252.163
 186  6664.294
 187  7370.992
 188  7037.209
 189  6627.375
 190  6440.014
 191  7056.502
 192  6637.884
 193  6656.772
 194  6639.362
 195  7001.961
 196  6652.298
 197  7032.979
 198  6790.668
 199  7203.528
 200  7396.248
 201  6703.916
 202  6742.82
 203  6710.774
 204  7634.306
 205  6646.917
 206  6541.431
 207  7036.387
 208  7104.243
 209  6409.735
 210  6623.935
 211  7287.04
 212  6983.551
 213  6593.912
 214  6541.688
 215  7458.897
 216  6473.108
 217  5684.819
 218  6043.19
 219  7020.689
 220  6783.067
 221  6210.428
 222  7082.444
 223  7121.163
 224  6533.093
 225  6227.959
 226  6072.38
 227  7148.932
 228  7034.941
 229  6602.806
 230  6621.347
 231  7351.222
 232  7151.463
 233  6731.417
 234  6701.779
 235  6306.607
 236  6710.671
 237  6965.86
 238  6120.386
 239  6288.89
 240  6871.568
 241  7784.428
 242  7338.635
 243  7174.458
 244  6993.799
 245  7706.383
 246  7046.237
 247  6347.205
 248  8008.744
 249  7732.221
 250  6489.348
 251  6715.426
 252  7300.522
 253  7446.145
 254  5899.587
 255  6277.003
