# Input file       =  1182907142.112401_cleaned.dat
# Candidate        =  PSR_0332+5434
# Telescope        =  AR
# Epoch_topo       =  57935.055105467603
# Epoch_bary       =  N/A
# T_sample         =  0.002
# Data Folded      =  7143424
# Data Avg         =  0.0322308220697449
# Data StdDev      =  1.00001202255137 
# Profile Bins     =  512
# Profile Avg      =  449.765017565648 
# Profile StdDev   =  118.120004568616 
# Reduced chi-sqr  =  1.001
# Prob(Noise)      <  0.482   (~0.0 sigma)
# P_topo (ms)      =  714.489176261033  +/- 0.000341
# P'_topo (s/s)    =  -0                +/- 1.85e-10
# P''_topo (s/s^2) =  0                 +/- 8.38e-14
# P_bary (ms)      =  N/A
# P'_bary (s/s)    =  N/A
# P''_bary (s/s^2) =  N/A
# P_orb (s)        =  N/A
# asin(i)/c (s)    =  N/A
# eccentricity     =  N/A
# w (rad)          =  N/A
# T_peri           =  N/A
######################################################
   0  1066.062
   1  972.6447
   2  794.8622
   3  599.0312
   4  553.6027
   5  533.8239
   6  495.8426
   7  395.563
   8  346.3882
   9  465.5389
  10  538.8631
  11  427.3497
  12  552.3053
  13  576.0301
  14  501.2097
  15  501.8588
  16  496.2932
  17  417.3979
  18  467.2417
  19  347.4028
  20  361.4938
  21  479.4367
  22  496.8842
  23  474.6473
  24  426.2446
  25  349.3957
  26  370.7608
  27  475.5831
  28  415.686
  29  457.4641
  30  408.7715
  31  463.5509
  32  472.1268
  33  481.1067
  34  466.3768
  35  454.3429
  36  422.9506
  37  437.6626
  38  412.4061
  39  423.6118
  40  467.4875
  41  448.521
  42  512.8466
  43  516.9401
  44  494.9113
  45  523.1998
  46  561.8571
  47  461.3106
  48  480.0169
  49  475.4225
  50  466.2618
  51  513.4561
  52  407.806
  53  434.051
  54  458.8813
  55  429.0508
  56  388.4464
  57  398.2021
  58  341.2461
  59  423.6901
  60  420.0581
  61  440.026
  62  495.2672
  63  490.0918
  64  414.2098
  65  370.7268
  66  359.1818
  67  318.7272
  68  384.1719
  69  401.2265
  70  401.551
  71  505.3508
  72  475.1948
  73  473.3656
  74  479.1396
  75  447.0367
  76  405.7857
  77  478.4357
  78  438.8002
  79  555.5593
  80  414.0487
  81  408.2325
  82  399.8442
  83  368.235
  84  475.6034
  85  399.1894
  86  435.0884
  87  408.9308
  88  397.3522
  89  389.9098
  90  369.954
  91  384.9458
  92  390.1528
  93  351.072
  94  323.2631
  95  451.4136
  96  383.7685
  97  226.9598
  98  231.1311
  99  230.1761
 100  286.2144
 101  397.1407
 102  412.1107
 103  401.2047
 104  521.4617
 105  421.8952
 106  300.4939
 107  347.218
 108  370.7062
 109  375.0584
 110  448.5387
 111  505.7413
 112  442.8343
 113  458.8871
 114  433.7873
 115  392.1847
 116  454.0741
 117  446.0066
 118  606.9078
 119  580.0938
 120  451.5094
 121  438.8068
 122  458.2359
 123  429.3923
 124  453.0995
 125  492.46
 126  505.797
 127  513.146
 128  566.249
 129  472.4333
 130  357.2613
 131  402.4402
 132  469.5839
 133  460.5399
 134  498.714
 135  531.4276
 136  443.5045
 137  553.16
 138  481.1931
 139  528.2758
 140  491.1143
 141  497.3225
 142  500.4324
 143  454.0425
 144  460.282
 145  507.447
 146  515.7941
 147  468.1838
 148  585.1451
 149  602.4225
 150  473.4992
 151  467.0483
 152  606.0419
 153  567.9363
 154  471.26
 155  440.8462
 156  478.7714
 157  486.7912
 158  439.9233
 159  364.0864
 160  384.5885
 161  518.5951
 162  525.8877
 163  436.82
 164  376.2136
 165  313.2782
 166  417.8937
 167  352.776
 168  391.3121
 169  576.5546
 170  477.9319
 171  362.6795
 172  369.7433
 173  395.2397
 174  322.7812
 175  356.5191
 176  515.9696
 177  453.8293
 178  315.6926
 179  352.8538
 180  405.1268
 181  421.5184
 182  364.2928
 183  359.9704
 184  393.6328
 185  376.1278
 186  422.6237
 187  410.1411
 188  507.7668
 189  550.2742
 190  484.5675
 191  476.8467
 192  403.2144
 193  451.3757
 194  531.8997
 195  517.4454
 196  414.9592
 197  410.9887
 198  528.2114
 199  442.3002
 200  401.9168
 201  487.1246
 202  482.6661
 203  469.2289
 204  510.7881
 205  463.8901
 206  338.0819
 207  308.2713
 208  394.9327
 209  497.8622
 210  485.5554
 211  492.4741
 212  462.7573
 213  476.7898
 214  427.7338
 215  345.0267
 216  482.5571
 217  460.845
 218  472.9227
 219  524.8845
 220  461.0098
 221  426.6233
 222  361.4109
 223  351.4214
 224  481.1093
 225  567.8546
 226  490.5569
 227  364.6246
 228  377.1618
 229  428.4142
 230  396.8429
 231  367.5265
 232  391.4542
 233  480.085
 234  401.6985
 235  380.5818
 236  329.7545
 237  406.8855
 238  358.6762
 239  466.0414
 240  441.8106
 241  393.788
 242  419.8113
 243  454.5277
 244  440.0746
 245  428.2934
 246  385.4843
 247  414.13
 248  461.1962
 249  399.8247
 250  330.5304
 251  217.3508
 252  350.165
 253  492.9149
 254  468.9603
 255  450.0002
 256  366.7764
 257  411.8592
 258  456.8603
 259  406.8811
 260  373.8003
 261  411.6465
 262  356.4598
 263  360.9669
 264  411.9831
 265  392.4704
 266  343.58
 267  428.376
 268  412.1086
 269  490.4419
 270  513.0017
 271  424.0211
 272  512.5513
 273  504.2883
 274  500.9265
 275  505.6617
 276  485.0831
 277  453.6676
 278  405.6185
 279  431.6836
 280  472.511
 281  477.3574
 282  480.3172
 283  449.709
 284  435.1108
 285  544.9637
 286  512.6565
 287  480.0214
 288  409.2361
 289  422.495
 290  537.927
 291  519.4233
 292  474.957
 293  544.694
 294  436.3538
 295  381.0617
 296  410.8475
 297  410.2446
 298  416.2318
 299  406.0863
 300  453.9714
 301  369.8637
 302  448.3049
 303  494.4792
 304  401.7268
 305  406.306
 306  510.9826
 307  453.2232
 308  503.5335
 309  502.2683
 310  501.636
 311  501.0413
 312  471.5576
 313  535.7054
 314  429.9434
 315  468.3193
 316  458.5458
 317  428.9759
 318  331.4882
 319  408.2584
 320  473.0152
 321  379.9521
 322  358.3733
 323  421.2325
 324  411.4996
 325  448.9735
 326  519.5399
 327  577.0234
 328  440.0508
 329  511.5475
 330  458.0921
 331  472.635
 332  454.8685
 333  481.1487
 334  505.9388
 335  578.6628
 336  498.8807
 337  415.7991
 338  430.9067
 339  399.9285
 340  520.5683
 341  483.0393
 342  591.6044
 343  620.2851
 344  581.4155
 345  630.2044
 346  502.5904
 347  383.8083
 348  463.4173
 349  556.0265
 350  519.8574
 351  451.9072
 352  538.2419
 353  565.6644
 354  578.2326
 355  538.7185
 356  495.6433
 357  481.0308
 358  490.3298
 359  637.6667
 360  603.4453
 361  517.1823
 362  505.7495
 363  599.8473
 364  552.6343
 365  491.7192
 366  586.9614
 367  642.9382
 368  491.4227
 369  506.9405
 370  433.9184
 371  419.4643
 372  370.5419
 373  415.0865
 374  460.6408
 375  423.7806
 376  467.1101
 377  399.9437
 378  364.801
 379  299.8053
 380  293.7081
 381  395.5447
 382  489.4651
 383  398.5676
 384  361.469
 385  389.2454
 386  406.4282
 387  358.0205
 388  397.1479
 389  403.5024
 390  287.4363
 391  433.114
 392  421.9365
 393  299.0068
 394  350.0255
 395  302.7652
 396  409.3519
 397  534.3729
 398  392.6584
 399  281.9844
 400  345.9666
 401  384.4974
 402  426.6245
 403  379.1784
 404  472.0688
 405  517.2487
 406  512.4737
 407  408.2633
 408  368.526
 409  404.5352
 410  475.1829
 411  380.3135
 412  339.489
 413  393.6361
 414  378.5291
 415  401.989
 416  339.4065
 417  385.4963
 418  488.3119
 419  499.5749
 420  471.955
 421  475.0295
 422  409.0714
 423  403.1039
 424  380.6301
 425  510.9591
 426  458.3153
 427  346.0006
 428  363.1892
 429  564.5621
 430  539.5027
 431  339.448
 432  353.1396
 433  475.3289
 434  395.7675
 435  365.4571
 436  471.0931
 437  537.2833
 438  524.0638
 439  406.2176
 440  437.8095
 441  473.0452
 442  489.446
 443  422.4761
 444  424.434
 445  411.0842
 446  319.1308
 447  395.0577
 448  470.9467
 449  456.0924
 450  410.1788
 451  441.941
 452  487.3504
 453  437.9839
 454  450.7669
 455  466.4467
 456  401.6858
 457  368.412
 458  377.4606
 459  359.6193
 460  420.665
 461  438.1519
 462  428.0888
 463  409.6289
 464  364.9457
 465  344.7018
 466  419.2826
 467  426.5999
 468  388.984
 469  382.8443
 470  421.922
 471  517.2869
 472  480.6475
 473  389.535
 474  443.3694
 475  457.9518
 476  387.2754
 477  435.6856
 478  365.1075
 479  435.6976
 480  588.7775
 481  553.8898
 482  520.6104
 483  382.9681
 484  373.295
 485  407.2454
 486  458.8476
 487  488.2278
 488  504.316
 489  452.4502
 490  530.6396
 491  467.0222
 492  396.5036
 493  458.9333
 494  518.7653
 495  456.6231
 496  417.6002
 497  346.3201
 498  321.147
 499  465.0005
 500  547.7065
 501  529.2629
 502  478.3616
 503  560.5311
 504  550.3664
 505  488.0381
 506  535.2388
 507  600.7908
 508  697.2544
 509  713.7832
 510  750.0567
 511  976.7663
