# Input file       =  1182820940.110590-PSRB0329-2ms-sampling-dd.dat
# Candidate        =  PSR_0332+5434
# Telescope        =  AR
# Epoch_topo       =  57934.057397113313
# Epoch_bary       =  N/A
# T_sample         =  0.002
# Data Folded      =  7208960
# Data Avg         =  2.02645751984917e-10
# Data StdDev      =  6.02899059788665 
# Profile Bins     =  512
# Profile Avg      =  -0.372964470348729
# Profile StdDev   =  715.395055212175 
# Reduced chi-sqr  =  0.570
# Prob(Noise)      <  1   (~0.0 sigma)
# P_topo (ms)      =  714.489987016854  +/- 5.94e-05
# P'_topo (s/s)    =  -0                +/- 3.19e-11
# P''_topo (s/s^2) =  0                 +/- 1.44e-14
# P_bary (ms)      =  N/A
# P'_bary (s/s)    =  N/A
# P''_bary (s/s^2) =  N/A
# P_orb (s)        =  N/A
# asin(i)/c (s)    =  N/A
# eccentricity     =  N/A
# w (rad)          =  N/A
# T_peri           =  N/A
######################################################
   0  -862.5891
   1  -797.0967
   2  -478.0777
   3  -540.828
   4  -629.6521
   5  -579.751
   6  -332.5372
   7  -791.2982
   8  -549.4014
   9  -445.8872
  10  -266.658
  11  3.618079
  12  82.88931
  13  -132.4717
  14  -204.4093
  15  -136.4956
  16  -297.3429
  17  4.046311
  18  -91.23895
  19  -273.2906
  20  -144.596
  21  -199.9214
  22  -326.2089
  23  -309.2884
  24  28.22417
  25  415.7479
  26  114.6158
  27  107.4021
  28  242.2106
  29  -221.0129
  30  80.84014
  31  113.3666
  32  50.84429
  33  282.0614
  34  -186.5355
  35  -132.4018
  36  -213.7015
  37  -536.5157
  38  -747.0834
  39  -512.409
  40  -36.54571
  41  63.81133
  42  294.302
  43  504.2057
  44  187.7897
  45  -88.72679
  46  -399.2283
  47  -530.1387
  48  -264.6931
  49  76.54567
  50  408.864
  51  340.9803
  52  45.17753
  53  -414.1297
  54  -496.5009
  55  -660.0557
  56  -300.5662
  57  515.1262
  58  460.9065
  59  497.5725
  60  -324.263
  61  -789.6241
  62  -1031.19
  63  -717.8247
  64  88.05609
  65  419.1064
  66  699.7571
  67  448.8646
  68  91.28403
  69  -300.2929
  70  -175.5173
  71  -304.5207
  72  22.38217
  73  176.3842
  74  359.0469
  75  165.9087
  76  -21.79704
  77  187.3812
  78  70.03535
  79  -38.08277
  80  -117.4362
  81  133.407
  82  173.943
  83  253.0282
  84  434.0602
  85  8.508801
  86  88.25071
  87  556.9218
  88  216.3484
  89  631.1602
  90  424.0355
  91  685.3012
  92  396.0999
  93  31.24603
  94  226.4155
  95  318.332
  96  715.9348
  97  848.3796
  98  447.5848
  99  50.54832
 100  -255.0815
 101  -283.7344
 102  -292.4938
 103  177.3787
 104  584.7564
 105  230.7133
 106  0.948543
 107  -13.41632
 108  -279.2279
 109  136.1221
 110  499.6507
 111  490.8365
 112  358.2101
 113  46.14906
 114  251.933
 115  257.3034
 116  324.3888
 117  338.9505
 118  746.7061
 119  940.3531
 120  396.8793
 121  207.4129
 122  -109.1172
 123  83.46222
 124  365.7501
 125  277.7327
 126  553.595
 127  71.58991
 128  -226.6883
 129  -233.5181
 130  -124.3849
 131  478.6795
 132  458.1613
 133  196.7997
 134  -48.80828
 135  -772.6793
 136  -714.2821
 137  -10.57862
 138  416.4397
 139  663.6835
 140  670.6616
 141  767.2414
 142  586.056
 143  -331.9616
 144  -540.5031
 145  -407.0067
 146  -202.4008
 147  228.8874
 148  767.792
 149  953.3241
 150  243.0197
 151  -98.17863
 152  -155.3493
 153  -174.043
 154  380.2775
 155  503.6891
 156  716.1371
 157  930.57
 158  687.4368
 159  544.2507
 160  341.8982
 161  39.25749
 162  206.9099
 163  664.982
 164  624.1627
 165  536.538
 166  154.5428
 167  43.95665
 168  -268.3823
 169  -470.0074
 170  -92.98518
 171  166.4953
 172  596.9135
 173  487.3631
 174  13.50099
 175  169.5381
 176  21.53238
 177  -39.97406
 178  497.3244
 179  446.2181
 180  367.2097
 181  -27.87296
 182  -191.3326
 183  -163.3047
 184  -83.65068
 185  62.25823
 186  697.7957
 187  383.124
 188  143.4129
 189  313.644
 190  573.1111
 191  605.9036
 192  289.0447
 193  856.3791
 194  644.5332
 195  446.3251
 196  134.578
 197  135.6238
 198  232.0886
 199  258.2183
 200  690.9061
 201  494.435
 202  147.3497
 203  -103.1517
 204  -378.022
 205  20.93303
 206  311.6742
 207  496.2607
 208  146.1803
 209  90.36162
 210  -176.5256
 211  -853.1372
 212  -760.296
 213  -865.8651
 214  -147.7854
 215  179.4774
 216  39.87298
 217  -158.5643
 218  -216.2752
 219  -269.1691
 220  -338.4488
 221  -58.67659
 222  611.875
 223  959.326
 224  734.6548
 225  548.9503
 226  -330.1593
 227  -763.456
 228  -199.0249
 229  92.036
 230  381.0691
 231  636.821
 232  536.7252
 233  -134.9626
 234  -190.9442
 235  -675.7032
 236  -633.1321
 237  -168.737
 238  149.4088
 239  708.325
 240  441.1747
 241  51.34944
 242  -490.6573
 243  -757.6745
 244  -342.1024
 245  -23.98647
 246  807.3047
 247  426.2468
 248  -28.40833
 249  -346.5207
 250  -283.7713
 251  -277.3024
 252  244.1888
 253  311.4117
 254  364.2826
 255  432.9091
 256  459.5034
 257  137.1183
 258  -266.5001
 259  191.9746
 260  82.17381
 261  161.314
 262  159.2939
 263  25.67654
 264  142.9276
 265  -121.9047
 266  63.2607
 267  -15.81209
 268  -76.36079
 269  181.3225
 270  -171.0613
 271  -215.4179
 272  -351.1944
 273  -423.9975
 274  -238.6536
 275  -309.955
 276  -108.6169
 277  86.89946
 278  -595.0466
 279  -916.6262
 280  -565.3411
 281  -359.3041
 282  -490.3463
 283  -782.9803
 284  -614.1133
 285  -690.3011
 286  -391.4976
 287  -483.6038
 288  -26.37391
 289  20.32045
 290  262.6145
 291  117.9011
 292  -11.78737
 293  -157.4315
 294  -359.5987
 295  -509.5198
 296  -298.7454
 297  152.0283
 298  -190.0792
 299  376.6496
 300  -139.2376
 301  -231.1214
 302  -798.9796
 303  -377.7313
 304  414.8509
 305  265.8486
 306  227.3384
 307  -156.8034
 308  -366.2441
 309  -723.6604
 310  -315.8461
 311  -306.847
 312  -116.3038
 313  74.74377
 314  277.3744
 315  329.5225
 316  57.63236
 317  -43.22406
 318  33.03471
 319  163.5095
 320  226.9594
 321  537.5699
 322  951.9008
 323  175.2046
 324  -169.1943
 325  63.56475
 326  504.2304
 327  602.8625
 328  499.5962
 329  538.687
 330  416.0979
 331  103.3581
 332  125.2615
 333  104.5797
 334  114.1915
 335  161.4234
 336  407.701
 337  576.438
 338  619.3138
 339  163.3891
 340  193.5765
 341  -28.36923
 342  -68.10891
 343  327.2879
 344  130.6615
 345  474.15
 346  -100.9881
 347  -346.7496
 348  -483.2947
 349  -150.6915
 350  -58.85335
 351  -142.2243
 352  -244.1958
 353  -167.5358
 354  -27.64227
 355  12.44303
 356  148.3163
 357  320.2788
 358  183.9405
 359  -75.76109
 360  -130.5817
 361  -341.6179
 362  69.59196
 363  327.8016
 364  545.9425
 365  434.6563
 366  14.78372
 367  -218.1397
 368  44.11835
 369  -235.0665
 370  -360.165
 371  -49.35265
 372  364.5301
 373  417.3238
 374  1.869534
 375  -158.3651
 376  -466.5201
 377  -586.7412
 378  21.1981
 379  200.4946
 380  513.5964
 381  544.9396
 382  251.0958
 383  -221.0944
 384  -486.4781
 385  -635.207
 386  -364.2361
 387  206.8745
 388  368.8342
 389  789.1058
 390  445.1665
 391  434.1312
 392  290.1826
 393  -287.731
 394  -268.5118
 395  23.87281
 396  400.3042
 397  587.9604
 398  72.10024
 399  44.61949
 400  -409.334
 401  -537.7428
 402  -25.78172
 403  -122.1312
 404  258.313
 405  54.4176
 406  205.2053
 407  68.01875
 408  104.3451
 409  51.79027
 410  114.4678
 411  -116.4708
 412  257.3874
 413  53.79897
 414  -171.6567
 415  -670.9635
 416  -583.9779
 417  -238.3899
 418  -13.36666
 419  343.0835
 420  -3.683177
 421  64.42236
 422  -233.4852
 423  -710.6964
 424  -547.683
 425  -275.2282
 426  -75.40768
 427  -100.9239
 428  46.78065
 429  -180.5709
 430  -256.0873
 431  63.79737
 432  136.0836
 433  127.0226
 434  -110.508
 435  -370.5935
 436  -338.4227
 437  -477.7696
 438  -510.7798
 439  -593.6387
 440  -435.3807
 441  -299.4294
 442  -112.0769
 443  -330.8942
 444  -574.4826
 445  -434.2185
 446  162.666
 447  360.7201
 448  512.4192
 449  545.3855
 450  497.8273
 451  508.4546
 452  151.1243
 453  194.8861
 454  0.1395495
 455  -162.1592
 456  -392.5481
 457  -340.7319
 458  -312.6272
 459  -555.0354
 460  -625.9715
 461  106.1557
 462  346.058
 463  53.72357
 464  38.66873
 465  108.1531
 466  69.71573
 467  -394.1636
 468  -443.4257
 469  -29.00231
 470  -96.45209
 471  19.77624
 472  306.3363
 473  101.3655
 474  -583.5669
 475  -905.612
 476  -719.2958
 477  -709.8365
 478  -351.5275
 479  187.4121
 480  104.2987
 481  -433.2007
 482  -718.8109
 483  -630.0579
 484  -385.3369
 485  -220.7567
 486  115.4124
 487  379.3496
 488  -203.7275
 489  -532.3295
 490  -434.2671
 491  -241.8946
 492  -599.1556
 493  -493.5505
 494  -546.7771
 495  66.40618
 496  -90.83394
 497  -602.8329
 498  -616.3815
 499  -346.4998
 500  -491.8653
 501  -574.1809
 502  -83.71346
 503  -62.76316
 504  -159.3909
 505  -159.5059
 506  24.26958
 507  -181.7842
 508  -358.1089
 509  -418.419
 510  -399.6687
 511  -501.8244
