# Input file       =  1182319293.117347_cleaned.dat
# Candidate        =  PSR_0332+5434
# Telescope        =  AR
# Epoch_topo       =  57928.251297654482
# Epoch_bary       =  N/A
# T_sample         =  0.002
# Data Folded      =  7340032
# Data Avg         =  0.180167996231051
# Data StdDev      =  5.45732997015465 
# Profile Bins     =  512
# Profile Avg      =  2583.08301756722 
# Profile StdDev   =  653.422687836543 
# Reduced chi-sqr  =  1.276
# Prob(Noise)      <  2.18e-05   (~4.1 sigma)
# P_topo (ms)      =  714.49491222902   +/- 0.000309
# P'_topo (s/s)    =  -0                +/- 1.63e-10
# P''_topo (s/s^2) =  0                 +/- 7.2e-14
# P_bary (ms)      =  N/A
# P'_bary (s/s)    =  N/A
# P''_bary (s/s^2) =  N/A
# P_orb (s)        =  N/A
# asin(i)/c (s)    =  N/A
# eccentricity     =  N/A
# w (rad)          =  N/A
# T_peri           =  N/A
######################################################
   0  1825.846
   1  1725.77
   2  1310.73
   3  1511.461
   4  1565.104
   5  1572.577
   6  1542.793
   7  1863.786
   8  2144.317
   9  2394.325
  10  2352.391
  11  2842.598
  12  2736.095
  13  2803.799
  14  2523.611
  15  2581.88
  16  2608.543
  17  2833.244
  18  2833.143
  19  2921.425
  20  3124.646
  21  3017.183
  22  3168.682
  23  2847.458
  24  2614.507
  25  3018.966
  26  3145.526
  27  2627.547
  28  2253.084
  29  2181.704
  30  2356.668
  31  2490.576
  32  2518.626
  33  2374.735
  34  2735.16
  35  2889.028
  36  2869.934
  37  2891.273
  38  2732.891
  39  2981.132
  40  3161.412
  41  3026.462
  42  3057.934
  43  2645.778
  44  2521.337
  45  2986.272
  46  2656.631
  47  2602.92
  48  2776.251
  49  3285.175
  50  3576.908
  51  3360.089
  52  3088.728
  53  2778.823
  54  2581.51
  55  2219.971
  56  2596.478
  57  2523.797
  58  2523.077
  59  3135.885
  60  3033.578
  61  2985.079
  62  3427.357
  63  2764.832
  64  3087.734
  65  3159.676
  66  2971.792
  67  2988.979
  68  2502.365
  69  2471.181
  70  2810.046
  71  3201.855
  72  2757.978
  73  3043.346
  74  2986.771
  75  2780.581
  76  2378.556
  77  2714.873
  78  2847.277
  79  2957.092
  80  2740.91
  81  3224.114
  82  3251.013
  83  2630.167
  84  2821.959
  85  3176.376
  86  3342.902
  87  2787.01
  88  2882.451
  89  3523.171
  90  3785.958
  91  3663.065
  92  3827.741
  93  3438.254
  94  2765.486
  95  2601.896
  96  2757.026
  97  3259.601
  98  3622.888
  99  3934.122
 100  3719.577
 101  3514.476
 102  3372.293
 103  3270.556
 104  3525.012
 105  3727.658
 106  3738.893
 107  3689.59
 108  3292.327
 109  3407.485
 110  2976.576
 111  3037.791
 112  3181.585
 113  2573.325
 114  2771.285
 115  2431.936
 116  2169.986
 117  2586.713
 118  2439.804
 119  2375.568
 120  2897.012
 121  2643.368
 122  2564.185
 123  2162.521
 124  2973.017
 125  2816.659
 126  2257.998
 127  2121.483
 128  1861.939
 129  1965.319
 130  2441.149
 131  2153.424
 132  1842.86
 133  1560.688
 134  1920.044
 135  2303.021
 136  2493.993
 137  2363.883
 138  2189.09
 139  2518.038
 140  2899.24
 141  3084.24
 142  3377.295
 143  3035.817
 144  3149.163
 145  3046.597
 146  2787.215
 147  2801.733
 148  2457.812
 149  2514.207
 150  2882.775
 151  2950.43
 152  2508.897
 153  2740.755
 154  2993.175
 155  2631.56
 156  1943.13
 157  1752.491
 158  2125.521
 159  1877.078
 160  2177.88
 161  2249.22
 162  2234.291
 163  2028.172
 164  1995.55
 165  1983.394
 166  2144.43
 167  2067.802
 168  2350.029
 169  2454.414
 170  2742.16
 171  2238.755
 172  2240.356
 173  2407.78
 174  2704.149
 175  2433.242
 176  2135.883
 177  1866.331
 178  2116.364
 179  2381.768
 180  2395.589
 181  1991.774
 182  2506.061
 183  2488.102
 184  2689.407
 185  2595.617
 186  2758.447
 187  3141.987
 188  3323.208
 189  3499.931
 190  3289.039
 191  3299.008
 192  2961.937
 193  3458.699
 194  3137.507
 195  3271.469
 196  3196.289
 197  3416.691
 198  3721.361
 199  4015.859
 200  3335.04
 201  3057.891
 202  3092.049
 203  2951.664
 204  2853.723
 205  3216.759
 206  3165.439
 207  3147.491
 208  3045.783
 209  2770.945
 210  3036.526
 211  2382.829
 212  2218.072
 213  2561.707
 214  2611.488
 215  2306.139
 216  2213.02
 217  2567.981
 218  2372.573
 219  2433.559
 220  3013.467
 221  3441.146
 222  3287.396
 223  2996.073
 224  3211.615
 225  3438.41
 226  2658.562
 227  2591.531
 228  3229.949
 229  3035.512
 230  2985.759
 231  3039.948
 232  3020.838
 233  3320.095
 234  3340.978
 235  3275.839
 236  2986.074
 237  2897.872
 238  2920.708
 239  2960.979
 240  3264.628
 241  3254.974
 242  3173.459
 243  3076.585
 244  2754.125
 245  2623.29
 246  2636.369
 247  2702.921
 248  2943.189
 249  2816.513
 250  2678.941
 251  2368.067
 252  2875.668
 253  2769.782
 254  2887.647
 255  2401.12
 256  2266.973
 257  2137.505
 258  2011.474
 259  1914.004
 260  2401.718
 261  2599.266
 262  2241.903
 263  2236.418
 264  1990.511
 265  2005.288
 266  2553.098
 267  2252.19
 268  2284.558
 269  2654.531
 270  3015.699
 271  2956.834
 272  2928.046
 273  3035.993
 274  3192.681
 275  3394.175
 276  3336.981
 277  3130.462
 278  3670.452
 279  3486.814
 280  3172.024
 281  3482.631
 282  3629.34
 283  2698.166
 284  2406.078
 285  2382.643
 286  2629.414
 287  2746.565
 288  2927.538
 289  3113.718
 290  3112.799
 291  2127.495
 292  2137.055
 293  1980.633
 294  2287.599
 295  2340.261
 296  2104.65
 297  2053.583
 298  2213.578
 299  2573.324
 300  2668.011
 301  2686.846
 302  2704.038
 303  2886.298
 304  2670.631
 305  2157.177
 306  2709.37
 307  3129.865
 308  2371.052
 309  2622.548
 310  2540.28
 311  2620.844
 312  2786.273
 313  3274.442
 314  3545.009
 315  3314.273
 316  2815.53
 317  2754.3
 318  2792.451
 319  2674.228
 320  2472.449
 321  2717.684
 322  2977.401
 323  3069.626
 324  3166.68
 325  3334.886
 326  2770.893
 327  2271.281
 328  2368.154
 329  1806.684
 330  1813.459
 331  2289.663
 332  1488.882
 333  1184.877
 334  1212.965
 335  1305.905
 336  1807.537
 337  2065.657
 338  1791.663
 339  1627.413
 340  2015.371
 341  2262.471
 342  2574.595
 343  2692.943
 344  2465.624
 345  2368.783
 346  2113.323
 347  2504.819
 348  2098.92
 349  2427.166
 350  2392.258
 351  2751.261
 352  3356.255
 353  3295.591
 354  2860.88
 355  2913.838
 356  3281.23
 357  3444.031
 358  3410.442
 359  3011.401
 360  3217.927
 361  3514.384
 362  3060.668
 363  2809.81
 364  2888.289
 365  2839.336
 366  2633.997
 367  2650.372
 368  2728.954
 369  2746.647
 370  2482.645
 371  2118.89
 372  1927.98
 373  1661.743
 374  1950.282
 375  2598.944
 376  2684.234
 377  2347.814
 378  2569.347
 379  2254.333
 380  2585.541
 381  2172.594
 382  2358.41
 383  2396.598
 384  2644.369
 385  2832.714
 386  2516.492
 387  2115.475
 388  2086.381
 389  2572.653
 390  2697.42
 391  2655.217
 392  3030.411
 393  3041.305
 394  2662.671
 395  1987.213
 396  2390.019
 397  2709.468
 398  2436.825
 399  2205.09
 400  2183.431
 401  2405.565
 402  2422.316
 403  2997.092
 404  3128.914
 405  2819.067
 406  2649.958
 407  2497.322
 408  2866.128
 409  2959.841
 410  2769.796
 411  2640.703
 412  2273.589
 413  2498.836
 414  2226.746
 415  2120.668
 416  2126.67
 417  2150.911
 418  2081.337
 419  2162.984
 420  2394.123
 421  2688.439
 422  2612.843
 423  2396.039
 424  2447.812
 425  2309.973
 426  2376.603
 427  2446.219
 428  2577.78
 429  2376.993
 430  2494.103
 431  2502.781
 432  2515.292
 433  2416.701
 434  2418.556
 435  2408.127
 436  2380.425
 437  2395.416
 438  2334.476
 439  2716.652
 440  2507.285
 441  2166.177
 442  2670.58
 443  2844.486
 444  2423.028
 445  2209.93
 446  2397.098
 447  2025.733
 448  2278.034
 449  2351.264
 450  2379.431
 451  2235.232
 452  1968.437
 453  1847.918
 454  1647.01
 455  1565.181
 456  1361.678
 457  961.3398
 458  1394.486
 459  1348.086
 460  1479.27
 461  1903.707
 462  1794.561
 463  1753.228
 464  1503.819
 465  1324.68
 466  1120.27
 467  1769.93
 468  1705.141
 469  1959.819
 470  2347.438
 471  2418.252
 472  2124.826
 473  1994.339
 474  2558.765
 475  1889.581
 476  1874.927
 477  2549.773
 478  2651.707
 479  2563.632
 480  2898.695
 481  2272.879
 482  2049.804
 483  1727.503
 484  1463.339
 485  1497.139
 486  1835.006
 487  1293.585
 488  1619.212
 489  2002.373
 490  2065.935
 491  2393.911
 492  2550.682
 493  2420.213
 494  2860.083
 495  2164.503
 496  1926.911
 497  2555.449
 498  1823.003
 499  1564.826
 500  1545.728
 501  1853.118
 502  2036.649
 503  1768.459
 504  1925.271
 505  1992.89
 506  2379.662
 507  2459.071
 508  1717.606
 509  1822.552
 510  2017.705
 511  1777.711
