# Input file       =  1182577136.109246_cleaned.dat
# Candidate        =  PSR_0332+5434
# Telescope        =  AR
# Epoch_topo       =  57931.235591542201
# Epoch_bary       =  N/A
# T_sample         =  0.002
# Data Folded      =  7340032
# Data Avg         =  0.0268914633032193
# Data StdDev      =  0.999975662686494
# Profile Bins     =  512
# Profile Avg      =  385.461959558505 
# Profile StdDev   =  119.730122396323 
# Reduced chi-sqr  =  1.270
# Prob(Noise)      <  3.17e-05   (~4.0 sigma)
# P_topo (ms)      =  714.492341557464  +/- 0.000261
# P'_topo (s/s)    =  -0                +/- 1.38e-10
# P''_topo (s/s^2) =  0                 +/- 6.08e-14
# P_bary (ms)      =  N/A
# P'_bary (s/s)    =  N/A
# P''_bary (s/s^2) =  N/A
# P_orb (s)        =  N/A
# asin(i)/c (s)    =  N/A
# eccentricity     =  N/A
# w (rad)          =  N/A
# T_peri           =  N/A
######################################################
   0  472.3939
   1  402.9664
   2  407.4229
   3  372.1882
   4  375.369
   5  368.8355
   6  314.0849
   7  503.3714
   8  454.1439
   9  335.3329
  10  453.7119
  11  424.9409
  12  348.4064
  13  359.1649
  14  279.391
  15  169.5765
  16  205.086
  17  345.3694
  18  421.3336
  19  445.4678
  20  410.7475
  21  313.8502
  22  413.1831
  23  445.0677
  24  333.7147
  25  303.3222
  26  367.8339
  27  416.0225
  28  299.0431
  29  272.1547
  30  362.078
  31  347.986
  32  474.207
  33  360.4201
  34  380.4826
  35  403.3239
  36  321.318
  37  341.0309
  38  407.8828
  39  311.9887
  40  319.0184
  41  375.7109
  42  425.3493
  43  521.5334
  44  499.541
  45  390.0229
  46  329.0222
  47  443.2266
  48  320.6028
  49  361.1388
  50  352.0842
  51  310.1572
  52  363.71
  53  428.3242
  54  362.0801
  55  356.8452
  56  421.0278
  57  447.1866
  58  384.314
  59  369.7035
  60  365.9555
  61  390.3134
  62  290.2643
  63  441.1586
  64  380.0252
  65  328.7003
  66  362.8047
  67  368.2812
  68  367.728
  69  317.5056
  70  360.4276
  71  480.9287
  72  415.7004
  73  387.8103
  74  448.7821
  75  422.7366
  76  404.3466
  77  290.1388
  78  377.3441
  79  403.2195
  80  413.428
  81  277.2543
  82  279.9738
  83  399.1192
  84  517.0176
  85  455.0859
  86  466.7501
  87  693.5578
  88  737.3889
  89  685.2485
  90  772.5825
  91  874.0334
  92  935.0933
  93  1015.44
  94  841.5081
  95  663.6833
  96  516.1151
  97  443.2472
  98  508.1508
  99  429.0535
 100  413.3195
 101  446.0592
 102  386.8478
 103  355.3539
 104  491.4197
 105  391.7753
 106  403.6926
 107  485.3902
 108  552.15
 109  448.5512
 110  500.3355
 111  443.3635
 112  434.2526
 113  381.0678
 114  344.8892
 115  399.1476
 116  296.2702
 117  311.7844
 118  367.7475
 119  464.6975
 120  386.8271
 121  431.7999
 122  411.7301
 123  389.9765
 124  519.7302
 125  531.4427
 126  376.0935
 127  366.2623
 128  353.8611
 129  232.9105
 130  354.1664
 131  459.5364
 132  450.3091
 133  414.0657
 134  382.6747
 135  331.554
 136  310.3754
 137  357.7929
 138  400.0502
 139  429.052
 140  450.648
 141  432.5714
 142  535.3331
 143  517.6151
 144  424.8625
 145  450.342
 146  521.7551
 147  439.7014
 148  308.2274
 149  375.795
 150  421.3494
 151  306.1472
 152  273.5023
 153  261.5243
 154  324.4983
 155  474.1224
 156  365.8274
 157  382.1929
 158  465.1433
 159  428.2031
 160  380.499
 161  293.9182
 162  427.7632
 163  491.4789
 164  506.9676
 165  413.9507
 166  388.6988
 167  501.7523
 168  466.2029
 169  327.0078
 170  260.5215
 171  280.4313
 172  367.541
 173  311.4969
 174  356.994
 175  369.2073
 176  340.3654
 177  515.09
 178  467.0564
 179  448.1917
 180  390.998
 181  392.9502
 182  355.5108
 183  485.5165
 184  414.8061
 185  480.5578
 186  562.2015
 187  452.6727
 188  362.9879
 189  393.607
 190  384.0522
 191  374.7692
 192  354.6678
 193  368.0355
 194  396.856
 195  424.5587
 196  438.879
 197  441.6123
 198  393.7171
 199  364.0777
 200  374.6679
 201  542.2785
 202  425.8817
 203  352.0781
 204  485.1799
 205  534.5688
 206  544.1888
 207  483.2604
 208  390.9003
 209  243.2033
 210  447.0685
 211  508.7007
 212  469.7745
 213  555.5325
 214  618.6609
 215  388.0812
 216  399.1325
 217  441.9614
 218  352.6078
 219  415.3509
 220  529.7301
 221  370.3479
 222  390.6261
 223  399.7552
 224  389.8033
 225  481.1401
 226  493.7787
 227  373.3681
 228  274.9899
 229  423.9096
 230  439.3763
 231  522.1501
 232  448.2111
 233  454.5275
 234  381.0114
 235  318.6447
 236  228.8844
 237  227.0604
 238  277.8059
 239  179.5788
 240  253.1656
 241  339.024
 242  340.8828
 243  320.2996
 244  264.2767
 245  288.0497
 246  291.1143
 247  328.3821
 248  244.3712
 249  251.1006
 250  300.4977
 251  230.6602
 252  318.8197
 253  298.5176
 254  267.8864
 255  323.8348
 256  343.1554
 257  287.3288
 258  303.3962
 259  329.7886
 260  309.8197
 261  462.2114
 262  388.319
 263  377.4308
 264  253.1526
 265  355.2886
 266  403.5118
 267  482.5184
 268  477.1273
 269  402.9655
 270  347.1479
 271  374.6278
 272  276.6027
 273  353.451
 274  441.6284
 275  505.4962
 276  397.6149
 277  387.6228
 278  308.1492
 279  385.9048
 280  428.5902
 281  385.7414
 282  411.7668
 283  427.126
 284  258.3991
 285  257.3438
 286  270.9624
 287  287.2448
 288  365.5859
 289  351.3537
 290  288.7386
 291  298.8433
 292  305.0035
 293  314.0664
 294  264.3193
 295  340.0874
 296  507.0766
 297  468.8044
 298  395.1568
 299  380.1642
 300  369.1674
 301  414.6784
 302  380.6036
 303  419.0057
 304  389.7809
 305  483.8074
 306  526.3323
 307  478.914
 308  398.3578
 309  448.3103
 310  475.9446
 311  289.5994
 312  285.1005
 313  343.9763
 314  312.0544
 315  285.0117
 316  288.2513
 317  282.9537
 318  303.3036
 319  326.0401
 320  274.3784
 321  372.9154
 322  445.1204
 323  524.6923
 324  442.3525
 325  450.7838
 326  356.0171
 327  278.0584
 328  270.224
 329  249.6555
 330  313.6147
 331  318.8772
 332  347.672
 333  451.6229
 334  527.3756
 335  515.3434
 336  347.1042
 337  282.881
 338  266.5456
 339  404.5478
 340  496.6117
 341  567.9997
 342  512.0745
 343  381.6717
 344  396.716
 345  433.116
 346  460.052
 347  303.4159
 348  448.4903
 349  467.461
 350  349.1297
 351  262.223
 352  264.8966
 353  344.7086
 354  364.9241
 355  341.6284
 356  420.5775
 357  385.8026
 358  352.5139
 359  262.4522
 360  247.1185
 361  268.5929
 362  435.6171
 363  366.2596
 364  313.9239
 365  237.4757
 366  270.3655
 367  437.7566
 368  343.606
 369  360.8971
 370  315.9398
 371  319.9174
 372  508.9529
 373  389.8122
 374  319.748
 375  442.542
 376  426.2098
 377  387.8255
 378  361.6057
 379  261.3767
 380  259.4447
 381  346.7015
 382  483.2574
 383  281.9363
 384  154.8374
 385  292.0054
 386  348.8797
 387  383.7474
 388  327.6511
 389  354.3126
 390  402.0478
 391  358.6639
 392  419.0394
 393  339.6826
 394  437.0962
 395  347.2635
 396  329.7739
 397  280.6804
 398  320.7506
 399  392.5867
 400  397.3238
 401  376.1508
 402  359.7926
 403  345.6266
 404  338.6481
 405  410.3619
 406  390.5558
 407  341.5881
 408  351.4998
 409  186.5329
 410  368.0387
 411  373.5422
 412  407.8533
 413  559.675
 414  423.4383
 415  320.7848
 416  274.5441
 417  236.0362
 418  289.6746
 419  343.9481
 420  390.6736
 421  397.0314
 422  380.5153
 423  348.7185
 424  366.4473
 425  478.9759
 426  455.6226
 427  506.2151
 428  476.794
 429  526.6958
 430  469.524
 431  359.8184
 432  435.6846
 433  444.9613
 434  478.1008
 435  429.5266
 436  345.9992
 437  429.8377
 438  410.797
 439  516.0483
 440  497.6131
 441  370.1715
 442  365.3793
 443  497.8328
 444  547.0081
 445  553.6123
 446  461.1369
 447  411.8106
 448  364.6322
 449  336.1122
 450  361.5545
 451  352.1275
 452  326.5477
 453  396.8869
 454  338.8941
 455  295.2288
 456  288.7112
 457  270.4973
 458  298.8778
 459  298.2977
 460  177.523
 461  226.8195
 462  246.7616
 463  225.2805
 464  221.1546
 465  321.7465
 466  308.4771
 467  321.1994
 468  394.5226
 469  353.9547
 470  323.9353
 471  343.7282
 472  330.1102
 473  214.752
 474  218.8217
 475  160.7555
 476  318.1156
 477  357.9243
 478  329.3845
 479  345.8269
 480  312.8433
 481  285.4024
 482  225.2781
 483  281.4703
 484  417.5365
 485  324.627
 486  399.469
 487  376.1822
 488  453.1104
 489  513.4145
 490  512.6809
 491  364.1575
 492  243.5159
 493  387.5166
 494  396.6606
 495  385.4552
 496  365.3323
 497  421.2173
 498  409.9427
 499  295.6859
 500  357.5908
 501  361.9612
 502  280.7819
 503  297.674
 504  356.256
 505  435.3269
 506  383.1957
 507  375.6194
 508  333.7766
 509  339.1315
 510  461.647
 511  483.5229
