# Input file       =  1182334205.111209_cleaned.dat
# Candidate        =  PSR_0332+5434
# Telescope        =  AR
# Epoch_topo       =  57928.423890176033
# Epoch_bary       =  N/A
# T_sample         =  0.002
# Data Folded      =  7340032
# Data Avg         =  0.079476538574714
# Data StdDev      =  3.18251219860452 
# Profile Bins     =  1024
# Profile Avg      =  569.722101912134 
# Profile StdDev   =  269.444346301982 
# Reduced chi-sqr  =  1.134
# Prob(Noise)      <  0.00178   (~2.9 sigma)
# P_topo (ms)      =  714.495103417101  +/- 0.000218
# P'_topo (s/s)    =  -0                +/- 1.15e-10
# P''_topo (s/s^2) =  0                 +/- 5.09e-14
# P_bary (ms)      =  N/A
# P'_bary (s/s)    =  N/A
# P''_bary (s/s^2) =  N/A
# P_orb (s)        =  N/A
# asin(i)/c (s)    =  N/A
# eccentricity     =  N/A
# w (rad)          =  N/A
# T_peri           =  N/A
######################################################
   0  483.7388
   1  491.4044
   2  343.3741
   3  283.5703
   4  223.8912
   5  336.0183
   6  422.4408
   7  549.6808
   8  585.6071
   9  710.2373
  10  666.413
  11  660.7411
  12  599.1671
  13  644.1271
  14  682.0469
  15  638.0466
  16  535.4898
  17  497.9246
  18  539.5596
  19  592.874
  20  611.2797
  21  690.4702
  22  732.4334
  23  636.3941
  24  480.6109
  25  353.3634
  26  270.6896
  27  349.8903
  28  459.347
  29  557.7958
  30  618.5804
  31  688.7685
  32  722.4534
  33  673.2983
  34  668.9086
  35  650.209
  36  563.0604
  37  437.4353
  38  363.7842
  39  390.7319
  40  499.1995
  41  557.48
  42  571.155
  43  590.3184
  44  700.6866
  45  682.351
  46  693.7717
  47  731.6608
  48  871.1053
  49  829.6807
  50  814.9277
  51  613.1662
  52  513.649
  53  450.8139
  54  476.2085
  55  526.2963
  56  619.5148
  57  777.0139
  58  694.1187
  59  546.1177
  60  491.3298
  61  682.6432
  62  748.024
  63  724.6262
  64  653.6792
  65  679.8518
  66  755.5533
  67  690.6759
  68  616.3796
  69  510.8672
  70  509.716
  71  474.1123
  72  484.8943
  73  499.3457
  74  590.3355
  75  616.4627
  76  477.4356
  77  338.1924
  78  292.8368
  79  329.1126
  80  301.6719
  81  308.1646
  82  508.4153
  83  667.9241
  84  696.4291
  85  521.2348
  86  611.8362
  87  643.5315
  88  683.2756
  89  558.4421
  90  504.8036
  91  583.2938
  92  710.7811
  93  813.0875
  94  797.1907
  95  787.4629
  96  626.4893
  97  593.405
  98  691.2925
  99  727.0737
 100  679.7241
 101  686.1917
 102  726.6221
 103  788.7509
 104  752.111
 105  792.0085
 106  810.2115
 107  816.8397
 108  828.5732
 109  737.1794
 110  660.9049
 111  633.4304
 112  747.3938
 113  898.5906
 114  860.9287
 115  762.3477
 116  660.3456
 117  601.7952
 118  569.6832
 119  565.6718
 120  672.4783
 121  683.7101
 122  620.1777
 123  642.9412
 124  635.3306
 125  703.7419
 126  623.0776
 127  580.0535
 128  512.6004
 129  452.8027
 130  476.9297
 131  458.9987
 132  541.4983
 133  568.8902
 134  677.993
 135  690.2067
 136  664.344
 137  606.0897
 138  649.3552
 139  710.1039
 140  664.6536
 141  614.5747
 142  575.7035
 143  577.6575
 144  494.4218
 145  506.1987
 146  625.8705
 147  742.5038
 148  680.3914
 149  579.3002
 150  532.6464
 151  676.233
 152  730.2084
 153  817.8821
 154  724.024
 155  674.7214
 156  568.5566
 157  542.4373
 158  521.8043
 159  544.2906
 160  607.7925
 161  712.5574
 162  698.42
 163  648.576
 164  644.654
 165  691.7737
 166  636.5297
 167  526.5789
 168  529.258
 169  634.9558
 170  597.575
 171  560.4563
 172  480.6942
 173  508.6628
 174  562.6755
 175  650.7467
 176  706.0164
 177  623.9723
 178  559.9772
 179  529.9544
 180  649.6678
 181  733.4368
 182  775.6712
 183  678.1728
 184  729.345
 185  671.6702
 186  584.5843
 187  406.7204
 188  325.2935
 189  357.2963
 190  390.2488
 191  414.5658
 192  445.0135
 193  416.1282
 194  520.3052
 195  592.6658
 196  630.692
 197  543.5321
 198  555.8569
 199  585.1433
 200  542.8354
 201  349.8008
 202  258.1925
 203  290.5434
 204  479.806
 205  505.9313
 206  483.3101
 207  338.7867
 208  325.989
 209  293.2049
 210  443.2099
 211  548.9485
 212  536.2117
 213  499.2619
 214  505.0681
 215  586.5413
 216  433.39
 217  216.038
 218  153.4589
 219  232.5502
 220  375.6995
 221  423.4847
 222  541.822
 223  607.0573
 224  494.8801
 225  421.7338
 226  344.8067
 227  444.3067
 228  419.2811
 229  508.8736
 230  429.8162
 231  432.4823
 232  405.4335
 233  553.5059
 234  626.7375
 235  643.0745
 236  574.1511
 237  548.2892
 238  480.1253
 239  442.464
 240  503.6227
 241  610.2492
 242  632.9508
 243  513.4717
 244  427.3669
 245  440.3695
 246  567.9432
 247  484.906
 248  410.5908
 249  348.6234
 250  409.963
 251  379.5255
 252  497.4751
 253  439.6587
 254  372.2371
 255  251.5266
 256  243.3807
 257  340.6602
 258  420.9408
 259  517.9617
 260  542.4572
 261  659.2822
 262  635.9393
 263  612.8676
 264  449.833
 265  469.9474
 266  460.1148
 267  562.6419
 268  554.0974
 269  538.84
 270  546.348
 271  621.6589
 272  555.828
 273  520.2487
 274  470.4126
 275  480.2518
 276  420.4094
 277  365.2329
 278  318.9531
 279  259.6969
 280  268.7665
 281  383.5119
 282  391.9599
 283  340.3343
 284  309.3028
 285  424.8909
 286  518.765
 287  549.6168
 288  550.7096
 289  534.29
 290  486.0359
 291  365.7078
 292  312.4241
 293  355.9042
 294  552.2393
 295  495.16
 296  521.1987
 297  459.6241
 298  594.1573
 299  518.3292
 300  451.1181
 301  313.1867
 302  364.5206
 303  444.9631
 304  463.4274
 305  429.9286
 306  472.2527
 307  387.4583
 308  413.9345
 309  407.9779
 310  495.277
 311  450.5558
 312  465.3932
 313  562.4424
 314  585.5513
 315  558.4153
 316  436.4292
 317  347.8357
 318  336.104
 319  389.9919
 320  411.5924
 321  370.5043
 322  244.4187
 323  313.5123
 324  365.7292
 325  440.5576
 326  505.2378
 327  444.9307
 328  343.6039
 329  307.4224
 330  421.9716
 331  572.7346
 332  571.2314
 333  449.6186
 334  323.245
 335  313.1643
 336  432.1272
 337  380.2369
 338  411.6618
 339  435.5743
 340  540.915
 341  454.1324
 342  426.7256
 343  416.6418
 344  433.8275
 345  440.288
 346  363.5063
 347  339.486
 348  428.1646
 349  605.4692
 350  719.1519
 351  588.2236
 352  526.1218
 353  383.3542
 354  276.7505
 355  207.0026
 356  307.6861
 357  472.4635
 358  473.9778
 359  482.1385
 360  411.5053
 361  437.7846
 362  422.2334
 363  453.2883
 364  512.1035
 365  607.3466
 366  668.1758
 367  633.4586
 368  548.824
 369  567.6818
 370  590.3266
 371  576.3479
 372  491.1023
 373  500.8336
 374  600.27
 375  595.9638
 376  568.1678
 377  589.1246
 378  678.7401
 379  672.1821
 380  590.2255
 381  518.1753
 382  561.8537
 383  648.9462
 384  779.6699
 385  837.9493
 386  799.2081
 387  692.2071
 388  675.5112
 389  788.4661
 390  696.3621
 391  666.6633
 392  600.5276
 393  616.4257
 394  465.7013
 395  455.1523
 396  402.4498
 397  382.9345
 398  271.4175
 399  235.7626
 400  230.1548
 401  319.0613
 402  477.2019
 403  554.2764
 404  568.0767
 405  532.9986
 406  556.6422
 407  590.0365
 408  610.6707
 409  585.1908
 410  490.5185
 411  458.358
 412  509.2919
 413  577.5345
 414  605.3633
 415  524.263
 416  520.7866
 417  466.9905
 418  517.3417
 419  493.4943
 420  589.5947
 421  639.8085
 422  743.2157
 423  710.1392
 424  684.4899
 425  560.5251
 426  513.9651
 427  459.4503
 428  596.2946
 429  591.1218
 430  521.1755
 431  449.9021
 432  471.8334
 433  589.4201
 434  690.0173
 435  720.9332
 436  631.8731
 437  631.0039
 438  612.6946
 439  643.363
 440  439.1873
 441  303.8023
 442  317.1914
 443  461.0298
 444  647.9026
 445  673.4894
 446  556.2533
 447  432.6008
 448  346.9282
 449  426.3491
 450  464.0031
 451  533.321
 452  624.101
 453  614.6349
 454  647.9671
 455  557.8043
 456  496.5509
 457  536.0292
 458  574.3669
 459  552.638
 460  477.0337
 461  405.2766
 462  514.8494
 463  561.0872
 464  647.3123
 465  581.457
 466  602.7957
 467  650.6432
 468  688.7122
 469  676.1949
 470  616.9556
 471  508.6916
 472  420.0561
 473  466.2625
 474  576.0458
 475  508.4661
 476  545.8953
 477  605.4887
 478  724.1795
 479  584.9285
 480  520.3207
 481  479.6292
 482  579.437
 483  614.5129
 484  587.982
 485  554.6616
 486  481.03
 487  544.4455
 488  564.4012
 489  645.7665
 490  572.5894
 491  521.2266
 492  605.8621
 493  721.2491
 494  797.6487
 495  803.9103
 496  727.1443
 497  631.3259
 498  623.7474
 499  616.8401
 500  658.0932
 501  603.1124
 502  608.7629
 503  572.2018
 504  479.0259
 505  459.4654
 506  441.6931
 507  521.6835
 508  484.8077
 509  440.9655
 510  431.354
 511  393.119
 512  354.8508
 513  359.6385
 514  439.9757
 515  449.273
 516  469.3976
 517  386.9024
 518  369.7066
 519  334.3647
 520  480.3649
 521  471.0265
 522  479.2844
 523  439.2711
 524  500.3504
 525  546.3293
 526  458.4354
 527  410.3939
 528  379.6499
 529  389.7177
 530  476.4413
 531  571.2045
 532  624.8705
 533  665.4087
 534  574.5654
 535  510.364
 536  449.8447
 537  519.2117
 538  547.5819
 539  515.1162
 540  473.853
 541  543.9818
 542  609.5275
 543  696.4009
 544  656.4442
 545  736.0385
 546  713.3183
 547  645.8226
 548  646.1978
 549  602.2509
 550  564.4551
 551  447.2591
 552  523.4395
 553  454.6074
 554  376.9327
 555  406.8412
 556  522.3132
 557  567.1927
 558  605.5918
 559  614.9562
 560  633.0239
 561  661.6812
 562  681.066
 563  613.0121
 564  438.3998
 565  390.8584
 566  500.7423
 567  596.4799
 568  598.2521
 569  569.7702
 570  597.734
 571  586.5425
 572  625.3259
 573  608.7582
 574  579.0318
 575  534.3839
 576  540.5614
 577  683.9377
 578  747.8755
 579  763.5065
 580  674.6923
 581  680.3766
 582  752.4751
 583  629.2001
 584  549.8434
 585  522.6874
 586  619.2993
 587  736.0015
 588  787.3306
 589  766.5038
 590  659.3418
 591  541.6784
 592  452.6104
 593  501.194
 594  595.6595
 595  735.8069
 596  811.4749
 597  857.5972
 598  889.5947
 599  858.8668
 600  815.6752
 601  783.0804
 602  670.4213
 603  636.4315
 604  587.8885
 605  575.3943
 606  522.3713
 607  437.9198
 608  494.1064
 609  691.7123
 610  827.4171
 611  831.0685
 612  782.3649
 613  808.1018
 614  890.3282
 615  695.8005
 616  503.9431
 617  439.9927
 618  602.3932
 619  776.6826
 620  713.0374
 621  674.7937
 622  645.9011
 623  737.951
 624  687.182
 625  730.9985
 626  793.8445
 627  851.7463
 628  756.4191
 629  678.9479
 630  670.2975
 631  686.6682
 632  628.4857
 633  585.1343
 634  571.1495
 635  595.7104
 636  619.3185
 637  688.8066
 638  871.1541
 639  905.501
 640  867.9248
 641  809.5393
 642  713.3434
 643  621.877
 644  543.8552
 645  665.1202
 646  740.0038
 647  878.2317
 648  928.3214
 649  1114.029
 650  1186.201
 651  1239.243
 652  1265.094
 653  1410.421
 654  1503.672
 655  1442.747
 656  1514.345
 657  1471.68
 658  1404.104
 659  1238.634
 660  1167.726
 661  939.4738
 662  825.0662
 663  662.0829
 664  696.9432
 665  662.6174
 666  721.9533
 667  652.9436
 668  634.9009
 669  645.7828
 670  700.0731
 671  739.101
 672  683.7531
 673  664.8691
 674  504.5199
 675  496.5779
 676  656.4807
 677  794.8581
 678  836.5981
 679  873.9319
 680  771.9754
 681  794.1261
 682  704.0168
 683  735.6325
 684  642.7609
 685  595.3439
 686  619.7625
 687  718.8297
 688  721.6131
 689  725.7037
 690  768.3548
 691  814.8071
 692  743.9977
 693  568.482
 694  515.4812
 695  527.5715
 696  531.6093
 697  532.9385
 698  545.1011
 699  505.6145
 700  430.961
 701  522.6163
 702  620.9569
 703  783.9423
 704  734.3071
 705  723.064
 706  694.4731
 707  747.6753
 708  818.1357
 709  856.0437
 710  776.5337
 711  645.9612
 712  620.9552
 713  623.9081
 714  696.6982
 715  683.8038
 716  627.0678
 717  592.7473
 718  566.0125
 719  536.6096
 720  520.1812
 721  571.5822
 722  651.3095
 723  734.1148
 724  721.8938
 725  741.9183
 726  693.5834
 727  717.2482
 728  659.3712
 729  655.8654
 730  643.2824
 731  596.7309
 732  518.8243
 733  482.0629
 734  500.0354
 735  582.3768
 736  486.4305
 737  487.3776
 738  444.1128
 739  489.8602
 740  388.4302
 741  461.4731
 742  584.4954
 743  632.7029
 744  635.3331
 745  442.4702
 746  386.2038
 747  315.0022
 748  371.6569
 749  445.2046
 750  559.2233
 751  713.1498
 752  649.8077
 753  606.311
 754  498.5634
 755  513.448
 756  445.0902
 757  491.39
 758  624.3796
 759  800.9793
 760  863.8389
 761  765.8469
 762  740.441
 763  772.1475
 764  882.3403
 765  899.0684
 766  746.3597
 767  633.2489
 768  565.6756
 769  564.1672
 770  562.291
 771  633.7256
 772  766.1551
 773  721.0777
 774  639.1023
 775  625.9949
 776  677.4153
 777  750.748
 778  634.2495
 779  587.2418
 780  506.5453
 781  586.9917
 782  604.6462
 783  590.924
 784  662.8635
 785  809.7996
 786  828.0211
 787  801.2463
 788  666.2076
 789  639.0737
 790  658.1724
 791  633.8177
 792  634.0319
 793  494.9344
 794  600.6216
 795  629.7766
 796  710.4062
 797  667.2115
 798  654.2014
 799  688.6458
 800  692.1976
 801  708.8456
 802  583.0703
 803  528.8828
 804  493.3484
 805  451.4606
 806  508.4764
 807  555.3896
 808  628.5142
 809  572.2907
 810  608.928
 811  617.7368
 812  675.1912
 813  621.6613
 814  597.1364
 815  568.3701
 816  576.2572
 817  560.6292
 818  490.2551
 819  484.8315
 820  560.212
 821  656.3256
 822  631.7592
 823  506.9631
 824  485.3316
 825  666.9911
 826  851.7594
 827  887.6064
 828  728.4014
 829  551.8234
 830  526.2795
 831  527.6528
 832  496.2788
 833  444.8735
 834  470.5044
 835  433.0023
 836  467.3625
 837  445.2996
 838  499.9991
 839  498.0748
 840  590.7446
 841  575.7846
 842  614.8868
 843  664.5605
 844  671.7513
 845  633.3642
 846  561.0943
 847  472.7879
 848  399.959
 849  443.0366
 850  588.4557
 851  550.1497
 852  369.4996
 853  250.8383
 854  397.2613
 855  550.7037
 856  599.9373
 857  649.1112
 858  621.106
 859  524.077
 860  429.5826
 861  452.2127
 862  504.5974
 863  555.0975
 864  549.5577
 865  645.3627
 866  693.4383
 867  813.5731
 868  742.5399
 869  696.5203
 870  575.4999
 871  398.1404
 872  313.797
 873  295.2636
 874  407.2833
 875  524.3948
 876  672.4349
 877  737.3627
 878  665.5045
 879  620.5771
 880  632.5388
 881  742.3256
 882  680.485
 883  692.0565
 884  487.6599
 885  438.6294
 886  354.3828
 887  456.2102
 888  549.0706
 889  668.9216
 890  627.9822
 891  557.8971
 892  531.5109
 893  497.8068
 894  551.6979
 895  583.7407
 896  710.9785
 897  757.7084
 898  693.9085
 899  602.8152
 900  434.2041
 901  440.9854
 902  509.0913
 903  536.0421
 904  558.0251
 905  600.9848
 906  623.4773
 907  544.1857
 908  504.2228
 909  393.5747
 910  340.0961
 911  355.2735
 912  480.1266
 913  672.5462
 914  671.8555
 915  690.9132
 916  703.49
 917  712.5792
 918  576.8478
 919  485.3806
 920  457.2555
 921  480.0809
 922  478.1353
 923  531.8672
 924  543.7174
 925  425.4281
 926  352.0279
 927  296.7627
 928  390.005
 929  574.0113
 930  690.1244
 931  720.3231
 932  723.8574
 933  653.8777
 934  682.4194
 935  664.8708
 936  664.8253
 937  554.5375
 938  546.6073
 939  638.2726
 940  639.0222
 941  617.6296
 942  583.9731
 943  616.4795
 944  615.7443
 945  563.7904
 946  557.3712
 947  550.8445
 948  566.7031
 949  567.514
 950  559.6281
 951  481.9304
 952  432.9755
 953  439.8268
 954  401.789
 955  359.6391
 956  302.6135
 957  293.4306
 958  421.1665
 959  450.8418
 960  429.4952
 961  394.31
 962  506.3091
 963  678.8372
 964  693.23
 965  620.3489
 966  627.7418
 967  608.2263
 968  593.8549
 969  561.5022
 970  497.5908
 971  457.9393
 972  391.9535
 973  444.931
 974  454.0818
 975  487.8
 976  503.6873
 977  566.6368
 978  502.1067
 979  518.6905
 980  473.7833
 981  517.1985
 982  563.5726
 983  540.0059
 984  485.5778
 985  512.1893
 986  486.6745
 987  441.3451
 988  341.2299
 989  423.6696
 990  384.1511
 991  360.8215
 992  395.2453
 993  376.9319
 994  356.3508
 995  294.3139
 996  373.0215
 997  440.6336
 998  473.442
 999  438.3431
1000  507.0881
1001  499.3687
1002  455.8005
1003  332.7596
1004  405.305
1005  400.5918
1006  377.1646
1007  233.6292
1008  243.9389
1009  365.6569
1010  408.7883
1011  471.8763
1012  456.2947
1013  444.4133
1014  508.7721
1015  557.9476
1016  568.5203
1017  410.5325
1018  361.8837
1019  372.2534
1020  307.982
1021  305.4394
1022  323.9837
1023  453.2855
