# Input file       =  1182749466.114012_cleaned.dat
# Candidate        =  PSR_0332+5434
# Telescope        =  AR
# Epoch_topo       =  57933.230151782547
# Epoch_bary       =  N/A
# T_sample         =  0.002
# Data Folded      =  7340032
# Data Avg         =  0.026110046471501
# Data StdDev      =  1.00007077005679 
# Profile Bins     =  512
# Profile Avg      =  374.261296323767 
# Profile StdDev   =  119.74150989055  
# Reduced chi-sqr  =  1.164
# Prob(Noise)      <  0.006   (~2.5 sigma)
# P_topo (ms)      =  714.490677237552  +/- 4.24e-05
# P'_topo (s/s)    =  -0                +/- 2.24e-11
# P''_topo (s/s^2) =  0                 +/- 9.89e-15
# P_bary (ms)      =  N/A
# P'_bary (s/s)    =  N/A
# P''_bary (s/s^2) =  N/A
# P_orb (s)        =  N/A
# asin(i)/c (s)    =  N/A
# eccentricity     =  N/A
# w (rad)          =  N/A
# T_peri           =  N/A
######################################################
   0  319.5956
   1  226.3516
   2  291.1992
   3  395.4405
   4  351.5529
   5  315.1866
   6  404.2447
   7  306.137
   8  299.6705
   9  311.4958
  10  366.9046
  11  345.6011
  12  281.1241
  13  310.2208
  14  227.9984
  15  159.4876
  16  238.8479
  17  314.9841
  18  177.7998
  19  192.148
  20  277.4093
  21  356.2395
  22  406.4129
  23  275.2715
  24  264.6256
  25  300.3333
  26  388.9749
  27  379.9824
  28  389.0157
  29  393.739
  30  307.5722
  31  410.5836
  32  399.2213
  33  364.8145
  34  389.972
  35  469.1393
  36  452.3666
  37  454.4353
  38  321.0946
  39  370.9596
  40  429.1823
  41  286.1327
  42  294.1888
  43  341.4893
  44  324.8864
  45  388.6396
  46  259.4135
  47  363.3576
  48  387.4455
  49  389.7599
  50  322.3101
  51  235.3427
  52  440.832
  53  458.1179
  54  349.5203
  55  439.4662
  56  366.3607
  57  369.9995
  58  385.1269
  59  413.3123
  60  407.7778
  61  334.2672
  62  403.3739
  63  504.8945
  64  516.4611
  65  289.8429
  66  282.4063
  67  302.4974
  68  406.3382
  69  402.558
  70  475.7904
  71  434.2122
  72  366.7852
  73  464.0907
  74  398.2213
  75  348.9778
  76  312.7625
  77  388.0293
  78  373.017
  79  461.2336
  80  422.9903
  81  219.7155
  82  145.0807
  83  299.0141
  84  335.7914
  85  293.067
  86  323.6261
  87  421.3288
  88  487.6909
  89  346.2224
  90  215.6818
  91  229.3545
  92  381.6017
  93  367.0041
  94  339.1807
  95  407.5676
  96  216.9327
  97  327.3064
  98  418.0344
  99  427.5173
 100  510.6331
 101  558.2109
 102  586.678
 103  450.0096
 104  294.382
 105  229.483
 106  329.922
 107  428.4751
 108  444.5562
 109  449.3865
 110  428.9539
 111  516.99
 112  535.384
 113  454.7853
 114  339.0081
 115  479.3372
 116  502.5327
 117  359.3075
 118  319.6939
 119  363.3415
 120  413.8007
 121  498.5488
 122  511.3422
 123  374.3334
 124  277.2544
 125  379.0261
 126  324.5032
 127  345.5936
 128  377.0293
 129  377.8006
 130  414.8364
 131  349.7823
 132  300.9211
 133  337.0172
 134  223.0078
 135  297.7672
 136  366.5592
 137  379.5425
 138  346.3168
 139  311.8959
 140  266.6736
 141  373.7933
 142  389.1541
 143  405.2219
 144  325.1208
 145  266.4592
 146  385.4725
 147  329.2775
 148  309.9142
 149  406.7798
 150  361.6936
 151  448.0149
 152  258.8685
 153  298.6237
 154  341.3828
 155  468.0562
 156  398.0716
 157  141.9425
 158  273.2544
 159  387.7591
 160  400.4374
 161  323.1783
 162  306.9133
 163  450.8233
 164  399.2892
 165  343.4718
 166  363.6077
 167  266.759
 168  331.2464
 169  436.2816
 170  423.8504
 171  313.9078
 172  358.5818
 173  370.8054
 174  332.5439
 175  334.7116
 176  340.6964
 177  259.4375
 178  265.9686
 179  300.8971
 180  323.0158
 181  288.9669
 182  400.3366
 183  416.145
 184  247.9059
 185  221.1931
 186  291.1154
 187  298.4084
 188  375.8311
 189  346.7371
 190  223.8872
 191  356.9415
 192  496.9863
 193  482.6071
 194  422.981
 195  305.5628
 196  342.2832
 197  411.6158
 198  405.6744
 199  614.9049
 200  461.0573
 201  445.2185
 202  448.589
 203  479.336
 204  442.6854
 205  463.4976
 206  519.4959
 207  499.3286
 208  434.8214
 209  382.6028
 210  402.844
 211  421.3671
 212  322.7733
 213  303.8793
 214  323.0807
 215  277.8783
 216  460.187
 217  490.1196
 218  491.7508
 219  411.8006
 220  396.2804
 221  410.7924
 222  383.2533
 223  391.9396
 224  341.1283
 225  367.2276
 226  447.8214
 227  488.8949
 228  373.4985
 229  361.5648
 230  239.5243
 231  361.9145
 232  464.8898
 233  399.952
 234  313.5005
 235  399.0198
 236  504.232
 237  476.5691
 238  402.7458
 239  331.2617
 240  447.9757
 241  503.4388
 242  410.7053
 243  322.6562
 244  340.5512
 245  354.3527
 246  380.7076
 247  342.7159
 248  377.3958
 249  487.3914
 250  517.3334
 251  452.2131
 252  265.3195
 253  327.4887
 254  457.5306
 255  354.815
 256  407.7175
 257  302.5218
 258  334.4602
 259  311.5291
 260  318.0324
 261  335.1894
 262  397.9737
 263  421.7942
 264  431.0152
 265  378.5647
 266  459.1474
 267  388.4172
 268  370.455
 269  397.6367
 270  438.923
 271  409.2877
 272  405.0568
 273  509.974
 274  540.1934
 275  472.0879
 276  413.2193
 277  438.2689
 278  419.675
 279  276.9416
 280  336.8752
 281  365.7523
 282  329.1798
 283  440.7973
 284  467.6427
 285  470.4005
 286  273.7688
 287  351.1701
 288  488.3197
 289  414.281
 290  360.7775
 291  352.1921
 292  385.9448
 293  407.5889
 294  513.2248
 295  298.0937
 296  272.0997
 297  285.3294
 298  296.1869
 299  334.3676
 300  252.5317
 301  288.9372
 302  418.6859
 303  406.6824
 304  427.264
 305  421.3743
 306  395.1123
 307  427.8569
 308  433.641
 309  395.1258
 310  370.4487
 311  246.1589
 312  293.6944
 313  345.3149
 314  419.7728
 315  403.8034
 316  304.6546
 317  390.9008
 318  387.0285
 319  325.0484
 320  421.1298
 321  457.0972
 322  457.0087
 323  441.6086
 324  491.9495
 325  418.8392
 326  420.0862
 327  464.2738
 328  437.6892
 329  428.2581
 330  210.5431
 331  253.5204
 332  423.8684
 333  500.5721
 334  391.4149
 335  445.8081
 336  396.7572
 337  320.7523
 338  338.4322
 339  426.6373
 340  486.0499
 341  466.7753
 342  500.315
 343  519.1117
 344  358.5217
 345  281.0327
 346  246.2493
 347  401.294
 348  250.9354
 349  325.5963
 350  342.2624
 351  459.0986
 352  366.9969
 353  260.3684
 354  280.5288
 355  263.8961
 356  245.4671
 357  239.9022
 358  198.0456
 359  183.4412
 360  284.4604
 361  344.7103
 362  148.5122
 363  150.1025
 364  245.714
 365  344.7508
 366  330.5052
 367  302.6193
 368  342.6923
 369  452.0517
 370  398.935
 371  425.2785
 372  480.1453
 373  320.8219
 374  177.0174
 375  381.7865
 376  400.2486
 377  381.426
 378  402.1829
 379  416.3566
 380  435.5019
 381  329.605
 382  291.5532
 383  399.6844
 384  392.5634
 385  391.6619
 386  406.176
 387  411.7296
 388  509.4859
 389  726.877
 390  824.022
 391  794.2404
 392  889.26
 393  911.2521
 394  650.7462
 395  535.3254
 396  458.4903
 397  299.9617
 398  356.0715
 399  473.3422
 400  520.1849
 401  395.5557
 402  375.7959
 403  433.9813
 404  459.9846
 405  282.2108
 406  187.4796
 407  344.79
 408  535.6685
 409  414.425
 410  272.0224
 411  239.371
 412  315.487
 413  397.8165
 414  427.8596
 415  426.6281
 416  504.944
 417  357.5774
 418  414.6223
 419  434.9996
 420  337.5531
 421  267.2245
 422  297.9635
 423  453.9709
 424  474.3925
 425  340.016
 426  383.9627
 427  389.9265
 428  425.7414
 429  428.922
 430  362.6801
 431  388.789
 432  413.4366
 433  403.4517
 434  261.6409
 435  314.1211
 436  294.984
 437  394.4137
 438  436.0248
 439  285.08
 440  173.003
 441  376.0472
 442  427.305
 443  405.7554
 444  404.1518
 445  433.6537
 446  330.2785
 447  335.4025
 448  427.1896
 449  459.6279
 450  385.4185
 451  367.3942
 452  429.7264
 453  395.9822
 454  240.3126
 455  329.3962
 456  384.4032
 457  413.7539
 458  322.3563
 459  286.3067
 460  409.3512
 461  372.5273
 462  269.5292
 463  204.5593
 464  285.9914
 465  324.124
 466  436.0121
 467  355.8949
 468  188.8613
 469  146.1777
 470  276.4447
 471  483.9529
 472  393.5267
 473  280.1888
 474  307.9302
 475  403.2001
 476  455.591
 477  320.8665
 478  209.3663
 479  283.7888
 480  376.5177
 481  323.9673
 482  273.1357
 483  324.7446
 484  343.9852
 485  351.9893
 486  274.6785
 487  220.7887
 488  290.7227
 489  424.9081
 490  483.2427
 491  494.5329
 492  431.9194
 493  283.6333
 494  286.7302
 495  396.7376
 496  397.3608
 497  423.997
 498  360.7808
 499  433.574
 500  492.9145
 501  490.0639
 502  389.89
 503  364.3663
 504  462.5939
 505  442.9904
 506  327.8851
 507  322.3858
 508  346.0851
 509  517.4304
 510  313.1699
 511  254.7101
