# Input file       =  1182419751.099498_cleaned.dat
# Candidate        =  PSR_0332+5434
# Telescope        =  AR
# Epoch_topo       =  57929.414005781226
# Epoch_bary       =  N/A
# T_sample         =  0.002
# Data Folded      =  7340032
# Data Avg         =  0.0187679154939202
# Data StdDev      =  1.00011115895106 
# Profile Bins     =  512
# Profile Avg      =  269.099053830195 
# Profile StdDev   =  119.746345775497 
# Reduced chi-sqr  =  1.325
# Prob(Noise)      <  1.05e-06   (~4.7 sigma)
# P_topo (ms)      =  714.494229482875  +/- 0.00017
# P'_topo (s/s)    =  -0                +/- 8.99e-11
# P''_topo (s/s^2) =  0                 +/- 3.97e-14
# P_bary (ms)      =  N/A
# P'_bary (s/s)    =  N/A
# P''_bary (s/s^2) =  N/A
# P_orb (s)        =  N/A
# asin(i)/c (s)    =  N/A
# eccentricity     =  N/A
# w (rad)          =  N/A
# T_peri           =  N/A
######################################################
   0  990.0605
   1  937.8139
   2  588.1697
   3  323.0761
   4  250.8505
   5  238.6387
   6  243.4004
   7  266.2677
   8  194.0445
   9  287.355
  10  284.7389
  11  268.1291
  12  322.4419
  13  363.0728
  14  403.1384
  15  324.6138
  16  247.6423
  17  254.3447
  18  299.3503
  19  300.1776
  20  161.0374
  21  188.4111
  22  346.6219
  23  328.2409
  24  294.8394
  25  273.1829
  26  306.6067
  27  264.942
  28  336.4736
  29  281.757
  30  187.5056
  31  310.4174
  32  229.7273
  33  317.1773
  34  422.0179
  35  287.108
  36  285.6237
  37  379.7708
  38  370.985
  39  283.0503
  40  278.2967
  41  375.7593
  42  290.9309
  43  273.5923
  44  306.1294
  45  355.597
  46  309.826
  47  221.3017
  48  285.8026
  49  339.4689
  50  317.0655
  51  170.807
  52  216.0409
  53  274.304
  54  298.8071
  55  372.3842
  56  433.4541
  57  423.4746
  58  299.4027
  59  262.3367
  60  193.0108
  61  162.6927
  62  279.0549
  63  386.6263
  64  340.1
  65  281.8518
  66  304.4868
  67  201.6748
  68  176.1198
  69  125.5708
  70  156.094
  71  192.6034
  72  219.2139
  73  235.6439
  74  318.5496
  75  264.2832
  76  394.1936
  77  280.5483
  78  252.4612
  79  268.7723
  80  277.7382
  81  327.2181
  82  321.6922
  83  273.3192
  84  281.9466
  85  415.3507
  86  251.6016
  87  223.168
  88  271.3777
  89  241.5008
  90  270.2577
  91  344.0038
  92  460.1478
  93  353.5961
  94  126.6668
  95  54.68551
  96  227.5876
  97  190.1677
  98  224.8895
  99  248.973
 100  321.9882
 101  372.3532
 102  353.1806
 103  272.0826
 104  332.873
 105  316.7294
 106  317.6646
 107  304.675
 108  289.4041
 109  308.634
 110  302.6721
 111  338.0551
 112  401.5802
 113  282.3657
 114  276.6906
 115  248.1424
 116  228.9954
 117  409.041
 118  330.7474
 119  296.7778
 120  301.3267
 121  271.7908
 122  309.0397
 123  345.9583
 124  274.4679
 125  406.8814
 126  398.9022
 127  357.2875
 128  333.9454
 129  229.4621
 130  183.7306
 131  249.9038
 132  310.2586
 133  251.3112
 134  196.5873
 135  402.9033
 136  342.3771
 137  235.9612
 138  179.9259
 139  155.866
 140  284.1525
 141  200.7273
 142  154.6408
 143  205.7856
 144  246.8013
 145  256.4327
 146  295.4654
 147  237.5329
 148  218.3651
 149  215.4333
 150  246.2813
 151  249.0422
 152  153.2126
 153  75.86168
 154  223.8059
 155  131.1319
 156  272.8194
 157  218.0711
 158  97.04391
 159  169.5117
 160  168.7424
 161  166.1368
 162  179.0485
 163  206.238
 164  205.755
 165  236.0463
 166  294.5891
 167  155.1135
 168  187.8472
 169  156.1855
 170  143.3403
 171  51.28869
 172  14.8712
 173  154.1878
 174  147.3516
 175  275.9705
 176  316.8667
 177  92.84628
 178  -46.83427
 179  147.5656
 180  171.6311
 181  198.739
 182  278.0023
 183  313.4195
 184  331.349
 185  194.4851
 186  126.8738
 187  206.8131
 188  288.572
 189  197.8139
 190  180.8848
 191  266.5079
 192  279.1933
 193  272.496
 194  290.4482
 195  384.325
 196  287.9015
 197  242.7673
 198  241.4964
 199  162.876
 200  199.9187
 201  187.6393
 202  228.8794
 203  270.4629
 204  282.0306
 205  220.7985
 206  226.8049
 207  172.4242
 208  202.797
 209  211.6852
 210  252.8661
 211  260.3151
 212  215.3739
 213  182.4811
 214  141.6173
 215  129.9244
 216  231.1335
 217  228.6262
 218  108.0449
 219  223.7316
 220  259.9004
 221  150.6076
 222  145.1955
 223  224.1605
 224  221.0026
 225  353.7034
 226  331.62
 227  216.4904
 228  236.2849
 229  200.3508
 230  198.9941
 231  188.8004
 232  311.7917
 233  239.2525
 234  268.8123
 235  235.1191
 236  240.9797
 237  194.1169
 238  156.5616
 239  172.4512
 240  226.2747
 241  308.3207
 242  247.4913
 243  362.5298
 244  341.7895
 245  327.1154
 246  240.1278
 247  272.218
 248  348.5887
 249  365.1846
 250  332.177
 251  276.1217
 252  361.7354
 253  321.2746
 254  334.0209
 255  274.26
 256  259.2878
 257  273.4902
 258  317.8116
 259  282.3427
 260  176.2495
 261  234.8074
 262  298.4029
 263  325.9025
 264  136.7279
 265  244.1009
 266  369.6502
 267  238.9077
 268  136.7205
 269  254.1491
 270  234.2638
 271  186.2638
 272  241.4401
 273  271.9239
 274  341.9277
 275  358.788
 276  353.2743
 277  300.2227
 278  334.0806
 279  322.0951
 280  337.2815
 281  379.166
 282  297.9086
 283  211.1076
 284  160.307
 285  250.978
 286  212.0152
 287  254.4943
 288  148.1081
 289  117.7467
 290  257.6766
 291  237.646
 292  250.3894
 293  132.1318
 294  159.1738
 295  270.7423
 296  297.0026
 297  450.7934
 298  455.8198
 299  287.4248
 300  254.6192
 301  215.3465
 302  300.1488
 303  338.8464
 304  416.4669
 305  314.2564
 306  227.6067
 307  365.4959
 308  346.5813
 309  224.2502
 310  227.7131
 311  249.5694
 312  247.1057
 313  338.9684
 314  263.0426
 315  172.6379
 316  348.4049
 317  344.4893
 318  282.9814
 319  262.4218
 320  278.0315
 321  260.5237
 322  195.438
 323  304.9273
 324  441.4562
 325  299.8528
 326  367.7992
 327  527.1268
 328  291.3321
 329  174.621
 330  178.626
 331  273.0278
 332  231.0094
 333  326.7213
 334  295.0658
 335  183.3849
 336  118.4477
 337  136.7936
 338  244.8304
 339  175.1845
 340  167.6086
 341  48.68353
 342  106.9937
 343  160.6718
 344  202.5971
 345  263.2605
 346  140.7869
 347  127.6011
 348  205.6143
 349  169.535
 350  145.5979
 351  187.5358
 352  268.0298
 353  261.9001
 354  328.0522
 355  139.382
 356  184.8336
 357  259.0444
 358  255.9609
 359  257.9311
 360  257.2572
 361  244.9272
 362  108.9069
 363  90.0077
 364  195.0187
 365  239.8327
 366  218.352
 367  184.3023
 368  153.7661
 369  111.5817
 370  200.0243
 371  186.7979
 372  171.7857
 373  107.6175
 374  233.2456
 375  222.009
 376  301.2859
 377  328.4892
 378  239.0723
 379  266.256
 380  217.8264
 381  326.739
 382  378.5618
 383  267.0035
 384  271.2986
 385  357.076
 386  317.359
 387  286.9395
 388  269.5677
 389  247.0722
 390  222.2771
 391  321.9558
 392  309.7336
 393  226.528
 394  318.2768
 395  298.2838
 396  178.3356
 397  310.5126
 398  377.0657
 399  261.7744
 400  248.5453
 401  208.5511
 402  324.729
 403  397.1367
 404  324.289
 405  289.3588
 406  181.0004
 407  222.1881
 408  244.754
 409  236.5854
 410  258.9163
 411  344.0015
 412  429.6382
 413  277.3021
 414  174.3715
 415  227.0411
 416  288.0949
 417  393.4068
 418  318.8824
 419  291.3576
 420  258.021
 421  271.0546
 422  315.0088
 423  368.0627
 424  288.442
 425  132.1135
 426  140.4465
 427  263.0112
 428  305.4723
 429  270.9739
 430  293.8896
 431  226.7809
 432  238.2902
 433  353.3945
 434  293.6952
 435  317.0421
 436  264.9347
 437  254.2939
 438  337.951
 439  308.8475
 440  383.0807
 441  241.4072
 442  193.4283
 443  248.3953
 444  286.2451
 445  297.3104
 446  225.9807
 447  246.1364
 448  274.1541
 449  185.3802
 450  125.039
 451  171.9183
 452  170.3391
 453  191.1767
 454  215.5931
 455  444.1209
 456  462.2234
 457  349.8516
 458  302.4197
 459  301.4182
 460  288.017
 461  286.8261
 462  258.3448
 463  374.4599
 464  205.1225
 465  247.2551
 466  385.2578
 467  295.6934
 468  149.122
 469  190.0444
 470  172.3655
 471  267.4868
 472  375.4469
 473  279.3429
 474  184.4603
 475  249.3222
 476  369.3258
 477  366.3033
 478  351.5864
 479  238.8069
 480  340.4782
 481  367.787
 482  312.0717
 483  266.748
 484  259.4874
 485  260.2549
 486  272.1575
 487  264.8233
 488  199.9951
 489  193.8988
 490  258.4971
 491  378.6564
 492  313.6165
 493  229.6001
 494  253.8406
 495  252.3941
 496  272.7377
 497  282.1006
 498  384.1122
 499  351.1788
 500  251.7235
 501  337.7008
 502  441.5118
 503  344.6776
 504  351.761
 505  445.7534
 506  316.2149
 507  407.2268
 508  556.5358
 509  705.6984
 510  785.2944
 511  881.4201
