# Input file       =  1182243875.126810-PSRB0329-2ms-sampling-dd.dat
# Candidate        =  PSR_0332+5434
# Telescope        =  AR
# Epoch_topo       =  57927.378404245486
# Epoch_bary       =  N/A
# T_sample         =  0.002
# Data Folded      =  7340032
# Data Avg         =  4.89777688564971e-09
# Data StdDev      =  152.453168136712 
# Profile Bins     =  512
# Profile Avg      =  -0.00902429771002761
# Profile StdDev   =  18253.6807262662 
# Reduced chi-sqr  =  0.785
# Prob(Noise)      <  1   (~0.0 sigma)
# P_topo (ms)      =  714.495908519743  +/- 0.000295
# P'_topo (s/s)    =  -0                +/- 1.56e-10
# P''_topo (s/s^2) =  0                 +/- 6.87e-14
# P_bary (ms)      =  N/A
# P'_bary (s/s)    =  N/A
# P''_bary (s/s^2) =  N/A
# P_orb (s)        =  N/A
# asin(i)/c (s)    =  N/A
# eccentricity     =  N/A
# w (rad)          =  N/A
# T_peri           =  N/A
######################################################
   0  -1933.157
   1  -4004.201
   2  -7262.582
   3  -8859.757
   4  -10268.61
   5  -12278.68
   6  -13656.54
   7  -13677.35
   8  -14402.11
   9  -14414.22
  10  -14286.29
  11  -14722.41
  12  -14558.76
  13  -14434.07
  14  -14348.81
  15  -14030.85
  16  -14353.24
  17  -14273.84
  18  -13615.96
  19  -13759.04
  20  -13915.36
  21  -11613.75
  22  -13781.04
  23  -12394.61
  24  -8823.363
  25  -5360.294
  26  -3269.501
  27  -484.1779
  28  -817.275
  29  -387.7359
  30  16.12388
  31  3077.222
  32  5625.27
  33  6804.311
  34  7406.382
  35  9678.124
  36  10578.77
  37  9858.175
  38  14646.04
  39  17161.87
  40  18140.09
  41  14313.76
  42  13645.01
  43  12532.84
  44  10004.82
  45  11199.61
  46  12871.69
  47  13630.92
  48  16745.24
  49  19079.02
  50  21445.05
  51  25202.79
  52  28095.21
  53  29241.84
  54  30664.21
  55  30750.86
  56  29977.09
  57  28046.45
  58  22536.26
  59  19629.55
  60  16816.17
  61  12939.78
  62  8097.229
  63  5272.256
  64  760.4965
  65  -4890.614
  66  -5776.215
  67  -6343.319
  68  -5382.166
  69  -2880.613
  70  -1101.912
  71  2294.596
  72  5469.245
  73  7628.206
  74  11425.53
  75  14770.86
  76  16268.12
  77  17480.44
  78  18616.31
  79  18668.15
  80  19157.46
  81  19309.9
  82  18450.41
  83  18210
  84  17365.32
  85  15367.85
  86  15358.84
  87  14309.92
  88  13395.13
  89  13776.41
  90  13582.35
  91  11830.24
  92  11438.26
  93  9904.144
  94  7708.731
  95  5530.487
  96  2936.864
  97  36.6091
  98  -1998.849
  99  -3688.691
 100  -5333.932
 101  -6438.835
 102  -5803.014
 103  -6328.555
 104  -6934.289
 105  -6393.86
 106  -5811.335
 107  -5618.184
 108  -4655.479
 109  -3201.379
 110  -3271.835
 111  -3966.619
 112  -3749.683
 113  -1173.652
 114  1358.493
 115  3421.657
 116  3200.23
 117  2116.382
 118  -636.6858
 119  694.2643
 120  3692.96
 121  9118.316
 122  9703.854
 123  11195.85
 124  13351.99
 125  14080.31
 126  15431.79
 127  15810.41
 128  15495.47
 129  15499.69
 130  14354.34
 131  11388.49
 132  14186.62
 133  13220.41
 134  9609.526
 135  7627.506
 136  5819.902
 137  5513.628
 138  8369.865
 139  4934.59
 140  2368.341
 141  -246.4639
 142  387.4171
 143  -232.5678
 144  -80.78004
 145  -351.2981
 146  -1834.67
 147  -2332.921
 148  -2671.811
 149  -3124.844
 150  -3220.657
 151  -3255.071
 152  -4421.69
 153  -3631.503
 154  -3670.985
 155  -3849.095
 156  -2294.425
 157  -1542.251
 158  3028.131
 159  4719.138
 160  4484.378
 161  2160.853
 162  2097.863
 163  842.0402
 164  -788.5482
 165  -992.6782
 166  -2063.419
 167  -2727.621
 168  -3211.971
 169  -4423.424
 170  -4792.756
 171  -5067.607
 172  -5775.678
 173  -5306.4
 174  -5361.293
 175  -5757.56
 176  -6227.373
 177  -6962.845
 178  -8728.853
 179  -9632.898
 180  -10672.38
 181  -11623.62
 182  -12437.85
 183  -13439.66
 184  -12342.06
 185  -10730.24
 186  -9197.562
 187  -6359.199
 188  -3063.322
 189  391.9952
 190  5504.088
 191  11492.27
 192  15622.2
 193  19538.11
 194  26475.47
 195  30036.79
 196  32374.52
 197  34407.62
 198  34835.65
 199  34896.58
 200  33727.01
 201  30703.21
 202  28457.71
 203  24838.21
 204  20784.54
 205  16462.26
 206  12788.97
 207  7515.117
 208  8050.905
 209  5847.638
 210  3407.039
 211  -488.5227
 212  -428.7557
 213  175.4432
 214  252.535
 215  -662.6262
 216  -800.3679
 217  -2548.175
 218  -3458.874
 219  -4771.873
 220  -6631.963
 221  -7494.879
 222  -8545.538
 223  -10960.43
 224  -11304.63
 225  -11691.25
 226  -12824.41
 227  -10483.71
 228  -8905.639
 229  -11172.87
 230  -866.1587
 231  7334.503
 232  18073.52
 233  21025.95
 234  21956.63
 235  21782.5
 236  19181.88
 237  14965.03
 238  10245.26
 239  7120.969
 240  10738.7
 241  13074.67
 242  6405.732
 243  -193.5691
 244  -2395.494
 245  -4387.021
 246  -1675.505
 247  -1035.976
 248  -1326.531
 249  -1410.435
 250  -1975.197
 251  -3343.387
 252  -3609.847
 253  -3976.846
 254  -5331.82
 255  -5701.073
 256  -3308.377
 257  503.5952
 258  320.6477
 259  -2476.667
 260  -2333.425
 261  -2921.879
 262  -2339.661
 263  2774.574
 264  9592.086
 265  12227.62
 266  12890.38
 267  14081.87
 268  13082.6
 269  11969.36
 270  12014.78
 271  10102.58
 272  8581.221
 273  5083.976
 274  1766.783
 275  658.2121
 276  -958.0488
 277  -2834.362
 278  -3721.887
 279  -3724.141
 280  -4809.647
 281  -4888.94
 282  -6027.445
 283  -7153.745
 284  -7401.437
 285  -7568.667
 286  -8076.828
 287  -9067.223
 288  -9483.385
 289  -11148.34
 290  -12658.96
 291  -11420.34
 292  -10469.84
 293  -9225.876
 294  -8709.729
 295  -8510.046
 296  -7339.799
 297  -7697.945
 298  -8262.102
 299  1364.047
 300  3408.346
 301  3858.359
 302  -5608.496
 303  -5763.912
 304  -5930.269
 305  -4952.804
 306  -3542.475
 307  -3487.097
 308  -2773.96
 309  -4805.39
 310  -4164.368
 311  -4294.761
 312  -4162.854
 313  -3984.206
 314  -4018.809
 315  -4293.122
 316  -5307.715
 317  -6862.444
 318  -7335.916
 319  -8061.961
 320  -8688.419
 321  -9579.886
 322  -10538.14
 323  -9504.362
 324  -8186.61
 325  -6643.339
 326  -4657.894
 327  -2556.82
 328  -228.7517
 329  2524.864
 330  4836.226
 331  6068.15
 332  8739.102
 333  10600.84
 334  10809.6
 335  11975.33
 336  13128.7
 337  14535.29
 338  16167.78
 339  16774.78
 340  16907.21
 341  16090.83
 342  16198.71
 343  16436.51
 344  16190.46
 345  15857
 346  15656.36
 347  15021.88
 348  14633.42
 349  14488.37
 350  12373.91
 351  8201.859
 352  -673.1922
 353  -1516.643
 354  -2502.251
 355  -5101.656
 356  -5947.128
 357  -6934.149
 358  -8867.783
 359  -10067.52
 360  -11882.12
 361  -13429.9
 362  -15211.55
 363  -17239.76
 364  -18973.22
 365  -20282.7
 366  -20040.58
 367  -18676.99
 368  -18433.22
 369  -16995.49
 370  -14369.6
 371  -12668.16
 372  -10462.38
 373  -12301.98
 374  -10459.76
 375  -7703.773
 376  -5608.646
 377  -3825.502
 378  -1838.063
 379  -432.3476
 380  221.4265
 381  1557.776
 382  1983.176
 383  1019.502
 384  135.0971
 385  -1254.857
 386  -1935.113
 387  -3098.065
 388  -5900.972
 389  -7080.054
 390  -8245.823
 391  -10267.93
 392  -11703.64
 393  -12609.11
 394  -13583.35
 395  -13527.95
 396  -14752.73
 397  -15885.84
 398  -16720.99
 399  -16583.28
 400  -16214.34
 401  -16416.54
 402  -16774.49
 403  -17078.42
 404  -16310.33
 405  -16199.45
 406  -15888.63
 407  -15250.82
 408  -14245.52
 409  -11231.93
 410  -8796.301
 411  -8709.56
 412  -8432.2
 413  -7973.561
 414  -8662.401
 415  -9168.298
 416  -10114.23
 417  -11906.08
 418  -14066.17
 419  -14208.91
 420  -13933.94
 421  -14606.24
 422  -15200.22
 423  -15351.24
 424  -15764.72
 425  -15593.65
 426  -16510.76
 427  -17536.56
 428  -18724.87
 429  -17914.5
 430  -17871.09
 431  -17819.67
 432  -17735.64
 433  -17742.18
 434  -17499.88
 435  -16760.01
 436  -17893.36
 437  -18233.04
 438  -19010.87
 439  -19265.62
 440  -19115.83
 441  -20146.64
 442  -19241.61
 443  -18927.53
 444  -20016.96
 445  -10882.76
 446  -4670.388
 447  4156.947
 448  2568.357
 449  2812.366
 450  3138.404
 451  1245.748
 452  1948.388
 453  2202.369
 454  961.0027
 455  1466.378
 456  1300.121
 457  1849.464
 458  3710.615
 459  4482.582
 460  5104.036
 461  5367.277
 462  6703.354
 463  6642.608
 464  5601.685
 465  3943.946
 466  2711.49
 467  1042.107
 468  -2056.173
 469  -4283.375
 470  -6448.961
 471  -9276.006
 472  -11399.1
 473  -11824.86
 474  -13075.93
 475  -13104.59
 476  -11776.48
 477  -11155.13
 478  -11007.01
 479  -10573.42
 480  -10088.72
 481  -9558.266
 482  -8518.818
 483  -9168.536
 484  -9947.253
 485  -11699.64
 486  -13424.17
 487  -6242.054
 488  -1152.65
 489  6035.134
 490  6940.524
 491  9009.843
 492  10736.8
 493  10502.25
 494  12886.46
 495  14771.86
 496  15879.92
 497  13842.66
 498  13163.54
 499  13314.81
 500  11459.34
 501  12424.64
 502  12167.12
 503  10863.88
 504  10910.15
 505  10372.15
 506  9796.209
 507  8687.934
 508  6655.799
 509  4699.394
 510  3173.214
 511  457.4424
