# Input file       =  1182592049.117098_cleaned.dat
# Candidate        =  PSR_0332+5434
# Telescope        =  AR
# Epoch_topo       =  57931.408195799748
# Epoch_bary       =  N/A
# T_sample         =  0.002
# Data Folded      =  7340032
# Data Avg         =  0.159843564308955
# Data StdDev      =  4.43793027813532 
# Profile Bins     =  256
# Profile Avg      =  4583.37862526693 
# Profile StdDev   =  751.466230514545 
# Reduced chi-sqr  =  1.149
# Prob(Noise)      <  0.0506   (~1.6 sigma)
# P_topo (ms)      =  714.492530068285  +/- 5e-05
# P'_topo (s/s)    =  -0                +/- 2.64e-11
# P''_topo (s/s^2) =  0                 +/- 1.16e-14
# P_bary (ms)      =  N/A
# P'_bary (s/s)    =  N/A
# P''_bary (s/s^2) =  N/A
# P_orb (s)        =  N/A
# asin(i)/c (s)    =  N/A
# eccentricity     =  N/A
# w (rad)          =  N/A
# T_peri           =  N/A
######################################################
   0  4754.433
   1  4262.687
   2  3407.583
   3  4377.666
   4  3983.006
   5  4492.719
   6  3844.462
   7  4454.834
   8  3994.384
   9  3514.198
  10  4343.06
  11  3363.95
  12  3704.409
  13  4332.352
  14  4423.198
  15  4001.609
  16  3718.184
  17  4823.658
  18  4047.762
  19  3485.693
  20  3566.608
  21  3709.369
  22  4344.528
  23  3558.906
  24  4586.661
  25  3683.819
  26  3566.616
  27  3942.517
  28  4178.884
  29  4660.683
  30  4645.353
  31  4732.485
  32  4783.926
  33  4650.932
  34  5079.145
  35  4759.192
  36  5466.793
  37  5915.615
  38  6048.441
  39  5373.716
  40  4990.002
  41  5895.306
  42  4745.844
  43  4828.964
  44  4441.099
  45  3736.03
  46  4795.985
  47  3705.789
  48  4517.753
  49  4872.226
  50  4866.975
  51  5405.428
  52  4241.215
  53  5492.282
  54  4289.655
  55  5022.833
  56  4761.751
  57  4460.896
  58  5356.926
  59  5063.423
  60  5318.641
  61  5246.833
  62  5504.56
  63  5064.991
  64  4014.372
  65  4773.91
  66  4397.254
  67  4384.14
  68  4471.962
  69  3501.643
  70  4321.062
  71  3652.361
  72  4897.761
  73  3112.007
  74  3979.02
  75  4961.84
  76  4582.695
  77  4897.336
  78  3700.75
  79  4715.353
  80  4622.137
  81  5023.225
  82  5023.875
  83  4504.247
  84  5449.464
  85  4350.387
  86  4680.601
  87  4796.075
  88  4225.604
  89  4429.163
  90  3526.458
  91  4559.489
  92  4334.344
  93  3916.666
  94  4379.415
  95  3556.43
  96  4625.214
  97  4477.151
  98  4383.362
  99  4055.438
 100  3746.557
 101  5072.333
 102  4723.369
 103  4866.255
 104  4536.396
 105  4604.957
 106  5217.837
 107  4876.372
 108  4441.053
 109  4522.869
 110  4678.403
 111  4536.492
 112  4492.858
 113  4385.428
 114  4131.859
 115  4358.955
 116  4658.886
 117  5080.708
 118  5330.238
 119  4747.76
 120  5618.211
 121  5139.059
 122  5710.142
 123  5932.438
 124  5099.681
 125  5649.961
 126  5399.797
 127  6051.369
 128  5072.223
 129  5206.839
 130  5595.383
 131  5571.506
 132  5321.301
 133  4992.578
 134  5794.725
 135  5408.359
 136  5543.435
 137  4997.188
 138  4298.264
 139  5105.405
 140  4482.33
 141  4757.56
 142  5093.162
 143  4168.185
 144  4843.731
 145  4323.813
 146  4772.445
 147  4832.401
 148  4598.233
 149  5757.52
 150  4897.778
 151  5336.922
 152  4932.457
 153  5446.123
 154  5475.844
 155  4218.497
 156  5393.555
 157  4064.887
 158  4648.789
 159  4865.353
 160  4908.222
 161  5190.971
 162  5988.49
 163  7218.811
 164  6104.612
 165  5142.836
 166  4241.917
 167  4854.297
 168  4134.376
 169  3465.771
 170  4332.079
 171  3884.52
 172  4172.933
 173  4335.666
 174  3784.563
 175  3552.635
 176  3280.991
 177  3053.694
 178  2349.607
 179  2688.693
 180  3786.895
 181  3138.502
 182  3280.832
 183  2825.761
 184  4096.472
 185  4599.731
 186  3968.44
 187  4798.334
 188  4774.062
 189  4728.417
 190  4416.114
 191  4016.032
 192  4871.401
 193  3504.567
 194  4294.062
 195  4186.526
 196  4352.356
 197  4507.976
 198  4507.439
 199  4974.597
 200  4620.854
 201  4658.962
 202  4335.682
 203  5056.506
 204  4913.532
 205  5372.805
 206  5792.112
 207  4654.675
 208  5577.019
 209  5720.664
 210  5414.518
 211  5689.693
 212  5600.554
 213  5676.129
 214  5458.93
 215  5156.395
 216  5138.095
 217  4458.686
 218  4941.996
 219  4563.208
 220  5354.215
 221  4563.308
 222  3885.093
 223  4693.466
 224  3631.265
 225  4032.224
 226  3715.646
 227  3957.798
 228  4022.87
 229  4184.352
 230  5168.338
 231  4878.413
 232  4608.665
 233  4713.622
 234  4846.385
 235  5066.543
 236  4014.217
 237  4269.965
 238  3381.276
 239  3891.375
 240  4138.026
 241  3748.297
 242  3906.758
 243  3230.847
 244  4143.963
 245  4239.146
 246  4615.7
 247  4856.795
 248  4117.391
 249  4485.251
 250  4758.778
 251  5476.288
 252  4965.264
 253  4287.779
 254  4273.53
 255  4188.177
