# Input file       =  1182734782.112887_cleaned.dat
# Candidate        =  PSR_0332+5434
# Telescope        =  AR
# Epoch_topo       =  57933.060198065818
# Epoch_bary       =  N/A
# T_sample         =  0.002
# Data Folded      =  7208960
# Data Avg         =  0.0209662894064064
# Data StdDev      =  1.00002351858586 
# Profile Bins     =  512
# Profile Avg      =  295.226361312457 
# Profile StdDev   =  118.661966489545 
# Reduced chi-sqr  =  1.254
# Prob(Noise)      <  7.97e-05   (~3.8 sigma)
# P_topo (ms)      =  714.490806056609  +/- 0.000333
# P'_topo (s/s)    =  -0                +/- 1.79e-10
# P''_topo (s/s^2) =  0                 +/- 8.05e-14
# P_bary (ms)      =  N/A
# P'_bary (s/s)    =  N/A
# P''_bary (s/s^2) =  N/A
# P_orb (s)        =  N/A
# asin(i)/c (s)    =  N/A
# eccentricity     =  N/A
# w (rad)          =  N/A
# T_peri           =  N/A
######################################################
   0  316.1084
   1  308.5354
   2  280.8416
   3  206.0107
   4  252.6731
   5  298.9513
   6  257.2186
   7  269.3521
   8  330.4356
   9  261.9657
  10  273.2214
  11  336.6805
  12  241.6507
  13  362.3678
  14  283.1313
  15  218.6062
  16  302.8329
  17  247.158
  18  299.3407
  19  371.4362
  20  320.7369
  21  284.9005
  22  239.005
  23  251.2121
  24  210.0306
  25  361.3421
  26  224.7601
  27  138.289
  28  213.5486
  29  311.2847
  30  368.7977
  31  78.81764
  32  90.82741
  33  214.433
  34  257.1497
  35  300.2986
  36  247.4374
  37  188.9312
  38  267.4329
  39  259.9344
  40  212.2114
  41  325.6285
  42  326.1659
  43  243.8254
  44  296.7092
  45  353.7326
  46  216.7207
  47  204.9323
  48  433.1043
  49  481.6599
  50  288.4245
  51  310.9815
  52  461.5092
  53  365.2958
  54  240.501
  55  223.0962
  56  145.4439
  57  261.8272
  58  280.2986
  59  204.3307
  60  266.4232
  61  324.3029
  62  313.5598
  63  389.9196
  64  318.0192
  65  243.5518
  66  315.17
  67  281.816
  68  255.7884
  69  406.103
  70  374.0054
  71  228.9543
  72  261.1296
  73  281.4637
  74  337.5929
  75  350.3555
  76  363.8385
  77  262.8096
  78  315.4808
  79  387.8561
  80  179.3761
  81  149.9333
  82  337.3124
  83  345.047
  84  299.5251
  85  253.4736
  86  248.9792
  87  178.4413
  88  244.8698
  89  277.0067
  90  400.1931
  91  429.899
  92  216.5517
  93  225.3912
  94  256.5578
  95  235.0267
  96  180.4544
  97  277.6141
  98  221.194
  99  221.2075
 100  201.369
 101  154.3309
 102  201.0849
 103  384.9808
 104  295.451
 105  301.0031
 106  290.4358
 107  353.3649
 108  370.8697
 109  201.1758
 110  157.9493
 111  196.9584
 112  285.4058
 113  231.0163
 114  292.8129
 115  356.1629
 116  337.0992
 117  217.3973
 118  246.7956
 119  321.6964
 120  184.7314
 121  256.3558
 122  250.9547
 123  309.1447
 124  329.8616
 125  363.8651
 126  334.3016
 127  321.5885
 128  243.3764
 129  256.0233
 130  406.0721
 131  346.6774
 132  304.4604
 133  322.0427
 134  301.8047
 135  305.8425
 136  329.1644
 137  295.2309
 138  191.4593
 139  250.9321
 140  246.5871
 141  234.2031
 142  136.8508
 143  9.880671
 144  230.9337
 145  286.7644
 146  305.4617
 147  236.4676
 148  180.313
 149  439.7886
 150  428.568
 151  406.2571
 152  315.6837
 153  253.925
 154  282.7251
 155  349.395
 156  366.0993
 157  439.9749
 158  268.0538
 159  257.9908
 160  114.8673
 161  210.7747
 162  395.9513
 163  383.5938
 164  314.49
 165  362.4002
 166  391.6531
 167  309.6829
 168  360.7314
 169  442.2961
 170  381.321
 171  330.636
 172  361.5044
 173  407.0186
 174  439.147
 175  330.4538
 176  293.5836
 177  354.6054
 178  356.3893
 179  325.6447
 180  280.6313
 181  365.4404
 182  235.2388
 183  287.836
 184  232.7771
 185  363.089
 186  352.5995
 187  209.0216
 188  287.0739
 189  245.6139
 190  300.1547
 191  363.9322
 192  395.6424
 193  364.2932
 194  325.8407
 195  254.2487
 196  248.395
 197  339.8573
 198  388.1528
 199  350.3579
 200  267.2978
 201  209.8026
 202  214.8256
 203  257.1429
 204  337.0868
 205  386.9918
 206  391.4196
 207  344.5857
 208  200.8779
 209  221.1514
 210  352.7323
 211  347.2365
 212  217.6808
 213  242.8745
 214  322.7396
 215  516.8283
 216  504.3434
 217  345.7007
 218  340.3579
 219  362.5594
 220  288.8337
 221  317.2215
 222  434.8317
 223  548.6511
 224  617.0114
 225  450.1453
 226  282.3904
 227  335.7034
 228  304.0565
 229  276.953
 230  339.9211
 231  314.0205
 232  375.7936
 233  448.955
 234  269.1149
 235  493.9138
 236  611.3719
 237  681.6448
 238  795.3991
 239  790.9364
 240  939.4805
 241  840.9124
 242  549.4875
 243  413.8894
 244  411.9474
 245  322.2798
 246  281.3591
 247  242.7004
 248  285.1596
 249  303.8359
 250  356.1026
 251  336.5175
 252  372.9358
 253  315.7275
 254  386.8503
 255  419.4941
 256  270.7172
 257  225.713
 258  313.1733
 259  221.6537
 260  253.2552
 261  269.4882
 262  315.2617
 263  268.1638
 264  133.7612
 265  215.1231
 266  348.2494
 267  289.8452
 268  244.7113
 269  241.3423
 270  261.2284
 271  305.4422
 272  303.0138
 273  297.2894
 274  234.2658
 275  286.0589
 276  325.4828
 277  289.4382
 278  283.8701
 279  147.6191
 280  147.3474
 281  300.4459
 282  367.0682
 283  290.8528
 284  325.1536
 285  395.678
 286  297.239
 287  232.5509
 288  417.0713
 289  353.0164
 290  265.9796
 291  217.8304
 292  194.1072
 293  241.6628
 294  238.199
 295  239.6454
 296  282.035
 297  273.6489
 298  222.1509
 299  299.3104
 300  271.9252
 301  174.5433
 302  102.5144
 303  189.8028
 304  255.2293
 305  141.858
 306  162.6628
 307  320.3409
 308  340.2246
 309  315.6759
 310  262.4643
 311  279.8823
 312  236.5762
 313  205.6961
 314  288.3915
 315  350.7954
 316  327.7175
 317  327.0608
 318  292.4597
 319  360.0753
 320  318.6124
 321  356.9168
 322  410.9262
 323  433.2164
 324  462.0653
 325  279.5048
 326  198.6224
 327  261.597
 328  312.5353
 329  397.1403
 330  300.3701
 331  364.0435
 332  338.1278
 333  244.9388
 334  154.9655
 335  199.5921
 336  498.8498
 337  370.7687
 338  250.5234
 339  298.0478
 340  263.0273
 341  357.2082
 342  278.0973
 343  317.376
 344  282.1378
 345  212.7943
 346  238.1326
 347  97.1095
 348  307.3828
 349  248.9652
 350  234.255
 351  301.2968
 352  345.797
 353  402.0491
 354  428.1383
 355  202.972
 356  26.78437
 357  277.8804
 358  460.9269
 359  336.1567
 360  252.554
 361  322.3798
 362  271.0364
 363  233.7132
 364  266.1432
 365  351.1279
 366  342.0416
 367  180.84
 368  285.7484
 369  250.2042
 370  191.5755
 371  147.5609
 372  229.0033
 373  303.0257
 374  307.0373
 375  347.3747
 376  206.8827
 377  276.138
 378  347.2847
 379  242.3876
 380  352.2127
 381  348.0921
 382  208.3844
 383  232.2595
 384  282.8524
 385  331.855
 386  216.4304
 387  259.2303
 388  268.2241
 389  229.7214
 390  274.0363
 391  239.5157
 392  205.9495
 393  328.9438
 394  275.1426
 395  162.1165
 396  279.9531
 397  182.1255
 398  219.8037
 399  319.5891
 400  299.3562
 401  369.9627
 402  338.1146
 403  347.3673
 404  290.293
 405  461.1975
 406  265.5103
 407  240.7654
 408  164.2639
 409  238.6245
 410  249.7199
 411  283.6882
 412  344.5427
 413  319.0661
 414  276.9716
 415  268.0502
 416  167.124
 417  252.7301
 418  280.4919
 419  220.397
 420  256.7945
 421  216.2772
 422  287.5548
 423  238.6958
 424  148.2772
 425  248.8887
 426  357.4889
 427  369.9866
 428  336.5558
 429  371.7204
 430  349.6562
 431  176.0071
 432  231.6418
 433  128.3165
 434  154.6378
 435  183.6143
 436  167.5918
 437  209.431
 438  278.8584
 439  340.2831
 440  277.2549
 441  328.881
 442  325.6099
 443  353.556
 444  358.2462
 445  244.5727
 446  367.0957
 447  277.9609
 448  284.2654
 449  400.2304
 450  374.9907
 451  360.325
 452  398.4458
 453  383.6222
 454  195.3089
 455  133.9395
 456  348.9163
 457  370.1288
 458  183.4827
 459  174.338
 460  273.1454
 461  230.4512
 462  170.3995
 463  238.5951
 464  175.0332
 465  299.48
 466  286.1089
 467  185.0588
 468  83.29343
 469  261.2275
 470  194.2701
 471  87.14027
 472  206.2517
 473  315.6859
 474  210.0513
 475  151.5493
 476  254.4671
 477  294.5832
 478  187.6751
 479  247.4539
 480  280.7178
 481  337.9689
 482  319.313
 483  325.9103
 484  333.4778
 485  310.4262
 486  302.3123
 487  320.8134
 488  360.1788
 489  326.1447
 490  248.0913
 491  272.0239
 492  322.494
 493  332.6567
 494  198.3112
 495  176.6112
 496  262.246
 497  169.8117
 498  333.9485
 499  356.985
 500  217.724
 501  303.2838
 502  285.1342
 503  262.9792
 504  373.9979
 505  421.9896
 506  375.5189
 507  336.2546
 508  401.6702
 509  434.2819
 510  390.8593
 511  392.5688
