# Input file       =  1182592049.117098-PSRB0329-2ms-sampling-dd.dat
# Candidate        =  PSR_0332+5434
# Telescope        =  AR
# Epoch_topo       =  57931.408195799748
# Epoch_bary       =  N/A
# T_sample         =  0.002
# Data Folded      =  7340032
# Data Avg         =  8.36280333849943e-10
# Data StdDev      =  7.27201741356353 
# Profile Bins     =  512
# Profile Avg      =  0.00741100658047419
# Profile StdDev   =  870.700725510679 
# Reduced chi-sqr  =  0.695
# Prob(Noise)      <  1   (~0.0 sigma)
# P_topo (ms)      =  714.49253025075   +/- 5.9e-05
# P'_topo (s/s)    =  -0                +/- 3.12e-11
# P''_topo (s/s^2) =  0                 +/- 1.38e-14
# P_bary (ms)      =  N/A
# P'_bary (s/s)    =  N/A
# P''_bary (s/s^2) =  N/A
# P_orb (s)        =  N/A
# asin(i)/c (s)    =  N/A
# eccentricity     =  N/A
# w (rad)          =  N/A
# T_peri           =  N/A
######################################################
   0  -10.06847
   1  -48.08435
   2  630.8931
   3  1129.929
   4  1207.542
   5  834.5095
   6  484.7786
   7  408.1926
   8  -6.779842
   9  -103.9452
  10  -431.6725
  11  -310.7439
  12  -188.5599
  13  -203.9653
  14  -519.3356
  15  -974.6422
  16  -310.4663
  17  -305.8149
  18  60.36432
  19  -94.31292
  20  -583.6713
  21  -677.3146
  22  -301.7662
  23  -128.0349
  24  -171.9331
  25  -296.1011
  26  -580.0117
  27  -511.2716
  28  -501.6146
  29  -502.1982
  30  -710.5276
  31  -941.7027
  32  -359.3328
  33  -899.8255
  34  -1104.972
  35  -1187.938
  36  -1049.101
  37  -525.3469
  38  -475.4618
  39  -595.4122
  40  -725.7907
  41  -620.4492
  42  -621.7975
  43  -655.8808
  44  -1051.214
  45  -888.0181
  46  -259.7374
  47  263.2309
  48  101.7662
  49  -29.12824
  50  -219.7826
  51  -339.7511
  52  -312.8481
  53  -184.014
  54  -67.19482
  55  -167.3831
  56  141.9565
  57  241.3577
  58  -319.9377
  59  -710.8556
  60  -434.7595
  61  159.3241
  62  427.4449
  63  -171.4434
  64  -677.0899
  65  -316.2678
  66  -364.8948
  67  -29.06088
  68  15.20885
  69  17.5443
  70  269.3538
  71  186.7281
  72  -88.4256
  73  -85.80886
  74  -155.2117
  75  201.7231
  76  -93.23926
  77  111.5902
  78  -303.0205
  79  -169.0703
  80  -23.62559
  81  75.11245
  82  -95.53625
  83  60.81413
  84  306.8395
  85  97.74789
  86  200.47
  87  392.1089
  88  657.5482
  89  787.261
  90  963.7454
  91  340.9847
  92  -262.709
  93  -329.4421
  94  641.0941
  95  883.6356
  96  563.7208
  97  525.2741
  98  536.7084
  99  1211.506
 100  1459.369
 101  1850.616
 102  1797.866
 103  1137.412
 104  613.07
 105  1222.852
 106  1465.772
 107  1164.791
 108  1516.977
 109  1128.564
 110  629.3442
 111  12.91215
 112  136.7809
 113  300.798
 114  548.4688
 115  146.0437
 116  324.33
 117  367.4556
 118  353.8061
 119  288.9526
 120  -176.6589
 121  9.51632
 122  -46.28238
 123  584.9237
 124  374.1237
 125  -333.8334
 126  -690.4763
 127  -198.5056
 128  -195.1123
 129  -120.9578
 130  -337.8642
 131  -488.9385
 132  -340.6265
 133  -427.6683
 134  -588.2374
 135  -202.3667
 136  -156.1634
 137  182.1614
 138  469.5411
 139  306.7021
 140  -512.4679
 141  -556.124
 142  -7.517461
 143  316.7502
 144  34.11129
 145  197.7819
 146  -19.08239
 147  -0.7794471
 148  -20.67378
 149  -241.5739
 150  -561.0831
 151  -605.687
 152  -26.16755
 153  -236.2237
 154  -937.4279
 155  -433.4357
 156  -191.5229
 157  61.00539
 158  -228.4883
 159  -518.2375
 160  -428.5779
 161  -466.0265
 162  36.89484
 163  -331.3369
 164  -753.2345
 165  -679.369
 166  -390.9228
 167  -303.2067
 168  -258.2586
 169  -159.5107
 170  -118.1176
 171  146.2188
 172  -117.1042
 173  -409.2212
 174  -528.661
 175  -252.7292
 176  -324.6012
 177  -120.2599
 178  44.0989
 179  214.7625
 180  453.6578
 181  72.12737
 182  336.7588
 183  -8.97805
 184  -107.2701
 185  -136.3585
 186  -345.8024
 187  -444.3881
 188  -121.6245
 189  316.686
 190  810.4312
 191  511.957
 192  -161.7493
 193  -439.3719
 194  -631.5392
 195  -299.2064
 196  -184.7898
 197  -293.7143
 198  -617.787
 199  -302.5031
 200  -449.3016
 201  -497.653
 202  -389.1556
 203  -189.0399
 204  -36.49739
 205  -33.82513
 206  -351.8931
 207  -782.5927
 208  -613.9009
 209  -337.9606
 210  -82.17532
 211  -529.5855
 212  -773.4169
 213  -305.4039
 214  -732.5162
 215  -185.4154
 216  -351.0939
 217  -599.2451
 218  -241.2571
 219  -252.2185
 220  -788.8062
 221  -1135.995
 222  -824.6047
 223  -507.3653
 224  185.4781
 225  -44.83571
 226  -399.411
 227  -595.7439
 228  -774.0073
 229  -337.3769
 230  -762.6729
 231  -431.3055
 232  -192.7793
 233  167.2664
 234  112.889
 235  -407.4084
 236  -369.5299
 237  -98.55923
 238  -5.191627
 239  8.551991
 240  -229.2026
 241  -117.6256
 242  -199.5335
 243  -118.5586
 244  -166.5562
 245  -242.0366
 246  -460.3805
 247  -148.3991
 248  19.48931
 249  345.5629
 250  -164.8718
 251  -119.4693
 252  -143.2413
 253  -33.57472
 254  -52.8779
 255  -107.3406
 256  41.0014
 257  234.7846
 258  258.6735
 259  66.41184
 260  -42.19894
 261  98.99622
 262  399.7501
 263  606.8746
 264  813.001
 265  674.8504
 266  773.8577
 267  634.9157
 268  122.8398
 269  -6.288982
 270  -22.69153
 271  626.1377
 272  604.3932
 273  5.136645
 274  194.6089
 275  44.89328
 276  -81.24278
 277  -196.0038
 278  -195.0711
 279  -768.0751
 280  -552.0969
 281  77.9631
 282  288.5712
 283  -91.99843
 284  -409.9556
 285  -175.9256
 286  -171.4661
 287  -100.1876
 288  -205.2509
 289  -218.2366
 290  -59.43738
 291  466.067
 292  285.7905
 293  -10.03146
 294  -384.9681
 295  -58.32082
 296  361.5386
 297  128.3744
 298  57.4723
 299  -101.5843
 300  538.4907
 301  562.5337
 302  -49.44572
 303  -425.7714
 304  -45.67291
 305  407.9476
 306  325.6545
 307  558.2831
 308  -90.96037
 309  -241.0213
 310  -101.9108
 311  160.8353
 312  -281.5536
 313  -256.8004
 314  159.3173
 315  311.5687
 316  65.26555
 317  -581.9981
 318  -570.5005
 319  -397.924
 320  -404.3368
 321  -558.3699
 322  -482.0673
 323  -165.0299
 324  -55.06771
 325  413.0852
 326  259.3122
 327  -318.0507
 328  -702.2907
 329  -279.8494
 330  -85.36592
 331  242.9671
 332  123.1345
 333  220.9792
 334  411.9293
 335  -383.6263
 336  -1184.275
 337  -1357.334
 338  -23.63096
 339  432.7325
 340  -95.03562
 341  -305.826
 342  -248.5669
 343  -390.2945
 344  -208.1559
 345  -823.7173
 346  -1018.52
 347  -861.2051
 348  -28.00528
 349  -33.21832
 350  -725.8107
 351  -659.6531
 352  -50.29105
 353  -113.0945
 354  -605.0518
 355  -889.819
 356  -697.5882
 357  14.56149
 358  208.3079
 359  -443.3028
 360  -425.4356
 361  -452.7441
 362  -622.3834
 363  -425.4593
 364  -563.9118
 365  -520.8039
 366  -424.7627
 367  -81.51578
 368  -403.1618
 369  -861.5323
 370  -481.3079
 371  -32.62754
 372  425.6931
 373  258.2508
 374  -21.38837
 375  -559.1241
 376  -515.0825
 377  -138.146
 378  -189.6912
 379  -836.9886
 380  -479.1772
 381  354.372
 382  657.3284
 383  911.056
 384  510.7972
 385  180.9661
 386  15.64757
 387  341.7515
 388  158.0962
 389  212.3911
 390  110.5002
 391  97.94521
 392  261.8504
 393  -202.0999
 394  -423.9557
 395  -533.2204
 396  -56.78594
 397  -228.9463
 398  -390.9627
 399  -431.6016
 400  -352.3879
 401  -130.5906
 402  -6.089873
 403  -46.936
 404  -93.84231
 405  117.2928
 406  -48.35456
 407  286.7151
 408  -406.8134
 409  -840.0784
 410  -287.3393
 411  -84.86835
 412  -162.9298
 413  41.87556
 414  424.9502
 415  357.7516
 416  -78.88772
 417  -195.6262
 418  -183.8242
 419  224.8666
 420  346.731
 421  342.5517
 422  145.4319
 423  1.929933
 424  71.78767
 425  385.4137
 426  138.5302
 427  132.3248
 428  -82.76057
 429  46.29127
 430  363.5449
 431  461.3659
 432  -84.71226
 433  301.403
 434  823.5205
 435  849.5085
 436  597.9301
 437  504.0162
 438  138.7762
 439  365.5016
 440  865.6038
 441  215.5711
 442  153.4837
 443  324.0894
 444  479.6617
 445  460.1394
 446  126.08
 447  39.81891
 448  383.8877
 449  286.6735
 450  201.6114
 451  117.1649
 452  596.9729
 453  442.0486
 454  937.7838
 455  371.6185
 456  239.9016
 457  379.938
 458  712.1246
 459  676.6837
 460  638.7594
 461  681.1348
 462  841.4108
 463  549.499
 464  604.3779
 465  865.3939
 466  1797.572
 467  2175.519
 468  1936.473
 469  1385.432
 470  -167.4411
 471  1042.905
 472  1816.025
 473  2444.402
 474  2430.669
 475  1253.966
 476  315.0172
 477  210.7945
 478  403.1358
 479  133.5733
 480  -59.10021
 481  -62.35717
 482  27.24884
 483  -41.27785
 484  80.33818
 485  -244.0104
 486  -4.11895
 487  515.1982
 488  600.0461
 489  119.5298
 490  -207.564
 491  -157.7833
 492  136.8741
 493  170.7941
 494  -89.60677
 495  114.9426
 496  436.1039
 497  347.8723
 498  589.4062
 499  83.18606
 500  151.7241
 501  377.488
 502  789.6307
 503  447.3251
 504  -96.71778
 505  -6.601207
 506  130.8681
 507  387.7491
 508  146.1859
 509  -355.8238
 510  356.5902
 511  491.1066
