# Input file       =  1182993473.111839-PSRB0329-2ms-sampling-dd.dat
# Candidate        =  PSR_0332+5434
# Telescope        =  AR
# Epoch_topo       =  57936.054306849990
# Epoch_bary       =  N/A
# T_sample         =  0.002
# Data Folded      =  7471104
# Data Avg         =  -7.61562244178625e-11
# Data StdDev      =  6.41772227936232 
# Profile Bins     =  512
# Profile Avg      =  0.0354680749808933
# Profile StdDev   =  775.243850571743 
# Reduced chi-sqr  =  0.499
# Prob(Noise)      <  1   (~0.0 sigma)
# P_topo (ms)      =  714.48837403477   +/- 0.000137
# P'_topo (s/s)    =  -0                +/- 7.09e-11
# P''_topo (s/s^2) =  0                 +/- 3.07e-14
# P_bary (ms)      =  N/A
# P'_bary (s/s)    =  N/A
# P''_bary (s/s^2) =  N/A
# P_orb (s)        =  N/A
# asin(i)/c (s)    =  N/A
# eccentricity     =  N/A
# w (rad)          =  N/A
# T_peri           =  N/A
######################################################
   0  -264.5024
   1  -82.15966
   2  -35.36149
   3  224.2004
   4  638.7197
   5  668.3098
   6  333.9521
   7  -358.7805
   8  -342.3978
   9  76.13184
  10  340.3452
  11  578.2125
  12  605.4564
  13  172.4701
  14  -55.7556
  15  -484.3657
  16  -185.9577
  17  153.7136
  18  357.8289
  19  634.2328
  20  266.4054
  21  -60.1624
  22  -46.49301
  23  -346.6421
  24  -303.3176
  25  -394.9702
  26  -441.8306
  27  103.8445
  28  -397.0362
  29  -429.7141
  30  73.23563
  31  61.85673
  32  -167.3243
  33  -541.9681
  34  -117.7276
  35  -3.408126
  36  220.0901
  37  -82.08964
  38  415.5425
  39  387.4796
  40  3.250193
  41  215.0134
  42  120.6879
  43  -18.17241
  44  -357.2772
  45  -35.03608
  46  -173.2961
  47  29.98216
  48  -220.6443
  49  179.2899
  50  25.21558
  51  268.5524
  52  -42.08971
  53  431.4175
  54  521.0308
  55  56.31552
  56  265.2836
  57  28.9582
  58  -694.5303
  59  -693.6519
  60  -130.2444
  61  -61.49371
  62  65.34811
  63  445.1127
  64  366.7636
  65  227.9099
  66  -78.71848
  67  -103.7869
  68  388.1882
  69  79.11433
  70  75.20287
  71  565.2321
  72  534.8754
  73  280.4951
  74  -12.36499
  75  45.99298
  76  12.684
  77  -130.8592
  78  203.108
  79  59.39343
  80  -76.32362
  81  132.8412
  82  -13.57059
  83  229.3817
  84  123.1862
  85  -213.4934
  86  -311.0445
  87  -56.99363
  88  280.6826
  89  288.5764
  90  -9.314054
  91  -452.085
  92  -475.0009
  93  -649.2064
  94  -294.5351
  95  -155.4119
  96  29.80936
  97  218.3732
  98  -204.4774
  99  -434.8318
 100  -194.4286
 101  25.46746
 102  162.0128
 103  357.3784
 104  -211.8867
 105  -149.1272
 106  -476.6992
 107  -495.0599
 108  -22.66726
 109  104.7464
 110  808.9216
 111  383.3221
 112  -6.510709
 113  -348.0721
 114  -110.5229
 115  -203.1269
 116  262.3256
 117  362.8872
 118  43.87059
 119  276.9231
 120  -219.5493
 121  -68.55304
 122  -302.0101
 123  17.84585
 124  372.073
 125  229.9632
 126  -77.00839
 127  -194.52
 128  -196.3143
 129  30.81096
 130  115.4216
 131  -103.2902
 132  -93.99464
 133  7.89893
 134  165.3083
 135  419.255
 136  258.1444
 137  466.6263
 138  255.2186
 139  -149.9102
 140  -130.4911
 141  -153.256
 142  98.8592
 143  -136.6902
 144  556.4376
 145  733.4984
 146  -97.74297
 147  -203.3401
 148  -231.6822
 149  -344.462
 150  -378.5342
 151  -195.368
 152  -197.6133
 153  -24.89776
 154  60.69337
 155  -266.1001
 156  -305.8273
 157  -309.283
 158  -917.1245
 159  -834.912
 160  -342.8413
 161  -153.6806
 162  129.6966
 163  -121.5436
 164  -211.4431
 165  -690.1765
 166  -808.5657
 167  -399.2741
 168  -573.2618
 169  -559.9832
 170  -40.03213
 171  25.94607
 172  -493.3359
 173  -1161.23
 174  -818.2924
 175  -820.9151
 176  -470.1187
 177  65.15063
 178  34.37373
 179  251.2478
 180  -435.0681
 181  -627.984
 182  -786.0843
 183  -595.5398
 184  -104.2753
 185  -136.0588
 186  57.98631
 187  -376.4122
 188  -860.604
 189  -1020.616
 190  -892.6674
 191  -371.0257
 192  -39.79004
 193  105.0993
 194  -254.8584
 195  -608.9559
 196  -415.1567
 197  15.52765
 198  -133.4317
 199  299.562
 200  131.525
 201  8.885239
 202  -309.7078
 203  -456.4691
 204  147.7304
 205  -135.2329
 206  296.6387
 207  291.4752
 208  -185.5201
 209  -128.5827
 210  -275.4805
 211  122.8975
 212  21.32899
 213  -117.5695
 214  -216.1148
 215  -110.5171
 216  88.15436
 217  -271.1658
 218  68.48781
 219  -169.1953
 220  373.8009
 221  -323.6622
 222  -615.2406
 223  -257.8807
 224  -93.9411
 225  -3.606453
 226  362.3953
 227  448.9709
 228  229.0096
 229  291.1967
 230  -324.0049
 231  -262.1592
 232  -367.9209
 233  -374.0688
 234  40.94765
 235  -174.0532
 236  121.8161
 237  389.8941
 238  496.1664
 239  -194.457
 240  -500.8997
 241  -381.1118
 242  -714.6201
 243  -518.4576
 244  -17.81273
 245  586.8275
 246  220.0991
 247  -300.7725
 248  -330.8788
 249  -685.2695
 250  -306.6981
 251  -340.8309
 252  79.51112
 253  84.83813
 254  -200.3809
 255  -298.0673
 256  -591.0903
 257  -590.4026
 258  -146.3521
 259  -87.03976
 260  190.9658
 261  124.4044
 262  -96.82351
 263  470.4771
 264  313.8699
 265  -196.2013
 266  -419.0688
 267  -246.9997
 268  276.234
 269  71.36082
 270  200.9718
 271  696.8218
 272  172.5142
 273  166.9174
 274  40.26445
 275  66.02678
 276  313.3497
 277  -63.47141
 278  -178.7948
 279  -11.41594
 280  385.6356
 281  200.9759
 282  389.6945
 283  304.2411
 284  324.87
 285  402.7781
 286  493.5955
 287  812.799
 288  635.6398
 289  1185.744
 290  1487.051
 291  1702.458
 292  1792.395
 293  1130.698
 294  555.954
 295  109.4622
 296  304.3179
 297  360.6043
 298  397.6682
 299  -214.821
 300  318.7745
 301  441.6578
 302  18.00794
 303  196.4711
 304  148.7899
 305  457.0351
 306  61.49171
 307  387.4637
 308  132.7868
 309  -158.0077
 310  -86.05257
 311  -104.7576
 312  281.6216
 313  328.078
 314  336.7011
 315  -53.96513
 316  -452.1712
 317  -538.7613
 318  -333.1745
 319  235.5159
 320  132.9788
 321  12.40095
 322  -48.45108
 323  -482.5596
 324  -524.7932
 325  -284.5236
 326  -394.2612
 327  -178.8105
 328  76.80234
 329  79.84937
 330  9.201798
 331  -92.15434
 332  64.03786
 333  60.57848
 334  384.2509
 335  246.5472
 336  23.73578
 337  -12.59099
 338  -613.3523
 339  -70.62878
 340  -166.1116
 341  -51.29582
 342  44.19906
 343  -107.5999
 344  -225.8202
 345  -765.7107
 346  -520.1552
 347  -349.8458
 348  -189.5495
 349  -233.5601
 350  -608.5785
 351  -150.3787
 352  -233.5778
 353  45.86362
 354  283.5789
 355  82.06858
 356  -371.3779
 357  -500.0457
 358  -332.8769
 359  172.8332
 360  -86.01783
 361  -332.4996
 362  349.3041
 363  189.1425
 364  -291.2119
 365  208.2508
 366  447.8339
 367  139.0606
 368  -4.630378
 369  126.1547
 370  -303.8436
 371  -531.9481
 372  -544.6033
 373  -253.2685
 374  -121.5369
 375  -383.7597
 376  -151.9476
 377  -656.4498
 378  -709.2025
 379  -250.0928
 380  -48.88736
 381  109.9244
 382  -753.0686
 383  -940.4739
 384  -628.6296
 385  -195.2999
 386  -131.7924
 387  -160.1998
 388  -456.895
 389  -671.388
 390  -1138.341
 391  -1098.635
 392  -695.647
 393  -345.2235
 394  -485.0818
 395  -477.599
 396  -145.2046
 397  -505.9539
 398  -573.5323
 399  -436.8171
 400  43.3993
 401  -84.06998
 402  -59.87103
 403  -114.8563
 404  -65.87782
 405  -214.6753
 406  -362.6201
 407  -86.132
 408  -32.69493
 409  -62.32381
 410  -42.71756
 411  -79.93687
 412  -740.8105
 413  -482.1814
 414  -148.9394
 415  -209.7815
 416  -59.70973
 417  -105.6157
 418  177.3092
 419  -392.0837
 420  -379.6672
 421  3.287069
 422  -78.22968
 423  -119.1171
 424  350.1007
 425  716.4824
 426  654.431
 427  538.9424
 428  424.5291
 429  186.3071
 430  -189.3538
 431  -116.0791
 432  208.2105
 433  562.7083
 434  518.3349
 435  825.0512
 436  283.4052
 437  145.2924
 438  180.5322
 439  -114.4212
 440  228.6567
 441  60.86189
 442  181.8241
 443  308.2946
 444  -210.0287
 445  89.05076
 446  474.9655
 447  490.7193
 448  671.8716
 449  242.1119
 450  287.6132
 451  328.9109
 452  159.9663
 453  -89.93233
 454  -176.3047
 455  88.45749
 456  193.4357
 457  138.3231
 458  216.4809
 459  347.6631
 460  398.3975
 461  146.1519
 462  246.0062
 463  474.2857
 464  147.8769
 465  -3.192539
 466  82.22417
 467  636.3842
 468  645.5964
 469  37.49773
 470  -59.7422
 471  180.5192
 472  410.4615
 473  -171.8149
 474  -199.3694
 475  402.2928
 476  656.599
 477  182.7825
 478  -150.6099
 479  -3.39071
 480  431.9909
 481  125.5989
 482  -47.18224
 483  387.9336
 484  389.2475
 485  180.4796
 486  -207.6467
 487  -9.985686
 488  282.956
 489  4.623644
 490  131.3807
 491  909.1525
 492  1070.961
 493  543.0656
 494  557.7125
 495  3.220964
 496  176.3348
 497  745.9776
 498  919.9872
 499  963.4349
 500  852.6594
 501  871.1986
 502  535.3505
 503  15.07088
 504  -174.5631
 505  288.1806
 506  274.4262
 507  647.9258
 508  579.7766
 509  896.7189
 510  953.9838
 511  327.8193
