# Input file       =  1182562564.1136_cleaned.dat
# Candidate        =  PSR_0332+5434
# Telescope        =  AR
# Epoch_topo       =  57931.066934185183
# Epoch_bary       =  N/A
# T_sample         =  0.002
# Data Folded      =  7143424
# Data Avg         =  0.207073993670088
# Data StdDev      =  4.79136399655704 
# Profile Bins     =  256
# Profile Avg      =  5778.1327892915  
# Profile StdDev   =  800.372939517025 
# Reduced chi-sqr  =  0.611
# Prob(Noise)      <  1   (~0.0 sigma)
# P_topo (ms)      =  714.492471116235  +/- 9.59e-05
# P'_topo (s/s)    =  -0                +/- 5.2e-11
# P''_topo (s/s^2) =  0                 +/- 2.36e-14
# P_bary (ms)      =  N/A
# P'_bary (s/s)    =  N/A
# P''_bary (s/s^2) =  N/A
# P_orb (s)        =  N/A
# asin(i)/c (s)    =  N/A
# eccentricity     =  N/A
# w (rad)          =  N/A
# T_peri           =  N/A
######################################################
   0  5941.005
   1  4978.653
   2  5046.879
   3  6438.875
   4  6390.961
   5  5417.774
   6  5996.48
   7  6325.643
   8  5915.614
   9  5476.467
  10  5635.757
  11  4758.273
  12  5515.466
  13  5535.911
  14  5909.861
  15  6554.798
  16  6153.375
  17  4996.689
  18  4422.142
  19  5426.164
  20  6100.355
  21  5894.155
  22  5111.434
  23  6236.818
  24  6950.001
  25  6119.859
  26  5670.229
  27  4960.848
  28  5848.729
  29  6655.173
  30  6310.817
  31  5050.937
  32  6117.45
  33  5686.766
  34  5458.969
  35  5721.283
  36  6029.068
  37  6148.719
  38  5935.27
  39  5999.452
  40  6522.862
  41  6251.16
  42  5859.983
  43  5562.993
  44  5352.418
  45  5891.586
  46  4944.404
  47  4943.269
  48  5727.599
  49  6231.897
  50  5710.795
  51  5613.32
  52  6126.204
  53  6389.576
  54  5556.654
  55  4795.591
  56  6382.491
  57  6650.603
  58  6125.66
  59  4817.777
  60  5400.978
  61  6287.37
  62  6159.332
  63  5637.356
  64  5647.799
  65  5584.648
  66  6081.412
  67  6092.72
  68  5791.344
  69  5634.26
  70  6262.666
  71  5792.893
  72  5391.772
  73  5950.117
  74  6453.934
  75  6289.618
  76  5298.985
  77  5442.243
  78  5983.048
  79  6224.008
  80  5661.739
  81  5630.333
  82  5972.398
  83  5883.496
  84  6260.732
  85  6272.506
  86  6709.791
  87  5835.417
  88  4971.908
  89  6289.009
  90  6687.134
  91  6074.769
  92  5517.968
  93  6038.142
  94  6451.602
  95  6624.162
  96  5800.959
  97  5606.018
  98  6230.812
  99  6599.829
 100  6523.728
 101  5422.08
 102  5924.794
 103  6885.554
 104  6076.311
 105  5692.232
 106  5127
 107  6007.119
 108  5478.487
 109  5204.758
 110  5588.134
 111  6124.489
 112  6043.232
 113  6099.75
 114  5514.19
 115  6353.547
 116  6197.514
 117  5713.807
 118  5392.102
 119  5739.904
 120  6242.518
 121  5845.623
 122  5947.933
 123  5561.609
 124  5968.272
 125  5329.236
 126  5987.808
 127  6349.369
 128  6398.286
 129  5380.774
 130  5517.802
 131  5595.332
 132  6273.827
 133  6339.248
 134  5234.65
 135  5574.148
 136  5398.659
 137  5527.765
 138  5529.413
 139  6170.557
 140  5934.571
 141  5673.718
 142  5573.644
 143  5786.335
 144  5687.44
 145  5246.472
 146  4843.061
 147  5606.919
 148  6295.063
 149  6196.47
 150  5587.25
 151  5136.145
 152  5668.704
 153  6463.403
 154  6169.038
 155  5399.735
 156  5858.263
 157  5824.432
 158  5969.699
 159  6056.582
 160  6104.487
 161  6109.314
 162  7168.577
 163  8312.328
 164  8497.103
 165  6767.67
 166  5000.606
 167  4752.776
 168  5368.906
 169  5275.628
 170  5365.444
 171  5471.018
 172  6032.875
 173  5451.181
 174  5110.876
 175  4967.636
 176  5079.66
 177  4833.56
 178  5438.219
 179  4884.638
 180  5276.554
 181  5672.341
 182  5799.686
 183  4699.151
 184  5609.792
 185  5537.994
 186  5110.788
 187  5480.884
 188  5348.319
 189  5664.763
 190  5754.239
 191  5605.652
 192  5499.775
 193  5305.957
 194  4776.893
 195  4948.461
 196  5037.349
 197  5281.218
 198  4747.46
 199  5005.621
 200  5676.279
 201  5379.417
 202  5401.404
 203  5477.516
 204  5750.799
 205  5661.811
 206  6371.234
 207  6018.95
 208  5279.912
 209  4877.862
 210  5756.536
 211  5519.096
 212  4929.068
 213  4790.806
 214  5068.562
 215  5145.739
 216  5736.355
 217  5695.275
 218  6595.579
 219  5811.846
 220  5416.403
 221  5400.245
 222  6346.149
 223  6597.584
 224  5533.771
 225  5843.322
 226  5698.61
 227  5904.056
 228  5559.896
 229  6235.456
 230  6047.323
 231  5996.462
 232  5755.756
 233  5831.697
 234  5854.334
 235  5648.917
 236  5924.562
 237  5370.13
 238  5842.8
 239  5835.891
 240  5905.826
 241  5380.517
 242  6059.867
 243  6276.632
 244  6289.384
 245  5972.681
 246  5543.323
 247  5998.853
 248  6094.848
 249  6207.579
 250  6097.812
 251  6115.332
 252  5972.208
 253  6148.308
 254  5863.035
 255  6449.285
