# Input file       =  1182592049.117098_cleaned.dat
# Candidate        =  PSR_0332+5434
# Telescope        =  AR
# Epoch_topo       =  57931.408195799748
# Epoch_bary       =  N/A
# T_sample         =  0.002
# Data Folded      =  7340032
# Data Avg         =  0.159843564308955
# Data StdDev      =  4.43793027813532 
# Profile Bins     =  512
# Profile Avg      =  2291.68931267783 
# Profile StdDev   =  531.366867429528 
# Reduced chi-sqr  =  0.962
# Prob(Noise)      <  0.726   (~0.0 sigma)
# P_topo (ms)      =  714.49253025075   +/- 3.44e-05
# P'_topo (s/s)    =  -0                +/- 1.82e-11
# P''_topo (s/s^2) =  0                 +/- 8.02e-15
# P_bary (ms)      =  N/A
# P'_bary (s/s)    =  N/A
# P''_bary (s/s^2) =  N/A
# P_orb (s)        =  N/A
# asin(i)/c (s)    =  N/A
# eccentricity     =  N/A
# w (rad)          =  N/A
# T_peri           =  N/A
######################################################
   0  2522.407
   1  2482.039
   2  3139.558
   3  3609.631
   4  3623.418
   5  3287.675
   6  2921.061
   7  2891.969
   8  2452.403
   9  2334.404
  10  1984.487
  11  2279.968
  12  2486.973
  13  2462.581
  14  1944.39
  15  1488.901
  16  1854.274
  17  1871.927
  18  2331.469
  19  2319.715
  20  1752.842
  21  1934.06
  22  2161.054
  23  2180.655
  24  2181.732
  25  1878.697
  26  1928.059
  27  1872.077
  28  1728.915
  29  1789.436
  30  1616.221
  31  1203.831
  32  1746.396
  33  1371.049
  34  1097.027
  35  1235.086
  36  1315.682
  37  1941.974
  38  1868.043
  39  1618.889
  40  1501.617
  41  1637.429
  42  1626.01
  43  1601.512
  44  1328.549
  45  1570.997
  46  2196.509
  47  2475.945
  48  2232.019
  49  2094.975
  50  1903.504
  51  2123.528
  52  2473.876
  53  2601.469
  54  2330.862
  55  2221.379
  56  2433.512
  57  2449.347
  58  2111.358
  59  1845.206
  60  2036.446
  61  2355.947
  62  2481.083
  63  2154.781
  64  1568.681
  65  1963.46
  66  2193.366
  67  2245.534
  68  2014.485
  69  1979.64
  70  2234.316
  71  2364.394
  72  2191.249
  73  2302.287
  74  2154.349
  75  2560.051
  76  2400.927
  77  2531.199
  78  2198.069
  79  2150.29
  80  2405.552
  81  2326.522
  82  2146.266
  83  2294.348
  84  2595.395
  85  2493.73
  86  2414.672
  87  2637.114
  88  2688.117
  89  2775.55
  90  3011.947
  91  2595.378
  92  2240.928
  93  2242.008
  94  3014.129
  95  3091.99
  96  2753.159
  97  2712.957
  98  2717.609
  99  2842.724
 100  2814.224
 101  2905.002
 102  2686.579
 103  2919.284
 104  2850.247
 105  2781.539
 106  2752.417
 107  2204.485
 108  2780.082
 109  2761.28
 110  2522.422
 111  2350.44
 112  2195.558
 113  2345.176
 114  2554.364
 115  2176.529
 116  2283.118
 117  2657.105
 118  2662.791
 119  2596.283
 120  2150.22
 121  1950.565
 122  1897.155
 123  2279.565
 124  2402.753
 125  2005.872
 126  1715.71
 127  2003.098
 128  2013.732
 129  2023.43
 130  1801.688
 131  1725.706
 132  2053.904
 133  2112.306
 134  1954.495
 135  2081.365
 136  2059.856
 137  2322.896
 138  2684.496
 139  2764.687
 140  2312.437
 141  2149.688
 142  2349.685
 143  2438.722
 144  2231.52
 145  2546.695
 146  2299.841
 147  2591.195
 148  2524.222
 149  2350.789
 150  1904.513
 151  1822.499
 152  2285.746
 153  2019.757
 154  1531.498
 155  1807.477
 156  1957.184
 157  2109.005
 158  2072.114
 159  1921.349
 160  1916.804
 161  1734.059
 162  2066.66
 163  1835.37
 164  1466.961
 165  1825.101
 166  2161.898
 167  2194.727
 168  2082.198
 169  2184.852
 170  2315.899
 171  2446.999
 172  2449.459
 173  2178.29
 174  2003.438
 175  2220.801
 176  2179.583
 177  2328.248
 178  2393.016
 179  2619.463
 180  2840.949
 181  2490.205
 182  2552.716
 183  2269.219
 184  2131.215
 185  2028.652
 186  2208.536
 187  2013.764
 188  2163.297
 189  2162.639
 190  2456.317
 191  2543.53
 192  1972.763
 193  1727.276
 194  1648.969
 195  2028.619
 196  2229.267
 197  2090.841
 198  1898.077
 199  2309.342
 200  2252.78
 201  1878.096
 202  1927.528
 203  2164.301
 204  2247.619
 205  2228.412
 206  1918.95
 207  1675.431
 208  1805.589
 209  1930.782
 210  2297.325
 211  1912.506
 212  1597.781
 213  1889.534
 214  1780.148
 215  2251.838
 216  2123.088
 217  1914.178
 218  2295.981
 219  2322.205
 220  1906.387
 221  1663.348
 222  1930.507
 223  2248.739
 224  2468.018
 225  2375.121
 226  1913.306
 227  1776.318
 228  1603.427
 229  2106.979
 230  1610.301
 231  1473.089
 232  1969.878
 233  2403.968
 234  2097.416
 235  1695.38
 236  1768.671
 237  2297.462
 238  2284.658
 239  2158.993
 240  1668.264
 241  1834.407
 242  1707.077
 243  1921.538
 244  1987.609
 245  2053.793
 246  2069.642
 247  2222.909
 248  2313.079
 249  2602.394
 250  2191.053
 251  2264.116
 252  2348.943
 253  2472.189
 254  2376.154
 255  2307.415
 256  2299.891
 257  2488.473
 258  2519.965
 259  2489.334
 260  2341.453
 261  2546.56
 262  2804.032
 263  2900.31
 264  2990.412
 265  2915.594
 266  3073.812
 267  2982.199
 268  2557.585
 269  2434.176
 270  2479.651
 271  2989.292
 272  2992.316
 273  2244.251
 274  2459.612
 275  2476.907
 276  2444.653
 277  2286.82
 278  2252.73
 279  1891.513
 280  1816.841
 281  2349.255
 282  2377.596
 283  1986.497
 284  1793.951
 285  2093.153
 286  2294.739
 287  2498.855
 288  2407.883
 289  2336.35
 290  2399.501
 291  2921.802
 292  2599.49
 293  2238.06
 294  2038.794
 295  2435.24
 296  2905.187
 297  2507.47
 298  2052.653
 299  2040.059
 300  2674.28
 301  2718.16
 302  2252.637
 303  1959.133
 304  2286.955
 305  2784.491
 306  2580.106
 307  2863.899
 308  2359.925
 309  2463.095
 310  2686.608
 311  2847.735
 312  2508.548
 313  2618.64
 314  2789.964
 315  2819.459
 316  2491.442
 317  1907.742
 318  2011.203
 319  2311.08
 320  2400.479
 321  2443.842
 322  2092.422
 323  2307.806
 324  2096.508
 325  2285.292
 326  2254.669
 327  1752.533
 328  1727.118
 329  2106.466
 330  2158.086
 331  2082.239
 332  1673.981
 333  2084.545
 334  2623.42
 335  2121.801
 336  1382.357
 337  1150.784
 338  2303.352
 339  2746.956
 340  2397.319
 341  2230.362
 342  2348.806
 343  2293.52
 344  2596.6
 345  2051.974
 346  1787.079
 347  1836.265
 348  2556.696
 349  2710.046
 350  2157.808
 351  2120.965
 352  2643.866
 353  2869.361
 354  2407.789
 355  2177.318
 356  2227.985
 357  2742.446
 358  2743.023
 359  2172.789
 360  2197.59
 361  2240.899
 362  2366.327
 363  2528.09
 364  2340.4
 365  2154.115
 366  2041.378
 367  2394.606
 368  2183.444
 369  1638.493
 370  1848.016
 371  2016.127
 372  2452.797
 373  2268.072
 374  2166.698
 375  1922.055
 376  1942.315
 377  2269.83
 378  2188.446
 379  1676.338
 380  1763.208
 381  2228.903
 382  2339.862
 383  2464.446
 384  2151.726
 385  2013.995
 386  2214.292
 387  2490.68
 388  1828.364
 389  1635.382
 390  1913.174
 391  2270.708
 392  2683.848
 393  2597.605
 394  2275.635
 395  2176.609
 396  2563.595
 397  2473.484
 398  2181.509
 399  2090.406
 400  2400.417
 401  2608.056
 402  2613.849
 403  2511.439
 404  2415.277
 405  2244.805
 406  2167.76
 407  2543.406
 408  2067.492
 409  2145.443
 410  2380.857
 411  2526.885
 412  2183.6
 413  2024.773
 414  2408.051
 415  2314.971
 416  2128.816
 417  2118.527
 418  2049.767
 419  2006.763
 420  2244.901
 421  2279.062
 422  2357.87
 423  2318.84
 424  2594.758
 425  2845.22
 426  2615.22
 427  2472.477
 428  2300.584
 429  2553.766
 430  2898.815
 431  2941.479
 432  2369.4
 433  2543.699
 434  2906.294
 435  3079.031
 436  2946.76
 437  2896.265
 438  2375.24
 439  2640.728
 440  2972.867
 441  2489.558
 442  2760.287
 443  3068.131
 444  3026.263
 445  2761.095
 446  2505.717
 447  2353.848
 448  2691.862
 449  2823.268
 450  2802.416
 451  2694.582
 452  2879.669
 453  2624.266
 454  2710.559
 455  2478.126
 456  2505.823
 457  2711.141
 458  3019.002
 459  2744.786
 460  2696.917
 461  2623.269
 462  2891.717
 463  2716.813
 464  2469.417
 465  2076.787
 466  2144.258
 467  2538.181
 468  2590.859
 469  2258.323
 470  2246.316
 471  2413.017
 472  2350.035
 473  2450.92
 474  2644.258
 475  2087.144
 476  2066.614
 477  2471.174
 478  2456.269
 479  2076.323
 480  2217.767
 481  2292.115
 482  2403.016
 483  2524.241
 484  2414.927
 485  2037.828
 486  2377.646
 487  2810.409
 488  2913.876
 489  2669.733
 490  2352.801
 491  2457.304
 492  2773.013
 493  2709.33
 494  2353.821
 495  2522.817
 496  2801.968
 497  2765.009
 498  2821.356
 499  2162.629
 500  2076.963
 501  2373.592
 502  2871.337
 503  2468.077
 504  1862.912
 505  2141.29
 506  2361.736
 507  2470.249
 508  2452.546
 509  2099.07
 510  2553.316
 511  2892.612
