# Input file       =  1182304229.116146_cleaned.dat
# Candidate        =  PSR_0332+5434
# Telescope        =  AR
# Epoch_topo       =  57928.076945788729
# Epoch_bary       =  N/A
# T_sample         =  0.002
# Data Folded      =  7405568
# Data Avg         =  0.0211069330717545
# Data StdDev      =  1.00008687322289 
# Profile Bins     =  512
# Profile Avg      =  305.400555065729 
# Profile StdDev   =  120.27681895424  
# Reduced chi-sqr  =  1.417
# Prob(Noise)      <  1.51e-09   (~5.9 sigma)
# P_topo (ms)      =  714.495039942779  +/- 0.000193
# P'_topo (s/s)    =  -0                +/- 1.01e-10
# P''_topo (s/s^2) =  0                 +/- 4.41e-14
# P_bary (ms)      =  N/A
# P'_bary (s/s)    =  N/A
# P''_bary (s/s^2) =  N/A
# P_orb (s)        =  N/A
# asin(i)/c (s)    =  N/A
# eccentricity     =  N/A
# w (rad)          =  N/A
# T_peri           =  N/A
######################################################
   0  401.5564
   1  351.3116
   2  305.6504
   3  291.806
   4  224.0169
   5  347.3295
   6  422.1472
   7  361.3884
   8  262.2096
   9  266.0906
  10  137.8785
  11  317.1399
  12  250.3221
  13  242.2425
  14  277.923
  15  358.5114
  16  363.49
  17  223.4863
  18  141.0177
  19  167.3681
  20  262.8653
  21  333.6577
  22  442.6806
  23  453.3752
  24  459.5225
  25  472.3061
  26  440.2384
  27  330.9866
  28  313.3298
  29  297.1355
  30  337.2758
  31  299.8995
  32  331.9383
  33  330.9809
  34  260.3853
  35  252.8477
  36  141.8377
  37  123.4373
  38  135.2457
  39  179.6743
  40  250.44
  41  289.91
  42  290.5691
  43  166.4257
  44  279.6263
  45  347.3368
  46  334.347
  47  368.3395
  48  381.7649
  49  237.9285
  50  205.617
  51  183.8694
  52  301.5725
  53  288.5045
  54  124.458
  55  185.7973
  56  289.8175
  57  466.1076
  58  467.5996
  59  326.2231
  60  414.1186
  61  407.9634
  62  442.7766
  63  398.1276
  64  290.8853
  65  328.2286
  66  349.9446
  67  432.4943
  68  322.9519
  69  344.9079
  70  238.6279
  71  211.8069
  72  251.6505
  73  342.976
  74  363.726
  75  349.2966
  76  450.0944
  77  419.2569
  78  361.601
  79  305.1141
  80  358.7968
  81  314.9472
  82  257.5392
  83  234.5422
  84  225.9447
  85  259.4673
  86  237.7855
  87  192.8947
  88  219.4223
  89  268.4635
  90  277.5484
  91  273.5158
  92  261.976
  93  184.4971
  94  175.6226
  95  226.7532
  96  274.4564
  97  207.7843
  98  231.7511
  99  105.3827
 100  156.2393
 101  268.7192
 102  307.6553
 103  245.3831
 104  273.895
 105  240.1908
 106  269.7226
 107  265.1986
 108  177.095
 109  247.1181
 110  232.1477
 111  212.868
 112  149.2585
 113  223.0317
 114  284.0321
 115  245.3222
 116  202.5537
 117  119.2243
 118  205.1129
 119  272.3272
 120  182.4808
 121  204.4389
 122  207.4645
 123  201.6304
 124  214.0425
 125  267.5435
 126  280.3999
 127  419.2296
 128  270.8876
 129  113.9501
 130  226.616
 131  254.9528
 132  197.0589
 133  226.8835
 134  340.0527
 135  330.3583
 136  231.9181
 137  371.2855
 138  329.0511
 139  274.5492
 140  331.9405
 141  315.0079
 142  391.7635
 143  431.3825
 144  380.7639
 145  293.9977
 146  262.5038
 147  355.2821
 148  405.023
 149  286.1983
 150  262.5598
 151  223.5292
 152  214.7564
 153  229.44
 154  221.808
 155  195.5764
 156  292.8033
 157  391.3679
 158  330.8311
 159  302.7621
 160  375.6516
 161  300.3808
 162  247.3981
 163  316.8626
 164  399.8692
 165  308.3703
 166  392.3975
 167  221.1839
 168  170.7723
 169  179.6248
 170  204.1894
 171  259.5894
 172  188.4864
 173  285.8311
 174  329.0148
 175  287.3918
 176  371.9752
 177  327.1211
 178  259.4286
 179  237.4123
 180  192.1232
 181  323.9393
 182  345.2181
 183  332.4331
 184  202.0927
 185  123.8207
 186  174.336
 187  230.6832
 188  213.6767
 189  302.769
 190  281.1678
 191  166.0182
 192  191.6211
 193  249.9429
 194  207.2957
 195  243.75
 196  300.1002
 197  301.1624
 198  324.4334
 199  215.7139
 200  146.1442
 201  326.9424
 202  312.4975
 203  270.1219
 204  280.2528
 205  309.8417
 206  285.2776
 207  196.5568
 208  340.828
 209  460.8268
 210  402.6025
 211  332.1642
 212  336.876
 213  370.37
 214  382.1077
 215  243.7491
 216  269.6653
 217  409.0444
 218  292.8262
 219  303.2785
 220  222.4917
 221  192.9757
 222  374.5939
 223  340.1214
 224  229.1178
 225  298.6161
 226  323.4826
 227  356.2233
 228  366.9962
 229  305.257
 230  239.6531
 231  295.9024
 232  299.803
 233  289.0308
 234  294.5493
 235  333.465
 236  295.8236
 237  218.0218
 238  239.9635
 239  206.8948
 240  228.265
 241  273.8052
 242  348.0095
 243  383.9807
 244  399.659
 245  274.9246
 246  229.9601
 247  268.407
 248  239.697
 249  416.0237
 250  423.7035
 251  354.7304
 252  189.2692
 253  253.9898
 254  340.3778
 255  302.3292
 256  230.6572
 257  251.9823
 258  175.6632
 259  349.966
 260  341.9597
 261  177.9002
 262  149.6929
 263  196.3531
 264  332.8283
 265  313.1882
 266  248.7926
 267  198.663
 268  198.0037
 269  194.1162
 270  127.0158
 271  202.6531
 272  312.9563
 273  457.0543
 274  308.4751
 275  263.8636
 276  263.5421
 277  293.495
 278  402.9251
 279  351.7769
 280  358.5556
 281  419.0769
 282  371.6736
 283  218.5179
 284  230.8306
 285  212.9536
 286  191.3498
 287  253.6634
 288  351.5662
 289  388.8864
 290  372.577
 291  347.791
 292  367.636
 293  349.0298
 294  296.0439
 295  240.4813
 296  342.3441
 297  378.5388
 298  339.0393
 299  390.3148
 300  378.7112
 301  396.2713
 302  374.8124
 303  276.6255
 304  440.6892
 305  643.7549
 306  780.6655
 307  901.7646
 308  868.8499
 309  955.2939
 310  885.0902
 311  834.9904
 312  661.4704
 313  494.2112
 314  390.4908
 315  290.0275
 316  335.4354
 317  340.8453
 318  473.3187
 319  485.6861
 320  471.1233
 321  373.7882
 322  393.9958
 323  387.9029
 324  314.1344
 325  353.3386
 326  367.8771
 327  328.1335
 328  322.3243
 329  464.3788
 330  294.1826
 331  180.8585
 332  240.1022
 333  272.7216
 334  260.7748
 335  231.212
 336  176.0737
 337  296.8323
 338  349.9121
 339  285.2168
 340  302.9353
 341  370.5139
 342  415.6558
 343  260.2033
 344  195.1179
 345  314.0592
 346  438.8588
 347  431.6559
 348  294.7878
 349  228.4646
 350  294.9178
 351  349.582
 352  277.9445
 353  406.1688
 354  452.8269
 355  350.675
 356  220.0274
 357  410.9107
 358  388.3536
 359  338.3059
 360  343.0656
 361  343.8365
 362  266.0688
 363  360.5602
 364  362.7973
 365  352.2728
 366  416.5298
 367  485.0973
 368  381.6572
 369  314.9511
 370  221.0059
 371  278.9759
 372  258.6464
 373  386.9663
 374  427.0714
 375  304.1379
 376  330.8716
 377  300.6618
 378  209.8969
 379  305.4404
 380  291.1863
 381  246.9681
 382  279.6144
 383  293.1584
 384  369.4686
 385  332.9678
 386  211.0618
 387  137.2616
 388  247.2908
 389  353.5098
 390  310.8313
 391  319.3679
 392  317.6091
 393  189.8171
 394  255.0028
 395  161.6796
 396  161.0424
 397  181.1978
 398  214.6583
 399  308.8574
 400  307.9019
 401  371.8706
 402  375.1951
 403  308.2086
 404  303.4515
 405  166.511
 406  231.8286
 407  278.6471
 408  256.1287
 409  205.0787
 410  234.4352
 411  267.7223
 412  278.2283
 413  157.7896
 414  200.9052
 415  165.1036
 416  314.8764
 417  366.3405
 418  474.2997
 419  424.5401
 420  406.6786
 421  318.1679
 422  180.5898
 423  240.3382
 424  277.4764
 425  325.7949
 426  244.1123
 427  443.1171
 428  380.9078
 429  211.4103
 430  342.5799
 431  251.2937
 432  252.7608
 433  357.5563
 434  437.1732
 435  399.6972
 436  222.5166
 437  210.133
 438  354.5192
 439  405.2567
 440  372.3496
 441  409.5485
 442  300.7769
 443  248.8036
 444  179.9556
 445  240.0952
 446  201.2132
 447  182.4615
 448  282.9053
 449  364.7887
 450  320.0392
 451  264.8593
 452  272.561
 453  306.441
 454  286.0581
 455  264.8991
 456  412.2739
 457  347.2919
 458  368.2589
 459  381.043
 460  417.7142
 461  325.8175
 462  288.1283
 463  252.1013
 464  285.7859
 465  322.5693
 466  355.0406
 467  224.7829
 468  222.5779
 469  328.0781
 470  261.3025
 471  316.0582
 472  272.5948
 473  270.8837
 474  311.2793
 475  332.8926
 476  258.8007
 477  208.5723
 478  244.3183
 479  301.4047
 480  348.2171
 481  328.7954
 482  334.3546
 483  269.0137
 484  445.3215
 485  303.0705
 486  216.1231
 487  293.8616
 488  211.7782
 489  118.7672
 490  156.0863
 491  283.6581
 492  370.7049
 493  243.2641
 494  269.5152
 495  388.747
 496  448.1154
 497  399.6099
 498  444.609
 499  367.1932
 500  317.1767
 501  490.7551
 502  405.5061
 503  479.5802
 504  347.238
 505  363.2629
 506  305.8247
 507  317.2692
 508  437.2599
 509  489.0367
 510  318.4396
 511  298.2257
