# Input file       =  1182577136.109246-PSRB0329-2ms-sampling-dd.dat
# Candidate        =  PSR_0332+5434
# Telescope        =  AR
# Epoch_topo       =  57931.235591542201
# Epoch_bary       =  N/A
# T_sample         =  0.002
# Data Folded      =  7340032
# Data Avg         =  1.35854756486025e-10
# Data StdDev      =  3.63486893044556 
# Profile Bins     =  512
# Profile Avg      =  -1.21167614117204
# Profile StdDev   =  435.213893873816 
# Reduced chi-sqr  =  0.865
# Prob(Noise)      <  0.988   (~0.0 sigma)
# P_topo (ms)      =  714.492341557464  +/- 0.000833
# P'_topo (s/s)    =  -0                +/- 4.39e-10
# P''_topo (s/s^2) =  0                 +/- 1.94e-13
# P_bary (ms)      =  N/A
# P'_bary (s/s)    =  N/A
# P''_bary (s/s^2) =  N/A
# P_orb (s)        =  N/A
# asin(i)/c (s)    =  N/A
# eccentricity     =  N/A
# w (rad)          =  N/A
# T_peri           =  N/A
######################################################
   0  68.96352
   1  -68.35583
   2  -69.71769
   3  -110.1011
   4  -189.6872
   5  -217.4095
   6  -316.1477
   7  117.2583
   8  13.85977
   9  -220.5334
  10  18.58544
  11  -47.59028
  12  -320.2005
  13  -290.2828
  14  -479.4793
  15  -632.9637
  16  -576.168
  17  -188.8119
  18  -61.07477
  19  -11.27297
  20  -145.8786
  21  -435.5446
  22  -138.0571
  23  -37.74409
  24  -326.7943
  25  -457.1072
  26  -307.2233
  27  -212.9556
  28  -551.7493
  29  -615.2702
  30  -369.1722
  31  -341.2212
  32  2.918971
  33  -215.7343
  34  -84.4948
  35  173.735
  36  -170.7319
  37  -179.9032
  38  2.116926
  39  -150.2066
  40  -115.7294
  41  -47.62906
  42  174.9626
  43  557.7371
  44  372.9886
  45  88.93026
  46  -185.6492
  47  111.6983
  48  -14.65385
  49  52.09655
  50  50.96463
  51  109.8853
  52  130.8634
  53  266.4846
  54  98.3104
  55  187.8236
  56  316.3038
  57  506.8829
  58  291.1627
  59  157.6333
  60  181.3771
  61  349.9285
  62  48.14671
  63  386.9874
  64  477.231
  65  270.34
  66  123.595
  67  90.39048
  68  170.2013
  69  45.95021
  70  273.0526
  71  584.9729
  72  334.1486
  73  285.1959
  74  335.6761
  75  305.4678
  76  359.6917
  77  198.7294
  78  446.6451
  79  257.5965
  80  144.8382
  81  -274.2163
  82  -193.615
  83  226.3017
  84  577.5759
  85  407.3723
  86  299.4586
  87  653.8436
  88  717.048
  89  631.7307
  90  883.601
  91  1102.251
  92  1342.91
  93  1585.782
  94  1071.602
  95  638.7441
  96  366.1633
  97  119.6776
  98  337.4417
  99  114.5708
 100  322.3805
 101  403.9172
 102  96.54987
 103  48.49115
 104  336.864
 105  34.00069
 106  56.13565
 107  269.4385
 108  595.2263
 109  371.4497
 110  421.1816
 111  251.1392
 112  100.8791
 113  18.70979
 114  -46.06385
 115  89.75262
 116  -214.7232
 117  -138.0038
 118  26.71931
 119  280.6
 120  189.0633
 121  262.321
 122  191.0687
 123  138.4065
 124  387.2418
 125  461.4883
 126  42.15335
 127  -63.62008
 128  -31.73184
 129  -239.1912
 130  -84.92421
 131  202.5369
 132  102.6002
 133  -3.157293
 134  -55.37135
 135  -205.3734
 136  -193.5674
 137  -156.6794
 138  -109.7584
 139  -149.6795
 140  -56.56948
 141  89.18605
 142  403.6661
 143  335.2947
 144  45.22824
 145  3.310253
 146  146.2942
 147  31.68533
 148  -300.2529
 149  -88.99672
 150  93.91394
 151  -193.3133
 152  -323.6017
 153  -399.0309
 154  -246.7282
 155  46.64067
 156  -76.57944
 157  -3.477667
 158  214.4439
 159  147.0677
 160  10.48847
 161  -279.4053
 162  65.11986
 163  321.3513
 164  436.5301
 165  227.2147
 166  231.931
 167  464.3395
 168  476.052
 169  187.0379
 170  41.6337
 171  -31.98545
 172  65.68909
 173  -84.45975
 174  10.28109
 175  73.95277
 176  16.34041
 177  478.7675
 178  342.7161
 179  288.4871
 180  250.0084
 181  116.0413
 182  43.7615
 183  281.9852
 184  373.1906
 185  359.8128
 186  504.2641
 187  451.2448
 188  229.9258
 189  300.7788
 190  112.2773
 191  116.8325
 192  54.18814
 193  195.8555
 194  180.951
 195  185.3314
 196  274.37
 197  227.9716
 198  120.2039
 199  10.5033
 200  67.80294
 201  487.178
 202  264.7773
 203  137.7109
 204  294.1057
 205  422.8829
 206  445.7606
 207  262.1396
 208  25.2812
 209  -343.2213
 210  53.73975
 211  221.6334
 212  235.3674
 213  515.8932
 214  650.9752
 215  48.90044
 216  126.5948
 217  220.4839
 218  -118.7942
 219  66.25411
 220  341.8095
 221  58.63295
 222  122.7757
 223  81.36461
 224  69.47531
 225  173.4233
 226  278.4264
 227  -44.43176
 228  -278.5606
 229  53.6562
 230  33.35015
 231  294.3587
 232  128.6443
 233  296.994
 234  107.6132
 235  -53.41779
 236  -388.4341
 237  -428.4035
 238  -242.9206
 239  -373.4203
 240  -240.9447
 241  -89.09839
 242  -47.31416
 243  -167.8226
 244  -367.2537
 245  -340.5182
 246  -317.7804
 247  -114.1149
 248  -364.3088
 249  -336.5634
 250  -185.6816
 251  -375.9361
 252  -252.7767
 253  -291.438
 254  -359.7166
 255  -302.9912
 256  -110.8869
 257  -210.9056
 258  -132.1993
 259  -143.2964
 260  -266.1476
 261  77.79262
 262  -57.38542
 263  81.03763
 264  -228.023
 265  -78.68829
 266  -124.491
 267  -80.29906
 268  5.390611
 269  -54.18392
 270  -81.87553
 271  -18.00341
 272  -298.3181
 273  -134.3457
 274  13.22928
 275  262.211
 276  -92.21325
 277  21.98758
 278  -232.8026
 279  -158.6608
 280  -42.72108
 281  -169.0127
 282  -105.333
 283  -72.6331
 284  -402.7243
 285  -519.1986
 286  -552.4185
 287  -373.1933
 288  -34.72036
 289  -87.93117
 290  -174.7928
 291  -191.1617
 292  -61.13524
 293  -67.8361
 294  -200.8684
 295  -1.843891
 296  357.3797
 297  280.8598
 298  140.4158
 299  44.53765
 300  138.2235
 301  93.43846
 302  -66.36906
 303  105.8058
 304  113.5481
 305  376.7701
 306  483.1888
 307  260.6111
 308  17.84261
 309  197.5897
 310  90.22485
 311  -278.3221
 312  -312.2141
 313  -99.77177
 314  -115.0849
 315  -252.313
 316  -237.158
 317  -289.1917
 318  -184.4965
 319  -67.91711
 320  -117.9102
 321  130.067
 322  389.6267
 323  552.7002
 324  96.05578
 325  163.9108
 326  54.15759
 327  -129.13
 328  -240.3407
 329  -227.989
 330  77.95142
 331  -103.3472
 332  52.00064
 333  190.4776
 334  275.0818
 335  317.6509
 336  -45.27299
 337  -215.0887
 338  -157.4357
 339  149.7015
 340  330.2263
 341  421.7716
 342  328.3454
 343  20.55019
 344  28.49445
 345  147.7846
 346  255.7242
 347  -128.1221
 348  95.06214
 349  242.1607
 350  144.7976
 351  -71.9455
 352  -229.4448
 353  -80.66821
 354  -38.87476
 355  -10.97103
 356  218.9607
 357  82.49681
 358  -81.8035
 359  -303.2995
 360  -291.2778
 361  -226.02
 362  129.4068
 363  -60.48977
 364  -159.7612
 365  -278.4673
 366  -316.1062
 367  -1.39808
 368  -338.4805
 369  -295.0966
 370  -264.9026
 371  -107.3887
 372  326.3452
 373  10.81891
 374  -225.2398
 375  -22.90716
 376  -126.3648
 377  -189.7758
 378  -45.09156
 379  -379.762
 380  -489.9508
 381  -333.7971
 382  -39.36451
 383  -439.6527
 384  -668.4613
 385  -311.5324
 386  -230.0742
 387  -257.1297
 388  -342.9644
 389  -257.6187
 390  -73.31524
 391  -188.3216
 392  11.11311
 393  -249.3264
 394  21.59005
 395  -246.9706
 396  -350.3229
 397  -421.4786
 398  -219.7122
 399  -9.431513
 400  -111.6409
 401  -242.2357
 402  -316.2939
 403  -295.7289
 404  -237.4976
 405  74.40169
 406  118.662
 407  -202.8836
 408  -366.0827
 409  -748.0461
 410  -364.1821
 411  -294.6646
 412  -8.591084
 413  533.5208
 414  202.701
 415  -150.1844
 416  -372.4819
 417  -554.0363
 418  -417.758
 419  -207.6816
 420  -157.2134
 421  -151.1037
 422  -97.5061
 423  -197.7641
 424  -191.9229
 425  96.35443
 426  12.35738
 427  138.9969
 428  -39.73574
 429  65.71912
 430  -52.51299
 431  -332.909
 432  64.24561
 433  156.6929
 434  210.1073
 435  -53.81563
 436  -288.0362
 437  -90.54501
 438  -194.7082
 439  147.7447
 440  186.6912
 441  -195.4814
 442  -188.0566
 443  83.95772
 444  100.7262
 445  29.79983
 446  -91.03945
 447  -118.796
 448  -406.0647
 449  -584.9739
 450  -433.4469
 451  -405.3671
 452  -297.6908
 453  -112.7822
 454  -295.6141
 455  -236.0205
 456  -254.3985
 457  -344.4561
 458  -418.6108
 459  -400.7997
 460  -652.2558
 461  -482.598
 462  -416.522
 463  -578.7538
 464  -536.5443
 465  -188.7296
 466  -179.6981
 467  -240.8119
 468  -159.3401
 469  -271.9932
 470  -365.5107
 471  -280.5754
 472  -247.0774
 473  -487.0356
 474  -516.7085
 475  -664.3626
 476  -321.3195
 477  -276.4373
 478  -350.0605
 479  -337.415
 480  -347.0919
 481  -378.3438
 482  -581.2901
 483  -482.8192
 484  -24.30738
 485  -35.79652
 486  191.428
 487  102.4883
 488  329.4212
 489  498.8178
 490  439.7971
 491  88.77768
 492  -29.06389
 493  411.8017
 494  371.1262
 495  299.8514
 496  311.6723
 497  435.5004
 498  346.3801
 499  106.0847
 500  104.6234
 501  103.8442
 502  -74.89983
 503  -181.8108
 504  46.26386
 505  250.4734
 506  53.40116
 507  59.7155
 508  5.932882
 509  -24.99555
 510  204.8843
 511  288.0597
