# Input file       =  1182936363.103926-PSRB0329-2ms-sampling-dd.dat
# Candidate        =  PSR_0332+5434
# Telescope        =  AR
# Epoch_topo       =  57935.393311388034
# Epoch_bary       =  N/A
# T_sample         =  0.002
# Data Folded      =  7340032
# Data Avg         =  1.47660423659507e-09
# Data StdDev      =  6.16668921948547 
# Profile Bins     =  512
# Profile Avg      =  -0.353258058750135
# Profile StdDev   =  738.356424640866 
# Reduced chi-sqr  =  0.685
# Prob(Noise)      <  1   (~0.0 sigma)
# P_topo (ms)      =  714.489241778468  +/- 0.000584
# P'_topo (s/s)    =  -0                +/- 3.08e-10
# P''_topo (s/s^2) =  0                 +/- 1.36e-13
# P_bary (ms)      =  N/A
# P'_bary (s/s)    =  N/A
# P''_bary (s/s^2) =  N/A
# P_orb (s)        =  N/A
# asin(i)/c (s)    =  N/A
# eccentricity     =  N/A
# w (rad)          =  N/A
# T_peri           =  N/A
######################################################
   0  -364.6931
   1  -34.61921
   2  -287.3016
   3  -109.2399
   4  -137.9406
   5  -276.7478
   6  -270.9858
   7  -189.6734
   8  -12.241
   9  -172.4221
  10  -421.3056
  11  -302.7064
  12  -330.5782
  13  -373.204
  14  -748.2181
  15  -230.0919
  16  -72.75507
  17  -3.547178
  18  226.8548
  19  41.55162
  20  -253.3057
  21  -311.1927
  22  -167.8368
  23  -302.698
  24  -409.8148
  25  -190.2191
  26  171.239
  27  -103.3219
  28  -261.5392
  29  -524.472
  30  -268.4582
  31  -508.4102
  32  -505.3689
  33  -300.3397
  34  -419.2288
  35  -419.7159
  36  -583.1426
  37  -575.3821
  38  -620.5967
  39  -825.9818
  40  -743.1652
  41  -581.0388
  42  -691.0347
  43  -718.7997
  44  -451.1722
  45  -557.6297
  46  -588.3278
  47  -711.7361
  48  -758.2223
  49  -741.637
  50  -96.19618
  51  90.70781
  52  -522.2845
  53  -802.4485
  54  -354.6048
  55  -159.7702
  56  -425.0858
  57  -217.9971
  58  -289.9089
  59  -366.2119
  60  -111.8144
  61  -279.5124
  62  -201.5945
  63  -506.4383
  64  -52.17634
  65  -87.11879
  66  -596.3157
  67  -406.8289
  68  -327.7751
  69  -73.75014
  70  -62.91685
  71  89.78079
  72  -214.3176
  73  -436.2509
  74  -150.2443
  75  -190.8728
  76  136.1777
  77  373.0915
  78  291.0865
  79  -26.55075
  80  8.030482
  81  165.1294
  82  12.84969
  83  -304.2686
  84  -128.8014
  85  95.00949
  86  297.1027
  87  510.1844
  88  114.0591
  89  262.878
  90  160.5793
  91  936.4308
  92  1273.834
  93  1715.013
  94  1834.275
  95  1581.267
  96  929.1845
  97  341.4355
  98  337.9518
  99  333.204
 100  433.9866
 101  134.8472
 102  880.8564
 103  602.9934
 104  741.4772
 105  -18.91368
 106  -133.9439
 107  107.7931
 108  -12.00324
 109  101.8328
 110  -103.3857
 111  116.8517
 112  182.0722
 113  402.5368
 114  153.3954
 115  -283.0016
 116  -390.5341
 117  -389.427
 118  -309.2123
 119  -387.6406
 120  -164.1567
 121  -176.2965
 122  -71.07313
 123  86.95797
 124  259.8587
 125  45.1093
 126  -52.3274
 127  -7.430508
 128  -192.5527
 129  122.4236
 130  132.5044
 131  236.1924
 132  156.694
 133  -51.62796
 134  -282.4118
 135  -554.5816
 136  -403.7226
 137  -106.4412
 138  -359.0038
 139  -113.0796
 140  -139.656
 141  -248.5436
 142  -500.4762
 143  -255.6071
 144  -111.7001
 145  -459.0601
 146  -181.5199
 147  283.4213
 148  438.3557
 149  370.3514
 150  240.9561
 151  -352.0127
 152  -333.6653
 153  106.7774
 154  -98.82382
 155  -45.80324
 156  46.84732
 157  -213.768
 158  -292.7321
 159  -392.1332
 160  -256.6306
 161  112.6992
 162  61.38514
 163  -230.2463
 164  -87.08617
 165  222.9488
 166  422.693
 167  259.7866
 168  261.6161
 169  22.39483
 170  -35.49579
 171  -32.05
 172  -25.46371
 173  -83.04022
 174  -284.2488
 175  -314.9742
 176  -209.1449
 177  -241.5753
 178  19.75291
 179  361.3121
 180  475.8126
 181  282.7317
 182  -25.76738
 183  -279.583
 184  -366.7619
 185  -84.69638
 186  234.1739
 187  175.0929
 188  339.6843
 189  504.9392
 190  326.9852
 191  -66.8964
 192  -109.903
 193  -287.9597
 194  -392.3849
 195  -104.4107
 196  125.9943
 197  482.5587
 198  616.8525
 199  413.56
 200  -139.8044
 201  -287.4339
 202  -313.9296
 203  -190.4171
 204  -269.6348
 205  100.7799
 206  257.5629
 207  -345.2791
 208  -168.844
 209  -33.10819
 210  -145.7148
 211  -76.58916
 212  -133.921
 213  421.5322
 214  426.3045
 215  408.5533
 216  -19.83541
 217  -235.5523
 218  -132.1771
 219  -365.8071
 220  -59.36416
 221  64.35249
 222  289.9526
 223  90.99617
 224  400.3945
 225  265.9288
 226  204.192
 227  371.1105
 228  23.56743
 229  75.07049
 230  -1.411256
 231  379.3129
 232  314.58
 233  170.7211
 234  440.9036
 235  116.0231
 236  -54.24498
 237  -217.3035
 238  -107.1841
 239  189.1552
 240  176.3183
 241  -25.4017
 242  86.3139
 243  13.68605
 244  -378.9918
 245  -59.20869
 246  378.581
 247  704.8558
 248  109.8834
 249  90.66304
 250  718.9963
 251  451.9792
 252  636.9534
 253  1372.364
 254  774.092
 255  370.0126
 256  472.6544
 257  458.2879
 258  2.62525
 259  13.28685
 260  67.66734
 261  488.8947
 262  544.3217
 263  165.0854
 264  628.2867
 265  380.3155
 266  327.4596
 267  63.46621
 268  -121.0141
 269  173.4119
 270  -80.08078
 271  -74.78968
 272  -15.78551
 273  -84.15734
 274  -59.90868
 275  148.9219
 276  381.9272
 277  185.2543
 278  -64.75491
 279  338.0194
 280  730.6107
 281  292.9718
 282  234.7044
 283  656.0963
 284  398.2978
 285  455.4866
 286  480.2693
 287  525.7854
 288  370.0589
 289  407.9787
 290  320.7168
 291  764.9734
 292  1575.595
 293  1137.857
 294  729.5331
 295  410.7516
 296  879.2697
 297  404.437
 298  416.854
 299  274.9905
 300  -26.70949
 301  58.89962
 302  -262.6903
 303  -522.4132
 304  -464.8709
 305  -584.8864
 306  -20.82912
 307  73.04859
 308  16.70537
 309  -377.9989
 310  -502.2288
 311  -547.8613
 312  -241.8586
 313  78.64081
 314  301.5977
 315  52.79392
 316  -35.82238
 317  -87.13407
 318  -622.3414
 319  -316.162
 320  47.3422
 321  505.0698
 322  676.7936
 323  555.4683
 324  170.9955
 325  -388.7217
 326  -447.564
 327  -293.0927
 328  187.2386
 329  138.6747
 330  286.8857
 331  77.86392
 332  -437.8685
 333  -204.9953
 334  -81.86642
 335  -189.0052
 336  -84.71062
 337  -212.6004
 338  -90.28036
 339  -508.1695
 340  -186.315
 341  -361.1869
 342  -557.9768
 343  -399.8774
 344  -450.4415
 345  -444.9376
 346  -554.215
 347  -606.7046
 348  -276.6985
 349  -734.4577
 350  -774.3568
 351  -380.9938
 352  -453.1963
 353  -807.6349
 354  -485.545
 355  -295.0565
 356  -60.07477
 357  -171.1262
 358  -498.6166
 359  -338.3022
 360  12.97954
 361  359.5238
 362  200.5376
 363  350.9309
 364  52.799
 365  252.0411
 366  428.6604
 367  221.2228
 368  -163.8305
 369  -310.1811
 370  -97.8633
 371  -251.022
 372  -527.3744
 373  -532.2397
 374  -417.5699
 375  38.70078
 376  314.3773
 377  322.5541
 378  145.506
 379  -518.319
 380  -149.6346
 381  125.2348
 382  355.7501
 383  36.73676
 384  -191.2434
 385  -346.3907
 386  -590.625
 387  -366.2326
 388  -79.55057
 389  14.05425
 390  -105.8882
 391  -271.0332
 392  -332.8546
 393  -412.5576
 394  -282.8737
 395  325.8258
 396  121.7355
 397  351.3205
 398  -149.6863
 399  -352.6118
 400  -162.2834
 401  17.52097
 402  180.9183
 403  591.7108
 404  469.2732
 405  441.1364
 406  -228.7741
 407  -195.8369
 408  -89.62251
 409  -440.4165
 410  129.7408
 411  322.1581
 412  1436.425
 413  1538.864
 414  1386.577
 415  869.2004
 416  140.717
 417  415.6298
 418  829.4496
 419  1461.229
 420  1680.502
 421  1472.64
 422  1657.413
 423  1219.528
 424  407.4775
 425  -119.2431
 426  -419.4161
 427  -385.3508
 428  -192.0982
 429  -437.3975
 430  -420.1357
 431  -206.4394
 432  -126.8356
 433  -66.97665
 434  -249.1501
 435  -216.7596
 436  127.1635
 437  215.8402
 438  24.65632
 439  -39.38107
 440  -161.5381
 441  -226.3591
 442  -101.4627
 443  -1.199149
 444  148.0446
 445  -134.9012
 446  -57.22593
 447  110.7919
 448  1.389963
 449  25.11041
 450  -34.65954
 451  -124.8435
 452  -279.3658
 453  165.2928
 454  119.1967
 455  -361.9708
 456  404.7419
 457  1308.038
 458  1840.526
 459  1499.225
 460  547.5081
 461  242.6965
 462  -337.3578
 463  171.4462
 464  215.5164
 465  -87.8402
 466  -407.6801
 467  -639.5731
 468  -571.94
 469  -259.4634
 470  -125.3844
 471  -183.899
 472  -112.0912
 473  -331.9543
 474  -592.4103
 475  -804.5495
 476  -443.3273
 477  -231.0326
 478  -91.10485
 479  208.9356
 480  -244.7214
 481  -784.582
 482  -650.7356
 483  -237.2376
 484  -133.8754
 485  11.19886
 486  416.199
 487  -124.0951
 488  -419.364
 489  -239.9181
 490  -439.9084
 491  -322.0807
 492  -80.34289
 493  -39.26065
 494  -62.703
 495  -92.63942
 496  -63.31199
 497  -204.4008
 498  -274.7172
 499  -233.4652
 500  16.70364
 501  -28.90209
 502  30.22628
 503  -33.52398
 504  -534.3389
 505  -515.5067
 506  -294.6238
 507  -558.2369
 508  -497.7435
 509  -415.7686
 510  -306.5027
 511  -433.6388
