# Input file       =  1182319293.117347_cleaned.dat
# Candidate        =  PSR_0332+5434
# Telescope        =  AR
# Epoch_topo       =  57928.251297654482
# Epoch_bary       =  N/A
# T_sample         =  0.002
# Data Folded      =  7340032
# Data Avg         =  0.0400606192051006
# Data StdDev      =  1.00015469593059 
# Profile Bins     =  512
# Profile Avg      =  574.383756654523 
# Profile StdDev   =  119.751558590251 
# Reduced chi-sqr  =  1.057
# Prob(Noise)      <  0.18   (~0.9 sigma)
# P_topo (ms)      =  714.49491222902   +/- 0.000212
# P'_topo (s/s)    =  -0                +/- 1.12e-10
# P''_topo (s/s^2) =  0                 +/- 4.93e-14
# P_bary (ms)      =  N/A
# P'_bary (s/s)    =  N/A
# P''_bary (s/s^2) =  N/A
# P_orb (s)        =  N/A
# asin(i)/c (s)    =  N/A
# eccentricity     =  N/A
# w (rad)          =  N/A
# T_peri           =  N/A
######################################################
   0  558.7924
   1  547.2474
   2  442.2047
   3  465.0843
   4  475.4592
   5  576.1579
   6  525.8857
   7  537.2751
   8  570.9056
   9  586.8619
  10  579.5915
  11  608.0516
  12  651.5797
  13  694.1315
  14  625.6598
  15  586.3325
  16  634.347
  17  695.0445
  18  678.793
  19  660.9976
  20  715.1096
  21  713.9786
  22  748.3581
  23  613.6825
  24  569.5584
  25  581.0546
  26  581.7255
  27  608.3439
  28  504.4655
  29  508.2404
  30  485.876
  31  512.861
  32  557.127
  33  445.869
  34  589.9976
  35  627.8779
  36  617.9303
  37  641.1301
  38  552.0519
  39  581.8564
  40  625.5763
  41  614.9438
  42  649.8401
  43  593.0285
  44  602.6676
  45  681.3647
  46  573.4453
  47  492.3872
  48  521.7067
  49  605.9819
  50  659.9067
  51  688.2111
  52  658.2513
  53  645.5484
  54  549.6679
  55  483.5804
  56  581.6621
  57  533.6226
  58  544.1992
  59  707.3696
  60  722.832
  61  699.4183
  62  768.9852
  63  584.5783
  64  533.4641
  65  556.2314
  66  568.8055
  67  619.709
  68  576.9505
  69  545.3606
  70  558.9807
  71  602.0438
  72  519.7873
  73  567.6108
  74  556.9098
  75  507.6028
  76  359.3849
  77  479.3172
  78  516.6749
  79  597.0451
  80  568.9831
  81  626.9821
  82  585.6714
  83  501.4304
  84  507.858
  85  596.6926
  86  667.3112
  87  646.2975
  88  692.369
  89  901.8484
  90  1031.469
  91  958.8783
  92  926.8964
  93  774.0725
  94  585.3572
  95  532.5874
  96  493.925
  97  598.1319
  98  629.246
  99  690.4945
 100  718.2549
 101  676.7087
 102  606.8431
 103  565.5667
 104  690.7772
 105  714.2977
 106  778.1583
 107  804.6301
 108  600.1799
 109  667.3752
 110  605.8242
 111  609.1555
 112  653.7349
 113  589.7996
 114  488.9015
 115  428.8537
 116  498.5625
 117  546.5764
 118  552.6765
 119  575.4579
 120  611.3459
 121  558.7724
 122  569.9841
 123  470.4613
 124  658.5951
 125  610.5495
 126  534.2614
 127  463.3819
 128  458.5141
 129  524.5804
 130  573.8652
 131  589.7552
 132  595.3952
 133  550.5963
 134  574.5743
 135  657.427
 136  698.6576
 137  613.159
 138  499.2227
 139  571.7886
 140  604.7047
 141  617.4508
 142  635.823
 143  586.27
 144  644.6608
 145  711.6483
 146  619.3934
 147  622.6535
 148  546.3808
 149  511.0175
 150  598.7308
 151  637.3519
 152  553.1693
 153  543.4141
 154  545.8843
 155  468.5073
 156  312.294
 157  331.0842
 158  398.3625
 159  334.9842
 160  472.4119
 161  537.4606
 162  533.7195
 163  470.6744
 164  376.9468
 165  359.257
 166  486.7636
 167  447.2352
 168  471.3377
 169  477.8803
 170  507.3485
 171  524.8896
 172  554.374
 173  527.4947
 174  556.0692
 175  544.9644
 176  445.5129
 177  393.0497
 178  477.7479
 179  526.0502
 180  563.0699
 181  452.3932
 182  542.1373
 183  499.1538
 184  511.9408
 185  481.459
 186  593.3733
 187  665.836
 188  727.7676
 189  697.8912
 190  686.7567
 191  684.4407
 192  614.2105
 193  680.7656
 194  676.702
 195  752.0347
 196  707.6598
 197  718.4814
 198  628.2642
 199  681.3244
 200  660.4834
 201  593.454
 202  589.5886
 203  609.1669
 204  578.4962
 205  635.2369
 206  669.1221
 207  719.9758
 208  701.8206
 209  604.3714
 210  558.5205
 211  511.4502
 212  534.7537
 213  621.8054
 214  651.1444
 215  589.9964
 216  548.7659
 217  668.4949
 218  602.4363
 219  596.4594
 220  662.0321
 221  681.8274
 222  618.9281
 223  621.2946
 224  687.9459
 225  671.3993
 226  511.8019
 227  617.0934
 228  731.5331
 229  641.7839
 230  627.7906
 231  607.4759
 232  566.9597
 233  604.4611
 234  631.1985
 235  633.4052
 236  554.0269
 237  524.5916
 238  536.8478
 239  570.7778
 240  558.7733
 241  565.5076
 242  545.1484
 243  537.8433
 244  475.0732
 245  432.4866
 246  441.8663
 247  491.9352
 248  525.8516
 249  499.5164
 250  492.9096
 251  394.9262
 252  499.004
 253  561.9414
 254  633.9651
 255  547.9339
 256  587.3281
 257  587.6982
 258  493.6272
 259  464.8312
 260  518.958
 261  612.4803
 262  521.9643
 263  500.6668
 264  474.9492
 265  475.2725
 266  550.4743
 267  544.3668
 268  573.4736
 269  641.9371
 270  657.6511
 271  555.5767
 272  558.7183
 273  596.7466
 274  633.4988
 275  691.1336
 276  666.1135
 277  613.2552
 278  703.3531
 279  658.2891
 280  591.7628
 281  662.6069
 282  621.05
 283  541.5043
 284  511.6828
 285  491.7397
 286  508.9584
 287  517.4246
 288  506.9293
 289  503.2169
 290  489.3635
 291  347.6655
 292  389.4126
 293  353.8051
 294  493.6796
 295  486.4608
 296  460.8126
 297  456.2034
 298  472.2147
 299  513.4371
 300  449.757
 301  408.8002
 302  517.4429
 303  587.0799
 304  495.3341
 305  407.3299
 306  445.8107
 307  593.0308
 308  520.2211
 309  554.179
 310  517.9711
 311  552.7611
 312  544.7113
 313  573.6068
 314  669.3384
 315  617.2805
 316  587.3354
 317  559.5105
 318  540.4611
 319  551.3169
 320  483.5671
 321  531.8786
 322  596.8297
 323  641.4948
 324  685.1688
 325  616.7985
 326  584.0274
 327  541.7952
 328  505.7947
 329  488.3207
 330  475.1917
 331  573.4565
 332  394.4352
 333  386.7995
 334  377.9967
 335  383.7619
 336  462.1927
 337  518.0692
 338  420.5549
 339  397.3685
 340  488.5026
 341  521.2355
 342  547.19
 343  580.0257
 344  587.978
 345  585.0651
 346  516.7349
 347  566.0483
 348  513.5164
 349  527.6582
 350  496.5306
 351  582.0092
 352  707.6738
 353  661.9644
 354  616.2369
 355  628.3837
 356  747.1354
 357  751.5931
 358  618.6943
 359  585.1802
 360  613.5319
 361  682.6558
 362  677.1649
 363  608.748
 364  661.3431
 365  676.0607
 366  546.7573
 367  616.9983
 368  641.5482
 369  650.6583
 370  606.854
 371  619.8857
 372  555.3579
 373  480.5567
 374  515.9564
 375  617.4022
 376  647.4936
 377  561.2426
 378  545.3041
 379  561.345
 380  600.245
 381  551.6655
 382  584.8362
 383  533.9639
 384  680.1929
 385  627.0893
 386  606.8579
 387  565.7526
 388  526.4775
 389  654.1355
 390  638.4056
 391  617.402
 392  679.2924
 393  676.574
 394  531.785
 395  444.9695
 396  607.5524
 397  741.3841
 398  663.2379
 399  603.8903
 400  606.2672
 401  591.9726
 402  548.3519
 403  630.1634
 404  713.4244
 405  705.3111
 406  654.4395
 407  611.1494
 408  724.686
 409  670.9353
 410  610.3904
 411  565.3911
 412  542.1664
 413  583.4962
 414  507.1536
 415  452.6239
 416  462.959
 417  513.4893
 418  504.726
 419  512.6754
 420  522.9905
 421  554.2378
 422  583.7024
 423  530.5581
 424  563.2736
 425  508.3457
 426  508.0121
 427  575.6287
 428  635.8249
 429  576.8578
 430  571.4672
 431  507.5429
 432  457.4842
 433  536.1649
 434  575.1673
 435  575.7289
 436  511.9536
 437  447.9541
 438  555.7241
 439  600.765
 440  456.1544
 441  472.2835
 442  611.4448
 443  676.7997
 444  621.8936
 445  565.4673
 446  650.0398
 447  596.1348
 448  677.8008
 449  739.8044
 450  692.3198
 451  646.4457
 452  614.8813
 453  600.3313
 454  556.0467
 455  500.5995
 456  405.0881
 457  366.3857
 458  391.5471
 459  461.0491
 460  490.0516
 461  512.0371
 462  486.1591
 463  522.1371
 464  554.5389
 465  544.2787
 466  430.0435
 467  507.9082
 468  503.2229
 469  588.7231
 470  572.4766
 471  564.5716
 472  613.3721
 473  595.0869
 474  663.762
 475  578.3528
 476  516.9529
 477  603.7422
 478  704.3248
 479  638.3217
 480  641.4272
 481  634.7295
 482  606.1626
 483  515.9915
 484  497.6035
 485  533.6318
 486  578.1927
 487  511.9666
 488  544.8179
 489  625.7434
 490  624.6627
 491  634.9954
 492  619.5012
 493  605.2733
 494  588.3593
 495  605.2817
 496  621.5357
 497  633.3205
 498  516.7754
 499  567.3864
 500  497.1267
 501  486.2573
 502  522.4957
 503  489.4682
 504  568.2615
 505  531.8617
 506  629.1655
 507  687.5935
 508  496.9636
 509  551.6584
 510  613.3086
 511  566.3132
