# Input file       =  1182404838.106733_cleaned.dat
# Candidate        =  PSR_0332+5434
# Telescope        =  AR
# Epoch_topo       =  57929.241401698302
# Epoch_bary       =  N/A
# T_sample         =  0.002
# Data Folded      =  7340032
# Data Avg         =  0.169421054758589
# Data StdDev      =  3.48451544850419 
# Profile Bins     =  512
# Profile Avg      =  2428.79147248137 
# Profile StdDev   =  417.211614951156 
# Reduced chi-sqr  =  0.988
# Prob(Noise)      <  0.568   (~0.0 sigma)
# P_topo (ms)      =  714.494044451887  +/- 0.000215
# P'_topo (s/s)    =  -0                +/- 1.14e-10
# P''_topo (s/s^2) =  0                 +/- 5.02e-14
# P_bary (ms)      =  N/A
# P'_bary (s/s)    =  N/A
# P''_bary (s/s^2) =  N/A
# P_orb (s)        =  N/A
# asin(i)/c (s)    =  N/A
# eccentricity     =  N/A
# w (rad)          =  N/A
# T_peri           =  N/A
######################################################
   0  2588.834
   1  2821.936
   2  3112.831
   3  3098.32
   4  3057.468
   5  3006.989
   6  2923.753
   7  2991.441
   8  2602.509
   9  2562.827
  10  2499.083
  11  2436.131
  12  2636.699
  13  2734.256
  14  2486.987
  15  2352.496
  16  2325.354
  17  2474.44
  18  2627.204
  19  2543.957
  20  2458.385
  21  2366.379
  22  2586.307
  23  2741.668
  24  2505.411
  25  2502.674
  26  2438.714
  27  2545.667
  28  2440.874
  29  2454.5
  30  2378.823
  31  2021.217
  32  2126.753
  33  2274.157
  34  2679.245
  35  2683.853
  36  2725.226
  37  3109.732
  38  2884.858
  39  2602.705
  40  2572.888
  41  2753.131
  42  2667.811
  43  2446.127
  44  2664.156
  45  2660.531
  46  2537.858
  47  2495.04
  48  2583.685
  49  3020.954
  50  3099.135
  51  2389.184
  52  2405.275
  53  2457.844
  54  2279.776
  55  2147.713
  56  2119.754
  57  2402.785
  58  2464.331
  59  2409.473
  60  2349.165
  61  1793.87
  62  1723.667
  63  1852.424
  64  2154.842
  65  2271.887
  66  2529.065
  67  2512.008
  68  2116.327
  69  2167.912
  70  2531.145
  71  2475.185
  72  2357.175
  73  2529.152
  74  2509.829
  75  2354.203
  76  2257.813
  77  2152.732
  78  2188.987
  79  2520.67
  80  2720.214
  81  2752.391
  82  2874.793
  83  2731.908
  84  2583.101
  85  2834.937
  86  2573.341
  87  2742.675
  88  2732.602
  89  2680.689
  90  2526.149
  91  2573.607
  92  2657.992
  93  2743.841
  94  2889.837
  95  2784.673
  96  2460.482
  97  2618.42
  98  2466.827
  99  2007.582
 100  2220.847
 101  2431.65
 102  2614.818
 103  2245.083
 104  2146.785
 105  2331.182
 106  2222.735
 107  2165.823
 108  2245.42
 109  1995.245
 110  1836.675
 111  2022.708
 112  2408.375
 113  2587.637
 114  2288.812
 115  1798.022
 116  1912.964
 117  2260.872
 118  2378.831
 119  2428.327
 120  2694.007
 121  2705.349
 122  2362.461
 123  2179.346
 124  2335.023
 125  2607.391
 126  2358.844
 127  2369.333
 128  2388.831
 129  2512.261
 130  2237.206
 131  2374.618
 132  2157.809
 133  2236.91
 134  2312.671
 135  2025.589
 136  2414.423
 137  2379.512
 138  2423.984
 139  2530.189
 140  2159.457
 141  1925.24
 142  2317.828
 143  2337.581
 144  2227.425
 145  2130.451
 146  2264.892
 147  2189.158
 148  2421.84
 149  2427.796
 150  2255.725
 151  2353.428
 152  2153.587
 153  2513.96
 154  2442.595
 155  2319.582
 156  2465.544
 157  2662.278
 158  2672.211
 159  2762.338
 160  2500.406
 161  2742.193
 162  2697.191
 163  2778.737
 164  2667.754
 165  2632.212
 166  2693.063
 167  2811.051
 168  2626.871
 169  2840.942
 170  3060.812
 171  2954.748
 172  3049.471
 173  2621.922
 174  2427.683
 175  2519.796
 176  2524.731
 177  2472.247
 178  2542.704
 179  2630.415
 180  2759.344
 181  2688.622
 182  2680.772
 183  2694.276
 184  2397.731
 185  2070.507
 186  2349.526
 187  2372.212
 188  2566.889
 189  2271.583
 190  2297.792
 191  2100.221
 192  2196.509
 193  1982.703
 194  2339.599
 195  2361.936
 196  2105.987
 197  2075.948
 198  2366.039
 199  2309.447
 200  2549.908
 201  2696.79
 202  2729.127
 203  2640.335
 204  2503.318
 205  2536.573
 206  2610.15
 207  2520.528
 208  3212.891
 209  3435.24
 210  3335
 211  3030.494
 212  3004.762
 213  2728.303
 214  2555.931
 215  2551.477
 216  2793.585
 217  2816.629
 218  2429.535
 219  2422.943
 220  2388.728
 221  2309.948
 222  2489.441
 223  2241.038
 224  1986.284
 225  2231.605
 226  2481.709
 227  2734.657
 228  2437.384
 229  2284.845
 230  2127.021
 231  1974.054
 232  1948.735
 233  2197.161
 234  2211.888
 235  2281.312
 236  2333.485
 237  2503.612
 238  2567.854
 239  2525.456
 240  2328.763
 241  2140.512
 242  2300.887
 243  2349.492
 244  2408.069
 245  2285.338
 246  2299.444
 247  2384.632
 248  2634.356
 249  2687.651
 250  2604.745
 251  2455.004
 252  2346.334
 253  2693.709
 254  2617.63
 255  2391.636
 256  2478.185
 257  2493.189
 258  2542.522
 259  2215.458
 260  2513.013
 261  2808.074
 262  2558.848
 263  2592.687
 264  2277.559
 265  1965.628
 266  1858.601
 267  1651.728
 268  1772.7
 269  2145.428
 270  2224.6
 271  1918.342
 272  1900.185
 273  1988.543
 274  2055.012
 275  2023.507
 276  1824.005
 277  1906.821
 278  1905.695
 279  2118.559
 280  2169.352
 281  1850.172
 282  1878.754
 283  2058.908
 284  2095.63
 285  1941.048
 286  1830.645
 287  1944.079
 288  2111.456
 289  2572.021
 290  2589.666
 291  2438.679
 292  2310.389
 293  2415.607
 294  2644.348
 295  2510.073
 296  2522.959
 297  2657.934
 298  2348.639
 299  2142.545
 300  2544.501
 301  2502.454
 302  2292.759
 303  2310.595
 304  2077.369
 305  2340.865
 306  2439.635
 307  2571.211
 308  2380.383
 309  2161.789
 310  2366.697
 311  2164.831
 312  2159.075
 313  2289.479
 314  2243.297
 315  2168.93
 316  1906.219
 317  2039.492
 318  2091.198
 319  2011.29
 320  2097.167
 321  1973.747
 322  2264.219
 323  2459.218
 324  2743.516
 325  3120.155
 326  3802.581
 327  3883.475
 328  3596.945
 329  3511.504
 330  3231.158
 331  2310.312
 332  2115.633
 333  2416.883
 334  2357.705
 335  2303.106
 336  2305.753
 337  2595.141
 338  2846.179
 339  2740.668
 340  2548.229
 341  2984.267
 342  2984.507
 343  2816.217
 344  2635.093
 345  2552.273
 346  2391.533
 347  2421.992
 348  2308.987
 349  2536.474
 350  2768.686
 351  2370.651
 352  2234.759
 353  2158.505
 354  2385.464
 355  2111.675
 356  2216.334
 357  2492.705
 358  2098.11
 359  1777.28
 360  2073.183
 361  2162.105
 362  2138.615
 363  2256.054
 364  2186.061
 365  2222.602
 366  2173.307
 367  2515.754
 368  2317.49
 369  2246.642
 370  2130.185
 371  2068.18
 372  2274.981
 373  2398.572
 374  2349.443
 375  2539.736
 376  2540.058
 377  2490.712
 378  2381.772
 379  2577.918
 380  2748.548
 381  2981.532
 382  2449.344
 383  2404.286
 384  2369.901
 385  2416.307
 386  2274.675
 387  2176.764
 388  2221.935
 389  2337.527
 390  2482.927
 391  2665.066
 392  2223.976
 393  2236.861
 394  2487.75
 395  2245.114
 396  2222.954
 397  2326.07
 398  2331.674
 399  2474.546
 400  2620.822
 401  2378.599
 402  2154.964
 403  2379.243
 404  2107.219
 405  2218.699
 406  2053.472
 407  2236.791
 408  2195.963
 409  2084.073
 410  2192.037
 411  2139.179
 412  2291.442
 413  2336.837
 414  2285.075
 415  2128.855
 416  2186.911
 417  2204.539
 418  2132.924
 419  2137.021
 420  2326.478
 421  2814.221
 422  2621.821
 423  2672.845
 424  2580.354
 425  2546.153
 426  2510.446
 427  2878.898
 428  2728.207
 429  2625.853
 430  2585.982
 431  2591.873
 432  2702.207
 433  2583.921
 434  2352.777
 435  1978.485
 436  2116.305
 437  2080.779
 438  1993.144
 439  1973.65
 440  2261.828
 441  2155.86
 442  2361.375
 443  2409.44
 444  2491.967
 445  2712.271
 446  2543.179
 447  2537.367
 448  2528.046
 449  2538.244
 450  2511.223
 451  2196.014
 452  2110.65
 453  2169.574
 454  2022.898
 455  2025.067
 456  2011.81
 457  2320.539
 458  2383.895
 459  2305.22
 460  2365.926
 461  2661.575
 462  2699.015
 463  2626.592
 464  2539.231
 465  2521.487
 466  2741.168
 467  2689.506
 468  2637.149
 469  2368.652
 470  2321.725
 471  2614.532
 472  2689.534
 473  2743.553
 474  2695.736
 475  2324.533
 476  2472.467
 477  2490.804
 478  2462.202
 479  2720.037
 480  2609.933
 481  2793.216
 482  2726.471
 483  2606.267
 484  2704.01
 485  2393.655
 486  2318.308
 487  2434.22
 488  2084.981
 489  2162.85
 490  2134.998
 491  2009.705
 492  2095.407
 493  2412.103
 494  2425.483
 495  2194.591
 496  2330.02
 497  2162.805
 498  2433.261
 499  2334.316
 500  2460.868
 501  2490.364
 502  2419.432
 503  2524.634
 504  2462.991
 505  2222.756
 506  2719.239
 507  2862.257
 508  2780.601
 509  2802.425
 510  3065.574
 511  2714.505
