# Input file       =  1182319293.117347_cleaned.dat
# Candidate        =  PSR_0332+5434
# Telescope        =  AR
# Epoch_topo       =  57928.251297654482
# Epoch_bary       =  N/A
# T_sample         =  0.002
# Data Folded      =  7340032
# Data Avg         =  0.180167996231051
# Data StdDev      =  5.45732997015465 
# Profile Bins     =  256
# Profile Avg      =  5166.16603585627 
# Profile StdDev   =  924.07922710072  
# Reduced chi-sqr  =  1.659
# Prob(Noise)      <  1.79e-10   (~6.3 sigma)
# P_topo (ms)      =  714.494912234512  +/- 0.000306
# P'_topo (s/s)    =  -0                +/- 1.62e-10
# P''_topo (s/s^2) =  0                 +/- 7.13e-14
# P_bary (ms)      =  N/A
# P'_bary (s/s)    =  N/A
# P''_bary (s/s^2) =  N/A
# P_orb (s)        =  N/A
# asin(i)/c (s)    =  N/A
# eccentricity     =  N/A
# w (rad)          =  N/A
# T_peri           =  N/A
######################################################
   0  6512.489
   1  7173.661
   2  6529.755
   3  6772.798
   4  4838.533
   5  5265.492
   6  5851.592
   7  5724.052
   8  4079.297
   9  4512.709
  10  4239.174
  11  4543.228
  12  5330.006
  13  5500.766
  14  5183.183
  15  5534.632
  16  5061.851
  17  5169.779
  18  5762.353
  19  6918.587
  20  5758.055
  21  5515.165
  22  5110.51
  23  5988.685
  24  6430.729
  25  5432.245
  26  4393.507
  27  3863.386
  28  3027.066
  29  2485.032
  30  3596.218
  31  3555.021
  32  4034.208
  33  5171.174
  34  4957.671
  35  4547.175
  36  4550.439
  37  4982.793
  38  6586.909
  39  5795.717
  40  6600.129
  41  6549.126
  42  6538.053
  43  6105.448
  44  5817.023
  45  5282.697
  46  5431.787
  47  4841.415
  48  3760.139
  49  4127.933
  50  5204.829
  51  4859.712
  52  4798.958
  53  4628.645
  54  5359.005
  55  4958.179
  56  4372.833
  57  5358.458
  58  5941.646
  59  5024.792
  60  4854.909
  61  4819.929
  62  4499.683
  63  5166.224
  64  6167.292
  65  5223.027
  66  5626.549
  67  5551.906
  68  4756.215
  69  4478.779
  70  4319.776
  71  4205.593
  72  4872.238
  73  5154.591
  74  4748.244
  75  4764.885
  76  5078.24
  77  4956.385
  78  4909.556
  79  4822.468
  80  4728.153
  81  4903.862
  82  4905.683
  83  5321.026
  84  4806.883
  85  4602.756
  86  4508.973
  87  4663.702
  88  3876.004
  89  3310.424
  90  2535.251
  91  2625.909
  92  3135.855
  93  3587.35
  94  3057.897
  95  2695.299
  96  3544.108
  97  4686.273
  98  4252.721
  99  4559.437
 100  4008.729
 101  5204.838
 102  5408.852
 103  3974
 104  2906.591
 105  3348.165
 106  3318.535
 107  4243.147
 108  4964.717
 109  5319.994
 110  4258.688
 111  3695.465
 112  3208.963
 113  3905.812
 114  3823.982
 115  4754.664
 116  3674.251
 117  3917.42
 118  3573.216
 119  2806.195
 120  3152.25
 121  3232.764
 122  4389.728
 123  5084.448
 124  5550.333
 125  5157.388
 126  5327.094
 127  5745.374
 128  6105.335
 129  6101.602
 130  5484.318
 131  6079.349
 132  4492.05
 133  4747.799
 134  4961.155
 135  5435.572
 136  5750.32
 137  5588.543
 138  6218.862
 139  5931.337
 140  5348.694
 141  5364.904
 142  5701.883
 143  7040.2
 144  6146.098
 145  4948.027
 146  5036.466
 147  5316.291
 148  6059.833
 149  6342.876
 150  6167.121
 151  6072.892
 152  5056.9
 153  5758.957
 154  5804.95
 155  5982.605
 156  5044.336
 157  5741.199
 158  5723.277
 159  6234.54
 160  5783.251
 161  6322.43
 162  6038.074
 163  7443.599
 164  7487.341
 165  5518.361
 166  5771.401
 167  7374.623
 168  7383.706
 169  6729.593
 170  7038.6
 171  7537.803
 172  6794.708
 173  6020.815
 174  5987.607
 175  5357.716
 176  4572.175
 177  4840.367
 178  5472.324
 179  4886.726
 180  5654.873
 181  4551.204
 182  3910.997
 183  4626.044
 184  3530.274
 185  3933.989
 186  4909.012
 187  4495.109
 188  5777.623
 189  6557.569
 190  6209.523
 191  5629.093
 192  5038.285
 193  5715.13
 194  5209.418
 195  5833.367
 196  3888.996
 197  4043.475
 198  4304.933
 199  4360.776
 200  3938.066
 201  4208.653
 202  4595.096
 203  5175.924
 204  4541.734
 205  5137.08
 206  4153.493
 207  4271.723
 208  4554.974
 209  4786.786
 210  5264.962
 211  5761.579
 212  6664.507
 213  6715.773
 214  6331.04
 215  6485.605
 216  6534.467
 217  7587.236
 218  6697.943
 219  6183.105
 220  5862.273
 221  6348.819
 222  5932.707
 223  5639.544
 224  4605.209
 225  5124.892
 226  4614.028
 227  4799.097
 228  6107.806
 229  6432.179
 230  6530.35
 231  5492.288
 232  6222.343
 233  5992.002
 234  6173.19
 235  6694.051
 236  5986.212
 237  5882.397
 238  6467.559
 239  6286.158
 240  5549.586
 241  5273.625
 242  5746.533
 243  5119.493
 244  5599.753
 245  5483.049
 246  4453.561
 247  3950.93
 248  4767.085
 249  4567.873
 250  4021.502
 251  4810.574
 252  4708.183
 253  5946.508
 254  5905.24
 255  6436.86
