# Input file       =  1182648610.116692-PSRB0329-2ms-sampling-dd.dat
# Candidate        =  PSR_0332+5434
# Telescope        =  AR
# Epoch_topo       =  57932.062836998753
# Epoch_bary       =  N/A
# T_sample         =  0.002
# Data Folded      =  7208960
# Data Avg         =  1.65705796093232e-10
# Data StdDev      =  6.57721548741191 
# Profile Bins     =  512
# Profile Avg      =  0.0650135116309425
# Profile StdDev   =  780.446968752742 
# Reduced chi-sqr  =  0.572
# Prob(Noise)      <  1   (~0.0 sigma)
# P_topo (ms)      =  714.491635252635  +/- 7.42e-05
# P'_topo (s/s)    =  -0                +/- 3.98e-11
# P''_topo (s/s^2) =  0                 +/- 1.79e-14
# P_bary (ms)      =  N/A
# P'_bary (s/s)    =  N/A
# P''_bary (s/s^2) =  N/A
# P_orb (s)        =  N/A
# asin(i)/c (s)    =  N/A
# eccentricity     =  N/A
# w (rad)          =  N/A
# T_peri           =  N/A
######################################################
   0  -147.4234
   1  25.33281
   2  466.6122
   3  1036.561
   4  475.7313
   5  140.6835
   6  -272.7341
   7  -436.2866
   8  -227.8866
   9  -11.69379
  10  822.728
  11  614.949
  12  323.7676
  13  -298.2212
  14  -567.8638
  15  -19.18907
  16  -404.8063
  17  -291.3192
  18  -332.1083
  19  -287.1837
  20  -354.4864
  21  -233.4886
  22  -733.0425
  23  -769.9547
  24  -485.6982
  25  131.9823
  26  253.4385
  27  -127.9767
  28  -191.1483
  29  -3.726691
  30  -118.5001
  31  -804.1611
  32  -376.5244
  33  91.41448
  34  1.982331
  35  86.65828
  36  -180.5103
  37  -538.4473
  38  -816.8513
  39  -632.7344
  40  -448.0979
  41  104.157
  42  238.548
  43  806.8517
  44  840.3636
  45  484.6791
  46  -380.6161
  47  -355.6459
  48  -346.0595
  49  -75.82436
  50  435.9708
  51  570.4938
  52  345.0077
  53  228.461
  54  134.8967
  55  -144.7336
  56  0.7424621
  57  -268.0568
  58  157.6164
  59  321.2243
  60  213.3237
  61  239.0295
  62  364.5128
  63  238.6562
  64  -117.2429
  65  176.0311
  66  581.4922
  67  916.2272
  68  320.8429
  69  625.4511
  70  816.6048
  71  202.9439
  72  752.8682
  73  388.9262
  74  274.4007
  75  59.36487
  76  196.8447
  77  843.0605
  78  913.7064
  79  498.2671
  80  161.1143
  81  578.6251
  82  306.7297
  83  351.7927
  84  700.6961
  85  652.319
  86  613.4276
  87  193.1038
  88  164.3142
  89  -149.0504
  90  -472.2285
  91  255.0135
  92  170.144
  93  299.8888
  94  -69.58084
  95  -125.908
  96  -180.8469
  97  -548.3802
  98  -221.4717
  99  366.2818
 100  727.8179
 101  -41.09132
 102  -304.5273
 103  -343.5548
 104  -806.7802
 105  -799.3151
 106  -52.3295
 107  44.10049
 108  392.0873
 109  395.5081
 110  160.5781
 111  -3.136969
 112  -993.4934
 113  -842.2302
 114  -175.1855
 115  514.2559
 116  524.4392
 117  706.9941
 118  541.2987
 119  1.123841
 120  -513.6476
 121  -471.1992
 122  -742.4823
 123  -177.5913
 124  59.3295
 125  429.2787
 126  480.6604
 127  245.3997
 128  238.5035
 129  -85.86378
 130  121.5777
 131  -399.4551
 132  221.1399
 133  268.306
 134  -143.9577
 135  36.03675
 136  341.2652
 137  348.0061
 138  309.7383
 139  353.1165
 140  276.5228
 141  564.4646
 142  290.8974
 143  155.4111
 144  415.0501
 145  182.8204
 146  101.6868
 147  223.864
 148  209.7857
 149  -243.9767
 150  349.0146
 151  -35.2384
 152  -187.1157
 153  118.5064
 154  280.316
 155  158.0302
 156  -248.8063
 157  -117.0785
 158  250.418
 159  268.2511
 160  -208.2992
 161  18.53946
 162  150.17
 163  135.1656
 164  -462.4821
 165  -71.58254
 166  456.1054
 167  447.4164
 168  477.6728
 169  252.1795
 170  371.2019
 171  178.4601
 172  -99.82299
 173  -374.2726
 174  -100.8129
 175  -215.853
 176  -153.709
 177  -145.7254
 178  -240.6189
 179  -405.7672
 180  444.8883
 181  348.9023
 182  388.4448
 183  242.4996
 184  267.6549
 185  -28.50081
 186  -264.6003
 187  -28.32366
 188  -467.0082
 189  -106.1528
 190  -21.65281
 191  3.247624
 192  270.8053
 193  -125.7615
 194  -109.7198
 195  -107.5005
 196  -212.5071
 197  108.4126
 198  272.7344
 199  755.8308
 200  485.3486
 201  430.1925
 202  477.053
 203  -35.0519
 204  39.99428
 205  -364.6562
 206  -139.9361
 207  -19.12169
 208  596.8457
 209  280.3505
 210  291.5915
 211  3.37904
 212  -167.9266
 213  17.20961
 214  2.623564
 215  74.1478
 216  222.7206
 217  594.227
 218  -99.22391
 219  -138.7015
 220  11.42665
 221  -105.4291
 222  -37.42052
 223  -72.28181
 224  176.8723
 225  -73.45035
 226  -125.6393
 227  -121.543
 228  250.1034
 229  226.7605
 230  407.0222
 231  213.9378
 232  458.8464
 233  233.0061
 234  58.06812
 235  -74.51684
 236  350.2485
 237  95.04026
 238  122.4216
 239  220.0925
 240  16.05568
 241  44.64909
 242  170.3599
 243  163.3197
 244  157.9093
 245  28.60814
 246  197.6273
 247  -208.3675
 248  -568.721
 249  -509.6699
 250  -39.12922
 251  202.6316
 252  -19.24105
 253  60.76304
 254  -75.43969
 255  -748.7041
 256  -167.4207
 257  597.5447
 258  850.059
 259  1594.173
 260  1385.183
 261  1683.933
 262  1387.248
 263  1500.19
 264  1329.306
 265  1027.517
 266  1322.433
 267  999.8138
 268  1062.182
 269  387.985
 270  -49.32859
 271  -131.5233
 272  -282.1684
 273  516.9826
 274  440.2905
 275  329.2381
 276  552.0883
 277  194.8109
 278  -355.8297
 279  -516.6245
 280  -55.30899
 281  314.5788
 282  247.5946
 283  461.9749
 284  132.5724
 285  -635.9556
 286  -249.6632
 287  -7.209438
 288  344.7362
 289  399.4956
 290  584.7776
 291  669.2317
 292  -167.2275
 293  -201.9048
 294  -172.2785
 295  500.2758
 296  182.1438
 297  536.0131
 298  998.8918
 299  595.9337
 300  -64.44453
 301  39.47954
 302  -67.47025
 303  99.19431
 304  273.23
 305  362.2427
 306  352.9283
 307  -104.9172
 308  386.9537
 309  164.7755
 310  277.0352
 311  -19.32521
 312  -95.96786
 313  -74.33009
 314  -274.5387
 315  -256.9005
 316  -66.53972
 317  92.30868
 318  -58.43216
 319  -157.9171
 320  -233.2277
 321  -187.6027
 322  -499.3757
 323  -242.9048
 324  199.5212
 325  175.7413
 326  -261.674
 327  -305.8276
 328  341.934
 329  -162.3889
 330  -137.8688
 331  -97.0824
 332  -134.5216
 333  118.4989
 334  138.3617
 335  347.4698
 336  251.3101
 337  -84.30598
 338  -80.26962
 339  -257.2533
 340  -101.3796
 341  -239.4057
 342  311.6171
 343  378.9395
 344  53.18911
 345  -201.4155
 346  -331.9533
 347  -351.6398
 348  -385.251
 349  125.0764
 350  504.3464
 351  150.1644
 352  -43.40001
 353  -320.6895
 354  -285.8926
 355  -105.3462
 356  204.8692
 357  472.8967
 358  371.285
 359  -6.580263
 360  -200.6413
 361  -337.3833
 362  -116.1679
 363  -486.1681
 364  359.3762
 365  473.3068
 366  -205.4455
 367  -101.0153
 368  -463.2738
 369  -638.1201
 370  -943.3331
 371  -534.0302
 372  -132.9056
 373  147.3681
 374  107.1227
 375  -152.6017
 376  -220.3256
 377  -512.2727
 378  -578.5129
 379  62.06967
 380  186.3736
 381  -245.9928
 382  -107.9717
 383  -415.7397
 384  -387.4672
 385  -611.3914
 386  -606.8466
 387  -529.4642
 388  -124.7657
 389  482.2103
 390  362.7169
 391  397.8032
 392  -176.5559
 393  -317.5246
 394  -482.2096
 395  -513.1122
 396  -510.6302
 397  124.0102
 398  275.84
 399  84.23614
 400  49.18953
 401  -306.9089
 402  -124.8224
 403  -444.3087
 404  -612.694
 405  -548.8293
 406  -71.35579
 407  -300.421
 408  -266.0508
 409  -84.54572
 410  -648.5276
 411  -988.9737
 412  -558.7941
 413  -871.7614
 414  -769.5049
 415  -263.6467
 416  371.9171
 417  151.0931
 418  -105.6053
 419  273.1953
 420  130.153
 421  -10.05341
 422  -454.126
 423  -4.744064
 424  260.0745
 425  178.6435
 426  -64.83051
 427  -377.9441
 428  -431.2143
 429  -761.7806
 430  37.81217
 431  395.42
 432  491.3376
 433  266.4496
 434  -97.74085
 435  -500.8181
 436  -509.5603
 437  -426.3347
 438  61.6032
 439  637.648
 440  574.3405
 441  663.5374
 442  -175.2144
 443  -887.9454
 444  -1149.532
 445  -591.9605
 446  -479.2028
 447  -446.159
 448  -102.7055
 449  -142.0168
 450  -571.1484
 451  -645.2706
 452  -447.5086
 453  -387.689
 454  -369.9934
 455  -92.75215
 456  -86.81667
 457  22.58052
 458  -349.1934
 459  -614.8623
 460  -219.2167
 461  -159.2729
 462  56.46606
 463  192.5715
 464  303.5807
 465  -296.0661
 466  -498.1471
 467  -740.3297
 468  -797.7394
 469  -573.1836
 470  -249.6986
 471  15.04477
 472  -114.4504
 473  -55.72142
 474  -452.3437
 475  -684.7603
 476  -534.5643
 477  -1002.238
 478  -908.0007
 479  -340.0546
 480  -244.5657
 481  30.17628
 482  27.37591
 483  -222.0787
 484  -533.1428
 485  -667.7996
 486  -760.7573
 487  -1097.91
 488  -389.521
 489  -455.7348
 490  116.666
 491  -135.5903
 492  230.2801
 493  68.40438
 494  -239.5941
 495  -536.8627
 496  -575.004
 497  190.7036
 498  77.22439
 499  -297.2889
 500  -275.7526
 501  -252.3385
 502  -523.9645
 503  -486.6887
 504  -585.3008
 505  -220.337
 506  313.6409
 507  -372.7711
 508  -87.90385
 509  -514.7252
 510  -703.6876
 511  -509.1504
