# Input file       =  1182334205.111209_cleaned.dat
# Candidate        =  PSR_0332+5434
# Telescope        =  AR
# Epoch_topo       =  57928.423890176033
# Epoch_bary       =  N/A
# T_sample         =  0.002
# Data Folded      =  7340032
# Data Avg         =  0.020360482632536
# Data StdDev      =  1.00000878758027 
# Profile Bins     =  512
# Profile Avg      =  291.920082122128 
# Profile StdDev   =  119.734088540435 
# Reduced chi-sqr  =  1.411
# Prob(Noise)      <  2.35e-09   (~5.9 sigma)
# P_topo (ms)      =  714.495103417101  +/- 0.000253
# P'_topo (s/s)    =  -0                +/- 1.33e-10
# P''_topo (s/s^2) =  0                 +/- 5.88e-14
# P_bary (ms)      =  N/A
# P'_bary (s/s)    =  N/A
# P''_bary (s/s^2) =  N/A
# P_orb (s)        =  N/A
# asin(i)/c (s)    =  N/A
# eccentricity     =  N/A
# w (rad)          =  N/A
# T_peri           =  N/A
######################################################
   0  269.2528
   1  254.0394
   2  303.7916
   3  408.9355
   4  259.9798
   5  331.865
   6  403.7924
   7  268.2596
   8  249.2439
   9  307.2729
  10  373.0362
  11  331.5695
  12  351.8395
  13  261.4959
  14  328.088
  15  257.4572
  16  254.3504
  17  372.4161
  18  339.8165
  19  291.4238
  20  395.6969
  21  397.2092
  22  352.2724
  23  147.1274
  24  177.2478
  25  211.2371
  26  189.7434
  27  277.111
  28  286.1878
  29  335.8405
  30  168.776
  31  205.9604
  32  256.674
  33  154.9942
  34  160.938
  35  300.6332
  36  272.5276
  37  286.7812
  38  64.7179
  39  103.7132
  40  221.4578
  41  292.3744
  42  197.7822
  43  229.0616
  44  245.3704
  45  181.6761
  46  283.7639
  47  335.9268
  48  286.741
  49  246.0582
  50  303.3982
  51  236.6103
  52  234.7786
  53  183.134
  54  144.8854
  55  195.8207
  56  175.2971
  57  78.73939
  58  149.3169
  59  238.6272
  60  309.6109
  61  242.4603
  62  180.0104
  63  258.3988
  64  255.1441
  65  271.5159
  66  214.8629
  67  169.5557
  68  114.3009
  69  99.94301
  70  185.9207
  71  103.8078
  72  226.1076
  73  298.9625
  74  279.1298
  75  143.573
  76  248.4833
  77  250.8784
  78  247.0941
  79  225.2842
  80  140.9521
  81  220.5378
  82  222.7424
  83  175.6461
  84  233.1081
  85  195.763
  86  275.9137
  87  217.2577
  88  159.0507
  89  199.426
  90  124.0033
  91  156.3634
  92  252.5271
  93  161.4954
  94  115.9569
  95  315.7873
  96  226.0582
  97  201.726
  98  190.4127
  99  303.4374
 100  239.6492
 101  179.8444
 102  141.8882
 103  152.9709
 104  359.4966
 105  291.1047
 106  149.7779
 107  86.25148
 108  246.5159
 109  207.4655
 110  179.0435
 111  196.3146
 112  332.7498
 113  290.5717
 114  297.6003
 115  275.2484
 116  268.3462
 117  248.1072
 118  302.8033
 119  309.8694
 120  244.862
 121  371.8885
 122  446.4547
 123  355.6705
 124  405.1065
 125  298.2932
 126  223.4307
 127  170.7701
 128  140.0746
 129  80.53839
 130  175.2147
 131  298.6045
 132  304.6825
 133  359.9456
 134  292.4422
 135  262.7482
 136  350.5402
 137  293.6715
 138  268.9333
 139  283.6565
 140  384.3765
 141  358.4095
 142  236.7709
 143  251.3167
 144  285.3603
 145  197.9521
 146  322.7543
 147  374.3163
 148  378.4169
 149  297.4142
 150  115.4712
 151  274.5849
 152  310.7474
 153  195.4607
 154  221.3716
 155  332.1555
 156  353.3223
 157  270.4137
 158  271.7855
 159  243.0379
 160  233.7347
 161  341.9492
 162  311.8641
 163  366.0989
 164  332.4157
 165  223.9082
 166  277.7027
 167  284.9474
 168  344.7853
 169  286.7288
 170  277.2732
 171  320.4869
 172  270.1457
 173  268.4647
 174  319.0269
 175  272.8382
 176  407.5857
 177  437.6263
 178  328.8925
 179  342.1493
 180  366.087
 181  273.9472
 182  234.4299
 183  273.969
 184  222.8665
 185  117.658
 186  150.6224
 187  184.4503
 188  103.3053
 189  183.06
 190  236.6177
 191  222.8092
 192  247.1687
 193  169.2518
 194  223.5818
 195  304.6101
 196  357.8563
 197  255.0477
 198  280.947
 199  253.7882
 200  305.5802
 201  372.1403
 202  338.4041
 203  309.6769
 204  313.0103
 205  277.5873
 206  220.5481
 207  204.9895
 208  303.2534
 209  313.6974
 210  367.6727
 211  296.7326
 212  206.1111
 213  285.5205
 214  299.7785
 215  355.8544
 216  352.1953
 217  291.3702
 218  411.1401
 219  414.5074
 220  392.4774
 221  280.1593
 222  241.6923
 223  402.7286
 224  425.7054
 225  235.1468
 226  255.4749
 227  419.3423
 228  503.2808
 229  466.4638
 230  405.1773
 231  315.2536
 232  254.6227
 233  208.9895
 234  388.2888
 235  432.1552
 236  468.8413
 237  304.631
 238  239.7928
 239  385.2331
 240  330.1974
 241  307.7534
 242  371.0174
 243  420.7527
 244  329.7401
 245  303.9447
 246  296.4499
 247  338.5278
 248  446.7869
 249  521.3371
 250  430.7237
 251  315.6777
 252  402.1642
 253  525.9944
 254  736.5195
 255  776.8038
 256  908.1687
 257  941.1824
 258  906.1338
 259  743.272
 260  490.8243
 261  376.9442
 262  398.1044
 263  345.7647
 264  356.3982
 265  360.9623
 266  267.1302
 267  242.0193
 268  380.9684
 269  412.1119
 270  400.7567
 271  372.3188
 272  327.3138
 273  422.5326
 274  425.824
 275  422.9046
 276  248.0742
 277  288.9202
 278  294.2236
 279  238.0399
 280  273.9027
 281  416.6575
 282  415.9649
 283  393.1507
 284  431.989
 285  328.1242
 286  345.8195
 287  360.0915
 288  300.2815
 289  270.5
 290  315.4857
 291  425.5168
 292  457.0957
 293  377.5765
 294  344.4254
 295  311.2683
 296  269.3034
 297  300.62
 298  257.6383
 299  241.8251
 300  256.3372
 301  353.5582
 302  219.0258
 303  157.5029
 304  259.3161
 305  353.3824
 306  277.5791
 307  260.63
 308  278.8302
 309  457.8063
 310  380.7659
 311  435.7444
 312  450.5367
 313  286.7321
 314  258.2357
 315  375.8346
 316  361.1247
 317  322.6628
 318  321.8894
 319  250.0015
 320  312.4229
 321  285.1997
 322  414.9486
 323  368.7567
 324  327.572
 325  313.9886
 326  260.0502
 327  356.0217
 328  320.5757
 329  330.1399
 330  313.5293
 331  242.8534
 332  191.8618
 333  258.3005
 334  305.5683
 335  362.7303
 336  332.3874
 337  291.7512
 338  268.0702
 339  319.0562
 340  363.1165
 341  265.046
 342  430.3213
 343  487.9846
 344  307.8044
 345  278.3182
 346  238.6541
 347  167.5514
 348  219.5578
 349  259.6639
 350  284.8752
 351  359.4145
 352  320.3155
 353  210.0192
 354  224.4935
 355  212.5623
 356  136.0314
 357  292.456
 358  342.9673
 359  244.2572
 360  226.5926
 361  302.9895
 362  350.8116
 363  446.2725
 364  379.5834
 365  185.4626
 366  147.4269
 367  269.9912
 368  339.6565
 369  311.4731
 370  361.356
 371  260.7834
 372  146.3648
 373  256.101
 374  360.5421
 375  281.4667
 376  281.2474
 377  352.9828
 378  408.107
 379  269.746
 380  250.3182
 381  317.4175
 382  347.0358
 383  278.069
 384  137.7495
 385  158.9937
 386  373.5238
 387  383.4281
 388  336.7346
 389  244.8375
 390  275.4397
 391  282.6528
 392  148.1258
 393  93.74148
 394  349.0139
 395  417.082
 396  392.9398
 397  381.3123
 398  244.1865
 399  341.3945
 400  333.9987
 401  349.0053
 402  305.4528
 403  312.2862
 404  341.075
 405  259.9598
 406  234.1256
 407  171.3476
 408  153.3249
 409  226.1875
 410  233.2852
 411  409.9674
 412  348.5069
 413  331.5375
 414  302.2302
 415  213.2182
 416  212.4892
 417  261.0453
 418  277.6754
 419  236.8334
 420  282.5631
 421  254.327
 422  272.7478
 423  226.3978
 424  244.3249
 425  221.5268
 426  209.6299
 427  139.193
 428  239.3281
 429  276.3965
 430  300.8179
 431  203.0777
 432  222.4214
 433  94.24147
 434  194.9622
 435  233.4634
 436  247.7337
 437  319.5692
 438  178.7985
 439  174.0861
 440  157.9431
 441  270.0255
 442  210.4355
 443  59.43691
 444  136.6157
 445  265.0636
 446  387.8903
 447  340.7739
 448  337.554
 449  301.8414
 450  272.4662
 451  316.3008
 452  395.4688
 453  295.4369
 454  123.9683
 455  190.5313
 456  324.1223
 457  395.1383
 458  324.3642
 459  306.1375
 460  196.1034
 461  225.3702
 462  292.8233
 463  327.6056
 464  368.3232
 465  470.2533
 466  503.6768
 467  292.844
 468  225.7402
 469  296.255
 470  372.9369
 471  203.5395
 472  363.8803
 473  375.2342
 474  409.0965
 475  417.0049
 476  252.6156
 477  195.2589
 478  253.8807
 479  255.5647
 480  126.6496
 481  134.9578
 482  178.8061
 483  377.3831
 484  283.9398
 485  295.3701
 486  232.3746
 487  287.5639
 488  421.1288
 489  355.5799
 490  279.8454
 491  336.6001
 492  304.9347
 493  355.5803
 494  390.2069
 495  423.2162
 496  328.0414
 497  285.0482
 498  431.6757
 499  321.0546
 500  239.9959
 501  263.162
 502  324.0397
 503  283.9663
 504  307.4378
 505  250.6411
 506  205.2344
 507  223.7732
 508  300.6469
 509  338.7109
 510  299.3442
 511  351.4699
