# Input file       =  1182592049.117098_cleaned.dat
# Candidate        =  PSR_0332+5434
# Telescope        =  AR
# Epoch_topo       =  57931.408195799748
# Epoch_bary       =  N/A
# T_sample         =  0.002
# Data Folded      =  7340032
# Data Avg         =  0.159843564308955
# Data StdDev      =  4.43793027813532 
# Profile Bins     =  512
# Profile Avg      =  2291.68931263346 
# Profile StdDev   =  531.366867429528 
# Reduced chi-sqr  =  0.956
# Prob(Noise)      <  0.756   (~0.0 sigma)
# P_topo (ms)      =  714.492530068285  +/- 3.45e-05
# P'_topo (s/s)    =  -0                +/- 1.82e-11
# P''_topo (s/s^2) =  0                 +/- 8.04e-15
# P_bary (ms)      =  N/A
# P'_bary (s/s)    =  N/A
# P''_bary (s/s^2) =  N/A
# P_orb (s)        =  N/A
# asin(i)/c (s)    =  N/A
# eccentricity     =  N/A
# w (rad)          =  N/A
# T_peri           =  N/A
######################################################
   0  2230.776
   1  2523.656
   2  2417.025
   3  1845.661
   4  1659.554
   5  1748.028
   6  2116.349
   7  2261.317
   8  1957.553
   9  2025.453
  10  2337.788
  11  2154.931
  12  1800.293
  13  2044.169
  14  2152.023
  15  2302.812
  16  2146.407
  17  1847.976
  18  1689.058
  19  1825.14
  20  2029.461
  21  2313.599
  22  1663.443
  23  1700.507
  24  1855.481
  25  1848.929
  26  2384.808
  27  1947.545
  28  2047.88
  29  2375.318
  30  2220.582
  31  1781.027
  32  1690.162
  33  2028.022
  34  2336.659
  35  2487
  36  2242.128
  37  1805.634
  38  1702.545
  39  1783.148
  40  2065.069
  41  1501.54
  42  1526.251
  43  2183.118
  44  2372.195
  45  1972.333
  46  1615.157
  47  1943.75
  48  2322.164
  49  2264.497
  50  2047.851
  51  1635.968
  52  1867.561
  53  1699.055
  54  1961.404
  55  1981.113
  56  2050.558
  57  2128.325
  58  2243.669
  59  2417.014
  60  2573.202
  61  2072.151
  62  2376.286
  63  2356.199
  64  2455.018
  65  2328.909
  66  2296.19
  67  2354.742
  68  2515.132
  69  2564.013
  70  2390.804
  71  2368.388
  72  2642.585
  73  2824.208
  74  2964.495
  75  2951.12
  76  2988.097
  77  3060.344
  78  2882.615
  79  2491.101
  80  2433.397
  81  2556.605
  82  3129.567
  83  2765.739
  84  2183.188
  85  2562.656
  86  2410.079
  87  2418.886
  88  2281.851
  89  2159.248
  90  1831.219
  91  1904.811
  92  2476.513
  93  2319.472
  94  1825.001
  95  1880.788
  96  2118.659
  97  2399.094
  98  2490.095
  99  2382.131
 100  2284.082
 101  2582.893
 102  2945.172
 103  2460.256
 104  2168.316
 105  2072.899
 106  2623.829
 107  2868.453
 108  2323.102
 109  1966.553
 110  2176.569
 111  2846.264
 112  2547.936
 113  2213.815
 114  1912.668
 115  2548.229
 116  2659.161
 117  2697.765
 118  2722.159
 119  2341.264
 120  2516.59
 121  2802.051
 122  2762.237
 123  2484.596
 124  2686.114
 125  2818.446
 126  2726.696
 127  2338.295
 128  1843.771
 129  2170.601
 130  2280.959
 131  2492.951
 132  2289.2
 133  2108.054
 134  2311.224
 135  2072.916
 136  2440.474
 137  2031.488
 138  1739.227
 139  1762.416
 140  2208.751
 141  2112.311
 142  1998.448
 143  1653.913
 144  2336.668
 145  2561.093
 146  1886.01
 147  1225.996
 148  1430.237
 149  2548.783
 150  2680.369
 151  2281.471
 152  2263.45
 153  2319.245
 154  2369.512
 155  2527.824
 156  1925.907
 157  1774.843
 158  1981.021
 159  2734.332
 160  2588.193
 161  2033.945
 162  2258.51
 163  2764.715
 164  2748.664
 165  2275.21
 166  2198.106
 167  2306.141
 168  2897.174
 169  2552.29
 170  2142.941
 171  2207.446
 172  2225.209
 173  2455.392
 174  2496.85
 175  2299.225
 176  2073.784
 177  2151.82
 178  2405.117
 179  2024.046
 180  1617.287
 181  1909.172
 182  2133.74
 183  2425.749
 184  2251.624
 185  2082.72
 186  1903.57
 187  2013.096
 188  2368.427
 189  2010.988
 190  1636.328
 191  1920.102
 192  2269.779
 193  2355.435
 194  2443.11
 195  2034.042
 196  2062.467
 197  2320.895
 198  2379.785
 199  1675.653
 200  1709.646
 201  2036.911
 202  2398.621
 203  2673.712
 204  2520.235
 205  2203.133
 206  2271.551
 207  2594.704
 208  2361.175
 209  2175.221
 210  2128.937
 211  2476.02
 212  2631.219
 213  2586.618
 214  2511.796
 215  2364.576
 216  2138.949
 217  2302.104
 218  2460.281
 219  2062.588
 220  2165.191
 221  2513.213
 222  2420.036
 223  2116.456
 224  2093.668
 225  2399.191
 226  2271.163
 227  2114.265
 228  2103.998
 229  2027.861
 230  2057.595
 231  2301.359
 232  2258.725
 233  2400.16
 234  2317.184
 235  2763.524
 236  2737.954
 237  2592.284
 238  2404.596
 239  2343.164
 240  2629.336
 241  2988.875
 242  2807.208
 243  2331.851
 244  2671.619
 245  3038.523
 246  2984.725
 247  2947.713
 248  2768.881
 249  2330.8
 250  2837.372
 251  2812.589
 252  2489.994
 253  2909.803
 254  3092.02
 255  2959.35
 256  2696.379
 257  2375.844
 258  2484.184
 259  2722.655
 260  2869.947
 261  2725.436
 262  2737.835
 263  2833.67
 264  2624.827
 265  2696.474
 266  2445.987
 267  2546.591
 268  2815.847
 269  2978.878
 270  2703.021
 271  2705.338
 272  2634.809
 273  2908.625
 274  2641.854
 275  2355.334
 276  2050.625
 277  2247.639
 278  2636.771
 279  2468.634
 280  2186.146
 281  2296.184
 282  2418.866
 283  2338.694
 284  2566.89
 285  2526.272
 286  1975.242
 287  2192.943
 288  2543.647
 289  2300.084
 290  2090.881
 291  2232.932
 292  2338.665
 293  2433.781
 294  2564.436
 295  2267.965
 296  2044.513
 297  2553.719
 298  2868.939
 299  2888.581
 300  2536.08
 301  2361.698
 302  2558.372
 303  2778.55
 304  2619.658
 305  2312.799
 306  2688.507
 307  2757.615
 308  2852.561
 309  2623.283
 310  2060.301
 311  2158.195
 312  2550.685
 313  2842.87
 314  2211.413
 315  1853.474
 316  2302.882
 317  2345.907
 318  2521.857
 319  2343.496
 320  2194.957
 321  2713.266
 322  2811.949
 323  2379.022
 324  2706.209
 325  3282.281
 326  3668.261
 327  3550.55
 328  3163.95
 329  2940.661
 330  2742.109
 331  2400.728
 332  2199.73
 333  2042.188
 334  2351.361
 335  2502.936
 336  2377.325
 337  1757.051
 338  1590.9
 339  1874.871
 340  1923.755
 341  2408.324
 342  2192.2
 343  1692.32
 344  2073.098
 345  2099.834
 346  2246.106
 347  2089.56
 348  1856.822
 349  1927.741
 350  1813.141
 351  1739.494
 352  1836.805
 353  1444.186
 354  1293.096
 355  1760.598
 356  1192.523
 357  1157.084
 358  1225.308
 359  1463.385
 360  2050.979
 361  1735.916
 362  1591.08
 363  1547.422
 364  1629.867
 365  1650.964
 366  1492.929
 367  1332.832
 368  1738.56
 369  2357.912
 370  2431.064
 371  2168.667
 372  2057.101
 373  1911.339
 374  2239.091
 375  2559.243
 376  2517.962
 377  2256.099
 378  2224.95
 379  2503.467
 380  2366.948
 381  2049.166
 382  1835.181
 383  2180.851
 384  2378.537
 385  2492.864
 386  1877.098
 387  1627.469
 388  2072.915
 389  2221.146
 390  2215.532
 391  1970.994
 392  2034.909
 393  2317.448
 394  2292.107
 395  2215.868
 396  2239.533
 397  2267.906
 398  2550.551
 399  2424.046
 400  2491.501
 401  2129.353
 402  2231.826
 403  2427.137
 404  2212.418
 405  2123.263
 406  2416.656
 407  2639.85
 408  2442.799
 409  2470.733
 410  2648.773
 411  2724.031
 412  2841.183
 413  2950.929
 414  2447.294
 415  2207.381
 416  2409.221
 417  3167.798
 418  2971.362
 419  2749.302
 420  2692.548
 421  2721.97
 422  2850.983
 423  2838.71
 424  2883.678
 425  2716.876
 426  2958.064
 427  2718.065
 428  2875.574
 429  2583.356
 430  2271.616
 431  2884.778
 432  2670.404
 433  2467.691
 434  2301.504
 435  2157.182
 436  2501.41
 437  2440.585
 438  2136.505
 439  2426.702
 440  2632.467
 441  2721.748
 442  2448.09
 443  2115.218
 444  1858.67
 445  2026.423
 446  2308.661
 447  2384.804
 448  1801.993
 449  1829.272
 450  1986.649
 451  2045.575
 452  2006.706
 453  1708.94
 454  1797.945
 455  2159.853
 456  2016.484
 457  2006.386
 458  2054.383
 459  2129.969
 460  2434.387
 461  2733.951
 462  2654.098
 463  2224.315
 464  2170.262
 465  2438.403
 466  2334.019
 467  2379.603
 468  2486.532
 469  2359.853
 470  2601.294
 471  2465.25
 472  2225.862
 473  1788.354
 474  1969.229
 475  2300.736
 476  1843.762
 477  1537.514
 478  1919.039
 479  1972.336
 480  2175.115
 481  1962.911
 482  1957.786
 483  1790.511
 484  1867.948
 485  2038.81
 486  1702.986
 487  1527.861
 488  1924.596
 489  2219.367
 490  2121.523
 491  2117.624
 492  2203.024
 493  2412.676
 494  2442.235
 495  2414.561
 496  2046.76
 497  2070.631
 498  2221.436
 499  2263.815
 500  2289.677
 501  2469.101
 502  2701.302
 503  2774.986
 504  2466.797
 505  2498.467
 506  2222.587
 507  2065.192
 508  2108.69
 509  2164.84
 510  2020.243
 511  2167.933
