# Input file       =  1182648610.116692_cleaned.dat
# Candidate        =  PSR_0332+5434
# Telescope        =  AR
# Epoch_topo       =  57932.062836998753
# Epoch_bary       =  N/A
# T_sample         =  0.002
# Data Folded      =  7208960
# Data Avg         =  0.0307418758519103
# Data StdDev      =  1.00001191137304 
# Profile Bins     =  512
# Profile Avg      =  432.849293705804 
# Profile StdDev   =  118.660589187238 
# Reduced chi-sqr  =  1.249
# Prob(Noise)      <  0.000103   (~3.7 sigma)
# P_topo (ms)      =  714.491634492955  +/- 0.000277
# P'_topo (s/s)    =  -0                +/- 1.49e-10
# P''_topo (s/s^2) =  0                 +/- 6.69e-14
# P_bary (ms)      =  N/A
# P'_bary (s/s)    =  N/A
# P''_bary (s/s^2) =  N/A
# P_orb (s)        =  N/A
# asin(i)/c (s)    =  N/A
# eccentricity     =  N/A
# w (rad)          =  N/A
# T_peri           =  N/A
######################################################
   0  1007.513
   1  1046.418
   2  952.0267
   3  690.2706
   4  593.5459
   5  551.6813
   6  541.1025
   7  511.5572
   8  362.7309
   9  314.9213
  10  414.8351
  11  464.7408
  12  545.833
  13  505.0331
  14  557.9154
  15  540.6099
  16  429.3775
  17  440.0775
  18  330.5388
  19  432.6934
  20  442.2399
  21  441.9067
  22  434.7996
  23  321.8016
  24  366.9638
  25  441.8546
  26  617.2354
  27  580.9454
  28  525.6489
  29  435.5198
  30  379.5229
  31  361.1483
  32  411.4483
  33  423.8627
  34  457.4179
  35  493.934
  36  607.5933
  37  591.0107
  38  428.7655
  39  389.1702
  40  357.813
  41  474.7633
  42  533.3618
  43  527.7392
  44  415.358
  45  310.8871
  46  557.3525
  47  531.2897
  48  502.0508
  49  475.0998
  50  451.0157
  51  365.9267
  52  333.4766
  53  367.0475
  54  407.9119
  55  400.709
  56  406.4972
  57  390.19
  58  320.0743
  59  392.6884
  60  323.6752
  61  411.9795
  62  478.1937
  63  577.0645
  64  429.9907
  65  406.206
  66  527.0485
  67  531.8397
  68  446.3128
  69  383.0166
  70  385.116
  71  507.1311
  72  515.3348
  73  433.9162
  74  494.6939
  75  427.9677
  76  442.3163
  77  459.5103
  78  407.1899
  79  429.1045
  80  427.6994
  81  545.6874
  82  483.2426
  83  382.913
  84  346.3516
  85  365.3124
  86  386.8001
  87  389.2745
  88  472.3217
  89  450.3379
  90  472.8196
  91  404.883
  92  409.7409
  93  471.7881
  94  473.0201
  95  467.3981
  96  460.8359
  97  443.7739
  98  479.1589
  99  391.3076
 100  427.5183
 101  385.5299
 102  417.28
 103  488.7939
 104  342.6176
 105  407.1757
 106  375.0847
 107  277.1648
 108  277.5912
 109  253.5748
 110  417.1458
 111  410.9882
 112  413.8532
 113  404.1994
 114  411.703
 115  354.0295
 116  337.8635
 117  448.4774
 118  425.622
 119  389.8298
 120  376.7861
 121  335.4278
 122  300.4967
 123  354.9732
 124  299.9415
 125  297.1051
 126  274.1452
 127  459.5096
 128  476.4593
 129  437.8114
 130  460.9185
 131  451.4349
 132  452.8264
 133  399.8445
 134  402.6609
 135  457.7797
 136  423.1337
 137  390.8391
 138  329.075
 139  309.1882
 140  407.2327
 141  502.2324
 142  397.3204
 143  385.8967
 144  483.3583
 145  470.6945
 146  397.4329
 147  415.4099
 148  392.4626
 149  258.5815
 150  372.5505
 151  433.4662
 152  383.0046
 153  427.746
 154  524.2478
 155  576.3796
 156  432.1992
 157  531.0023
 158  580.5145
 159  580.8677
 160  450.9463
 161  440.4078
 162  504.7709
 163  511.1316
 164  460.2197
 165  386.2589
 166  434.4832
 167  376.7471
 168  445.6589
 169  519.4951
 170  493.0391
 171  492.0378
 172  430.5084
 173  376.4839
 174  392.1142
 175  438.2178
 176  473.9174
 177  422.8392
 178  437.0823
 179  502.5802
 180  416.2954
 181  258.3662
 182  276.2508
 183  359.9732
 184  312.029
 185  340.2505
 186  459.3349
 187  465.1463
 188  334.3438
 189  298.6849
 190  361.7062
 191  377.4562
 192  326.3341
 193  355.2053
 194  300.2179
 195  418.7111
 196  409.018
 197  260.9518
 198  396.5761
 199  417.2303
 200  422.2674
 201  390.5655
 202  470.6713
 203  437.2432
 204  345.3813
 205  360.7562
 206  347.8525
 207  331.6494
 208  382.4547
 209  427.1402
 210  442.7968
 211  433.7666
 212  389.1671
 213  295.5954
 214  354.571
 215  361.9191
 216  271.4448
 217  382.5385
 218  468.8746
 219  567.3012
 220  481.4113
 221  419.822
 222  494.568
 223  488.4096
 224  444.5165
 225  307.299
 226  454.965
 227  443.7739
 228  432.9387
 229  410.0926
 230  474.6515
 231  562.3024
 232  442.3451
 233  457.7688
 234  392.2867
 235  489.5859
 236  491.8969
 237  421.6807
 238  421.7829
 239  474.8085
 240  458.6819
 241  396.5262
 242  363.836
 243  377.5638
 244  544.9975
 245  456.4429
 246  450.1416
 247  436.8347
 248  404.9434
 249  463.418
 250  487.1831
 251  415.041
 252  447.7454
 253  538.538
 254  493.2601
 255  433.6104
 256  494.7486
 257  436.9115
 258  479.3073
 259  339.5123
 260  425.5218
 261  444.0285
 262  365.5991
 263  391.4091
 264  294.9848
 265  417.7694
 266  395.4664
 267  359.2932
 268  274.2169
 269  278.7397
 270  383.174
 271  467.7652
 272  337.2438
 273  358.5099
 274  373.9219
 275  424.1385
 276  435.9738
 277  326.9211
 278  275.1366
 279  364.8922
 280  490.3697
 281  347.4106
 282  259.6023
 283  331.5224
 284  386.5197
 285  357.4562
 286  366.5811
 287  276.4358
 288  302.3096
 289  407.0395
 290  393.0075
 291  370.5626
 292  282.4737
 293  433.4352
 294  562.5306
 295  558.3464
 296  402.6394
 297  389.2557
 298  340.12
 299  406.5347
 300  533.3301
 301  524.7792
 302  396.9525
 303  374.6218
 304  441.9117
 305  425.0928
 306  504.7623
 307  414.1508
 308  530.6791
 309  557.8761
 310  557.4428
 311  522.7565
 312  591.5114
 313  549.7119
 314  443.7743
 315  458.2945
 316  486.6694
 317  637.8762
 318  563.7792
 319  501.4965
 320  572.918
 321  537.3488
 322  643.1419
 323  652.5084
 324  535.9218
 325  437.9563
 326  451.5596
 327  448.1868
 328  588.1017
 329  489.4539
 330  392.8359
 331  533.196
 332  590.6128
 333  500.9051
 334  465.2774
 335  464.0757
 336  466.1392
 337  461.4207
 338  433.8333
 339  479.0565
 340  370.0612
 341  445.4821
 342  471.2606
 343  463.7261
 344  341.6691
 345  402.8062
 346  355.8647
 347  301.1154
 348  334.9948
 349  488.2205
 350  522.6238
 351  321.2282
 352  160.19
 353  340.0921
 354  219.6768
 355  353.3744
 356  451.2341
 357  404.6024
 358  416.5673
 359  385.1745
 360  429.3426
 361  506.6463
 362  345.3274
 363  244.4156
 364  395.0635
 365  532.5991
 366  558.3763
 367  536.4871
 368  538.1147
 369  537.5471
 370  494.4753
 371  374.1792
 372  398.786
 373  422.5009
 374  502.2508
 375  489.5807
 376  456.571
 377  519.1069
 378  506.3007
 379  481.6898
 380  521.775
 381  536.4857
 382  520.4963
 383  495.2869
 384  364.4331
 385  333.4843
 386  379.9906
 387  405.9172
 388  508.4832
 389  452.0404
 390  496.5963
 391  514.0599
 392  508.4144
 393  449.6222
 394  458.6036
 395  566.8562
 396  474.6737
 397  537.3837
 398  438.326
 399  285.8806
 400  431.1458
 401  436.2737
 402  359.5027
 403  401.761
 404  472.5058
 405  472.8531
 406  403.5563
 407  343.8826
 408  452.8506
 409  407.5919
 410  274.1552
 411  351.0732
 412  436.7652
 413  427.4525
 414  440.2164
 415  390.8876
 416  437.0829
 417  424.1487
 418  380.0348
 419  305.1336
 420  318.35
 421  386.8808
 422  381.6662
 423  378.5414
 424  401.921
 425  379.4987
 426  293.0287
 427  361.8737
 428  425.946
 429  434.6604
 430  461.8269
 431  477.6165
 432  455.7953
 433  416.8867
 434  367.8495
 435  444.6192
 436  392.89
 437  436.1363
 438  368.6933
 439  422.1696
 440  460.5542
 441  371.4641
 442  332.3176
 443  339.8298
 444  384.6377
 445  444.7569
 446  488.4873
 447  541.8004
 448  510.9154
 449  489.5169
 450  470.084
 451  402.3123
 452  488.247
 453  508.8087
 454  457.4214
 455  415.1929
 456  324.8042
 457  357.0937
 458  483.2934
 459  492.1541
 460  465.7212
 461  537.4333
 462  451.5254
 463  439.1157
 464  457.3495
 465  479.1609
 466  382.1675
 467  442.3373
 468  404.6094
 469  396.8423
 470  408.5808
 471  386.3596
 472  362.598
 473  398.3448
 474  342.0352
 475  295.0696
 476  308.5781
 477  308.8447
 478  437.1664
 479  410.1626
 480  462.1729
 481  430.5684
 482  496.2762
 483  461.4542
 484  431.6086
 485  412.2438
 486  428.7817
 487  493.4846
 488  426.7991
 489  375.6355
 490  336.65
 491  399.8073
 492  455.0693
 493  472.7353
 494  401.5226
 495  398.6002
 496  455.5519
 497  320.5373
 498  256.067
 499  266.1362
 500  297.0349
 501  421.6715
 502  421.7199
 503  367.117
 504  400.8777
 505  283.7379
 506  353.7609
 507  488.709
 508  574.4946
 509  797.971
 510  880.3868
 511  1025.458
