# Input file       =  1182835593.123291-PSRB0329-2ms-sampling-dd.dat
# Candidate        =  PSR_0332+5434
# Telescope        =  AR
# Epoch_topo       =  57934.226992167722
# Epoch_bary       =  N/A
# T_sample         =  0.002
# Data Folded      =  7340032
# Data Avg         =  -1.26829838685345e-10
# Data StdDev      =  4.75712509712445 
# Profile Bins     =  512
# Profile Avg      =  0.102079322148867
# Profile StdDev   =  569.585032302829 
# Reduced chi-sqr  =  1.122
# Prob(Noise)      <  0.0293   (~1.9 sigma)
# P_topo (ms)      =  714.489859908728  +/- 0.000708
# P'_topo (s/s)    =  -0                +/- 3.74e-10
# P''_topo (s/s^2) =  0                 +/- 1.65e-13
# P_bary (ms)      =  N/A
# P'_bary (s/s)    =  N/A
# P''_bary (s/s^2) =  N/A
# P_orb (s)        =  N/A
# asin(i)/c (s)    =  N/A
# eccentricity     =  N/A
# w (rad)          =  N/A
# T_peri           =  N/A
######################################################
   0  -148.6358
   1  -199.2969
   2  -332.7668
   3  -92.47768
   4  46.591
   5  -242.3435
   6  -635.6864
   7  -408.0039
   8  -508.8227
   9  -333.9419
  10  -277.0132
  11  -289.157
  12  -548.0956
  13  -568.8136
  14  -305.5771
  15  -612.7562
  16  -424.5588
  17  62.01153
  18  -143.656
  19  -371.3796
  20  -291.4704
  21  -275.1517
  22  -310.9247
  23  -304.5776
  24  -292.1679
  25  -536.6976
  26  -631.0931
  27  -413.0494
  28  -204.4101
  29  -140.6937
  30  -94.3241
  31  -135.6832
  32  -178.041
  33  -216.4467
  34  37.03975
  35  -197.5493
  36  -239.6291
  37  -84.09846
  38  -71.69305
  39  -30.88791
  40  181.4021
  41  9.162608
  42  -345.7184
  43  -417.7363
  44  -285.4195
  45  -119.8342
  46  258.4502
  47  153.0975
  48  17.53936
  49  73.54598
  50  84.00717
  51  -52.4625
  52  -158.5656
  53  -58.39521
  54  65.87138
  55  146.9422
  56  225.7213
  57  -81.48727
  58  -20.81149
  59  237.4441
  60  77.57111
  61  36.75846
  62  53.83598
  63  225.4342
  64  44.61264
  65  152.9457
  66  146.7092
  67  161.9488
  68  474.3325
  69  489.4103
  70  214.6018
  71  263.3201
  72  333.8504
  73  334.1459
  74  394.9046
  75  135.5942
  76  -22.69421
  77  167.4173
  78  302.1933
  79  96.59637
  80  -132.5994
  81  126.2616
  82  325.9844
  83  322.5667
  84  111.4098
  85  127.7255
  86  167.0156
  87  58.52029
  88  -121.2487
  89  240.9268
  90  480.5916
  91  780.2363
  92  354.0785
  93  322.5708
  94  230.6946
  95  14.42906
  96  74.96285
  97  44.54639
  98  5.651608
  99  -187.5821
 100  68.38939
 101  115.4276
 102  296.9796
 103  -61.55035
 104  -210.6415
 105  -0.3126936
 106  -127.1021
 107  -567.1773
 108  -671.1651
 109  -466.5544
 110  -236.9647
 111  -44.71463
 112  -232.3512
 113  -284.9708
 114  -58.17114
 115  58.17239
 116  -356.1527
 117  -266.0309
 118  -267.5306
 119  -133.8238
 120  -187.0258
 121  -224.1166
 122  -35.64423
 123  7.051966
 124  52.08213
 125  -142.4727
 126  -117.6911
 127  348.8634
 128  47.63607
 129  -22.33465
 130  -11.45871
 131  40.80453
 132  -61.76463
 133  -162.2109
 134  20.04551
 135  -220.1803
 136  92.75306
 137  -258.4087
 138  -280.9858
 139  -184.6091
 140  -108.9474
 141  -239.7135
 142  -347.0429
 143  -292.5607
 144  -164.7923
 145  77.12708
 146  -150.3672
 147  5.976025
 148  136.0681
 149  167.6293
 150  -144.786
 151  -58.12078
 152  305.3374
 153  202.6851
 154  140.2756
 155  206.4094
 156  149.1253
 157  166.4116
 158  52.41109
 159  -83.69353
 160  -41.94971
 161  -97.58134
 162  -36.3611
 163  -258.5728
 164  -68.26234
 165  -161.8379
 166  -8.525918
 167  -10.42731
 168  -19.91681
 169  59.32383
 170  22.71226
 171  161.6382
 172  167.6759
 173  640.5827
 174  837.856
 175  258.1408
 176  196.9561
 177  48.76388
 178  569.8489
 179  373.0361
 180  364.7183
 181  271.0294
 182  90.18385
 183  -152.6032
 184  -187.644
 185  -244.5653
 186  -186.1759
 187  5.08611
 188  -155.0349
 189  -61.74857
 190  169.0406
 191  69.73516
 192  46.75414
 193  -67.7859
 194  -28.61745
 195  -456.4422
 196  -260.8858
 197  -279.8034
 198  -238.636
 199  -114.5816
 200  232.9083
 201  222.646
 202  51.09064
 203  91.05635
 204  393.6763
 205  343.348
 206  276.1409
 207  90.3106
 208  -80.12787
 209  233.1129
 210  285.269
 211  40.46703
 212  184.646
 213  181.8758
 214  50.49017
 215  59.84979
 216  294.2534
 217  215.8888
 218  -9.391459
 219  -54.04481
 220  -247.7186
 221  -155.3253
 222  -48.33197
 223  363.1643
 224  359.6208
 225  466.0942
 226  491.1251
 227  314.5592
 228  252.4565
 229  237.7439
 230  517.5271
 231  397.6919
 232  343.6037
 233  295.1258
 234  587.8623
 235  852.7855
 236  617.3989
 237  472.7843
 238  560.5397
 239  510.226
 240  155.5049
 241  347.2777
 242  613.905
 243  778.7144
 244  584.1255
 245  554.4403
 246  390.4889
 247  352.3046
 248  278.4447
 249  498.4822
 250  765.8455
 251  430.4794
 252  342.206
 253  221.7705
 254  198.1444
 255  383.0313
 256  522.2226
 257  623.7834
 258  636.567
 259  616.5291
 260  586.118
 261  504.6271
 262  457.8292
 263  762.7618
 264  791.037
 265  701.8683
 266  1405.872
 267  1959.825
 268  1788.702
 269  1434.089
 270  1055.308
 271  766.0476
 272  369.3218
 273  189.5887
 274  75.59804
 275  -91.36383
 276  -104.1509
 277  359.2632
 278  415.1325
 279  -42.55137
 280  -114.9178
 281  85.75914
 282  134.0979
 283  198.201
 284  225.6868
 285  -162.871
 286  -203.9868
 287  -265.2204
 288  55.3796
 289  -158.7048
 290  -372.3606
 291  -400.9272
 292  -403.6085
 293  -88.41016
 294  -309.7545
 295  -535.8343
 296  -240.054
 297  -44.31684
 298  -103.421
 299  -66.53181
 300  72.21044
 301  -86.62932
 302  -27.69501
 303  -223.2117
 304  -270.7252
 305  -149.1636
 306  9.492385
 307  -400.368
 308  -335.4136
 309  38.79826
 310  90.88035
 311  481.3304
 312  617.4993
 313  428.716
 314  -55.61456
 315  -112.5168
 316  876.8401
 317  1356.349
 318  1812.605
 319  2237.543
 320  925.1954
 321  254.1139
 322  362.6053
 323  859.1968
 324  1712.047
 325  2049.401
 326  1812.932
 327  1318.007
 328  92.59321
 329  928.3846
 330  1443.24
 331  1869.089
 332  1543.097
 333  869.9442
 334  -39.25884
 335  27.89923
 336  -212.6436
 337  -293.2278
 338  -259.5179
 339  106.646
 340  92.49722
 341  162.8798
 342  151.4504
 343  -119.8726
 344  -131.1337
 345  99.75178
 346  235.3775
 347  -105.1217
 348  -265.7613
 349  139.302
 350  129.3999
 351  193.7368
 352  111.9737
 353  -105.7301
 354  -545.4175
 355  -604.3713
 356  0.2457324
 357  232.2783
 358  394.9357
 359  300.8288
 360  -265.3382
 361  -537.0116
 362  -763.9966
 363  -774.851
 364  -546.9439
 365  -330.6905
 366  -97.63884
 367  -284.0987
 368  -481.7645
 369  -303.3077
 370  -541.843
 371  -462.4248
 372  -147.6147
 373  -291.2198
 374  -335.8587
 375  -204.8407
 376  -417.5717
 377  -527.3637
 378  -399.6117
 379  -423.4494
 380  -370.837
 381  -87.32615
 382  -81.24078
 383  -271.736
 384  -571.7631
 385  -314.122
 386  -223.9771
 387  -242.341
 388  -201.8219
 389  -424.4576
 390  -482.3282
 391  -623.8656
 392  -439.4732
 393  -341.1568
 394  -478.402
 395  -583.1708
 396  -394.6523
 397  -161.0905
 398  -16.21767
 399  34.03101
 400  -170.1205
 401  -287.804
 402  -435.7604
 403  119.7025
 404  244.9234
 405  128.1723
 406  73.14622
 407  -313.5802
 408  -316.521
 409  -208.0338
 410  -381.2862
 411  -160.3751
 412  -291.4033
 413  -410.2644
 414  -431.6481
 415  -263.8147
 416  -69.28331
 417  -71.91978
 418  -138.7706
 419  -483.7063
 420  -210.1573
 421  -128.9819
 422  -274.7193
 423  -206.586
 424  2.201814
 425  154.4294
 426  190.9678
 427  -398.4972
 428  -505.7673
 429  -240.9744
 430  -233.1866
 431  -369.2201
 432  -198.2429
 433  90.05477
 434  -9.332711
 435  124.2307
 436  -419.1635
 437  -676.9714
 438  -235.1694
 439  -1.635467
 440  305.8578
 441  -49.76402
 442  57.41016
 443  -144.3292
 444  -486.121
 445  -379.2361
 446  -344.087
 447  -215.6804
 448  -42.91719
 449  -67.39535
 450  -198.224
 451  -190.3699
 452  -180.1317
 453  68.40752
 454  -3.986271
 455  -40.3099
 456  -368.5624
 457  -258.0978
 458  -305.5172
 459  -361.2769
 460  -680.2284
 461  -735.2299
 462  -806.006
 463  -744.1543
 464  -436.6839
 465  -363.7916
 466  -651.6337
 467  -545.0733
 468  -553.5598
 469  -650.6428
 470  -353.2276
 471  -162.6724
 472  -235.3807
 473  -255.674
 474  -170.0146
 475  -119.4148
 476  9.593497
 477  -78.71346
 478  -335.2919
 479  -580.8783
 480  -567.1172
 481  -420.1129
 482  -14.77112
 483  85.72021
 484  -175.4964
 485  -55.63715
 486  -300.2382
 487  -286.3635
 488  -331.9469
 489  -407.5954
 490  -198.3401
 491  -404.6907
 492  -535.8734
 493  -836.5378
 494  -444.3134
 495  -471.9452
 496  -562.1267
 497  -723.9572
 498  -655.5037
 499  -463.0129
 500  -304.1085
 501  -245.0948
 502  -504.7881
 503  -546.3597
 504  -332.0776
 505  -567.5844
 506  -514.1341
 507  -243.8618
 508  -229.8026
 509  -212.6157
 510  -107.0246
 511  -72.3707
