# Input file       =  1182993473.111839_cleaned.dat
# Candidate        =  PSR_0332+5434
# Telescope        =  AR
# Epoch_topo       =  57936.054306849990
# Epoch_bary       =  N/A
# T_sample         =  0.002
# Data Folded      =  7405568
# Data Avg         =  0.0236911334812133
# Data StdDev      =  1.00001233111396 
# Profile Bins     =  512
# Profile Avg      =  342.658454653934 
# Profile StdDev   =  120.26785404531  
# Reduced chi-sqr  =  1.307
# Prob(Noise)      <  3.48e-06   (~4.5 sigma)
# P_topo (ms)      =  714.48837403477   +/- 0.000259
# P'_topo (s/s)    =  -0                +/- 1.36e-10
# P''_topo (s/s^2) =  0                 +/- 5.93e-14
# P_bary (ms)      =  N/A
# P'_bary (s/s)    =  N/A
# P''_bary (s/s^2) =  N/A
# P_orb (s)        =  N/A
# asin(i)/c (s)    =  N/A
# eccentricity     =  N/A
# w (rad)          =  N/A
# T_peri           =  N/A
######################################################
   0  229.8916
   1  322.7293
   2  336.358
   3  347.3238
   4  337.1496
   5  294.8774
   6  292.3323
   7  231.8795
   8  222.5625
   9  274.844
  10  337.3342
  11  414.1212
  12  356.5676
  13  252.6544
  14  360.3584
  15  352.5542
  16  354.0842
  17  380.2578
  18  392.5087
  19  389.5462
  20  273.2321
  21  255.2287
  22  317.4848
  23  276.9907
  24  256.978
  25  353.2356
  26  402.7241
  27  424.0748
  28  335.4741
  29  265.0547
  30  397.0556
  31  370.2087
  32  342.3851
  33  257.6613
  34  294.5761
  35  371.9138
  36  360.8864
  37  320.7622
  38  342.0507
  39  410.9717
  40  408.9757
  41  388.926
  42  338.1842
  43  291.2157
  44  230.2568
  45  312.5705
  46  275.3065
  47  302.7754
  48  295.9039
  49  406.4275
  50  322.979
  51  353.0073
  52  284.4959
  53  400.14
  54  372.2107
  55  355.1992
  56  367.8773
  57  407.3503
  58  281.5456
  59  206.653
  60  336.0939
  61  344.0799
  62  419.31
  63  451.5333
  64  354.0027
  65  429.1134
  66  374.8487
  67  461.3036
  68  528.6942
  69  376.7743
  70  309.3445
  71  374.8956
  72  488.6579
  73  456.5251
  74  390.433
  75  347.6248
  76  380.6675
  77  360.4662
  78  446.1125
  79  363.8749
  80  323.0814
  81  408.0626
  82  349.8092
  83  447.5454
  84  470.7717
  85  413.1248
  86  281.9506
  87  295.2653
  88  389.0458
  89  411.4997
  90  392.6339
  91  406.2789
  92  388.426
  93  268.2186
  94  339.5507
  95  301.9576
  96  419.306
  97  415.0239
  98  377.2015
  99  334.0562
 100  354.1573
 101  310.4117
 102  315.4256
 103  410.2176
 104  305.2667
 105  267.662
 106  296.3113
 107  283.1425
 108  325.8148
 109  294.3214
 110  383.4621
 111  382.455
 112  395.6959
 113  363.5022
 114  473.2497
 115  329.4817
 116  319.2192
 117  373.4551
 118  254.4706
 119  339.7159
 120  316.0642
 121  376.0128
 122  336.4916
 123  341.2052
 124  459.718
 125  388.9124
 126  266.205
 127  286.0897
 128  319.0862
 129  385.1705
 130  406.0809
 131  415.6174
 132  411.1824
 133  399.6462
 134  427.1397
 135  501.9558
 136  449.892
 137  447.6972
 138  465.0525
 139  331.8861
 140  354.7705
 141  442.8123
 142  459.489
 143  348.8379
 144  479.999
 145  515.2568
 146  357.5267
 147  355.7534
 148  397.571
 149  410.727
 150  289.1141
 151  343.8696
 152  346.5204
 153  266.7226
 154  278.2833
 155  286.0147
 156  306.2881
 157  358.3312
 158  301.2521
 159  227.8011
 160  343.4175
 161  238.388
 162  234.6359
 163  265.3048
 164  359.5431
 165  332.9695
 166  284.9979
 167  339.1318
 168  207.733
 169  164.3907
 170  339.196
 171  355.7289
 172  247.6296
 173  118.6518
 174  176.7211
 175  157.2646
 176  355.6143
 177  360.3987
 178  275.5215
 179  318.8114
 180  262.5629
 181  226.9482
 182  191.4261
 183  222.2164
 184  272.6135
 185  308.5354
 186  332.8031
 187  321.1237
 188  201.139
 189  183.0697
 190  147.7669
 191  182.9124
 192  296.9847
 193  249.9445
 194  328.6594
 195  255.265
 196  248.639
 197  364.4008
 198  312.7339
 199  340.6302
 200  338.4538
 201  343.2881
 202  306.1524
 203  225.5553
 204  286.0448
 205  307.5107
 206  469.4538
 207  471.9142
 208  373.2939
 209  369.0731
 210  273.5415
 211  284.2855
 212  345.6819
 213  360.4654
 214  358.4164
 215  392.0028
 216  442.6866
 217  323.1216
 218  364.2212
 219  339.9251
 220  356.9811
 221  321.0449
 222  257.6218
 223  345.2055
 224  448.7137
 225  434.2235
 226  405.6518
 227  378.5833
 228  450.5453
 229  460.5539
 230  341.2108
 231  303.8139
 232  349.9753
 233  292.4003
 234  341.8603
 235  272.7701
 236  348.6971
 237  406.5506
 238  381.923
 239  323.8138
 240  300.2281
 241  353.0296
 242  181.7452
 243  192.9622
 244  267.825
 245  369.8711
 246  346.1292
 247  341.6431
 248  373.7077
 249  325.4959
 250  382.0854
 251  262.8167
 252  206.7631
 253  220.7954
 254  335.1661
 255  354.7873
 256  298.464
 257  320.1711
 258  334.3356
 259  244.3151
 260  226.9215
 261  225.9735
 262  197.6266
 263  332.6853
 264  312.5384
 265  184.1132
 266  162.1674
 267  353.9977
 268  397.7079
 269  327.1977
 270  321.9096
 271  383.7006
 272  371.5297
 273  388.8015
 274  430.8179
 275  455.4078
 276  491.1608
 277  336.2353
 278  277.3468
 279  313.1358
 280  389.6221
 281  412.3436
 282  408.8916
 283  381.9509
 284  390.917
 285  415.7698
 286  502.5569
 287  570.0466
 288  674.5654
 289  870.8909
 290  990.6367
 291  1088.89
 292  992.717
 293  729.6619
 294  561.3353
 295  369.361
 296  356.2648
 297  411.244
 298  402.3575
 299  356.8065
 300  433.8836
 301  470.5008
 302  402.6412
 303  484.2378
 304  487.7672
 305  508.3761
 306  439.48
 307  535.9459
 308  458.9451
 309  366.4136
 310  320.5669
 311  275.9269
 312  432.2123
 313  434.2403
 314  362.7747
 315  400.1782
 316  406.1261
 317  267.0731
 318  252.6287
 319  391.9718
 320  471.3459
 321  380.3223
 322  326.4571
 323  302.4255
 324  372.665
 325  350.0793
 326  297.675
 327  312.7302
 328  331.8921
 329  366.8372
 330  373.6758
 331  361.8926
 332  423.2477
 333  299.1485
 334  401.6208
 335  360.4336
 336  346.6393
 337  404.7154
 338  254.2909
 339  301.5169
 340  230.4595
 341  300.5201
 342  317.6895
 343  190.4033
 344  157.897
 345  198.0261
 346  242.0126
 347  253.8503
 348  388.6724
 349  329.7285
 350  235.9843
 351  300.7469
 352  242.8328
 353  404.3762
 354  410.1073
 355  348.353
 356  390.0642
 357  405.8124
 358  412.7866
 359  470.3953
 360  386.2629
 361  259.3763
 362  434.0855
 363  384.4131
 364  291.2661
 365  483.5075
 366  560.5242
 367  451.5119
 368  395.091
 369  491.3053
 370  339.8437
 371  370.2656
 372  356.8318
 373  473.5373
 374  378.7477
 375  358.2008
 376  336.678
 377  287.9087
 378  360.4286
 379  423.7723
 380  527.8506
 381  448.9743
 382  198.8945
 383  160.5407
 384  173.1847
 385  323.6059
 386  376.9327
 387  415.1075
 388  358.4909
 389  282.5918
 390  202.2818
 391  174.0826
 392  230.3254
 393  338.0346
 394  242.2915
 395  281.2527
 396  314.3625
 397  244.1684
 398  334.8346
 399  336.3788
 400  385.6636
 401  339.2509
 402  370.8714
 403  410.0068
 404  477.3727
 405  376.3076
 406  268.8093
 407  303.8038
 408  306.8274
 409  313.3456
 410  301.6371
 411  301.2012
 412  226.8708
 413  221.0511
 414  277.3148
 415  275.2486
 416  286.7872
 417  324.3854
 418  322.8802
 419  262.1788
 420  229.6595
 421  307.3057
 422  332.3395
 423  294.9017
 424  398.4801
 425  345.7806
 426  341.2722
 427  368.4854
 428  356.6182
 429  316.1978
 430  200.7301
 431  253.2837
 432  290.8375
 433  349.0412
 434  314.7577
 435  377.6596
 436  315.9018
 437  316.1222
 438  311.3611
 439  187.7361
 440  315.1238
 441  285.671
 442  297.6024
 443  410.5912
 444  306.1228
 445  398.5503
 446  349.4015
 447  361.8383
 448  370.1189
 449  312.6939
 450  288.8549
 451  309.2483
 452  277.4057
 453  291.4565
 454  256.8233
 455  230.0482
 456  305.8783
 457  282.892
 458  275.3805
 459  246.0775
 460  324.9101
 461  208.4465
 462  265.147
 463  336.6616
 464  214.0408
 465  157.7767
 466  214.6982
 467  314.9467
 468  366.7051
 469  232.9874
 470  225.4841
 471  296.881
 472  288.3114
 473  218.461
 474  226.0064
 475  349.5857
 476  313.2901
 477  219.7114
 478  178.5602
 479  199.6048
 480  265.9643
 481  220.9227
 482  254.7287
 483  318.7709
 484  345.774
 485  298.965
 486  249.4149
 487  230.2135
 488  339.5372
 489  263.0407
 490  240.0144
 491  414.1769
 492  471.4299
 493  295.8103
 494  219.1254
 495  177.2063
 496  250.6682
 497  349.3637
 498  394.349
 499  459.0421
 500  401.2054
 501  467.6216
 502  388.5347
 503  339.0358
 504  378.3158
 505  520.278
 506  431.4713
 507  473.9504
 508  401.3571
 509  366.8602
 510  396.1642
 511  266.2404
