# Input file       =  1182921607.112785_cleaned.dat
# Candidate        =  PSR_0332+5434
# Telescope        =  AR
# Epoch_topo       =  57935.222524453529
# Epoch_bary       =  N/A
# T_sample         =  0.002
# Data Folded      =  7340032
# Data Avg         =  0.152663607451749
# Data StdDev      =  3.15315566304942 
# Profile Bins     =  512
# Profile Avg      =  2188.66060196857 
# Profile StdDev   =  377.536901705502 
# Reduced chi-sqr  =  1.007
# Prob(Noise)      <  0.445   (~0.1 sigma)
# P_topo (ms)      =  714.489051426533  +/- 0.000874
# P'_topo (s/s)    =  -0                +/- 4.61e-10
# P''_topo (s/s^2) =  0                 +/- 2.03e-13
# P_bary (ms)      =  N/A
# P'_bary (s/s)    =  N/A
# P''_bary (s/s^2) =  N/A
# P_orb (s)        =  N/A
# asin(i)/c (s)    =  N/A
# eccentricity     =  N/A
# w (rad)          =  N/A
# T_peri           =  N/A
######################################################
   0  2735.028
   1  2764.918
   2  2452.942
   3  2630.624
   4  2631.397
   5  2455.267
   6  2565.415
   7  2509.527
   8  2299.836
   9  2364.446
  10  2584.37
  11  2417.572
  12  2381.203
  13  2242.656
  14  2282.987
  15  2249.726
  16  2198.43
  17  2492.497
  18  2457.921
  19  2322.786
  20  2215.819
  21  2003.996
  22  2224.715
  23  2163.501
  24  2059.037
  25  2060.828
  26  2119.952
  27  1733.621
  28  1892.381
  29  2243.411
  30  2182.662
  31  2095.732
  32  2091.557
  33  2000.188
  34  1983.901
  35  2235.407
  36  2302.184
  37  2197.356
  38  2181.915
  39  2188.865
  40  2010.764
  41  1887.492
  42  1981.442
  43  2238.796
  44  2277.633
  45  2213.642
  46  1800.951
  47  1937.148
  48  2069.918
  49  2250.347
  50  2380.302
  51  2223.052
  52  2012.463
  53  1956.616
  54  2174.545
  55  2068.859
  56  2224.371
  57  2189.535
  58  1916.533
  59  2004.445
  60  1802.622
  61  1523.93
  62  1606.085
  63  1901.809
  64  2141.446
  65  2143.631
  66  2015.392
  67  1931.443
  68  1669.006
  69  1871.625
  70  1897.457
  71  1846.064
  72  1721.831
  73  1624.819
  74  1772.966
  75  1807.881
  76  2062.716
  77  2094.64
  78  1852.118
  79  1773.078
  80  1623.613
  81  1918.347
  82  2208.181
  83  1998.022
  84  1633.663
  85  1784.265
  86  1902.977
  87  2179.562
  88  2299.049
  89  2004.297
  90  1990.381
  91  1845.425
  92  2030.189
  93  2017.966
  94  1974.699
  95  2102.609
  96  2020.647
  97  2034.342
  98  1870.986
  99  2038.442
 100  2301.226
 101  1924.31
 102  1568.683
 103  1872.23
 104  2144.388
 105  2012.516
 106  1599.136
 107  1905.312
 108  1876.557
 109  1889.538
 110  1764.602
 111  1567.948
 112  1986.546
 113  2001.969
 114  1776.95
 115  1770.443
 116  1838.321
 117  1858.809
 118  1599.109
 119  1785.324
 120  1942.218
 121  2028.554
 122  1884.703
 123  2167.657
 124  2002.919
 125  2245.535
 126  2199.082
 127  1911.145
 128  2123.873
 129  2088.439
 130  2128.205
 131  2050.389
 132  1830.863
 133  2162.43
 134  2165.33
 135  2286.96
 136  1960.581
 137  1727.466
 138  1737.046
 139  1671.943
 140  1924.278
 141  2095.337
 142  1843.264
 143  1875.088
 144  2061.863
 145  1829.424
 146  1837.353
 147  1792.714
 148  2076.573
 149  2219.411
 150  2348.04
 151  2084.392
 152  2216.334
 153  2241.84
 154  2398.645
 155  2498.387
 156  2590.18
 157  2265.133
 158  2123.958
 159  2296.098
 160  2207.25
 161  2167.013
 162  2244.335
 163  2298.318
 164  2370.669
 165  2678.537
 166  3159.822
 167  3365.86
 168  3520.85
 169  3617.751
 170  3179.568
 171  2717.156
 172  2482.668
 173  2182.228
 174  1895.08
 175  2099.358
 176  2073.012
 177  2047.583
 178  2262.666
 179  2260.825
 180  2137.039
 181  1864.418
 182  2259.799
 183  2180.692
 184  2104.631
 185  2176.148
 186  2086.069
 187  1974.068
 188  2035.231
 189  2064.855
 190  2230.495
 191  2285.417
 192  2235.124
 193  2230.932
 194  2332.828
 195  2201.605
 196  2478.023
 197  2422.664
 198  2417.112
 199  2093.337
 200  2312.37
 201  2192.707
 202  2165.599
 203  2332.232
 204  2384.052
 205  2289.7
 206  2108.662
 207  1902.328
 208  2115.477
 209  2378.984
 210  2243.281
 211  2229.449
 212  2326.522
 213  2256.103
 214  1810.281
 215  1855.172
 216  1781.43
 217  1710.942
 218  2132.69
 219  1962.535
 220  1879.559
 221  1830.357
 222  1651.337
 223  1879.736
 224  2026.927
 225  2151.83
 226  1858.666
 227  1779.49
 228  1620.662
 229  1601.752
 230  1260.892
 231  1740.695
 232  2017.089
 233  2113.521
 234  1933.311
 235  1930.877
 236  1903.694
 237  1815.797
 238  1937.768
 239  2028.878
 240  1918.677
 241  1762.708
 242  1824.374
 243  1999.597
 244  2202.902
 245  2160.629
 246  1930.208
 247  2044.701
 248  2275.979
 249  2302.63
 250  2072.834
 251  1972.832
 252  2136.176
 253  2245.801
 254  2243.426
 255  2073.958
 256  2122.638
 257  1885.762
 258  2071.729
 259  2254.363
 260  2394.949
 261  2282.326
 262  2239.083
 263  2397.237
 264  2641.184
 265  2445.15
 266  2381.022
 267  2215.314
 268  2400.056
 269  2421.247
 270  2426.378
 271  2499.321
 272  2312.587
 273  1874.705
 274  2407.564
 275  2360.652
 276  2019.651
 277  2359.312
 278  2473.554
 279  2269.123
 280  2068.046
 281  2084.973
 282  2122.62
 283  2210.53
 284  2036.206
 285  2454.257
 286  2142.37
 287  1998.182
 288  2255.273
 289  2391.337
 290  2347.936
 291  2377.664
 292  2353.059
 293  2607.773
 294  2624.567
 295  2153.384
 296  2041.445
 297  2404.795
 298  2213.466
 299  2213.246
 300  2158.46
 301  2117.591
 302  2192.925
 303  2175.841
 304  2302.742
 305  2304.801
 306  2158.704
 307  2371.026
 308  2535.293
 309  2275.641
 310  2131.134
 311  2340.316
 312  2178.13
 313  2365.162
 314  2390.675
 315  2370.05
 316  2109.642
 317  1893.578
 318  2061.787
 319  2577.636
 320  2521.347
 321  2051.472
 322  2073.799
 323  2443.295
 324  2486.574
 325  2262.309
 326  2241.104
 327  1962.856
 328  1854.784
 329  1997.433
 330  2179.906
 331  1975.839
 332  1880.846
 333  2144.461
 334  2232.343
 335  2170.206
 336  2269.852
 337  2189.325
 338  2164.958
 339  2420.27
 340  2534.682
 341  2383.947
 342  2319.261
 343  2417.915
 344  2301.752
 345  2442.041
 346  2781.658
 347  2524.952
 348  2551.077
 349  2342.888
 350  2433.395
 351  2095.177
 352  2180.288
 353  2069.794
 354  2356.222
 355  2296.866
 356  2387.696
 357  2340.367
 358  2381.335
 359  2053.625
 360  2078.58
 361  1854.742
 362  2098.436
 363  2039.979
 364  2289.217
 365  2181.263
 366  1921.37
 367  1953.466
 368  1784.72
 369  2005.578
 370  2436.483
 371  2619.645
 372  2318.246
 373  1943.978
 374  2037.066
 375  2187.447
 376  2263.548
 377  2340.082
 378  2161.854
 379  2265.148
 380  2198.929
 381  1847.366
 382  1835.748
 383  1945.71
 384  2126.763
 385  2062.349
 386  1837.219
 387  2037.211
 388  2202.444
 389  2078.216
 390  2445.949
 391  2606.704
 392  2509.239
 393  2391.607
 394  2277.59
 395  2387.061
 396  2764.359
 397  2644.013
 398  2438.421
 399  2526.916
 400  2435.446
 401  2389.902
 402  2133.896
 403  1996.52
 404  2121.41
 405  2184.97
 406  2358.137
 407  2322.803
 408  2059.993
 409  2096.64
 410  2303.68
 411  2229.834
 412  2116.118
 413  2053.706
 414  2273.031
 415  2363.469
 416  2092.305
 417  2005.31
 418  1938.252
 419  2049.311
 420  2244.796
 421  2014.205
 422  1934.504
 423  2088.884
 424  1947.773
 425  2035.617
 426  2342.95
 427  2362.384
 428  2331.299
 429  2460.452
 430  2616.528
 431  2526.089
 432  2474.767
 433  2148.159
 434  2338.489
 435  2294.093
 436  2200.352
 437  2268.629
 438  2483.172
 439  2418.229
 440  2170.03
 441  2424.663
 442  2335.689
 443  2344.072
 444  2220.113
 445  2305.32
 446  2476.491
 447  2441.901
 448  2562.719
 449  2508.243
 450  2360.108
 451  2512.134
 452  2558.698
 453  2748.971
 454  2330.355
 455  2134.821
 456  2289.966
 457  2550.709
 458  2490.091
 459  2286.306
 460  2500.575
 461  2344.771
 462  2212.438
 463  2212.476
 464  2137.647
 465  2123.575
 466  2332.181
 467  2388.295
 468  2169.791
 469  2013.556
 470  2500.76
 471  2550.332
 472  2460.44
 473  2235.791
 474  2316.166
 475  2139.262
 476  2136.591
 477  2247.102
 478  2211.158
 479  2241.619
 480  2440.596
 481  2213.018
 482  2280.716
 483  2422.029
 484  2514.129
 485  2440.258
 486  2627.356
 487  2460.646
 488  1909.976
 489  2142.059
 490  2658.497
 491  2804.457
 492  2725.208
 493  2533.924
 494  2245.757
 495  2130.138
 496  2287.296
 497  2664.978
 498  2402.21
 499  2631.925
 500  2613.322
 501  2599.637
 502  2448.72
 503  2156.685
 504  2077.775
 505  2135.116
 506  2078.175
 507  2508.329
 508  2272.012
 509  2437.139
 510  2687.911
 511  2719.418
