# Input file       =  1182476385.100278-PSRB0329-2ms-sampling-dd.dat
# Candidate        =  PSR_0332+5434
# Telescope        =  AR
# Epoch_topo       =  57930.069491901362
# Epoch_bary       =  N/A
# T_sample         =  0.002
# Data Folded      =  7208960
# Data Avg         =  3.35996402135048e-11
# Data StdDev      =  5.82689903476267 
# Profile Bins     =  512
# Profile Avg      =  0.25761228762824 
# Profile StdDev   =  691.415036897058 
# Reduced chi-sqr  =  0.647
# Prob(Noise)      <  1   (~0.0 sigma)
# P_topo (ms)      =  714.493319852559  +/- 7.09e-05
# P'_topo (s/s)    =  -0                +/- 3.81e-11
# P''_topo (s/s^2) =  0                 +/- 1.71e-14
# P_bary (ms)      =  N/A
# P'_bary (s/s)    =  N/A
# P''_bary (s/s^2) =  N/A
# P_orb (s)        =  N/A
# asin(i)/c (s)    =  N/A
# eccentricity     =  N/A
# w (rad)          =  N/A
# T_peri           =  N/A
######################################################
   0  196.4297
   1  -255.1994
   2  -647.524
   3  -1042.243
   4  -874.1636
   5  -862.9881
   6  -596.3692
   7  -313.4761
   8  -246.6406
   9  302.3588
  10  -725.6325
  11  -679.6333
  12  -380.5088
  13  -471.7429
  14  -452.417
  15  32.25671
  16  -495.0843
  17  -528.2098
  18  -574.1936
  19  -774.1037
  20  -762.0966
  21  -589.1234
  22  -335.1758
  23  -244.4592
  24  90.52039
  25  -122.7173
  26  -371.9129
  27  -1158.61
  28  -806.3358
  29  -808.5217
  30  -657.2138
  31  -378.4538
  32  -200.5027
  33  29.49644
  34  -375.3125
  35  -836.113
  36  -803.3728
  37  -697.5012
  38  -393.974
  39  401.0362
  40  448.1831
  41  511.8563
  42  123.1968
  43  151.6959
  44  -248.2117
  45  -287.4688
  46  95.37569
  47  318.4137
  48  555.978
  49  618.8958
  50  523.7748
  51  264.1556
  52  223.0725
  53  -118.5949
  54  -357.0303
  55  74.96755
  56  247.1603
  57  130.4206
  58  392.4212
  59  34.11939
  60  -448.7819
  61  75.15944
  62  65.70515
  63  291.3117
  64  -55.61712
  65  231.3195
  66  377.2778
  67  -87.10948
  68  -265.9218
  69  -73.57648
  70  141.1243
  71  -330.9975
  72  -60.8213
  73  233.674
  74  462.9173
  75  188.0351
  76  134.8592
  77  122.7652
  78  159.2123
  79  32.13752
  80  211.7342
  81  460.2374
  82  425.0473
  83  358.5966
  84  151.8195
  85  188.3221
  86  -395.1625
  87  -218.4493
  88  -378.8318
  89  -637.0923
  90  -323.5143
  91  168.7126
  92  17.42451
  93  -357.4315
  94  -516.6577
  95  -478.2346
  96  -459.1295
  97  107.389
  98  -82.4402
  99  -144.703
 100  -165.5429
 101  -506.4812
 102  -302.4662
 103  -180.941
 104  225.0635
 105  234.5757
 106  239.9958
 107  480.3212
 108  -101.8174
 109  -344.2254
 110  -21.19049
 111  140.0869
 112  0.7037475
 113  8.38602
 114  371.9637
 115  454.7081
 116  228.4373
 117  166.688
 118  -88.20399
 119  44.65957
 120  -383.0806
 121  -269.7973
 122  11.56857
 123  -274.9167
 124  -325.4846
 125  -813.3982
 126  -909.5409
 127  -301.6333
 128  -269.235
 129  -553.7426
 130  -421.9711
 131  -154.0576
 132  115.1676
 133  9.132116
 134  55.4183
 135  -44.03008
 136  -293.2263
 137  -329.4244
 138  -491.1479
 139  55.71041
 140  252.4478
 141  202.7795
 142  219.0363
 143  -120.4369
 144  -102.5073
 145  -113.1347
 146  -136.7913
 147  184.4486
 148  471.8376
 149  322.6334
 150  -30.38015
 151  -293.103
 152  -184.4865
 153  -523.2097
 154  -41.82614
 155  -238.741
 156  -143.3921
 157  -242.3324
 158  -135.581
 159  -4.295619
 160  -76.0974
 161  -148.6107
 162  -91.25719
 163  -61.29707
 164  -199.7976
 165  -133.3203
 166  -132.9073
 167  -186.1896
 168  -334.9736
 169  -79.31464
 170  -619.675
 171  -761.0876
 172  -897.9349
 173  -467.9782
 174  -28.18907
 175  -124.1589
 176  221.846
 177  211.6272
 178  532.2457
 179  254.0469
 180  228.9067
 181  379.2527
 182  116.0795
 183  19.06984
 184  109.7261
 185  232.6408
 186  104.8952
 187  -14.00475
 188  319.3331
 189  149.286
 190  -342.2239
 191  -443.3697
 192  -672.0403
 193  36.37027
 194  314.2701
 195  -35.39323
 196  257.7206
 197  337.3308
 198  60.50915
 199  -17.21563
 200  -158.2627
 201  -179.5579
 202  398.7427
 203  336.4742
 204  229.0612
 205  253.6331
 206  476.0594
 207  618.2739
 208  40.7201
 209  -41.90324
 210  318.7037
 211  587.0576
 212  438.2707
 213  693.4816
 214  1066.972
 215  444.6874
 216  -236.8192
 217  153.16
 218  7.16931
 219  -2.471116
 220  -222.9146
 221  237.864
 222  361.9477
 223  270.5479
 224  258.6139
 225  -248.7656
 226  85.863
 227  -63.75399
 228  -39.34949
 229  -27.50691
 230  513.1874
 231  739.3
 232  691.312
 233  43.53791
 234  10.31508
 235  -91.2295
 236  -56.14138
 237  193.2021
 238  593.3443
 239  771.9262
 240  176.794
 241  742.903
 242  408.2956
 243  568.0015
 244  308.8581
 245  263.768
 246  315.4188
 247  672.4185
 248  469.3258
 249  -14.16028
 250  418.5247
 251  584.0738
 252  546.6774
 253  212.0023
 254  186.7336
 255  203.5219
 256  444.9647
 257  399.2404
 258  156.6784
 259  -14.67393
 260  72.99783
 261  364.2847
 262  673.3087
 263  648.3166
 264  625.9788
 265  264.1197
 266  72.92793
 267  301.754
 268  326.5153
 269  759.7949
 270  479.4264
 271  585.0927
 272  263.6592
 273  37.35058
 274  -39.37117
 275  -273.5761
 276  125.0688
 277  296.1818
 278  235.1251
 279  88.68
 280  104.1383
 281  -122.101
 282  -291.5891
 283  -601.7703
 284  -811.4329
 285  -480.0598
 286  -79.76931
 287  73.57166
 288  55.53028
 289  -117.5982
 290  -371.3069
 291  -436.3582
 292  -890.9651
 293  -464.3342
 294  -63.41481
 295  -31.04304
 296  78.11963
 297  44.80545
 298  -30.86608
 299  -618.2912
 300  -311.046
 301  -151.6532
 302  -218.0644
 303  -381.5574
 304  29.58064
 305  127.2175
 306  -78.76598
 307  -435.5891
 308  -555.0468
 309  -315.2892
 310  41.7204
 311  111.1067
 312  268.3275
 313  604.0197
 314  850.732
 315  366.4032
 316  -177.5181
 317  -12.91413
 318  -388.2071
 319  -34.87568
 320  331.2566
 321  204.5387
 322  84.06544
 323  -156.8027
 324  -364.785
 325  -777.5331
 326  -812.8823
 327  -233.1222
 328  204.2774
 329  511.7863
 330  654.6339
 331  407.4822
 332  696.3513
 333  946.6173
 334  1471.96
 335  1681.282
 336  1842.107
 337  1024.289
 338  672.0155
 339  490.7133
 340  -102.8215
 341  16.90718
 342  233.7026
 343  175.6881
 344  66.98036
 345  321.7392
 346  133.3053
 347  131.6405
 348  -94.06175
 349  326.416
 350  -98.65524
 351  -245.0375
 352  -34.28561
 353  -2.216113
 354  50.41765
 355  -270.2577
 356  -104.6155
 357  -508.1038
 358  -433.6842
 359  -374.4209
 360  -64.25072
 361  -323.944
 362  -125.2396
 363  -67.48515
 364  -349.801
 365  -403.932
 366  -611.1025
 367  -393.9762
 368  56.04639
 369  274.787
 370  154.6152
 371  304.1247
 372  -341.8577
 373  -782.7995
 374  -854.9371
 375  -670.8984
 376  -41.39649
 377  -148.2151
 378  -244.3593
 379  107.0583
 380  84.7978
 381  -460.0654
 382  -980.1848
 383  -668.488
 384  -422.7085
 385  -204.2941
 386  293.2643
 387  159.1405
 388  263.089
 389  -192.5205
 390  -353.9198
 391  -687.6261
 392  -414.3162
 393  -184.4906
 394  149.5991
 395  288.5117
 396  297.0543
 397  301.7303
 398  52.41918
 399  -192.9589
 400  -416.5497
 401  -254.5733
 402  209.1838
 403  748.6816
 404  690.4421
 405  251.1928
 406  -127.3315
 407  -388.0556
 408  119.3586
 409  60.48895
 410  520.8141
 411  326.0398
 412  274.676
 413  441.6436
 414  243.1422
 415  395.7772
 416  481.8661
 417  331.4891
 418  53.13602
 419  99.13941
 420  452.2117
 421  414.9527
 422  128.9109
 423  345.2931
 424  343.8608
 425  455.2186
 426  -401.9543
 427  -112.7947
 428  340.9991
 429  62.08298
 430  8.652449
 431  -385.1804
 432  66.29162
 433  14.83743
 434  467.5569
 435  597.167
 436  550.0044
 437  172.6858
 438  657.3223
 439  471.1449
 440  155.0528
 441  -180.2913
 442  -302.3778
 443  197.9971
 444  308.2306
 445  564.4625
 446  278.2869
 447  -92.5953
 448  -514.8126
 449  -543.2842
 450  -525.8676
 451  98.77088
 452  293.8233
 453  193.7454
 454  -122.3213
 455  -167.1589
 456  -433.6282
 457  -704.9088
 458  -890.1597
 459  -582.4903
 460  137.5166
 461  361.9572
 462  575.0319
 463  176.0675
 464  -48.06477
 465  -442.2685
 466  -373.6615
 467  -441.3273
 468  -445.1792
 469  47.59026
 470  408.5282
 471  417.1482
 472  87.88513
 473  -605.9052
 474  -461.0696
 475  270.9169
 476  14.95338
 477  179.7379
 478  104.8321
 479  411.343
 480  159.6201
 481  -583.1057
 482  -556.5976
 483  -415.1426
 484  68.06949
 485  347.2057
 486  373.8899
 487  382.6261
 488  -41.26878
 489  -238.0632
 490  -140.4664
 491  136.3225
 492  -162.7804
 493  349.2767
 494  815.8656
 495  488.8558
 496  -83.259
 497  6.44039
 498  -287.8494
 499  138.1982
 500  -7.651465
 501  403.2323
 502  40.45984
 503  42.76626
 504  55.43377
 505  -467.3453
 506  -344.0367
 507  -371.424
 508  -427.2016
 509  -345.9178
 510  -68.82512
 511  133.9021
