# Input file       =  1182936363.103926_cleaned.dat
# Candidate        =  PSR_0332+5434
# Telescope        =  AR
# Epoch_topo       =  57935.393311388034
# Epoch_bary       =  N/A
# T_sample         =  0.002
# Data Folded      =  7340032
# Data Avg         =  0.027762728280843
# Data StdDev      =  1.00010816326835 
# Profile Bins     =  512
# Profile Avg      =  397.913380384584 
# Profile StdDev   =  119.74598709331  
# Reduced chi-sqr  =  1.403
# Prob(Noise)      <  4.27e-09   (~5.8 sigma)
# P_topo (ms)      =  714.489241424366  +/- 0.000347
# P'_topo (s/s)    =  -0                +/- 1.83e-10
# P''_topo (s/s^2) =  0                 +/- 8.09e-14
# P_bary (ms)      =  N/A
# P'_bary (s/s)    =  N/A
# P''_bary (s/s^2) =  N/A
# P_orb (s)        =  N/A
# asin(i)/c (s)    =  N/A
# eccentricity     =  N/A
# w (rad)          =  N/A
# T_peri           =  N/A
######################################################
   0  961.4094
   1  989.9638
   2  857.3425
   3  520.0474
   4  424.0253
   5  356.3644
   6  418.36
   7  392.9212
   8  320.1874
   9  301.1311
  10  318.4084
  11  445.9245
  12  441.1525
  13  445.8163
  14  433.2751
  15  540.1196
  16  506.6119
  17  474.9041
  18  407.1192
  19  450.3847
  20  436.5735
  21  404.8619
  22  480.0336
  23  529.1719
  24  478.9336
  25  456.6271
  26  516.7645
  27  444.0593
  28  373.8625
  29  359.8872
  30  303.5789
  31  315.0532
  32  443.6311
  33  393.4734
  34  317.6437
  35  371.9928
  36  388.6993
  37  398.5539
  38  269.864
  39  277.8913
  40  367.7602
  41  403.0631
  42  394.5161
  43  406.6752
  44  350.1421
  45  265.5007
  46  223.4323
  47  267.6226
  48  332.4362
  49  318.4623
  50  305.2251
  51  359.073
  52  237.1264
  53  304.0748
  54  251.2108
  55  355.2125
  56  385.726
  57  433.681
  58  487.6144
  59  313.5684
  60  226.1102
  61  345.5522
  62  413.6224
  63  422.9868
  64  483.2289
  65  489.9062
  66  337.1088
  67  339.8533
  68  409.6989
  69  299.15
  70  343.7494
  71  486.7819
  72  392.4115
  73  401.0994
  74  488.7788
  75  568.1614
  76  450.7375
  77  352.4478
  78  342.274
  79  302.2916
  80  311.3181
  81  393.91
  82  375.7677
  83  255.521
  84  321.634
  85  312.1892
  86  235.7341
  87  305.9158
  88  216.0178
  89  294.8278
  90  266.0737
  91  421.0889
  92  380.1811
  93  335.2312
  94  460.2928
  95  382.9321
  96  368.3766
  97  400.5938
  98  402.2135
  99  382.2588
 100  301.3704
 101  304.8473
 102  361.9425
 103  417.2716
 104  397.4357
 105  298.9736
 106  434.7835
 107  427.1786
 108  415.5505
 109  400.111
 110  355.7747
 111  349.2028
 112  367.2494
 113  385.5726
 114  291.5525
 115  319.1
 116  427.1822
 117  517.6846
 118  434.0277
 119  337.6324
 120  273.7993
 121  325.3652
 122  281.4418
 123  263.9348
 124  272.8001
 125  311.0629
 126  334.8616
 127  296.4477
 128  282.1119
 129  276.5994
 130  202.3558
 131  186.6295
 132  223.0354
 133  212.2012
 134  199.4135
 135  289.5461
 136  331.7796
 137  399.5484
 138  268.5038
 139  201.9507
 140  273.6736
 141  501.5061
 142  502.2868
 143  328.381
 144  260.547
 145  388.2207
 146  372.5649
 147  328.3206
 148  364.697
 149  388.4088
 150  432.7665
 151  385.3339
 152  362.8602
 153  316.9784
 154  257.5402
 155  386.8398
 156  292.8411
 157  242.3441
 158  281.4745
 159  294.5901
 160  324.495
 161  330.7332
 162  390.6635
 163  260.7019
 164  245.2561
 165  357.6754
 166  354.057
 167  431.8441
 168  360.2408
 169  346.0279
 170  332.595
 171  308.1277
 172  389.8995
 173  344.0791
 174  298.388
 175  231.1987
 176  249.658
 177  271.378
 178  274.2372
 179  208.9616
 180  241.4216
 181  414.061
 182  419.9522
 183  392.5762
 184  490.7473
 185  432.0623
 186  325.5503
 187  280.1605
 188  301.9794
 189  357.7594
 190  519.0773
 191  476.0413
 192  295.8006
 193  390.0468
 194  382.8939
 195  435.0903
 196  315.6402
 197  402.5396
 198  407.7903
 199  426.5829
 200  524.046
 201  418.104
 202  427.5318
 203  407.0789
 204  521.007
 205  378.2761
 206  290.4949
 207  303.4878
 208  275.6516
 209  324.4137
 210  306.2035
 211  353.8124
 212  328.1405
 213  243.5857
 214  335.5781
 215  386.1317
 216  363.7898
 217  422.1571
 218  452.3643
 219  378.3206
 220  399.9093
 221  284.6812
 222  385.9082
 223  381.7831
 224  417.1222
 225  366.0964
 226  391.4677
 227  406.9539
 228  443.2137
 229  326.0577
 230  310.8593
 231  432.7213
 232  407.1396
 233  296.3677
 234  334.4136
 235  398.6638
 236  404.6953
 237  309.479
 238  334.5359
 239  229.2915
 240  237.0597
 241  267.956
 242  319.0191
 243  306.4554
 244  440.5398
 245  403.2568
 246  416.8707
 247  425.3342
 248  285.142
 249  182.2056
 250  237.4664
 251  270.907
 252  431.5385
 253  349.527
 254  243.7774
 255  308.9062
 256  352.8935
 257  458.5064
 258  442.6625
 259  432.1751
 260  374.7451
 261  388.6286
 262  279.5926
 263  286.9149
 264  284.6675
 265  303.0211
 266  398.5742
 267  402.185
 268  415.8512
 269  456.1299
 270  505.2108
 271  502.3664
 272  479.7689
 273  471.0685
 274  382.9759
 275  428.2632
 276  464.056
 277  507.9269
 278  470.7029
 279  494.7045
 280  558.2732
 281  533.5725
 282  495.944
 283  483.5668
 284  419.0953
 285  226.3598
 286  286.9235
 287  408.3653
 288  411.8523
 289  493.5891
 290  451.7177
 291  368.9286
 292  397.7535
 293  361.5139
 294  443.839
 295  320.1945
 296  374.4448
 297  421.8867
 298  265.8219
 299  373.0138
 300  361.1207
 301  374.9995
 302  432.6971
 303  358.6754
 304  366.0455
 305  526.5956
 306  521.1542
 307  374.4042
 308  375.8039
 309  455.4456
 310  348.0542
 311  396.011
 312  459.2139
 313  452.4918
 314  454.8381
 315  514.2419
 316  517.6772
 317  470.7669
 318  482.3855
 319  405.1767
 320  459.8603
 321  421.1626
 322  483.1843
 323  500.347
 324  475.9185
 325  518.5151
 326  457.1205
 327  420.6297
 328  434.9903
 329  410.1434
 330  494.6226
 331  456.3379
 332  332.3722
 333  363.0815
 334  296.708
 335  283.8552
 336  373.6697
 337  462.6354
 338  463.4707
 339  346.4697
 340  425.7361
 341  381.9988
 342  329.5137
 343  349.9166
 344  491.9163
 345  472.8373
 346  350.3533
 347  515.2244
 348  498.7349
 349  360.7912
 350  367.1829
 351  390.9896
 352  465.6571
 353  419.9931
 354  476.5571
 355  550.1946
 356  517.8887
 357  586.8542
 358  458.4972
 359  365.3714
 360  452.9755
 361  464.3774
 362  415.3723
 363  401.9875
 364  417.6656
 365  464.8383
 366  503.9904
 367  493.49
 368  507.5724
 369  452.6266
 370  550.7975
 371  557.1327
 372  437.9057
 373  507.0553
 374  582.2787
 375  600.1107
 376  584.0192
 377  496.5205
 378  504.1889
 379  483.016
 380  457.0695
 381  410.9286
 382  330.2186
 383  435.0346
 384  378.3208
 385  379.6715
 386  494.1753
 387  577.5099
 388  419.6141
 389  425.0049
 390  378.8641
 391  416.2722
 392  370.6594
 393  369.2471
 394  351.5364
 395  335.4438
 396  405.4737
 397  537.9749
 398  554.5412
 399  461.2354
 400  387.2151
 401  371.0489
 402  417.666
 403  472.9764
 404  500.235
 405  481.2422
 406  413.0049
 407  438.0284
 408  470.1659
 409  389.2107
 410  446.2903
 411  543.0236
 412  528.8062
 413  568.4409
 414  563.5784
 415  452.0158
 416  352.593
 417  375.1095
 418  410.2923
 419  412.1437
 420  320.6491
 421  380.7551
 422  277.4609
 423  272.0146
 424  358.9059
 425  431.9955
 426  412.649
 427  341.5889
 428  376.7278
 429  327.6884
 430  297.8713
 431  332.6379
 432  262.4357
 433  268.6032
 434  288.7362
 435  396.8964
 436  401.6451
 437  290.6308
 438  329.9143
 439  415.7681
 440  350.6768
 441  300.644
 442  403.3221
 443  377.3775
 444  240.2648
 445  287.4005
 446  358.8565
 447  463.6752
 448  450.6937
 449  382.2225
 450  413.2686
 451  504.6937
 452  529.4274
 453  561.3072
 454  521.1979
 455  533.8083
 456  617.0188
 457  602.2307
 458  544.8356
 459  376.3655
 460  309.6839
 461  380.1085
 462  402.8307
 463  332.8838
 464  277.7581
 465  355.8692
 466  419.361
 467  509.2452
 468  567.8687
 469  497.4649
 470  267.7643
 471  333.9444
 472  434.0579
 473  493.6846
 474  426.1223
 475  415.5651
 476  367.4182
 477  317.9353
 478  318.2341
 479  405.2225
 480  352.0197
 481  372.9398
 482  398.2209
 483  444.6616
 484  372.4736
 485  471.3866
 486  516.4875
 487  441.9271
 488  496.0366
 489  370.19
 490  482.8706
 491  460.0719
 492  494.5418
 493  492.8484
 494  545.1229
 495  435.9414
 496  429.4048
 497  377.6704
 498  414.6194
 499  323.9396
 500  299.1745
 501  421.5145
 502  462.6657
 503  480.2365
 504  515.5854
 505  498.5802
 506  530.3182
 507  533.248
 508  598.4419
 509  782.1154
 510  964.2084
 511  962.8755
