# Input file       =  1182764375.119632_cleaned.dat
# Candidate        =  PSR_0332+5434
# Telescope        =  AR
# Epoch_topo       =  57933.402709717964
# Epoch_bary       =  N/A
# T_sample         =  0.002
# Data Folded      =  7340032
# Data Avg         =  0.0252191828406782
# Data StdDev      =  1.00002124912724 
# Profile Bins     =  512
# Profile Avg      =  361.592037229567 
# Profile StdDev   =  119.735580599291 
# Reduced chi-sqr  =  1.618
# Prob(Noise)      <  2.6e-17   (~8.4 sigma)
# P_topo (ms)      =  714.490869371576  +/- 1.31e-05
# P'_topo (s/s)    =  -0                +/- 6.93e-12
# P''_topo (s/s^2) =  0                 +/- 3.06e-15
# P_bary (ms)      =  N/A
# P'_bary (s/s)    =  N/A
# P''_bary (s/s^2) =  N/A
# P_orb (s)        =  N/A
# asin(i)/c (s)    =  N/A
# eccentricity     =  N/A
# w (rad)          =  N/A
# T_peri           =  N/A
######################################################
   0  527.9478
   1  362.8754
   2  184.0168
   3  248.484
   4  276.3055
   5  398.0234
   6  467.3612
   7  186.9536
   8  283.3788
   9  382.6239
  10  346.6594
  11  283.2439
  12  254.2409
  13  319.6435
  14  376.8229
  15  322.9268
  16  271.0129
  17  330.9789
  18  355.6523
  19  361.4458
  20  194.329
  21  109.3606
  22  230.9339
  23  323.1216
  24  453.9074
  25  366.9501
  26  291.4256
  27  381.227
  28  505.5918
  29  443.061
  30  348.5161
  31  143.4588
  32  259.4233
  33  511.9174
  34  343.9795
  35  289.6335
  36  246.3093
  37  352.8267
  38  409.7106
  39  323.0181
  40  207.2726
  41  162.4383
  42  342.1717
  43  371.3055
  44  349.1885
  45  276.3852
  46  343.7886
  47  447.7873
  48  335.3868
  49  291.4742
  50  250.2086
  51  322.4748
  52  478.235
  53  496.1328
  54  309.389
  55  207.6955
  56  322.4111
  57  394.7345
  58  402.5089
  59  338.182
  60  283.0846
  61  339.399
  62  534.3658
  63  414.3344
  64  206.9982
  65  380.8566
  66  506.2166
  67  494.6149
  68  412.2891
  69  381.4745
  70  465.9506
  71  525.3359
  72  648.489
  73  564.2504
  74  618.0682
  75  793.8866
  76  925.0825
  77  882.0287
  78  562.694
  79  347.1599
  80  369.7809
  81  456.7419
  82  382.0866
  83  306.051
  84  294.4166
  85  378.9901
  86  349.9397
  87  375.166
  88  251.096
  89  201.9787
  90  445.1525
  91  624.8463
  92  546.2166
  93  390.9353
  94  442.7819
  95  534.384
  96  400.4799
  97  334.3741
  98  384.2619
  99  448.8902
 100  515.4408
 101  413.3725
 102  301.9954
 103  253.9059
 104  269.5429
 105  460.5294
 106  414.3295
 107  308.6831
 108  334.816
 109  393.4979
 110  458.2629
 111  491.2832
 112  348.869
 113  251.7923
 114  456.0411
 115  529.6106
 116  347.669
 117  249.3974
 118  385.4715
 119  381.1416
 120  476.7761
 121  344.084
 122  230.0383
 123  459.8233
 124  534.0327
 125  409.3445
 126  335.1595
 127  239.7812
 128  426.3285
 129  471.2752
 130  368.7623
 131  227.9005
 132  264.6873
 133  509.1782
 134  574.1076
 135  430.586
 136  196.8134
 137  230.7805
 138  376.194
 139  566.9783
 140  453.6778
 141  315.0629
 142  371.8351
 143  421.2903
 144  372.897
 145  272.7122
 146  256.3982
 147  370.9617
 148  472.7992
 149  411.334
 150  320.7054
 151  322.4585
 152  432.3759
 153  465.0231
 154  399.8335
 155  328.7401
 156  298.6523
 157  528.5587
 158  558.8085
 159  397.0435
 160  323.8724
 161  382.498
 162  476.6816
 163  354.6204
 164  382.0683
 165  266.5081
 166  236.5296
 167  469.1463
 168  422.6439
 169  175.9653
 170  165.8392
 171  439.0867
 172  437.6272
 173  410.4117
 174  356.9667
 175  377.9411
 176  462.8742
 177  358.057
 178  279.4742
 179  239.9253
 180  359.3473
 181  328.8728
 182  352.3139
 183  319.911
 184  195.6758
 185  278.2796
 186  400.9399
 187  408.9771
 188  379.1118
 189  249.3155
 190  279.8213
 191  415.2663
 192  394.9548
 193  301.4291
 194  189.1719
 195  353.0469
 196  325.6783
 197  207.2767
 198  238.4293
 199  195.2746
 200  323.0662
 201  447.9895
 202  392.455
 203  341.8215
 204  195.4863
 205  243.8058
 206  363.3941
 207  239.2365
 208  158.1892
 209  337.7348
 210  496.9095
 211  408.7233
 212  298.8645
 213  273.0664
 214  366.7127
 215  477.3731
 216  486.5817
 217  292.1301
 218  265.7725
 219  468.6097
 220  458.4968
 221  483.8029
 222  186.2965
 223  257.2133
 224  449.2155
 225  449.4303
 226  418.8305
 227  345.2147
 228  297.9196
 229  397.2906
 230  378.4781
 231  324.1649
 232  274.448
 233  273.313
 234  403.7187
 235  396.5003
 236  348.0694
 237  245.2913
 238  311.3035
 239  401.6501
 240  314.4462
 241  217.9738
 242  295.5752
 243  399.554
 244  518.243
 245  390.0166
 246  140.4483
 247  220.4122
 248  434.3919
 249  475.0321
 250  338.3541
 251  184.4652
 252  283.6617
 253  379.8203
 254  366.2891
 255  225.1058
 256  257.617
 257  309.0562
 258  439.0439
 259  469.2065
 260  320.1563
 261  277.3307
 262  483.9978
 263  494.7636
 264  346.6495
 265  254.498
 266  268.4615
 267  508.5088
 268  482.8277
 269  312.8725
 270  249.2583
 271  282.325
 272  471.1687
 273  573.3673
 274  367.3383
 275  195.8846
 276  230.5231
 277  378.5221
 278  465.7341
 279  268.6682
 280  224.2805
 281  303.3926
 282  356.0175
 283  392.6311
 284  145.5459
 285  155.7048
 286  419.3127
 287  509.9018
 288  433.6952
 289  395.196
 290  249.7704
 291  376.0753
 292  431.7434
 293  455.6277
 294  432.8409
 295  365.885
 296  472.6516
 297  509.445
 298  433.5866
 299  306.8701
 300  348.3869
 301  390.1734
 302  337.7498
 303  365.5163
 304  363.6458
 305  408.0277
 306  421.0968
 307  456.1166
 308  365.1859
 309  391.4109
 310  429.3214
 311  533.598
 312  398.9227
 313  320.4877
 314  396.5396
 315  483.2166
 316  527.2179
 317  293.6868
 318  313.6519
 319  363.0615
 320  407.6949
 321  344.194
 322  241.559
 323  239.6539
 324  407.7505
 325  489.8055
 326  274.9143
 327  70.9134
 328  145.562
 329  289.5226
 330  453.0425
 331  460.6031
 332  307.3533
 333  324.9812
 334  499.5767
 335  413.6506
 336  342.7581
 337  257.8099
 338  390.2442
 339  569.3958
 340  544.0347
 341  459.9395
 342  361.4978
 343  427.5468
 344  559.468
 345  459.0399
 346  264.5761
 347  201.8457
 348  367.7048
 349  442.6788
 350  523.9713
 351  434.4893
 352  348.4218
 353  360.5915
 354  375.9615
 355  332.1842
 356  300.2064
 357  374.7119
 358  295.274
 359  275.3255
 360  230.5586
 361  111.542
 362  213.4572
 363  316.3841
 364  345.297
 365  158.1317
 366  93.55882
 367  263.32
 368  404.3396
 369  365.5329
 370  237.2813
 371  82.27992
 372  377.8105
 373  538.9368
 374  384.9738
 375  182.5991
 376  269.7804
 377  388.3697
 378  448.4603
 379  452.2533
 380  215.7145
 381  248.1125
 382  474.4886
 383  548.4343
 384  375.1864
 385  225.348
 386  314.854
 387  465.8133
 388  390.1185
 389  217.6664
 390  106.2115
 391  338.3447
 392  458.6708
 393  452.347
 394  278.5368
 395  229.3522
 396  369.6171
 397  441.9677
 398  424.3907
 399  306.3137
 400  310.9074
 401  383.0847
 402  356.8846
 403  318.6703
 404  174.1889
 405  202.4941
 406  330.229
 407  357.6925
 408  319.0127
 409  239.3133
 410  265.4807
 411  388.6234
 412  433.507
 413  284.7097
 414  208.2903
 415  263.4806
 416  468.9958
 417  433.1234
 418  311.9248
 419  200.9728
 420  214.8477
 421  325.0858
 422  366.7438
 423  318.8225
 424  278.2706
 425  409.2144
 426  363.2556
 427  274.2145
 428  221.6143
 429  268.8112
 430  440.1508
 431  355.6359
 432  286.6894
 433  239.018
 434  348.8857
 435  439.1322
 436  504.1205
 437  364.3029
 438  354.3242
 439  523.7232
 440  535.4516
 441  396.2055
 442  203.6071
 443  152.2876
 444  349.1562
 445  421.7896
 446  318.8746
 447  174.4876
 448  226.559
 449  469.0247
 450  488.9926
 451  262.675
 452  308.7715
 453  512.3773
 454  576.897
 455  434.7035
 456  262.0307
 457  201.0472
 458  284.0583
 459  409.3736
 460  439.4035
 461  362.7063
 462  325.029
 463  344.9391
 464  515.5413
 465  517.319
 466  250.8741
 467  267.7113
 468  336.6473
 469  476.4906
 470  394.407
 471  256.4431
 472  235.3407
 473  411.2833
 474  550.5452
 475  472.7491
 476  352.3044
 477  317.8796
 478  451.017
 479  461.812
 480  298.0664
 481  293.5818
 482  396.4006
 483  513.0789
 484  435.0383
 485  438.0396
 486  303.3434
 487  499.7584
 488  563.5248
 489  386.5997
 490  372.7043
 491  472.5149
 492  480.4554
 493  418.2925
 494  262.7301
 495  360.2164
 496  384.7954
 497  362.8037
 498  407.95
 499  269.6704
 500  209.259
 501  347.5322
 502  575.1755
 503  438.1228
 504  324.213
 505  286.4635
 506  490.2744
 507  558.6698
 508  438.8872
 509  304.6963
 510  255.779
 511  450.1825
