# Input file       =  1182678199.116364_cleaned.dat
# Candidate        =  PSR_0332+5434
# Telescope        =  AR
# Epoch_topo       =  57932.405302272731
# Epoch_bary       =  N/A
# T_sample         =  0.002
# Data Folded      =  7340032
# Data Avg         =  0.0412620924697945
# Data StdDev      =  1.00008180633131 
# Profile Bins     =  512
# Profile Avg      =  591.477410552469 
# Profile StdDev   =  119.742831297208 
# Reduced chi-sqr  =  1.142
# Prob(Noise)      <  0.0143   (~2.2 sigma)
# P_topo (ms)      =  714.491694542112  +/- 6.81e-05
# P'_topo (s/s)    =  -0                +/- 3.59e-11
# P''_topo (s/s^2) =  0                 +/- 1.59e-14
# P_bary (ms)      =  N/A
# P'_bary (s/s)    =  N/A
# P''_bary (s/s^2) =  N/A
# P_orb (s)        =  N/A
# asin(i)/c (s)    =  N/A
# eccentricity     =  N/A
# w (rad)          =  N/A
# T_peri           =  N/A
######################################################
   0  432.2314
   1  422.3791
   2  527.4246
   3  606.5743
   4  594.2247
   5  476.4288
   6  533.1796
   7  647.5115
   8  665.1916
   9  648.7981
  10  620.038
  11  610.1638
  12  557.259
  13  600.5026
  14  649.0694
  15  557.8638
  16  506.0121
  17  508.0706
  18  519.0467
  19  539.6033
  20  508.9281
  21  491.3087
  22  505.8325
  23  484.8476
  24  453.6077
  25  445.442
  26  576.8662
  27  536.5951
  28  500.5219
  29  538.9767
  30  537.9711
  31  554.0362
  32  596.8229
  33  625.0505
  34  670.4875
  35  600.701
  36  480.0637
  37  437.5106
  38  500.0248
  39  562.014
  40  623.8359
  41  671.8671
  42  551.6445
  43  430.8551
  44  545.1885
  45  614.5223
  46  649.8833
  47  583.725
  48  521.0425
  49  500.2716
  50  578.4097
  51  526.6113
  52  503.1941
  53  568.7047
  54  567.4759
  55  609.8588
  56  671.473
  57  547.7979
  58  555.2709
  59  665.1872
  60  750.1068
  61  702.3697
  62  510.385
  63  559.5075
  64  552.1591
  65  631.2187
  66  564.6575
  67  569.5695
  68  557.2391
  69  570.1647
  70  576.4176
  71  565.4271
  72  558.718
  73  585.2876
  74  684.6756
  75  623.6446
  76  500.2145
  77  459.8953
  78  559.6866
  79  566.008
  80  482.6107
  81  473.8725
  82  471.0271
  83  654.0128
  84  700.6051
  85  602.3428
  86  579.7379
  87  631.4835
  88  650.971
  89  596.851
  90  627.1559
  91  664.4359
  92  649.0487
  93  619.2745
  94  647.3174
  95  645.5388
  96  544.2364
  97  588.7023
  98  657.2416
  99  598.049
 100  529.9983
 101  544.6645
 102  559.7985
 103  597.3375
 104  601.4404
 105  574.9945
 106  512.7729
 107  524.733
 108  529.7733
 109  451.6833
 110  371.7936
 111  478.1471
 112  585.6499
 113  557.5645
 114  496.4621
 115  451.2329
 116  535.2372
 117  534.3685
 118  622.8029
 119  537.3812
 120  527.0953
 121  587.9153
 122  588.0656
 123  526.7979
 124  545.9554
 125  595.5746
 126  582.5232
 127  547.0948
 128  576.0822
 129  585.3655
 130  581.6409
 131  629.5762
 132  746.749
 133  688.5268
 134  604.671
 135  619.6222
 136  599.9587
 137  596.171
 138  576.6465
 139  591.9637
 140  660.5709
 141  614.139
 142  549.3697
 143  506.4441
 144  578.2564
 145  577.2385
 146  521.6011
 147  503.1586
 148  560.998
 149  535.2999
 150  596.2164
 151  593.6182
 152  574.6326
 153  601.1343
 154  581.9545
 155  699.6307
 156  800.6628
 157  648.6906
 158  612.3968
 159  601.632
 160  708.8587
 161  725.1423
 162  620.306
 163  570.1102
 164  633.2465
 165  614.399
 166  593.8818
 167  538.5179
 168  558.6034
 169  622.9902
 170  568.045
 171  555.9305
 172  649.9836
 173  612.4863
 174  525.9034
 175  546.8127
 176  635.5021
 177  567.5031
 178  590.1769
 179  624.4191
 180  533.2348
 181  576.7085
 182  612.8708
 183  644.5302
 184  682.4806
 185  619.5646
 186  527.6992
 187  539.3296
 188  592.432
 189  700.2191
 190  716.5268
 191  633.5768
 192  535.0629
 193  605.7699
 194  611.4754
 195  680.2314
 196  565.1906
 197  494.5819
 198  588.986
 199  602.5579
 200  577.0706
 201  569.5496
 202  617.1049
 203  613.9766
 204  708.9242
 205  698.5672
 206  715.5743
 207  714.5042
 208  719.4827
 209  596.383
 210  471.5682
 211  527.2957
 212  652.8146
 213  659.2286
 214  709.5306
 215  653.7172
 216  628.7
 217  661.8944
 218  683.194
 219  684.3245
 220  601.1788
 221  614.4625
 222  700.6458
 223  697.3439
 224  715.2729
 225  669.486
 226  681.925
 227  658.4517
 228  667.4587
 229  711.0571
 230  527.6052
 231  544.5772
 232  632.7763
 233  535.1716
 234  573.8337
 235  695.918
 236  689.7203
 237  600.4692
 238  611.3393
 239  629.0116
 240  732.1786
 241  685.9307
 242  632.2888
 243  537.7867
 244  591.8354
 245  664.2909
 246  642.5649
 247  607.9562
 248  547.3098
 249  443.2761
 250  482.7869
 251  597.0417
 252  525.6244
 253  562.5071
 254  629.7904
 255  596.7121
 256  613.6041
 257  615.705
 258  561.3613
 259  662.5805
 260  686.423
 261  693.0367
 262  604.6373
 263  510.1952
 264  597.7859
 265  625.4122
 266  683.3602
 267  665.2375
 268  551.6337
 269  525.93
 270  515.6382
 271  583.9691
 272  616.4602
 273  556.4214
 274  579.2991
 275  614.4312
 276  527.1241
 277  539.4957
 278  527.3558
 279  531.1411
 280  558.7458
 281  619.727
 282  571.1428
 283  566.3425
 284  575.6177
 285  665.3376
 286  620.606
 287  547.3859
 288  556.2615
 289  598.2173
 290  578.8563
 291  582.7744
 292  510.0229
 293  589.9774
 294  652.3639
 295  616.3685
 296  564.9199
 297  534.5907
 298  532.9258
 299  661.3174
 300  747.6773
 301  658.6054
 302  606.0236
 303  687.8099
 304  755.2961
 305  679.8576
 306  618.5901
 307  590.1569
 308  631.5032
 309  599.3405
 310  586.3643
 311  579.355
 312  628.5881
 313  661.6539
 314  606.9385
 315  583.7772
 316  558.3706
 317  544.6236
 318  525.3234
 319  455.5869
 320  439.7214
 321  498.4253
 322  541.5282
 323  624.7854
 324  502.864
 325  446.2384
 326  456.8251
 327  545.5293
 328  574.7393
 329  489.0442
 330  495.3875
 331  518.4743
 332  627.4352
 333  639.4673
 334  593.2689
 335  519.8328
 336  641.9785
 337  812.2735
 338  780.6991
 339  642.3969
 340  624.5163
 341  686.4429
 342  659.4713
 343  709.3021
 344  636.3696
 345  538.3737
 346  647.7264
 347  600.7482
 348  585.1125
 349  626.903
 350  632.4346
 351  616.0748
 352  668.3547
 353  759.6119
 354  647.4435
 355  518.693
 356  520.2172
 357  646.3712
 358  656.345
 359  518.822
 360  519.1628
 361  654.2984
 362  602.0168
 363  468.6512
 364  478.4992
 365  619.0275
 366  710.9144
 367  621.2872
 368  540.0931
 369  454.7344
 370  513.9976
 371  640.5143
 372  611.3171
 373  603.0539
 374  530.6271
 375  610.238
 376  516.3804
 377  456.9682
 378  417.541
 379  470.1127
 380  485.3505
 381  642.1909
 382  527.3706
 383  495.2434
 384  470.0789
 385  597.9827
 386  614.8082
 387  642.2756
 388  685.6984
 389  625.7505
 390  660.5857
 391  689.926
 392  627.0179
 393  669.3932
 394  654.6833
 395  592.246
 396  547.7484
 397  494.9317
 398  534.4911
 399  570.5164
 400  577.0873
 401  575.5285
 402  447.7515
 403  488.6576
 404  611.2908
 405  567.701
 406  586.4567
 407  500.5456
 408  597.8045
 409  676.5406
 410  570.3378
 411  597.1237
 412  593.39
 413  637.0628
 414  621.6694
 415  653.5383
 416  601.473
 417  645.5247
 418  640.0388
 419  617.3544
 420  580.5615
 421  563.3932
 422  631.2003
 423  711.1254
 424  704.3826
 425  668.9283
 426  637.3969
 427  720.3696
 428  947.1268
 429  911.3664
 430  887.8281
 431  1043.875
 432  1174.075
 433  1134.149
 434  1086.565
 435  964.4772
 436  800.3607
 437  866.2065
 438  770.5113
 439  615.151
 440  609.2264
 441  590.1561
 442  575.7492
 443  553.1746
 444  506.6591
 445  548.9446
 446  498.9706
 447  501.3813
 448  572.6213
 449  595.9115
 450  592.0582
 451  547.164
 452  629.1191
 453  659.3821
 454  527.7648
 455  528.4711
 456  518.3997
 457  452.9218
 458  602.0193
 459  622.4007
 460  513.8257
 461  512.1658
 462  634.6736
 463  610.8875
 464  604.0734
 465  586.3519
 466  624.5615
 467  653.2477
 468  637.0789
 469  622.1053
 470  524.4903
 471  522.2639
 472  604.7962
 473  568.4026
 474  514.7662
 475  592.2322
 476  586.7302
 477  622.283
 478  742.4355
 479  639.4501
 480  573.3445
 481  453.7247
 482  458.0876
 483  532.5128
 484  623.4327
 485  589.5804
 486  596.8498
 487  581.3541
 488  400.6312
 489  461.6348
 490  520.9843
 491  462.1629
 492  365.9027
 493  367.1769
 494  449.114
 495  499.2323
 496  389.3935
 497  406.5472
 498  436.3235
 499  513.9559
 500  584.7408
 501  507.1201
 502  527.9883
 503  506.0643
 504  491.0674
 505  549.7667
 506  528.9988
 507  457.2027
 508  531.562
 509  529.8132
 510  474.5381
 511  447.0443
