# Input file       =  1182921607.112785_cleaned.dat
# Candidate        =  PSR_0332+5434
# Telescope        =  AR
# Epoch_topo       =  57935.222524453529
# Epoch_bary       =  N/A
# T_sample         =  0.002
# Data Folded      =  7340032
# Data Avg         =  0.152663607451749
# Data StdDev      =  3.15315566304942 
# Profile Bins     =  512
# Profile Avg      =  2188.66060195375 
# Profile StdDev   =  377.536901705502 
# Reduced chi-sqr  =  1.011
# Prob(Noise)      <  0.422   (~0.2 sigma)
# P_topo (ms)      =  714.489051418912  +/- 0.000876
# P'_topo (s/s)    =  -0                +/- 4.62e-10
# P''_topo (s/s^2) =  0                 +/- 2.04e-13
# P_bary (ms)      =  N/A
# P'_bary (s/s)    =  N/A
# P''_bary (s/s^2) =  N/A
# P_orb (s)        =  N/A
# asin(i)/c (s)    =  N/A
# eccentricity     =  N/A
# w (rad)          =  N/A
# T_peri           =  N/A
######################################################
   0  2090.625
   1  2369.103
   2  2309.834
   3  2360.368
   4  2372.919
   5  2324.788
   6  2077.346
   7  2012.282
   8  1892.865
   9  2090.251
  10  2063.445
  11  2318.844
  12  2122.191
  13  1925.851
  14  1931.114
  15  1781.302
  16  2079.254
  17  2485.735
  18  2607.735
  19  2250.445
  20  1913.51
  21  2066.669
  22  2194.614
  23  2305.207
  24  2305.588
  25  2149.56
  26  2299.87
  27  2148.09
  28  1823.876
  29  1857.15
  30  1953.045
  31  2151.322
  32  2008.09
  33  1848.904
  34  2076.715
  35  2186.765
  36  2094.931
  37  2512.629
  38  2614.931
  39  2476.147
  40  2384.774
  41  2253.162
  42  2465.306
  43  2772.39
  44  2601.916
  45  2433.936
  46  2534.212
  47  2427.382
  48  2369.804
  49  2072.285
  50  2014.964
  51  2121.819
  52  2210.52
  53  2375.847
  54  2292.031
  55  2025.384
  56  2138.877
  57  2311.472
  58  2217.701
  59  2090.688
  60  2075.058
  61  2323.211
  62  2328.182
  63  2062.485
  64  1996.442
  65  1935.26
  66  2093.014
  67  2241.004
  68  1946.422
  69  1982.102
  70  2067.344
  71  1938.041
  72  2076.992
  73  2394.679
  74  2342.58
  75  2336.168
  76  2503.492
  77  2587.924
  78  2533.75
  79  2407.209
  80  2147.368
  81  2379.326
  82  2267.629
  83  2193.282
  84  2307.677
  85  2487.166
  86  2383.775
  87  2180.395
  88  2448.658
  89  2312.417
  90  2333.546
  91  2222.456
  92  2337.296
  93  2480.193
  94  2437.899
  95  2577.029
  96  2481.322
  97  2356.099
  98  2549.844
  99  2568.379
 100  2755.205
 101  2256.726
 102  2131.529
 103  2325.903
 104  2566.909
 105  2467.662
 106  2293.874
 107  2527.483
 108  2274.216
 109  2225.114
 110  2182.947
 111  2138.66
 112  2125.149
 113  2382.45
 114  2397.184
 115  2109.057
 116  2066.915
 117  2540.227
 118  2534.184
 119  2418.091
 120  2251.844
 121  2294.094
 122  2114.35
 123  2156.424
 124  2262.504
 125  2204.126
 126  2273.925
 127  2423.415
 128  2170.988
 129  2347.677
 130  2397.873
 131  2562.609
 132  2402.058
 133  2684.116
 134  2357.833
 135  1893.256
 136  2215.53
 137  2710.004
 138  2804.104
 139  2689.65
 140  2497.039
 141  2221.871
 142  2122.457
 143  2365.113
 144  2650.502
 145  2406.701
 146  2646.023
 147  2599.424
 148  2577.461
 149  2444.012
 150  2086.435
 151  2127.748
 152  2102.265
 153  2129.353
 154  2524.034
 155  2236.097
 156  2501.803
 157  2689.549
 158  2724.103
 159  2742.648
 160  2744.886
 161  2429.473
 162  2661.965
 163  2581.562
 164  2484.898
 165  2596.625
 166  2456.861
 167  2283.674
 168  2404.171
 169  2582.321
 170  2388.643
 171  2370.607
 172  2223.544
 173  2298.89
 174  2231.275
 175  2220.646
 176  2540.139
 177  2393.536
 178  2370.635
 179  2120.037
 180  2062.063
 181  2195.524
 182  2181.838
 183  2022.658
 184  2098.824
 185  2067.174
 186  1714.612
 187  1971.455
 188  2233.542
 189  2181.914
 190  2074.055
 191  2096.305
 192  1973.655
 193  2009.139
 194  2283.312
 195  2270.711
 196  2220.078
 197  2173.079
 198  2179.439
 199  1970.163
 200  1891.607
 201  2004.326
 202  2261.176
 203  2291.901
 204  2147.671
 205  1791.281
 206  1970.013
 207  2092.524
 208  2284.859
 209  2359.642
 210  2206.39
 211  1953.338
 212  2008.109
 213  2157.181
 214  2079.169
 215  2260.227
 216  2129.938
 217  1911.551
 218  2020.693
 219  1724.602
 220  1520.672
 221  1635.862
 222  1963.712
 223  2146.235
 224  2128.111
 225  2011.298
 226  1886.467
 227  1678.254
 228  1900.487
 229  1908.413
 230  1803.852
 231  1705.176
 232  1623.357
 233  1787.081
 234  1843.051
 235  2103.907
 236  2073.666
 237  1801.177
 238  1753.863
 239  1639.593
 240  1981.191
 241  2202.078
 242  1931.18
 243  1623.174
 244  1830.524
 245  1919.93
 246  2248.591
 247  2234.203
 248  2001.819
 249  1954.15
 250  1869.352
 251  2047.407
 252  1987.971
 253  1990.013
 254  2117.599
 255  2019.118
 256  2014.234
 257  1878.497
 258  2083.505
 259  2290.367
 260  1834.657
 261  1576.322
 262  1944.452
 263  2169.056
 264  1927.737
 265  1596.746
 266  1944.685
 267  1858.283
 268  1917.404
 269  1678.345
 270  1618.807
 271  2031.251
 272  1972.168
 273  1747.623
 274  1773.22
 275  1855.756
 276  1843.327
 277  1595.558
 278  1828.386
 279  1940.395
 280  2014.088
 281  1914.151
 282  2166.42
 283  1978.078
 284  2325.128
 285  2130.369
 286  1929.077
 287  2137.999
 288  2076.541
 289  2120.82
 290  2011.777
 291  1861.959
 292  2185.023
 293  2194.187
 294  2254.287
 295  1892.942
 296  1718.402
 297  1743.214
 298  1679.798
 299  1981.358
 300  2078.819
 301  1801.008
 302  1946.442
 303  2027.344
 304  1796.737
 305  1863.506
 306  1781.971
 307  2132.307
 308  2234.76
 309  2339.724
 310  2059.639
 311  2246.694
 312  2260.348
 313  2414.731
 314  2524.768
 315  2568.339
 316  2198.67
 317  2156.708
 318  2276.624
 319  2200.025
 320  2179.035
 321  2248.909
 322  2305.078
 323  2390.371
 324  2764.786
 325  3216.181
 326  3402.153
 327  3541
 328  3597.851
 329  3074.304
 330  2668.569
 331  2432.505
 332  2134.164
 333  1889.468
 334  2117.944
 335  2058.273
 336  2061.627
 337  2314.213
 338  2236.244
 339  2094.627
 340  1874.478
 341  2313.97
 342  2132.827
 343  2122.392
 344  2178.59
 345  2044.416
 346  1983.693
 347  2048.165
 348  2073.134
 349  2263.974
 350  2275.268
 351  2230.829
 352  2243.228
 353  2320.093
 354  2249.608
 355  2461.656
 356  2436.419
 357  2353.572
 358  2094.741
 359  2347.178
 360  2132.897
 361  2227.135
 362  2331.027
 363  2389.158
 364  2277.375
 365  2057.521
 366  1900.926
 367  2183.686
 368  2373.485
 369  2221.381
 370  2223.017
 371  2374.572
 372  2159.398
 373  1815.273
 374  1852.46
 375  1749.662
 376  1747.26
 377  2158.743
 378  1914.1
 379  1918.49
 380  1772.186
 381  1691.044
 382  1889.726
 383  2049.958
 384  2133.878
 385  1817.204
 386  1772.846
 387  1611.731
 388  1550.33
 389  1284.066
 390  1809.64
 391  2052.185
 392  2097.951
 393  1928.669
 394  1916.37
 395  1899.021
 396  1818.565
 397  1977.265
 398  2008.634
 399  1898.45
 400  1742.116
 401  1844.768
 402  2040.728
 403  2211.826
 404  2125.282
 405  1920.169
 406  2096.75
 407  2292.315
 408  2298.504
 409  2010.483
 410  1980.989
 411  2176.247
 412  2265.674
 413  2209.338
 414  2078.646
 415  2078.713
 416  1910.501
 417  2078.03
 418  2315.359
 419  2375.763
 420  2275.404
 421  2226.561
 422  2471.38
 423  2614.033
 424  2426.199
 425  2343.184
 426  2252.746
 427  2408.316
 428  2441.794
 429  2411.115
 430  2508.325
 431  2219.979
 432  1888.532
 433  2506.765
 434  2242.501
 435  2048.487
 436  2419.269
 437  2472.89
 438  2194.29
 439  2087.455
 440  2060.575
 441  2167.42
 442  2157.32
 443  2095.025
 444  2466.406
 445  2069.5
 446  2019.098
 447  2301.3
 448  2380.613
 449  2362.522
 450  2370.307
 451  2389.879
 452  2621.391
 453  2596.889
 454  2066.311
 455  2107.964
 456  2407.055
 457  2181.529
 458  2206.7
 459  2173.946
 460  2112.791
 461  2196.871
 462  2173.798
 463  2342.851
 464  2257.042
 465  2182.449
 466  2384.22
 467  2559.487
 468  2213.079
 469  2173.389
 470  2311.45
 471  2206.13
 472  2379.723
 473  2382.55
 474  2347.468
 475  2058.154
 476  1884.288
 477  2134.803
 478  2608.763
 479  2459.245
 480  2014.837
 481  2132.965
 482  2480.903
 483  2452.849
 484  2253.694
 485  2218.028
 486  1950.309
 487  1839.075
 488  2047.014
 489  2150.137
 490  1939.744
 491  1904.305
 492  2177.203
 493  2222.77
 494  2173.399
 495  2285.704
 496  2183.852
 497  2175.617
 498  2480.073
 499  2510.539
 500  2341.72
 501  2329.276
 502  2428.458
 503  2288.43
 504  2519.216
 505  2760.974
 506  2498.644
 507  2552.324
 508  2327.384
 509  2399.465
 510  2074.878
 511  2185.685
