# Input file       =  1182678199.116364-PSRB0329-2ms-sampling-dd.dat
# Candidate        =  PSR_0332+5434
# Telescope        =  AR
# Epoch_topo       =  57932.405302272731
# Epoch_bary       =  N/A
# T_sample         =  0.002
# Data Folded      =  7340032
# Data Avg         =  2.56146809373017e-09
# Data StdDev      =  14.6991150943526 
# Profile Bins     =  512
# Profile Avg      =  -0.33337324738171
# Profile StdDev   =  1759.96968229839 
# Reduced chi-sqr  =  0.439
# Prob(Noise)      <  1   (~0.0 sigma)
# P_topo (ms)      =  714.491694542112  +/- 0.00123
# P'_topo (s/s)    =  -0                +/- 6.47e-10
# P''_topo (s/s^2) =  0                 +/- 2.86e-13
# P_bary (ms)      =  N/A
# P'_bary (s/s)    =  N/A
# P''_bary (s/s^2) =  N/A
# P_orb (s)        =  N/A
# asin(i)/c (s)    =  N/A
# eccentricity     =  N/A
# w (rad)          =  N/A
# T_peri           =  N/A
######################################################
   0  -1632.385
   1  -1887.987
   2  -1229.28
   3  -856.6375
   4  -875.7539
   5  -1366.18
   6  -1308.57
   7  -557.6578
   8  102.8011
   9  198.2366
  10  84.40511
  11  -44.30463
  12  -35.41867
  13  452.6757
  14  568.5558
  15  489.6011
  16  110.6835
  17  -46.25172
  18  -5.067386
  19  -128.987
  20  93.25693
  21  -68.73237
  22  148.398
  23  -268.6686
  24  -500.0607
  25  -643.374
  26  -352.2303
  27  231.8864
  28  128.5698
  29  555.004
  30  934.1182
  31  400.3122
  32  578.4637
  33  -4.094811
  34  78.00377
  35  156.3802
  36  15.33889
  37  -206.4108
  38  290.0001
  39  316.563
  40  380.8993
  41  525.5733
  42  596.7012
  43  -264.4203
  44  -220.4055
  45  120.5975
  46  636.6638
  47  617.4068
  48  632.9244
  49  511.5612
  50  467.062
  51  -149.1773
  52  -368.4237
  53  229.3061
  54  602.1329
  55  1062.57
  56  1578.599
  57  1168.614
  58  517.6894
  59  891.8073
  60  1050.95
  61  1221.689
  62  581.6351
  63  863.8403
  64  764.557
  65  359.9149
  66  383.3122
  67  374.7492
  68  14.37091
  69  49.43095
  70  359.1179
  71  500.8985
  72  453.799
  73  243.9454
  74  808.1387
  75  491.9932
  76  184.7694
  77  175.521
  78  494.6179
  79  133.018
  80  -487.2881
  81  -180.4587
  82  -312.4592
  83  419.3223
  84  1195.763
  85  1028.608
  86  156.8667
  87  -87.85519
  88  -192.4975
  89  -135.4582
  90  7.051087
  91  279.3907
  92  383.0834
  93  406.8531
  94  556.7768
  95  172.769
  96  247.991
  97  306.0502
  98  299.0488
  99  147.1155
 100  -240.6906
 101  -526.2385
 102  -619.8627
 103  -565.505
 104  -546.207
 105  -617.3721
 106  -1163.49
 107  -1514.431
 108  -1009.396
 109  -1210.476
 110  -1414.227
 111  -1248.354
 112  -740.1791
 113  -641.4944
 114  -779.5833
 115  -1002.784
 116  -1065.114
 117  -550.1003
 118  -269.6843
 119  -395.9394
 120  -466.2926
 121  -374.2859
 122  -371.6615
 123  -844.1438
 124  -705.8378
 125  -794.7082
 126  -974.0504
 127  -749.8677
 128  -783.2795
 129  -444.4221
 130  -210.2338
 131  -160.5477
 132  146.7691
 133  -469.4124
 134  -945.2202
 135  -1262.915
 136  -724.3599
 137  -303.2549
 138  -27.72873
 139  -231.9282
 140  -272.2456
 141  -405.1477
 142  -1076.859
 143  -1513.111
 144  -1242.205
 145  -681.9142
 146  -461.0222
 147  -200.6036
 148  381.6608
 149  517.8146
 150  793.8471
 151  412.0468
 152  523.4417
 153  775.0003
 154  837.4799
 155  1483.947
 156  2270.481
 157  1541.934
 158  968.8538
 159  781.2352
 160  449.9473
 161  142.8605
 162  259.8894
 163  506.6728
 164  866.1598
 165  588.5161
 166  268.1745
 167  -789.9877
 168  -1323.392
 169  -391.3957
 170  112.4757
 171  578.6573
 172  353.6806
 173  -396.1118
 174  -837.7548
 175  -943.0945
 176  -964.0954
 177  -1169.995
 178  -554.4736
 179  -190.5188
 180  -169.3589
 181  -174.8392
 182  -81.37293
 183  -194.9371
 184  -186.6428
 185  87.94408
 186  380.4181
 187  954.2272
 188  1252.682
 189  1853.559
 190  1673.019
 191  1077.655
 192  454.9025
 193  881.1788
 194  1274.769
 195  1362.515
 196  949.5912
 197  942.8011
 198  969.9379
 199  1076.984
 200  1228.821
 201  1050.352
 202  910.3335
 203  1098.098
 204  2312.542
 205  2276.047
 206  2277.052
 207  1892.096
 208  1425.695
 209  590.4968
 210  19.94414
 211  1180.868
 212  1636.269
 213  1827.67
 214  1656.369
 215  1438.166
 216  1014.039
 217  882.8616
 218  868.2435
 219  1499.359
 220  1156.565
 221  1398.607
 222  1504.406
 223  1672.171
 224  1308.028
 225  627.0318
 226  364.0828
 227  181.5703
 228  558.0557
 229  1061.988
 230  934.7053
 231  734.5443
 232  839.3599
 233  709.9298
 234  740.6078
 235  1173.526
 236  1144.82
 237  944.8694
 238  1334.321
 239  1608.714
 240  1761.714
 241  1672.274
 242  1400.895
 243  1109.24
 244  1148.465
 245  1299.465
 246  1572.069
 247  1513.578
 248  1449.374
 249  749.9167
 250  528.5443
 251  461.3489
 252  299.8476
 253  681.8868
 254  346.8204
 255  35.30384
 256  211.179
 257  444.271
 258  -89.67007
 259  -371.4862
 260  -268.8548
 261  -259.8844
 262  -311.6606
 263  -425.8062
 264  -58.64557
 265  -156.3322
 266  299.3745
 267  466.1862
 268  -131.1882
 269  -513.5687
 270  -538.6575
 271  -41.41859
 272  471.6498
 273  182.4909
 274  27.99686
 275  -56.6459
 276  -443.4588
 277  -470.9659
 278  -442.8059
 279  -37.83997
 280  631.766
 281  978.4398
 282  416.738
 283  -76.51594
 284  -377.9152
 285  125.3681
 286  202.6789
 287  8.851411
 288  -196.3985
 289  -636.2638
 290  -1009.717
 291  -1053.162
 292  -1189.871
 293  -888.7706
 294  -420.2272
 295  -215.6207
 296  -477.3495
 297  -825.1738
 298  -938.7086
 299  -462.6459
 300  -89.69276
 301  -316.9749
 302  -382.808
 303  294.3422
 304  519.2822
 305  -65.93427
 306  -512.911
 307  -937.6473
 308  -1159.548
 309  -1126.598
 310  -886.23
 311  -1182.608
 312  -1404.818
 313  -1232.906
 314  -727.7361
 315  -78.79863
 316  -406.6237
 317  -873.1199
 318  -1031.378
 319  -1138.691
 320  -911.7353
 321  -664.5079
 322  -164.5802
 323  -170.3183
 324  -681.3161
 325  -1061.58
 326  -1258.478
 327  -1052.292
 328  -1126.153
 329  -1386.572
 330  -1713.506
 331  -1825.241
 332  -1383.476
 333  -875.7502
 334  -865.5748
 335  -998.9363
 336  -326.2085
 337  160.3213
 338  334.6073
 339  -76.35907
 340  -651.8425
 341  -422.2454
 342  -141.0001
 343  213.0397
 344  266.6883
 345  64.2718
 346  -67.70929
 347  -671.8092
 348  -604.6176
 349  -921.7444
 350  -742.0673
 351  -625.4732
 352  -245.8865
 353  -55.04438
 354  -853.6211
 355  -1229.926
 356  -1114.405
 357  -293.3466
 358  -187.33
 359  -396.0925
 360  -197.7805
 361  602.9006
 362  600.3411
 363  -84.38049
 364  -486.7489
 365  183.3998
 366  496.3656
 367  744.2383
 368  317.5397
 369  -58.17247
 370  -244.9587
 371  134.9867
 372  580.7056
 373  191.6413
 374  20.72766
 375  240.0587
 376  -425.1669
 377  -309.7781
 378  -523.5632
 379  194.7123
 380  -92.09198
 381  -180.3884
 382  -340.0872
 383  -673.3763
 384  -1133.224
 385  -775.5038
 386  -556.3653
 387  -634.1226
 388  -652.3477
 389  -709.1309
 390  -429.3924
 391  73.78017
 392  64.72643
 393  159.7982
 394  19.36919
 395  -216.8876
 396  -781.9979
 397  -750.304
 398  -633.0371
 399  -553.103
 400  -873.4628
 401  -595.1578
 402  -554.9547
 403  -270.156
 404  142.1582
 405  52.883
 406  -170.3749
 407  -658.1006
 408  -104.3995
 409  509.2321
 410  383.0393
 411  807.2483
 412  448.7408
 413  681.6494
 414  490.1603
 415  475.6105
 416  153.0013
 417  -10.26935
 418  174.8206
 419  381.1375
 420  233.2837
 421  329.5637
 422  507.2225
 423  649.2853
 424  783.4515
 425  718.2776
 426  935.8561
 427  1162.876
 428  2016.522
 429  2100.324
 430  1697.01
 431  2218.977
 432  2709.347
 433  2935.394
 434  2351.195
 435  1534.657
 436  714.795
 437  621.4411
 438  267.2026
 439  -328.7286
 440  -362.8418
 441  -375.5551
 442  -423.9373
 443  -127.335
 444  -3.51994
 445  -208.4176
 446  -295.0235
 447  -105.3509
 448  188.5547
 449  489.1523
 450  876.7995
 451  775.8175
 452  836.2184
 453  1069.593
 454  469.4038
 455  110.3177
 456  -264.8995
 457  -390.4824
 458  44.78942
 459  -313.8234
 460  -473.2025
 461  -535.3566
 462  -352.746
 463  -324.8092
 464  -201.813
 465  -424.3303
 466  -628.7239
 467  -624.222
 468  7.442921
 469  -9.510877
 470  -55.05239
 471  223.7345
 472  295.2534
 473  -312.8112
 474  -1053.448
 475  -437.2914
 476  -259.1645
 477  -33.45887
 478  391.3437
 479  -196.8082
 480  -529.727
 481  -1382.841
 482  -1377.961
 483  -1269.644
 484  -743.3364
 485  -746.1467
 486  -809.1739
 487  -880.6547
 488  -1567.7
 489  -1907.885
 490  -1487.137
 491  -1377.169
 492  -1841.655
 493  -1677.721
 494  -1823.413
 495  -1450.457
 496  -1741.076
 497  -1516.961
 498  -1432.16
 499  -1372.591
 500  -915.5453
 501  -787.9493
 502  -753.4178
 503  -736.7852
 504  -848.1147
 505  -696.1517
 506  -1311.481
 507  -1349.448
 508  -706.7048
 509  -947.4454
 510  -1566.086
 511  -1870.481
