# Input file       =  1182907142.112401-PSRB0329-2ms-sampling-dd.dat
# Candidate        =  PSR_0332+5434
# Telescope        =  AR
# Epoch_topo       =  57935.055105467603
# Epoch_bary       =  N/A
# T_sample         =  0.002
# Data Folded      =  7208960
# Data Avg         =  7.40501318984056e-10
# Data StdDev      =  6.4487046891049  
# Profile Bins     =  512
# Profile Avg      =  -0.122578812960681
# Profile StdDev   =  765.197983345063 
# Reduced chi-sqr  =  0.585
# Prob(Noise)      <  1   (~0.0 sigma)
# P_topo (ms)      =  714.48917712091   +/- 0.000138
# P'_topo (s/s)    =  -0                +/- 7.41e-11
# P''_topo (s/s^2) =  0                 +/- 3.33e-14
# P_bary (ms)      =  N/A
# P'_bary (s/s)    =  N/A
# P''_bary (s/s^2) =  N/A
# P_orb (s)        =  N/A
# asin(i)/c (s)    =  N/A
# eccentricity     =  N/A
# w (rad)          =  N/A
# T_peri           =  N/A
######################################################
   0  -476.5428
   1  46.52277
   2  65.54359
   3  200.5187
   4  -274.8272
   5  -420.8119
   6  -93.5811
   7  -371.7807
   8  -155.1417
   9  -155.3885
  10  -137.685
  11  -386.2606
  12  -429.8063
  13  -303.7504
  14  -290.411
  15  -203.0333
  16  105.472
  17  -10.86458
  18  -172.1386
  19  -142.6251
  20  -33.01669
  21  -273.3651
  22  -176.4342
  23  -380.3845
  24  -346.9913
  25  -282.4404
  26  -753.2836
  27  -574.4445
  28  -889.8234
  29  -732.5489
  30  -6.371625
  31  5.052428
  32  -279.1436
  33  -378.058
  34  -746.9989
  35  -618.6688
  36  -219.7664
  37  -284.3302
  38  -7.55414
  39  -465.1953
  40  -361.087
  41  -447.4326
  42  -767.4763
  43  -900.3033
  44  -733.973
  45  -420.2879
  46  4.188605
  47  483.4742
  48  174.8554
  49  111.9056
  50  -221.3744
  51  -123.3471
  52  132.4221
  53  484.7861
  54  426.8228
  55  303.3393
  56  -72.68661
  57  -181.6291
  58  -233.0916
  59  -128.4805
  60  -14.10952
  61  52.43575
  62  485.4933
  63  639.8398
  64  197.2888
  65  -91.03244
  66  27.16881
  67  240.5874
  68  346.1929
  69  61.64387
  70  526.8483
  71  160.027
  72  -78.2317
  73  -359.7079
  74  -237.464
  75  -94.46706
  76  -481.0697
  77  -345.2134
  78  -278.0085
  79  -55.35742
  80  -83.41641
  81  -121.7727
  82  93.98585
  83  207.364
  84  -142.9941
  85  27.22887
  86  150.0304
  87  -34.64658
  88  -69.13345
  89  212.2748
  90  272.692
  91  79.35223
  92  219.8675
  93  45.10527
  94  -56.15354
  95  -658.4697
  96  -281.0042
  97  -13.41227
  98  -28.23683
  99  4.027361
 100  109.0289
 101  14.33126
 102  31.47868
 103  86.97221
 104  470.5201
 105  33.32751
 106  -99.90138
 107  234.6495
 108  59.7009
 109  -222.1273
 110  -350.3428
 111  -6.38585
 112  287.65
 113  100.1517
 114  -188.8169
 115  -361.6336
 116  -564.6801
 117  -429.6258
 118  -137.5778
 119  382.833
 120  814.9027
 121  240.5004
 122  53.26507
 123  -135.8579
 124  -625.5364
 125  -914.0961
 126  -241.7118
 127  378.2289
 128  84.91983
 129  466.627
 130  181.8636
 131  33.49553
 132  27.0895
 133  126.4086
 134  460.4293
 135  269.6675
 136  815.6039
 137  677.9871
 138  209.1134
 139  -102.9788
 140  -98.56449
 141  55.07077
 142  -49.51347
 143  118.1946
 144  442.9064
 145  152.0039
 146  94.33452
 147  -529.1409
 148  -360.9575
 149  -619.7498
 150  -734.5427
 151  -453.6957
 152  -569.0414
 153  -38.73731
 154  -100.2509
 155  -321.7791
 156  -646.8651
 157  -803.3192
 158  -1127.248
 159  -507.1273
 160  -513.2874
 161  -313.4985
 162  -496.9783
 163  -330.3866
 164  -649.4355
 165  -887.2745
 166  -331.2301
 167  -811.8577
 168  -275.0406
 169  -45.13369
 170  -454.8626
 171  -680.1266
 172  -761.6758
 173  -514.1239
 174  -121.085
 175  -158.5766
 176  -695.4581
 177  -727.4413
 178  -691.6533
 179  -774.5008
 180  -534.6286
 181  -251.7191
 182  111.5658
 183  350.6122
 184  -230.9277
 185  -367.5466
 186  -573.3524
 187  -324.2082
 188  -297.1475
 189  -491.1716
 190  -228.9313
 191  -353.6225
 192  -583.3025
 193  -606.2333
 194  -624.4595
 195  -106.0244
 196  342.7235
 197  -401.8032
 198  -202.503
 199  -383.5961
 200  -424.6759
 201  -252.8228
 202  177.3596
 203  365.0208
 204  -181.7029
 205  -324.872
 206  -133.7166
 207  204.7623
 208  -335.7007
 209  -268.1773
 210  -145.0787
 211  -88.11308
 212  -510.538
 213  -409.7928
 214  -332.547
 215  -285.3343
 216  -564.4777
 217  -94.22829
 218  -91.34917
 219  -33.3034
 220  -227.0027
 221  -607.5071
 222  -328.901
 223  -944.1519
 224  -679.1331
 225  -135.607
 226  114.0302
 227  -308.4951
 228  43.16588
 229  111.2797
 230  -210.4148
 231  -302.6939
 232  -125.4573
 233  128.5177
 234  -296.7996
 235  227.8124
 236  97.85386
 237  72.18967
 238  -108.8784
 239  -216.0277
 240  -310.6778
 241  -462.8945
 242  -529.5271
 243  -421.3185
 244  -7.432413
 245  -255.0239
 246  -773.6304
 247  -393.2908
 248  -284.791
 249  -142.498
 250  -150.9997
 251  55.67324
 252  185.0875
 253  -126.1406
 254  -222.7433
 255  78.1304
 256  264.4037
 257  608.6829
 258  779.2209
 259  742.9668
 260  137.5078
 261  -281.8344
 262  124.4591
 263  211.1685
 264  263.3976
 265  537.814
 266  802.8718
 267  698.9919
 268  443.0672
 269  315.6837
 270  438.8299
 271  760.2357
 272  612.8554
 273  328.9617
 274  401.8839
 275  -365.5143
 276  -93.6795
 277  483.1732
 278  601.1293
 279  674.7126
 280  453.4252
 281  536.5216
 282  115.4188
 283  112.7599
 284  624.3275
 285  1067.912
 286  877.604
 287  712.262
 288  1255.155
 289  1686.046
 290  1244.607
 291  1001.406
 292  796.0774
 293  659.2299
 294  221.5047
 295  74.51118
 296  -47.67086
 297  -673.8401
 298  -142.1966
 299  18.97966
 300  334.2753
 301  155.3867
 302  517.2177
 303  171.6003
 304  254.2193
 305  -218.7056
 306  -602.6989
 307  -503.7828
 308  -571.3323
 309  -498.9417
 310  -142.6005
 311  332.3936
 312  -134.2808
 313  -335.9332
 314  -674.9106
 315  -887.841
 316  -379.0658
 317  -289.613
 318  124.6891
 319  180.36
 320  -98.20227
 321  -329.6214
 322  -226.38
 323  -205.3148
 324  -43.53867
 325  15.62845
 326  6.842379
 327  48.94965
 328  -46.36004
 329  -103.2104
 330  29.80979
 331  275.3859
 332  313.3629
 333  449.7733
 334  452.7829
 335  315.7495
 336  132.7811
 337  209.5816
 338  643.0864
 339  442.4776
 340  454.8078
 341  350.0375
 342  -265.6484
 343  -3.438281
 344  -135.8957
 345  -160.2853
 346  4.239707
 347  -194.2616
 348  146.7328
 349  -9.224024
 350  122.1293
 351  420.5806
 352  452.3751
 353  275.5736
 354  135.1389
 355  64.05149
 356  -49.69676
 357  87.47882
 358  -84.72416
 359  -252.4693
 360  -76.07577
 361  79.78439
 362  85.8392
 363  76.86113
 364  -30.74364
 365  105.326
 366  -100.9301
 367  55.47049
 368  216.4694
 369  -162.3631
 370  -411.5174
 371  -213.3866
 372  -339.528
 373  -141.2772
 374  -153.7298
 375  -95.27341
 376  28.32622
 377  -380.5547
 378  -243.1988
 379  -389.4217
 380  -301.5313
 381  -438.2617
 382  -495.7924
 383  -328.8857
 384  47.23151
 385  201.1721
 386  -358.7719
 387  -378.1628
 388  -822.021
 389  -852.3044
 390  -638.4108
 391  -319.3857
 392  416.4251
 393  517.3666
 394  678.8364
 395  -110.6611
 396  -210.6814
 397  -151.0605
 398  -278.8614
 399  -111.2567
 400  192.7234
 401  363.8452
 402  382.2441
 403  325.5362
 404  -19.02405
 405  159.7232
 406  112.4641
 407  482.1082
 408  915.9507
 409  674.3216
 410  531.3337
 411  230.8031
 412  536.5405
 413  723.4429
 414  636.8499
 415  851.8749
 416  675.6226
 417  1120.771
 418  507.6811
 419  479.0938
 420  355.386
 421  699.8828
 422  803.8669
 423  546
 424  963.9455
 425  665.9322
 426  1006.617
 427  798.1966
 428  886.1187
 429  781.8821
 430  543.2356
 431  659.7709
 432  803.2574
 433  789.6747
 434  662.7099
 435  511.3113
 436  498.5116
 437  679.3096
 438  829.711
 439  801.6265
 440  314.942
 441  357.109
 442  409.7922
 443  645.2226
 444  183.165
 445  338.7938
 446  633.6017
 447  444.1278
 448  102.3334
 449  -243.4136
 450  443.4032
 451  655.1724
 452  561.3397
 453  50.89128
 454  -68.98792
 455  -348.4673
 456  -437.6855
 457  -549.1223
 458  341.4895
 459  516.5679
 460  -91.64648
 461  525.5934
 462  313.9736
 463  -311.971
 464  -629.9973
 465  -56.75075
 466  207.5752
 467  -61.71814
 468  -138.513
 469  173.9684
 470  -124.5303
 471  -707.874
 472  -654.8398
 473  -431.4905
 474  -309.5612
 475  -156.9228
 476  344.35
 477  362.0845
 478  461.2357
 479  150.8267
 480  69.541
 481  -222.805
 482  -101.4188
 483  560.8857
 484  887.4932
 485  349.0227
 486  12.59898
 487  323.4537
 488  356.4133
 489  -85.69913
 490  -95.58624
 491  624.2811
 492  232.2711
 493  323.6386
 494  127.785
 495  45.82575
 496  -129.2785
 497  -339.5587
 498  124.7266
 499  357.5031
 500  174.2739
 501  -97.91058
 502  -121.0175
 503  20.73196
 504  -545.6981
 505  -371.6574
 506  -87.13487
 507  32.60268
 508  101.3282
 509  -128.2981
 510  -95.37823
 511  -282.0099
