# Input file       =  1182304229.116146_cleaned.dat
# Candidate        =  PSR_0332+5434
# Telescope        =  AR
# Epoch_topo       =  57928.076945788729
# Epoch_bary       =  N/A
# T_sample         =  0.002
# Data Folded      =  7405568
# Data Avg         =  0.0211069330717545
# Data StdDev      =  1.00008687322289 
# Profile Bins     =  512
# Profile Avg      =  305.400571518049 
# Profile StdDev   =  120.27681895424  
# Reduced chi-sqr  =  1.416
# Prob(Noise)      <  1.58e-09   (~5.9 sigma)
# P_topo (ms)      =  714.49503905854   +/- 0.000223
# P'_topo (s/s)    =  -0                +/- 1.17e-10
# P''_topo (s/s^2) =  0                 +/- 5.11e-14
# P_bary (ms)      =  N/A
# P'_bary (s/s)    =  N/A
# P''_bary (s/s^2) =  N/A
# P_orb (s)        =  N/A
# asin(i)/c (s)    =  N/A
# eccentricity     =  N/A
# w (rad)          =  N/A
# T_peri           =  N/A
######################################################
   0  950.4067
   1  865.2784
   2  802.4895
   3  602.0407
   4  474.1373
   5  351.746
   6  302.9089
   7  335.0516
   8  367.105
   9  500.3267
  10  469.6665
  11  453.8903
  12  367.5872
  13  392.821
  14  370.8124
  15  332.8289
  16  354.4263
  17  374.6946
  18  292.0258
  19  376.7732
  20  443.4823
  21  234.8792
  22  184.811
  23  256.1304
  24  278.1421
  25  248.1039
  26  219.8284
  27  182.5344
  28  335.6419
  29  327.5629
  30  279.3747
  31  321.6711
  32  396.0572
  33  386.4118
  34  220.9978
  35  219.7442
  36  363.1044
  37  449.4172
  38  386.7474
  39  273.8163
  40  236.0928
  41  334.5008
  42  313.3457
  43  304.6786
  44  415.1457
  45  464.3329
  46  279.7104
  47  270.1906
  48  421.4843
  49  386.7156
  50  315.5203
  51  364.5645
  52  311.4422
  53  268.6655
  54  390.4709
  55  339.5372
  56  366.3618
  57  448.1653
  58  472.3602
  59  355.1429
  60  281.3414
  61  225.4573
  62  293.7399
  63  271.7804
  64  425.2009
  65  384.7721
  66  294.7186
  67  351.5414
  68  262.265
  69  221.8163
  70  322.1716
  71  257.4533
  72  274.4748
  73  261.8296
  74  331.5512
  75  363.402
  76  319.6666
  77  165.9789
  78  146.2478
  79  294.2217
  80  340.5557
  81  313.1416
  82  315.5248
  83  293.9724
  84  183.0536
  85  264.2726
  86  137.3511
  87  167.4259
  88  191.7648
  89  231.8759
  90  329.7179
  91  305.5339
  92  396.5258
  93  352.5999
  94  316.2952
  95  272.3719
  96  156.2493
  97  248.2427
  98  273.8949
  99  236.0176
 100  221.4088
 101  236.7097
 102  288.3097
 103  234.2402
 104  171.4491
 105  179.8418
 106  203.4646
 107  327.7113
 108  406.8703
 109  468.3147
 110  419.876
 111  395.7482
 112  271.464
 113  172.334
 114  266.1445
 115  287.3373
 116  308.7947
 117  271.2336
 118  471.3489
 119  312.4979
 120  234.6572
 121  341.7687
 122  238.2224
 123  290.2481
 124  378.2363
 125  443.302
 126  345.52
 127  194.0152
 128  236.2574
 129  405.2897
 130  378.9923
 131  385.4669
 132  392.4073
 133  272.6053
 134  253.6685
 135  157.215
 136  261.8828
 137  165.889
 138  217.1645
 139  308.4307
 140  364.0855
 141  304.0758
 142  256.8153
 143  297.6482
 144  305.4452
 145  260.8504
 146  306.9934
 147  409.3847
 148  336.7957
 149  375.4164
 150  393.9256
 151  398.2182
 152  307.8086
 153  273.0807
 154  255.7973
 155  294.9966
 156  341.5253
 157  335.6155
 158  195.0534
 159  265.6813
 160  324.7179
 161  254.321
 162  324.5369
 163  261.3443
 164  275.7336
 165  321.2235
 166  320.938
 167  241.3646
 168  204.3923
 169  268.2114
 170  303.3352
 171  364.3592
 172  318.5895
 173  316.8445
 174  311.3823
 175  448.3256
 176  246.7317
 177  239.6925
 178  288.2552
 179  175.8202
 180  116.5894
 181  180.8463
 182  323.3126
 183  341.8233
 184  229.9518
 185  305.0941
 186  418.973
 187  441.3998
 188  403.3774
 189  450.0597
 190  316.4154
 191  359.6816
 192  485.8647
 193  423.1748
 194  449.2878
 195  339.379
 196  352.9923
 197  300.6765
 198  338.741
 199  471.9618
 200  451.0289
 201  298.4554
 202  322.7668
 203  407.2189
 204  315.9294
 205  325.6211
 206  253.5575
 207  245.2479
 208  381.4064
 209  401.3148
 210  362.0186
 211  231.1887
 212  253.7842
 213  146.7071
 214  344.0856
 215  219.4203
 216  263.0868
 217  293.1956
 218  374.4861
 219  333.8683
 220  188.4749
 221  140.4473
 222  190.9919
 223  285.5417
 224  360.4138
 225  450.453
 226  450.9968
 227  468.3654
 228  470.5406
 229  409.1222
 230  325.0842
 231  296.9797
 232  304.6964
 233  332.7867
 234  304.4645
 235  352.3129
 236  312.3599
 237  260.6281
 238  224.8462
 239  118.5243
 240  128.5512
 241  136.3921
 242  203.5169
 243  260.1889
 244  297.6205
 245  268.835
 246  159.2215
 247  332.3994
 248  339.9569
 249  331.0389
 250  390.3084
 251  330.7222
 252  223.9341
 253  203.1412
 254  196.8428
 255  333.7506
 256  230.4772
 257  133.1098
 258  201.0742
 259  352.6053
 260  488.0148
 261  428.7582
 262  318.6466
 263  439.1185
 264  408.6915
 265  441.4817
 266  366.3738
 267  281.5519
 268  353.9594
 269  361.5461
 270  420.0855
 271  301.8377
 272  342.6557
 273  211.7967
 274  226.0069
 275  273.0085
 276  346.9358
 277  359.8047
 278  367.3501
 279  456.8214
 280  405.558
 281  337.9632
 282  316.343
 283  363.1219
 284  292.3068
 285  248.1045
 286  222.5688
 287  236.9991
 288  266.7218
 289  221.3934
 290  188.6743
 291  234.5555
 292  284.8171
 293  267.9452
 294  277.258
 295  238.0371
 296  179.1891
 297  182.0754
 298  256.8625
 299  247.4735
 300  221.3901
 301  208.9578
 302  90.37297
 303  193.4536
 304  279.0288
 305  306.7988
 306  232.2802
 307  277.6223
 308  239.8951
 309  287.881
 310  228.3236
 311  187.9879
 312  244.9606
 313  243.6069
 314  187.3658
 315  160.835
 316  249.9904
 317  274.6404
 318  242.2512
 319  172.5169
 320  127.4683
 321  236.8048
 322  247.4256
 323  185.4845
 324  194.3344
 325  224.6319
 326  185.969
 327  247.1292
 328  266.0316
 329  311.9099
 330  409.4783
 331  207.7372
 332  115.7234
 333  263.7642
 334  245.067
 335  190.9047
 336  260.0689
 337  344.1399
 338  289.4564
 339  255.9768
 340  396.3843
 341  296.3246
 342  295.4649
 343  326.9039
 344  322.2218
 345  422.7719
 346  418.2744
 347  353.1403
 348  275.2922
 349  272.1753
 350  395.7185
 351  374.4615
 352  276.9516
 353  247.3017
 354  227.6204
 355  201.4407
 356  258.0934
 357  183.9549
 358  218.5386
 359  316.4408
 360  405.7542
 361  291.5004
 362  343.3086
 363  358.3652
 364  282.5984
 365  252.7099
 366  358.0265
 367  369.0942
 368  329.4428
 369  355.2728
 370  194.8731
 371  179.1484
 372  189.7659
 373  206.355
 374  259.792
 375  163.9242
 376  342.2702
 377  298.0843
 378  330.2025
 379  358.2654
 380  305.3993
 381  259.865
 382  206.3228
 383  219.4539
 384  352.3966
 385  335.4388
 386  318.7803
 387  146.1256
 388  150.1596
 389  181.0303
 390  240.0662
 391  210.4683
 392  328.9608
 393  247.762
 394  167.0616
 395  210.1063
 396  238.4489
 397  198.4024
 398  267.2923
 399  311.9902
 400  300.9248
 401  325.6222
 402  165.6396
 403  188.8456
 404  351.7319
 405  284.314
 406  267.7744
 407  280.6805
 408  328.312
 409  255.0306
 410  195.9419
 411  396.0783
 412  448.89
 413  381.5734
 414  328.3598
 415  345.1211
 416  387.661
 417  350.8598
 418  226.3502
 419  318.6935
 420  395.5913
 421  280.9649
 422  299.3085
 423  187.6277
 424  225.1805
 425  404.8951
 426  304.2401
 427  237.034
 428  313.6275
 429  329.3654
 430  361.7466
 431  370.4205
 432  260.8487
 433  267.378
 434  288.8672
 435  291.2956
 436  283.7008
 437  321.0861
 438  322.8925
 439  275.3282
 440  219.2167
 441  240.7705
 442  192.4313
 443  258.3784
 444  281.0857
 445  365.855
 446  383.673
 447  383.0924
 448  247.8513
 449  249.8847
 450  252.1622
 451  269.5582
 452  446.9259
 453  396.3568
 454  321.9559
 455  172.4395
 456  289.5897
 457  359.2024
 458  258.3206
 459  252.3818
 460  198.517
 461  233.8284
 462  354.6442
 463  309.6462
 464  158.0953
 465  152.6977
 466  239.3874
 467  340.8007
 468  288.9847
 469  237.6724
 470  195.1287
 471  199.402
 472  177.6606
 473  125.1012
 474  231.5686
 475  365.3376
 476  439.7939
 477  284.777
 478  257.737
 479  261.4056
 480  321.9006
 481  415.7516
 482  337.1037
 483  372.3486
 484  423.1384
 485  321.9717
 486  220.2215
 487  221.559
 488  213.4881
 489  176.1636
 490  306.1525
 491  344.2098
 492  406.4509
 493  358.2141
 494  351.1786
 495  375.2197
 496  331.7173
 497  277.8315
 498  249.2738
 499  384.6904
 500  348.7436
 501  359.9365
 502  381.6395
 503  392.1508
 504  392.5099
 505  350.7755
 506  284.5563
 507  509.9203
 508  671.9473
 509  835.5224
 510  896.8886
 511  881.6522
