# Input file       =  1182334205.111209-PSRB0329-2ms-sampling-dd.dat
# Candidate        =  PSR_0332+5434
# Telescope        =  AR
# Epoch_topo       =  57928.423890176033
# Epoch_bary       =  N/A
# T_sample         =  0.002
# Data Folded      =  7340032
# Data Avg         =  6.05023078027871e-10
# Data StdDev      =  6.69478196737301 
# Profile Bins     =  512
# Profile Avg      =  0.0272418626750342
# Profile StdDev   =  801.58657283399  
# Reduced chi-sqr  =  0.629
# Prob(Noise)      <  1   (~0.0 sigma)
# P_topo (ms)      =  714.495103417101  +/- 0.000173
# P'_topo (s/s)    =  -0                +/- 9.12e-11
# P''_topo (s/s^2) =  0                 +/- 4.03e-14
# P_bary (ms)      =  N/A
# P'_bary (s/s)    =  N/A
# P''_bary (s/s^2) =  N/A
# P_orb (s)        =  N/A
# asin(i)/c (s)    =  N/A
# eccentricity     =  N/A
# w (rad)          =  N/A
# T_peri           =  N/A
######################################################
   0  -124.5283
   1  -218.1996
   2  -191.1239
   3  197.0318
   4  -353.4664
   5  -200.6419
   6  128.2759
   7  -121.4128
   8  -478.5742
   9  -262.3131
  10  153.7295
  11  -21.25182
  12  -198.0807
  13  -590.6276
  14  -68.15219
  15  -201.5763
  16  -332.6555
  17  44.83913
  18  -120.6028
  19  -213.8753
  20  -106.4813
  21  -302.3808
  22  -53.12718
  23  -832.4118
  24  -680.6904
  25  -666.4187
  26  -706.9102
  27  -524.9128
  28  -552.5113
  29  -358.364
  30  -869.2843
  31  -774.5081
  32  -512.1492
  33  -880.0264
  34  -703.5331
  35  -246.1271
  36  -88.2067
  37  -126.0736
  38  -548.1153
  39  -343.0208
  40  -97.47431
  41  -167.7769
  42  -426.8026
  43  -84.07018
  44  133.3881
  45  -58.24461
  46  209.6062
  47  608.611
  48  622.1261
  49  -118.1064
  50  -136.8076
  51  345.0312
  52  847.9411
  53  857.1099
  54  568.0314
  55  317.4664
  56  -255.6147
  57  -729.1094
  58  -687.4475
  59  232.7535
  60  811.7308
  61  765.9445
  62  195.3667
  63  -92.03417
  64  -590.6141
  65  -738.237
  66  -294.8521
  67  -83.6458
  68  66.4418
  69  -241.1947
  70  -546.6127
  71  -861.1935
  72  -647.5018
  73  -394.6807
  74  -493.8461
  75  -813.0644
  76  -547.1749
  77  -380.807
  78  -486.4278
  79  -391.114
  80  -283.2652
  81  -221.3832
  82  -302.537
  83  -458.6389
  84  -369.6756
  85  3.33198
  86  477.6436
  87  226.1021
  88  23.39449
  89  32.27852
  90  -511.235
  91  -763.3857
  92  -739.5837
  93  -516.5371
  94  -247.978
  95  365.3311
  96  181.0464
  97  -203.5654
  98  -337.7838
  99  -447.0725
 100  -384.1279
 101  -396.6332
 102  -442.5191
 103  -279.3655
 104  284.623
 105  24.8646
 106  -508.2686
 107  -789.6647
 108  -240.378
 109  -262.565
 110  -176.7908
 111  52.79145
 112  153.2992
 113  94.5377
 114  270.9912
 115  54.64613
 116  -59.71109
 117  144.4271
 118  479.6921
 119  352.1496
 120  -120.7347
 121  136.3576
 122  86.22305
 123  -331.1724
 124  -221.0117
 125  -382.6021
 126  -192.3638
 127  -242.6849
 128  -433.3869
 129  -212.4014
 130  -95.90016
 131  -46.94152
 132  100.1585
 133  181.7968
 134  -87.91752
 135  -47.39176
 136  35.38556
 137  -204.3801
 138  -7.786543
 139  101.4704
 140  77.54259
 141  -347.3097
 142  -490.6791
 143  -707.3734
 144  -227.8505
 145  -236.1131
 146  174.6055
 147  328.9146
 148  202.0746
 149  -72.95811
 150  -667.8511
 151  -18.37394
 152  -22.18943
 153  -547.3276
 154  -679.7582
 155  -481.6211
 156  -502.5107
 157  -803.7361
 158  -607.6214
 159  -252.4673
 160  -65.33213
 161  106.4639
 162  -84.27985
 163  -35.98078
 164  -404.4771
 165  -254.8496
 166  226.1857
 167  362.1744
 168  507.6178
 169  258.131
 170  -248.8994
 171  -298.2344
 172  -302.7484
 173  118.0751
 174  538.0376
 175  515.1239
 176  857.2545
 177  773.7714
 178  95.49752
 179  185.0124
 180  351.9748
 181  378.722
 182  560.6957
 183  609.7654
 184  300.9856
 185  -8.352695
 186  142.2253
 187  26.88293
 188  -84.7377
 189  -149.4342
 190  -158.3548
 191  -238.5299
 192  -360.3485
 193  -21.08877
 194  417.1954
 195  732.9821
 196  757.7885
 197  359.3657
 198  -70.2979
 199  -441.4347
 200  -194.1773
 201  71.15321
 202  167.8425
 203  181.4478
 204  284.4417
 205  285.4079
 206  -190.4374
 207  -73.87218
 208  192.2598
 209  232.2742
 210  394.2847
 211  465.8399
 212  423.9212
 213  661.9073
 214  743.9877
 215  731.2241
 216  602.4079
 217  454.6721
 218  903.6218
 219  750.4502
 220  709.6016
 221  170.6124
 222  -22.6382
 223  338.712
 224  107.8398
 225  -209.8182
 226  22.15487
 227  688.135
 228  707.3578
 229  819.9163
 230  638.2005
 231  388.0379
 232  321.4425
 233  -41.98707
 234  315.1744
 235  422.4285
 236  511.1037
 237  22.66759
 238  -173.666
 239  308.3139
 240  -8.927647
 241  34.23737
 242  387.3396
 243  203.3198
 244  196.1857
 245  145.1194
 246  180.6593
 247  2.924674
 248  315.0969
 249  646.9694
 250  288.9807
 251  7.694486
 252  626.749
 253  1280.091
 254  1715.512
 255  1686.331
 256  1786.46
 257  1855.848
 258  1898.832
 259  1498.648
 260  1162.964
 261  852.6035
 262  772.9785
 263  479.4799
 264  500.7515
 265  423.5061
 266  116.9937
 267  204.4368
 268  643.1428
 269  347.4677
 270  68.2024
 271  86.97375
 272  -183.3961
 273  202.0529
 274  713.3517
 275  748.4429
 276  342.0492
 277  102.3763
 278  -47.02485
 279  -241.5988
 280  -62.02395
 281  420.9355
 282  593.4574
 283  667.328
 284  485.2402
 285  157.1199
 286  -280.7728
 287  -75.41528
 288  26.64643
 289  1.753374
 290  231.1765
 291  426.2362
 292  338.7196
 293  -7.712934
 294  306.4258
 295  455.8013
 296  399.2353
 297  125.3235
 298  -20.21012
 299  51.68293
 300  34.98713
 301  339.4316
 302  -183.8525
 303  -278.4077
 304  52.74029
 305  104.087
 306  -91.3012
 307  -309.4742
 308  90.19056
 309  566.5074
 310  641.2864
 311  995.0079
 312  911.7656
 313  594.5092
 314  884.9975
 315  1083.322
 316  520.9333
 317  128.4047
 318  258.0025
 319  -42.37193
 320  792.4725
 321  682.3865
 322  851.142
 323  457.7015
 324  67.48855
 325  -377.3484
 326  -674.7562
 327  -194.0642
 328  -390.9416
 329  -40.91129
 330  -48.67684
 331  -250.4501
 332  -185.5785
 333  -220.209
 334  -409.097
 335  -136.9726
 336  124.5449
 337  146.9469
 338  -71.75632
 339  -68.56828
 340  91.26468
 341  -16.839
 342  579.3701
 343  1075.056
 344  641.7684
 345  135.894
 346  -283.9691
 347  -184.1769
 348  -52.4759
 349  -58.56102
 350  97.39256
 351  298.2601
 352  453.2963
 353  110.3955
 354  343.1887
 355  -109.3443
 356  -265.3386
 357  148.525
 358  90.275
 359  99.16813
 360  -211.6902
 361  218.1277
 362  535.0258
 363  847.5262
 364  494.9026
 365  -344.1213
 366  -498.4381
 367  -382.1424
 368  -211.9493
 369  13.90943
 370  109.3527
 371  179.1118
 372  -251.4393
 373  36.67213
 374  140.6404
 375  -102.5367
 376  213.7115
 377  473.5994
 378  670.3203
 379  262.0569
 380  93.05978
 381  63.41033
 382  289.8689
 383  104.745
 384  -649.6161
 385  -364.7616
 386  304.3522
 387  399.73
 388  149.7026
 389  -66.1322
 390  74.84127
 391  -297.9113
 392  -623.0787
 393  -615.7499
 394  37.47282
 395  445.5562
 396  269.3405
 397  177.805
 398  -4.7749
 399  -96.16146
 400  -431.8888
 401  -451.3673
 402  -315.8828
 403  -172.2848
 404  -86.23277
 405  -355.2076
 406  -293.2005
 407  -722.171
 408  -1115.947
 409  -807.7786
 410  -504.9915
 411  -49.32348
 412  -414.4942
 413  -464.2
 414  -500.8925
 415  -968.0463
 416  -1088.532
 417  -859.1342
 418  -635.7559
 419  -635.1932
 420  -430.8201
 421  -346.2877
 422  -314.5395
 423  -614.0417
 424  -735.9575
 425  -918.515
 426  -830.4125
 427  -917.1237
 428  -422.2715
 429  -291.6613
 430  -115.2448
 431  -524.2352
 432  -520.8794
 433  -847.758
 434  -528.0192
 435  -34.90782
 436  173.7013
 437  231.5312
 438  -390.8216
 439  -319.5429
 440  -317.238
 441  -318.2423
 442  -366.495
 443  -276.397
 444  -189.9383
 445  -81.40144
 446  133.4377
 447  142.2426
 448  -60.37316
 449  -372.9489
 450  -310.6832
 451  -15.95833
 452  135.6015
 453  -133.7938
 454  -780.9555
 455  -772.8668
 456  -194.2084
 457  -14.04086
 458  -126.1809
 459  -31.1986
 460  -414.3006
 461  -539.6211
 462  -378.0666
 463  -80.87476
 464  176.7722
 465  384.4707
 466  199.0457
 467  -744.4093
 468  -647.0212
 469  -472.3395
 470  -71.65143
 471  -322.9197
 472  240.0577
 473  87.4883
 474  -24.9339
 475  -401.8946
 476  -472.063
 477  -181.3239
 478  161.6588
 479  330.7424
 480  183.4339
 481  66.74638
 482  76.42903
 483  499.7866
 484  459.991
 485  630.7797
 486  355.1151
 487  396.4902
 488  815.3594
 489  497.2941
 490  46.39698
 491  229.8797
 492  344.1996
 493  475.8463
 494  157.2031
 495  220.5157
 496  -210.725
 497  -167.7373
 498  74.63265
 499  -359.1742
 500  -653.1973
 501  -647.4955
 502  -276.3649
 503  -472.8979
 504  -276.592
 505  -470.8575
 506  -400.5541
 507  -476.5683
 508  -519.7473
 509  -203.816
 510  -122.919
 511  53.24486
