# Input file       =  1182577136.109246_cleaned.dat
# Candidate        =  PSR_0332+5434
# Telescope        =  AR
# Epoch_topo       =  57931.235591542201
# Epoch_bary       =  N/A
# T_sample         =  0.002
# Data Folded      =  7340032
# Data Avg         =  0.0741595080876971
# Data StdDev      =  2.60229924733563 
# Profile Bins     =  256
# Profile Avg      =  2125.70734577106 
# Profile StdDev   =  440.64234530692  
# Reduced chi-sqr  =  1.409
# Prob(Noise)      <  1.76e-05   (~4.1 sigma)
# P_topo (ms)      =  714.492341561761  +/- 0.00027
# P'_topo (s/s)    =  -0                +/- 1.43e-10
# P''_topo (s/s^2) =  0                 +/- 6.29e-14
# P_bary (ms)      =  N/A
# P'_bary (s/s)    =  N/A
# P''_bary (s/s^2) =  N/A
# P_orb (s)        =  N/A
# asin(i)/c (s)    =  N/A
# eccentricity     =  N/A
# w (rad)          =  N/A
# T_peri           =  N/A
######################################################
   0  1975.211
   1  2219.123
   2  2161.7
   3  1890.843
   4  1434.887
   5  1617.008
   6  1703.431
   7  1580.829
   8  1575.209
   9  2051.044
  10  2421.921
  11  2140.186
  12  2147.7
  13  2289.453
  14  2670.047
  15  2323.126
  16  2321.541
  17  1651.034
  18  1906.739
  19  1566.84
  20  1698.023
  21  1866.384
  22  2288.182
  23  2619.839
  24  2184.877
  25  1538.445
  26  1606.795
  27  1865.193
  28  2533.253
  29  2487.531
  30  1648.466
  31  2440.824
  32  2921.622
  33  2115.714
  34  2440.832
  35  2004.211
  36  2304.105
  37  1472.949
  38  1892.095
  39  2099.933
  40  1969.427
  41  1476.168
  42  1928.954
  43  2016.668
  44  1396.262
  45  2121.995
  46  1842.142
  47  2113.064
  48  2129.096
  49  2245.867
  50  2058.659
  51  1376.412
  52  2156.577
  53  1382.634
  54  1559.782
  55  1980.106
  56  2004.21
  57  2126.254
  58  2188.243
  59  2044.909
  60  1675.796
  61  2061.055
  62  2076.255
  63  1838.652
  64  2153.858
  65  2008.029
  66  1427.25
  67  2009.834
  68  2737.549
  69  1787.119
  70  1455
  71  2037.232
  72  2288.858
  73  2061.942
  74  2461.055
  75  2690.648
  76  2619.626
  77  2141.959
  78  2507.451
  79  2301.253
  80  2245.56
  81  2665.083
  82  2103.378
  83  2804.395
  84  2855.252
  85  2360.462
  86  1965.135
  87  1992.73
  88  2077.746
  89  1677.523
  90  1609.417
  91  1491.486
  92  1389.505
  93  1291.623
  94  1789.039
  95  1981.358
  96  1993.009
  97  2040.736
  98  1383.414
  99  1317.149
 100  1988.033
 101  1920.219
 102  1737.82
 103  1747.646
 104  2028.763
 105  2294.777
 106  2882.023
 107  1960.955
 108  2176.819
 109  2246.561
 110  2410.363
 111  1862.054
 112  1993.823
 113  1765.64
 114  2246.613
 115  2013.007
 116  2058.36
 117  2581.106
 118  2237.427
 119  2020.04
 120  1920.96
 121  2599.026
 122  2076.631
 123  2222.864
 124  1849.374
 125  1182.766
 126  1959.772
 127  2491.071
 128  2026.282
 129  2309.912
 130  1767.142
 131  2106.973
 132  1652.003
 133  2116.404
 134  2044.067
 135  2177.144
 136  2040.325
 137  1773.117
 138  2126.553
 139  2710.567
 140  2151.38
 141  2154.304
 142  1966.295
 143  1904.925
 144  2312.795
 145  2105.906
 146  2349.392
 147  2057.366
 148  2010.838
 149  2228.705
 150  1938.544
 151  2065.154
 152  1886.137
 153  2394.005
 154  2156.811
 155  2298.723
 156  1918.22
 157  2244.465
 158  1612.059
 159  2310.469
 160  2453.37
 161  3553.178
 162  3726.17
 163  4558.833
 164  4859.172
 165  3277.424
 166  2577.865
 167  2222.653
 168  2350.663
 169  2149.608
 170  2195.595
 171  2745.85
 172  2725.757
 173  2396.844
 174  1834.036
 175  1973.852
 176  1770.898
 177  2335.003
 178  2312.61
 179  2241.653
 180  2600.022
 181  1762.991
 182  1518.096
 183  2294.564
 184  2115.498
 185  1667.468
 186  1907.047
 187  2246.906
 188  2502.358
 189  2627.718
 190  2599.683
 191  2236.042
 192  2094.388
 193  1685.929
 194  1648.788
 195  2387.81
 196  2197.164
 197  2410.344
 198  1986.543
 199  2878.555
 200  2406.125
 201  2768.921
 202  1939.326
 203  1839.563
 204  1888.269
 205  1990.336
 206  2674.271
 207  2403.748
 208  2065.84
 209  2421.071
 210  2813.817
 211  2453.424
 212  2152.918
 213  2049.434
 214  2163.317
 215  2372.627
 216  2326.2
 217  2040.688
 218  2697.396
 219  2164.864
 220  2891.508
 221  2425.067
 222  1763.063
 223  2562.054
 224  3031.621
 225  2239.948
 226  2223.435
 227  2500.689
 228  2105.675
 229  2084.203
 230  2512.34
 231  1993.786
 232  2240.394
 233  2604.678
 234  2442.918
 235  1722.598
 236  1524.904
 237  1404.619
 238  1991.015
 239  1647.959
 240  1587.716
 241  1816.445
 242  1532.556
 243  1321.71
 244  1613.686
 245  1820.174
 246  1637.691
 247  1644.214
 248  2285.554
 249  1966.474
 250  2076.625
 251  2486.137
 252  2198.405
 253  2001.501
 254  2072.868
 255  2385.263
