# Input file       =  1182404838.106733_cleaned.dat
# Candidate        =  PSR_0332+5434
# Telescope        =  AR
# Epoch_topo       =  57929.241401698302
# Epoch_bary       =  N/A
# T_sample         =  0.002
# Data Folded      =  7340032
# Data Avg         =  0.169421054758589
# Data StdDev      =  3.48451544850419 
# Profile Bins     =  512
# Profile Avg      =  2428.79147264941 
# Profile StdDev   =  417.211614951156 
# Reduced chi-sqr  =  0.990
# Prob(Noise)      <  0.556   (~0.0 sigma)
# P_topo (ms)      =  714.494044424056  +/- 0.000215
# P'_topo (s/s)    =  -0                +/- 1.13e-10
# P''_topo (s/s^2) =  0                 +/- 5e-14
# P_bary (ms)      =  N/A
# P'_bary (s/s)    =  N/A
# P''_bary (s/s^2) =  N/A
# P_orb (s)        =  N/A
# asin(i)/c (s)    =  N/A
# eccentricity     =  N/A
# w (rad)          =  N/A
# T_peri           =  N/A
######################################################
   0  2467.981
   1  2947.63
   2  3416.954
   3  3406.869
   4  3087.13
   5  3057.298
   6  2828.587
   7  2660.998
   8  2438.224
   9  2721.55
  10  2861.834
  11  2612.629
  12  2347.469
  13  2437.318
  14  2280.504
  15  2459.293
  16  2428.262
  17  1995.465
  18  2142.136
  19  2313.573
  20  2707.329
  21  2543.32
  22  2370.643
  23  2154.507
  24  2048.618
  25  1901.325
  26  2127.282
  27  2230.63
  28  2248.737
  29  2319.927
  30  2411.137
  31  2566.714
  32  2558.116
  33  2411.546
  34  2180.982
  35  2231.283
  36  2379.772
  37  2380.889
  38  2338.978
  39  2256.4
  40  2326.277
  41  2527.413
  42  2704.914
  43  2651.035
  44  2544.449
  45  2338.783
  46  2520.909
  47  2754.362
  48  2410.165
  49  2497.026
  50  2456.994
  51  2560.01
  52  2329.476
  53  2305.389
  54  2779.516
  55  2661.711
  56  2562.802
  57  2450.322
  58  2031.736
  59  1881.107
  60  1789.628
  61  1635.721
  62  2078.489
  63  2176.864
  64  2059.158
  65  1809.083
  66  2015.672
  67  1992.058
  68  2112.422
  69  1820.637
  70  1894.19
  71  1885.874
  72  2050.998
  73  2175.717
  74  2022.829
  75  1750.594
  76  2040.562
  77  2074.957
  78  2041.651
  79  1832.397
  80  1911.727
  81  1998.774
  82  2420.602
  83  2640.674
  84  2440.806
  85  2385.267
  86  2310.148
  87  2634.849
  88  2541.983
  89  2525.602
  90  2621.862
  91  2535.01
  92  2096.136
  93  2405.643
  94  2582.441
  95  2333.621
  96  2313.361
  97  2165.663
  98  2200.934
  99  2437.446
 100  2501.817
 101  2513.72
 102  2192.641
 103  2296.283
 104  2300.629
 105  2129.507
 106  2223.156
 107  2269.729
 108  2204.398
 109  2011.838
 110  1917.072
 111  2119.184
 112  2001.965
 113  2132.553
 114  1956.031
 115  2166.59
 116  2342.544
 117  2664.805
 118  2967.129
 119  3533.627
 120  3979.32
 121  3680.153
 122  3498.747
 123  3441.65
 124  2640.344
 125  2062.545
 126  2338.664
 127  2377.104
 128  2348.768
 129  2314.353
 130  2438.328
 131  2818.867
 132  2765.522
 133  2628.27
 134  2753.086
 135  3062.524
 136  2841.498
 137  2706.392
 138  2587.147
 139  2414.749
 140  2428.272
 141  2342.051
 142  2405.035
 143  2743.658
 144  2562.708
 145  2224.449
 146  2187.586
 147  2279.746
 148  2272.568
 149  2088.03
 150  2449.199
 151  2341.407
 152  1795.796
 153  1927.835
 154  2197.377
 155  2081.568
 156  2259.887
 157  2209.977
 158  2238.536
 159  2148.012
 160  2370.076
 161  2463.195
 162  2227.308
 163  2217.794
 164  2057.696
 165  2151.683
 166  2400.453
 167  2344.642
 168  2453.466
 169  2579.366
 170  2472.669
 171  2443.061
 172  2448.706
 173  2706.967
 174  2924.869
 175  2733.294
 176  2308.74
 177  2465.152
 178  2311.215
 179  2411.176
 180  2175.166
 181  2173.101
 182  2313.701
 183  2388.16
 184  2644.556
 185  2440.78
 186  2096.647
 187  2525.695
 188  2334.443
 189  2207.749
 190  2256.398
 191  2344.509
 192  2371.649
 193  2627.92
 194  2480.964
 195  2207.663
 196  2272.658
 197  2252.525
 198  2156.975
 199  2154.519
 200  2111.806
 201  2247.457
 202  2075.899
 203  2160.223
 204  2170.46
 205  2258.012
 206  2319.387
 207  2333.624
 208  2151.902
 209  2151.126
 210  2207.13
 211  2159.716
 212  2108.693
 213  2235.686
 214  2674.718
 215  2750.343
 216  2638.591
 217  2566.158
 218  2618.263
 219  2415.225
 220  2814.105
 221  2787.612
 222  2649.216
 223  2620.922
 224  2553.868
 225  2660.252
 226  2679.284
 227  2464.86
 228  2074.402
 229  2036.146
 230  2107.324
 231  2045.254
 232  1930.165
 233  2176.006
 234  2229.65
 235  2219.405
 236  2434.384
 237  2394.799
 238  2731.172
 239  2543.651
 240  2596.312
 241  2494.776
 242  2553.772
 243  2541.969
 244  2326.479
 245  2094.224
 246  2153.541
 247  2076.243
 248  1975.671
 249  2029.012
 250  2192.017
 251  2428.98
 252  2294.525
 253  2290.939
 254  2559.615
 255  2736.271
 256  2651.723
 257  2607.851
 258  2499.125
 259  2673.847
 260  2713.406
 261  2651.956
 262  2494.879
 263  2271.285
 264  2481.78
 265  2766.194
 266  2664.382
 267  2791.073
 268  2391.588
 269  2406.695
 270  2509.569
 271  2446.082
 272  2654.364
 273  2639.906
 274  2719.963
 275  2768.633
 276  2607.561
 277  2695.986
 278  2559.904
 279  2242.945
 280  2476.555
 281  2196.438
 282  2087.756
 283  2191.553
 284  2006.282
 285  2094.287
 286  2235.25
 287  2562.426
 288  2159.665
 289  2367.583
 290  2149.287
 291  2326.421
 292  2411.874
 293  2345.563
 294  2589.527
 295  2371.596
 296  2505.656
 297  2484.247
 298  2294.431
 299  2485.579
 300  2913.85
 301  2767.388
 302  2765.128
 303  3011.831
 304  2900.604
 305  2576.541
 306  2687.024
 307  3043.476
 308  3084.11
 309  3120.492
 310  3014.385
 311  2928.92
 312  2969.073
 313  2821.681
 314  2535.1
 315  2521.382
 316  2445.839
 317  2508.312
 318  2808.227
 319  2515.476
 320  2426.343
 321  2279.293
 322  2430.934
 323  2598.473
 324  2596.092
 325  2468.774
 326  2411.954
 327  2405.887
 328  2802.567
 329  2545.714
 330  2517.866
 331  2461.013
 332  2520.418
 333  2460.301
 334  2415.501
 335  2470.696
 336  2126.118
 337  2039.458
 338  2255.216
 339  2486.229
 340  2782.531
 341  2571.899
 342  3026.417
 343  3043.957
 344  2674.055
 345  2568.332
 346  2655.292
 347  2794.49
 348  2463.261
 349  2584.24
 350  2658.778
 351  2564.492
 352  2562.957
 353  2465.198
 354  2876.727
 355  3147.318
 356  2691.083
 357  2273.695
 358  2547.766
 359  2289.721
 360  2235.661
 361  2055.467
 362  2338.648
 363  2451.29
 364  2398.424
 365  2410.452
 366  2034.801
 367  1691.037
 368  1793.795
 369  2020.105
 370  2233.803
 371  2426.294
 372  2616.939
 373  2246.195
 374  2066.46
 375  2411.014
 376  2548.251
 377  2379.553
 378  2439.76
 379  2551.802
 380  2438.784
 381  2270.711
 382  2180.288
 383  2159.042
 384  2339.182
 385  2741.444
 386  2678.075
 387  2857.019
 388  2807.679
 389  2574.006
 390  2787.037
 391  2674.295
 392  2670.672
 393  2761.866
 394  2685.624
 395  2602.834
 396  2517.13
 397  2672.186
 398  2706.521
 399  2798.784
 400  2878.905
 401  2534.503
 402  2535.274
 403  2628.463
 404  2098.41
 405  2093.36
 406  2372.618
 407  2570.947
 408  2463.738
 409  2044.641
 410  2334.053
 411  2252.644
 412  2211.733
 413  2196.273
 414  2143.293
 415  1871.083
 416  1872.528
 417  2323.892
 418  2481.948
 419  2550.074
 420  1846.036
 421  1864.357
 422  2099.452
 423  2392.609
 424  2406.331
 425  2553.76
 426  2784.976
 427  2481.593
 428  2230.01
 429  2197.016
 430  2576.728
 431  2467.077
 432  2336.359
 433  2329.894
 434  2505.883
 435  2340.28
 436  2338.855
 437  2256.25
 438  2164.699
 439  2346.242
 440  2093.729
 441  2237.07
 442  2460.631
 443  2362.62
 444  2554.067
 445  2275.953
 446  1994.902
 447  2097.061
 448  2443.09
 449  2208.77
 450  2157.175
 451  2229.896
 452  2193.447
 453  2344.289
 454  2438.972
 455  2296.741
 456  2357.303
 457  2192.865
 458  2366.127
 459  2509.697
 460  2412.455
 461  2327.183
 462  2642.622
 463  2608.607
 464  2800.985
 465  2557.224
 466  2639.447
 467  2727.842
 468  2726.663
 469  2737.538
 470  2630.953
 471  2671.375
 472  2810.427
 473  2652.678
 474  2724.296
 475  3049.649
 476  2976.064
 477  3016.208
 478  2827.764
 479  2422.996
 480  2528.135
 481  2520.611
 482  2497.092
 483  2509.736
 484  2593.765
 485  2709.127
 486  2742.717
 487  2633.259
 488  2739.08
 489  2555.65
 490  2121.897
 491  2196.428
 492  2386.782
 493  2490.647
 494  2438.093
 495  2236.802
 496  2198.44
 497  2160.066
 498  2076.731
 499  2173.212
 500  2406.815
 501  2160.729
 502  2062.001
 503  2241.894
 504  2384.392
 505  2388.959
 506  2714.066
 507  2743.475
 508  2654.643
 509  2555.794
 510  2449.32
 511  2659.429
