# Input file       =  1182592049.117098_cleaned.dat
# Candidate        =  PSR_0332+5434
# Telescope        =  AR
# Epoch_topo       =  57931.408195799748
# Epoch_bary       =  N/A
# T_sample         =  0.002
# Data Folded      =  7340032
# Data Avg         =  0.0292966540824036
# Data StdDev      =  1.00014305064257 
# Profile Bins     =  512
# Profile Avg      =  420.071110927686 
# Profile StdDev   =  119.750164264557 
# Reduced chi-sqr  =  1.311
# Prob(Noise)      <  2.6e-06   (~4.6 sigma)
# P_topo (ms)      =  714.49253025075   +/- 2.14e-05
# P'_topo (s/s)    =  -0                +/- 1.13e-11
# P''_topo (s/s^2) =  0                 +/- 4.99e-15
# P_bary (ms)      =  N/A
# P'_bary (s/s)    =  N/A
# P''_bary (s/s^2) =  N/A
# P_orb (s)        =  N/A
# asin(i)/c (s)    =  N/A
# eccentricity     =  N/A
# w (rad)          =  N/A
# T_peri           =  N/A
######################################################
   0  541.3602
   1  517.7164
   2  736.3652
   3  890.9422
   4  877.1008
   5  808.7142
   6  673.6855
   7  641.8204
   8  538.4513
   9  537.8789
  10  392.1088
  11  444.2541
  12  524.5489
  13  552.2856
  14  422.903
  15  285.0653
  16  385.9906
  17  371.0811
  18  499.2702
  19  451.874
  20  266.6295
  21  341.325
  22  409.0476
  23  456.1012
  24  468.7865
  25  363.3186
  26  322.8286
  27  319.0208
  28  354.8934
  29  386.8063
  30  346.3232
  31  210.2444
  32  351.1178
  33  254.8553
  34  178.5909
  35  230.5638
  36  218.9811
  37  390.2441
  38  410.7908
  39  303.575
  40  279.0492
  41  327.9239
  42  344.9028
  43  331.6906
  44  210.7282
  45  281.3813
  46  478.7467
  47  601.1741
  48  457.7027
  49  385.0037
  50  372.72
  51  433.1126
  52  455.3105
  53  495.9955
  54  463.3669
  55  467.8381
  56  516.4929
  57  501.1251
  58  344.9704
  59  244.5693
  60  302.7787
  61  428.4811
  62  485.9629
  63  410.207
  64  241.0522
  65  387.1621
  66  458.2685
  67  430.2701
  68  314.4415
  69  278.5132
  70  390.5979
  71  493.1712
  72  415.6418
  73  388.692
  74  347.5141
  75  465.6894
  76  446.2948
  77  485.3416
  78  345.7547
  79  322.8238
  80  451.5296
  81  383.9971
  82  391.0848
  83  455.1012
  84  500.3114
  85  443.9129
  86  420.8059
  87  465.8495
  88  497.489
  89  537.1796
  90  605.2462
  91  471.3224
  92  347.842
  93  334.1351
  94  532.6228
  95  537.1543
  96  448.6783
  97  475.6048
  98  469.4454
  99  522.9502
 100  527.1042
 101  488.9331
 102  414.3749
 103  465.0892
 104  491.2316
 105  468.0715
 106  484.5526
 107  340.3218
 108  522.1721
 109  476.6605
 110  450.8828
 111  413.3914
 112  343.6268
 113  419.9561
 114  444.2562
 115  314.0793
 116  378.0537
 117  510.522
 118  519.03
 119  528.6254
 120  367.8397
 121  296.7635
 122  277.7064
 123  410.5512
 124  433.2774
 125  344.4218
 126  253.5641
 127  378.6737
 128  370.2374
 129  386.895
 130  287.9463
 131  196.1574
 132  305.9814
 133  358.2673
 134  285.969
 135  353.2771
 136  343.9369
 137  394.0739
 138  509.6168
 139  502.4409
 140  359.1005
 141  305.6173
 142  411.529
 143  440.4877
 144  392.9234
 145  474.895
 146  368.9043
 147  483.8446
 148  483.8496
 149  440.6473
 150  306.7672
 151  291.2025
 152  446.5892
 153  350.7054
 154  202.4359
 155  321.6749
 156  353.0559
 157  362.6526
 158  346.2234
 159  306.5342
 160  323.0913
 161  324.9904
 162  387.6981
 163  295.0079
 164  153.6412
 165  274.996
 166  396.1648
 167  394.4517
 168  363.3319
 169  381.0167
 170  431.6452
 171  467.6452
 172  439.756
 173  403.9707
 174  343.5735
 175  392.7661
 176  391.3329
 177  417.1342
 178  414.9596
 179  488.9586
 180  552.2347
 181  460.8484
 182  468.4273
 183  359.5518
 184  329.6851
 185  319.9273
 186  377.8436
 187  362.9673
 188  412.4077
 189  367.7542
 190  451.0914
 191  489.667
 192  354.8972
 193  253.332
 194  209.0985
 195  311.538
 196  383.4006
 197  338.2074
 198  286.3812
 199  416.1106
 200  373.1593
 201  290.2771
 202  324.5884
 203  423.3028
 204  449.5164
 205  464.3879
 206  360.0038
 207  276.5147
 208  311.041
 209  366.3691
 210  453.9673
 211  303.9827
 212  215.3579
 213  333.2926
 214  305.6377
 215  440.4456
 216  364.7898
 217  308.2501
 218  398.4514
 219  460.5817
 220  371.0548
 221  246.5833
 222  287.8735
 223  359.0815
 224  436.7964
 225  480.8305
 226  308.6765
 227  238.479
 228  248.6415
 229  390.359
 230  269.1604
 231  200.0256
 232  387.2676
 233  510.3263
 234  383.4579
 235  266.5112
 236  312.4407
 237  467.235
 238  449.2273
 239  408.6586
 240  272.3639
 241  356.2752
 242  318.0291
 243  349.6405
 244  338.4595
 245  329.5236
 246  339.5244
 247  409.5909
 248  442.3769
 249  507.231
 250  376.184
 251  366.5575
 252  384.0708
 253  440.4388
 254  397.2723
 255  348.6275
 256  364.0854
 257  417.0196
 258  428.6479
 259  448.616
 260  336.3458
 261  397.4641
 262  497.372
 263  550.3146
 264  548.6923
 265  503.5212
 266  552.1209
 267  510.6253
 268  355.9562
 269  355.5212
 270  411.8129
 271  542.364
 272  593.5862
 273  376.3821
 274  398.7515
 275  388.0983
 276  389.9158
 277  404.6541
 278  379.8079
 279  253.3436
 280  262.6635
 281  453.166
 282  476.6473
 283  345.0016
 284  254.661
 285  369.1736
 286  409.6306
 287  479.0471
 288  439.1293
 289  428.0978
 290  474.9996
 291  603.7206
 292  536.201
 293  399.2886
 294  322.3277
 295  427.2984
 296  575.5955
 297  492.592
 298  356.6534
 299  363.8623
 300  510.2859
 301  495.5697
 302  387.795
 303  318.5421
 304  450.7329
 305  601.6302
 306  488.7002
 307  558.7667
 308  422.3448
 309  432.2638
 310  511.5876
 311  587.0679
 312  475.7023
 313  467.9475
 314  571.0082
 315  575.4572
 316  497.8465
 317  321.8099
 318  384.8518
 319  461.4366
 320  505.3739
 321  484.0349
 322  356.2777
 323  390.6437
 324  366.5193
 325  483.4463
 326  444.3112
 327  318.1199
 328  309.4698
 329  409.7691
 330  403.0791
 331  424.1903
 332  257.4622
 333  390.5003
 334  607.9643
 335  453.7248
 336  215.4589
 337  147.086
 338  509.0106
 339  610.7991
 340  473.61
 341  463.004
 342  489.2289
 343  461.3604
 344  591.2666
 345  376.2666
 346  266.9752
 347  252.4276
 348  500.1434
 349  556.6493
 350  392.8959
 351  374.0582
 352  537.4299
 353  577.5668
 354  416.4413
 355  381.7595
 356  400.6872
 357  563.8282
 358  557.7709
 359  407.441
 360  446.7214
 361  424.3997
 362  419.679
 363  475.7281
 364  431.2259
 365  358.0146
 366  352.8369
 367  474.1927
 368  484.1668
 369  293.6021
 370  354.8847
 371  400.9152
 372  564.3319
 373  481.2362
 374  433.8472
 375  324.9536
 376  410.8225
 377  457.4299
 378  417.3698
 379  280.0233
 380  300.1994
 381  428.5367
 382  434.7465
 383  479.3626
 384  399.8729
 385  334.3897
 386  448.1765
 387  542.9866
 388  295.0447
 389  227.126
 390  309.7041
 391  403.5202
 392  547.4471
 393  522.2904
 394  448.9933
 395  379.1826
 396  470.2374
 397  435.4745
 398  319.3275
 399  301.3131
 400  429.7321
 401  534.3108
 402  517.6546
 403  482.9468
 404  467.598
 405  408.6204
 406  409.7402
 407  519.6938
 408  349.5213
 409  365.2515
 410  471.6289
 411  532.4693
 412  425.8905
 413  347.6694
 414  438.3256
 415  377.4812
 416  359.3802
 417  380.7209
 418  377.4865
 419  366.5844
 420  400.4279
 421  401.2945
 422  406.2828
 423  430.8318
 424  509.0161
 425  574.459
 426  465.4672
 427  464.6817
 428  415.2365
 429  459.3324
 430  553.8278
 431  552.6024
 432  390.9592
 433  434.7606
 434  494.4425
 435  559.3099
 436  515.8147
 437  531.3186
 438  371.3171
 439  444.1379
 440  565.0755
 441  371.8041
 442  423.2703
 443  601.3683
 444  655.4899
 445  541.808
 446  407.1599
 447  375.9736
 448  488.1846
 449  522.3798
 450  546.0864
 451  507.1731
 452  593.0377
 453  501.7422
 454  489.2718
 455  407.6808
 456  412.6106
 457  437.1786
 458  533.7092
 459  533.6728
 460  497.0013
 461  477.2965
 462  554.3156
 463  518.9949
 464  460.4931
 465  335.8163
 466  364.9071
 467  484.9715
 468  496.0774
 469  400.893
 470  392.8581
 471  440.4395
 472  465.7392
 473  502.3732
 474  475.5069
 475  303.6212
 476  319.1316
 477  463.3903
 478  490.2814
 479  379.1185
 480  369.2637
 481  377.536
 482  435.5049
 483  491.4552
 484  434.7125
 485  312.3193
 486  439.1871
 487  551.3256
 488  596.7138
 489  540.569
 490  432.3774
 491  492.9963
 492  612.9427
 493  601.429
 494  486.2514
 495  478.5326
 496  561.5599
 497  527.5882
 498  577.3089
 499  367.2782
 500  332.7214
 501  452.3182
 502  602.7155
 503  454.1913
 504  267.6127
 505  376.9154
 506  478.9121
 507  512.4205
 508  437.295
 509  316.0928
 510  485.0913
 511  634.0203
