# Input file       =  1183854874.114862_cleaned.dat
# Candidate        =  PSR_0332+5434
# Telescope        =  AR
# Epoch_topo       =  57946.024225866458
# Epoch_bary       =  N/A
# T_sample         =  0.002
# Data Folded      =  7274496
# Data Avg         =  0.0240073172740897
# Data StdDev      =  1.00011453616858 
# Profile Bins     =  512
# Profile Avg      =  341.101319738184 
# Profile StdDev   =  119.210967809822 
# Reduced chi-sqr  =  1.086
# Prob(Noise)      <  0.0868   (~1.4 sigma)
# P_topo (ms)      =  714.480935185558  +/- 0.000228
# P'_topo (s/s)    =  -0                +/- 1.21e-10
# P''_topo (s/s^2) =  0                 +/- 5.4e-14
# P_bary (ms)      =  N/A
# P'_bary (s/s)    =  N/A
# P''_bary (s/s^2) =  N/A
# P_orb (s)        =  N/A
# asin(i)/c (s)    =  N/A
# eccentricity     =  N/A
# w (rad)          =  N/A
# T_peri           =  N/A
######################################################
   0  915.3057
   1  745.4121
   2  644.4891
   3  440.2151
   4  301.9098
   5  305.7526
   6  212.1473
   7  101.8154
   8  264.7978
   9  262.7681
  10  282.8917
  11  215.5065
  12  300.784
  13  459.6774
  14  478.9627
  15  448.8294
  16  394.4652
  17  369.7894
  18  233.2561
  19  174.4405
  20  323.4767
  21  348.0827
  22  264.2703
  23  259.3027
  24  263.6347
  25  432.5792
  26  348.8061
  27  158.728
  28  219.7007
  29  284.0663
  30  237.2116
  31  334.0359
  32  430.1854
  33  386.2964
  34  301.4719
  35  318.3042
  36  341.694
  37  274.5411
  38  228.9043
  39  175.1608
  40  261.6442
  41  394.3766
  42  273.6076
  43  129.671
  44  180.0181
  45  354.565
  46  274.4114
  47  444.3789
  48  376.9467
  49  259.5215
  50  281.5974
  51  256.0362
  52  261.4212
  53  210.3446
  54  286.2692
  55  338.0173
  56  212.1933
  57  281.0413
  58  292.8094
  59  265.0484
  60  368.9551
  61  278.3691
  62  218.231
  63  219.4056
  64  197.3704
  65  261.989
  66  307.8009
  67  352.3352
  68  374.8451
  69  391.2109
  70  402.4027
  71  367.1678
  72  399.4421
  73  385.201
  74  284.3882
  75  366.6039
  76  385.097
  77  331.4168
  78  241.2367
  79  233.4193
  80  343.1641
  81  468.1757
  82  306.0246
  83  434.0385
  84  463.631
  85  378.4121
  86  270.6837
  87  343
  88  360.8615
  89  416.2655
  90  399.0492
  91  512.3148
  92  345.4629
  93  332.3864
  94  343.1638
  95  309.5198
  96  296.4738
  97  388.0774
  98  315.7085
  99  467.9569
 100  445.5485
 101  332.6474
 102  400.0524
 103  382.8544
 104  343.7526
 105  364.5134
 106  368.5894
 107  364.5927
 108  461.5315
 109  429.562
 110  421.7184
 111  459.1352
 112  460.9923
 113  397.4868
 114  248.6382
 115  265.301
 116  369.6481
 117  417.5884
 118  434.2964
 119  345.9663
 120  356.1246
 121  398.7032
 122  396.4048
 123  408.0777
 124  483.7591
 125  352.3138
 126  247.1935
 127  283.3117
 128  349.6146
 129  378.7486
 130  362.3872
 131  412.6112
 132  447.9166
 133  332.4552
 134  417.8793
 135  343.5116
 136  277.7977
 137  333.9265
 138  239.3154
 139  206.1203
 140  291.2735
 141  349.1677
 142  342.7177
 143  418.0277
 144  259.4869
 145  139.8809
 146  232.2398
 147  282.9803
 148  232.554
 149  244.6268
 150  272.3452
 151  321.3418
 152  239.3765
 153  289.1567
 154  351.1782
 155  170.0934
 156  201.1357
 157  373.8629
 158  466.2975
 159  389.7371
 160  272.8938
 161  167.5678
 162  228.5718
 163  402.671
 164  315.8857
 165  332.7573
 166  247.8904
 167  245.5896
 168  297.8695
 169  338.9115
 170  274.2668
 171  291.5661
 172  382.0648
 173  441.2525
 174  415.0731
 175  334.2638
 176  363.4413
 177  329.0546
 178  310.0091
 179  369.4388
 180  229.5377
 181  249.0111
 182  356.2502
 183  445.9312
 184  536.1202
 185  433.4106
 186  340.3588
 187  371.9973
 188  293.7873
 189  290.6526
 190  378.5705
 191  351.3447
 192  285.5297
 193  269.9707
 194  383.0558
 195  361.2571
 196  337.8675
 197  237.7069
 198  387.3866
 199  435.2262
 200  442.2271
 201  340.4995
 202  257.7812
 203  288.2935
 204  244.7599
 205  462.4402
 206  484.5252
 207  411.2428
 208  362.2501
 209  448.7125
 210  505.393
 211  426.0926
 212  414.4761
 213  463.0234
 214  428.0926
 215  440.5248
 216  515.959
 217  411.6467
 218  370.5674
 219  312.3672
 220  418.7108
 221  322.0048
 222  198.6023
 223  277.1468
 224  451.3434
 225  472.1788
 226  382.2245
 227  367.5308
 228  322.0569
 229  279.7362
 230  261.3824
 231  301.3551
 232  466.0089
 233  361.4566
 234  266.0402
 235  386.8042
 236  332.3707
 237  299.5723
 238  398.5609
 239  474.5899
 240  390.0229
 241  373.2617
 242  268.9264
 243  249.0247
 244  298.0598
 245  301.5547
 246  402.3008
 247  394.6347
 248  405.2077
 249  425.1994
 250  396.6549
 251  297.2537
 252  315.7865
 253  350.3843
 254  475.4613
 255  419.7619
 256  442.8085
 257  485.6444
 258  467.9814
 259  386.1735
 260  317.7141
 261  293.4323
 262  402.9627
 263  373.3322
 264  392.2833
 265  340.7063
 266  272.1063
 267  360.3502
 268  383.6821
 269  427.8987
 270  510.2034
 271  419.8288
 272  336.9606
 273  322.735
 274  354.5418
 275  339.0255
 276  301.5287
 277  379.6835
 278  377.5345
 279  356.8988
 280  390.3917
 281  366.747
 282  314.3101
 283  268.7134
 284  252.9055
 285  200.2545
 286  260.8903
 287  347.3871
 288  398.9749
 289  330.4202
 290  247.0141
 291  340.2717
 292  368.4051
 293  393.1987
 294  304.6731
 295  359.3766
 296  375.1564
 297  284.3183
 298  215.6191
 299  231.9436
 300  320.4449
 301  327.3965
 302  307.869
 303  318.8247
 304  292.8241
 305  373.9278
 306  306.9897
 307  300.151
 308  313.4845
 309  348.7408
 310  404.325
 311  419.6047
 312  372.8459
 313  324.9436
 314  395.9949
 315  304.0581
 316  258.6243
 317  292.588
 318  329.879
 319  278.8536
 320  366.4596
 321  288.0512
 322  194.1812
 323  440.2125
 324  429.9481
 325  390.6822
 326  310.935
 327  414.522
 328  384.6256
 329  430.0452
 330  451.3757
 331  357.552
 332  293.7694
 333  328.3356
 334  361.1384
 335  355.4689
 336  497.1292
 337  461.948
 338  314.7583
 339  296.9219
 340  378.9944
 341  384.3189
 342  363.3179
 343  427.4793
 344  353.4971
 345  355.3568
 346  385.5075
 347  305.9547
 348  343.6252
 349  358.6773
 350  238.3285
 351  329.5328
 352  457.4221
 353  435.3191
 354  394.2427
 355  298.4742
 356  308.7457
 357  238.1393
 358  160.224
 359  292.2455
 360  411.1601
 361  404.0308
 362  314.9129
 363  289.4749
 364  332.0628
 365  383.2265
 366  354.8376
 367  271.2709
 368  293.577
 369  369.5854
 370  375.7591
 371  371.9611
 372  318.1942
 373  267.7308
 374  281.0695
 375  287.7611
 376  346.1277
 377  365.7606
 378  315.0276
 379  404.0648
 380  384.05
 381  348.1417
 382  419.7317
 383  426.2841
 384  409.9561
 385  312.38
 386  219.3796
 387  273.6045
 388  363.3568
 389  333.4236
 390  362.7554
 391  453.073
 392  429.9502
 393  351.4391
 394  346.35
 395  347.9957
 396  406.3192
 397  302.7391
 398  368.7527
 399  398.742
 400  287.5475
 401  224.8803
 402  313.59
 403  237.3819
 404  393.5628
 405  447.1388
 406  352.196
 407  259.1567
 408  248.3248
 409  350.7806
 410  342.3801
 411  320.6093
 412  390.3308
 413  379.7276
 414  313.6855
 415  256.8285
 416  261.6863
 417  287.9216
 418  316.5933
 419  383.3279
 420  507.8138
 421  392.3025
 422  355.6858
 423  286.9336
 424  363.1548
 425  381.0877
 426  387.2288
 427  347.8317
 428  290.021
 429  218.8209
 430  235.7316
 431  329.2578
 432  443.8997
 433  330.2589
 434  201.8648
 435  196.3027
 436  358.1393
 437  285.144
 438  190.9883
 439  307.9535
 440  336.6901
 441  294.4253
 442  325.7892
 443  309.7856
 444  307.5317
 445  276.6392
 446  288.8184
 447  312.0166
 448  300.2275
 449  304.4425
 450  279.9522
 451  340.465
 452  438.0132
 453  380.6647
 454  352.0355
 455  274.2112
 456  211.7729
 457  264.6023
 458  363.5905
 459  365.0096
 460  391.368
 461  363.8503
 462  263.0647
 463  291.6799
 464  234.918
 465  292.4371
 466  276.883
 467  359.6889
 468  287.3023
 469  243.2036
 470  246.766
 471  279.2973
 472  309.6872
 473  183.0309
 474  147.043
 475  237.4553
 476  265.5708
 477  281.5587
 478  373.1473
 479  316.1423
 480  190.1624
 481  260.4123
 482  335.0072
 483  223.0877
 484  293.7794
 485  368.6744
 486  397.8184
 487  338.5251
 488  330.8811
 489  282.9115
 490  319.8914
 491  334.6039
 492  327.3083
 493  451.8792
 494  384.1286
 495  288.5259
 496  337.5181
 497  352.5608
 498  332.7606
 499  363.8298
 500  309.7891
 501  207.9631
 502  162.9705
 503  262.0152
 504  308.0245
 505  311.2552
 506  405.4661
 507  597.1371
 508  666.4504
 509  676.2668
 510  741.4738
 511  890.1351
