# Input file       =  1183540492.120483_cleaned.dat
# Candidate        =  PSR_0332+5434
# Telescope        =  AR
# Epoch_topo       =  57942.385545375961
# Epoch_bary       =  N/A
# T_sample         =  0.002
# Data Folded      =  7340032
# Data Avg         =  0.231434308150451
# Data StdDev      =  4.60578788492438 
# Profile Bins     =  256
# Profile Avg      =  6635.21969813268 
# Profile StdDev   =  779.889237441541 
# Reduced chi-sqr  =  1.026
# Prob(Noise)      <  0.375   (~0.3 sigma)
# P_topo (ms)      =  714.483896877011  +/- 0.000571
# P'_topo (s/s)    =  -0                +/- 3.02e-10
# P''_topo (s/s^2) =  0                 +/- 1.33e-13
# P_bary (ms)      =  N/A
# P'_bary (s/s)    =  N/A
# P''_bary (s/s^2) =  N/A
# P_orb (s)        =  N/A
# asin(i)/c (s)    =  N/A
# eccentricity     =  N/A
# w (rad)          =  N/A
# T_peri           =  N/A
######################################################
   0  6398.264
   1  6007.75
   2  6380.825
   3  6282.791
   4  7479.327
   5  7122.242
   6  7157.963
   7  7353.574
   8  6697.53
   9  6631.436
  10  6917.764
  11  6500.466
  12  5388.881
  13  6054.014
  14  6479.441
  15  6026.4
  16  5472.588
  17  5930.256
  18  5694.431
  19  5792.63
  20  6237.409
  21  6720.271
  22  6582.686
  23  5922.746
  24  5883.358
  25  5519.213
  26  6254.495
  27  6507.575
  28  6530.084
  29  6778.316
  30  7025.49
  31  6941.086
  32  6769.117
  33  7083.317
  34  7153.817
  35  6611.366
  36  6782.346
  37  7136.219
  38  6514.096
  39  7473.247
  40  7307.539
  41  6694.255
  42  7475.536
  43  7486.608
  44  7357.844
  45  7367.05
  46  7279.993
  47  6841.658
  48  7053.335
  49  6709.486
  50  6713.941
  51  6772.211
  52  7173.229
  53  7268.982
  54  7228.62
  55  7186.146
  56  6557.526
  57  6359.673
  58  6303.048
  59  6179.076
  60  6530.722
  61  5644.784
  62  5996.418
  63  5981.123
  64  5784.185
  65  5935.311
  66  5650.25
  67  6160.19
  68  6519.678
  69  4883.975
  70  5002.74
  71  5919.2
  72  6405.338
  73  6849.197
  74  6049.956
  75  5572.231
  76  4772.715
  77  5851
  78  5677.996
  79  5793.858
  80  5402.146
  81  5685.651
  82  5837.686
  83  6078.156
  84  5350.049
  85  6058.481
  86  6364.848
  87  6620.367
  88  6534.989
  89  6817.012
  90  6883.33
  91  6816.258
  92  7063.867
  93  6854.407
  94  7043.067
  95  6993.14
  96  7116.465
  97  6818.388
  98  7403.292
  99  6900.895
 100  6153.154
 101  6092.266
 102  6462.628
 103  5980.069
 104  6022.366
 105  6879.697
 106  6275.811
 107  6127.501
 108  5494.024
 109  6237.156
 110  5657.21
 111  6613.677
 112  7128.066
 113  6726.512
 114  7251.8
 115  7357.661
 116  7274.688
 117  7074.693
 118  7279.404
 119  6644.523
 120  6166.014
 121  5939.534
 122  5908.929
 123  6306.326
 124  5768.495
 125  6197.909
 126  6292.347
 127  6014.579
 128  6520.447
 129  6448.59
 130  6725.176
 131  6620.325
 132  6920.968
 133  6278.079
 134  6875.032
 135  6382.479
 136  5893.165
 137  6018.575
 138  6098.393
 139  6756.294
 140  5903.994
 141  6168.597
 142  7405.193
 143  7548.562
 144  6572.097
 145  6586.999
 146  6808.632
 147  6152.459
 148  5641.375
 149  6069.282
 150  5592.077
 151  6443.452
 152  7058.709
 153  6324.031
 154  6784.916
 155  7166.71
 156  6477.504
 157  6367.847
 158  6836.106
 159  7708.514
 160  7521.374
 161  7864.734
 162  9640.132
 163  11113.04
 164  9082.08
 165  7585.675
 166  7134.985
 167  6659.571
 168  6955.533
 169  6621.317
 170  6769.058
 171  7412.487
 172  6749.324
 173  6053.407
 174  5631.487
 175  6634.312
 176  6770.229
 177  6477.896
 178  6258.983
 179  6468.749
 180  6964.954
 181  7024.709
 182  7169.75
 183  7244.633
 184  7092.354
 185  6784.231
 186  7169.786
 187  6969.489
 188  6699.844
 189  6230.631
 190  6442.132
 191  6614.319
 192  6805.682
 193  6748.306
 194  7474.838
 195  7205.988
 196  7751.157
 197  7718.994
 198  7549.52
 199  7290.32
 200  7760.883
 201  7207.433
 202  6855.513
 203  6479.967
 204  6702.88
 205  6868.941
 206  6471.621
 207  6487.312
 208  6769.736
 209  6329.765
 210  6301.102
 211  6081.496
 212  6349.985
 213  7166.673
 214  6493.271
 215  6212.502
 216  7020.45
 217  6987.199
 218  7057.799
 219  6459.043
 220  6916.728
 221  7192.568
 222  7149.935
 223  6612.316
 224  6278.546
 225  6876.196
 226  7016.586
 227  6843.836
 228  7325.971
 229  6880.514
 230  6061.629
 231  6111.08
 232  6356.513
 233  6484.704
 234  6108.569
 235  6475.102
 236  6669.669
 237  6721.33
 238  6755.337
 239  6077.365
 240  6807.17
 241  7177.095
 242  7374.61
 243  7801.819
 244  7125.633
 245  8168.106
 246  7085.785
 247  6381.553
 248  6332.022
 249  6104.963
 250  7153.446
 251  6499.001
 252  6198.246
 253  6575.053
 254  6424.812
 255  6457.289
