# Input file       =  1183008434.122497_cleaned.dat
# Candidate        =  PSR_0332+5434
# Telescope        =  AR
# Epoch_topo       =  57936.227466695571
# Epoch_bary       =  N/A
# T_sample         =  0.002
# Data Folded      =  7340032
# Data Avg         =  0.179125627780324
# Data StdDev      =  3.54880362086866 
# Profile Bins     =  256
# Profile Avg      =  5134.20680317178 
# Profile StdDev   =  600.912117287938 
# Reduced chi-sqr  =  1.808
# Prob(Noise)      <  4.72e-14   (~7.4 sigma)
# P_topo (ms)      =  714.488257162125  +/- 0.000511
# P'_topo (s/s)    =  -0                +/- 2.7e-10
# P''_topo (s/s^2) =  0                 +/- 1.19e-13
# P_bary (ms)      =  N/A
# P'_bary (s/s)    =  N/A
# P''_bary (s/s^2) =  N/A
# P_orb (s)        =  N/A
# asin(i)/c (s)    =  N/A
# eccentricity     =  N/A
# w (rad)          =  N/A
# T_peri           =  N/A
######################################################
   0  5186.211
   1  5490.208
   2  5067.752
   3  4542.947
   4  5258.792
   5  5072.323
   6  5399.171
   7  4872.206
   8  4903.503
   9  4935.341
  10  5440.551
  11  5010.768
  12  4601.981
  13  5252.067
  14  5094.792
  15  4713.821
  16  4781.607
  17  4462.435
  18  4890.733
  19  5541.75
  20  5180.342
  21  5480.965
  22  5679.9
  23  5751.248
  24  5786.263
  25  5217.808
  26  5523.208
  27  4803.425
  28  4541.932
  29  4998.963
  30  5011.688
  31  5233.18
  32  4976.206
  33  3810.265
  34  4177.527
  35  4441.222
  36  4095.745
  37  3547.913
  38  4177.826
  39  4171.058
  40  4478.586
  41  4636.15
  42  4802.477
  43  5119.096
  44  4791.294
  45  4517.763
  46  5243.197
  47  5387.299
  48  5798.948
  49  5543.975
  50  4980.487
  51  5507.946
  52  4999.268
  53  4887.986
  54  4926.67
  55  4721.738
  56  5431.575
  57  4806.737
  58  4688.38
  59  4853.402
  60  4764.544
  61  4873.764
  62  4856.834
  63  5368.499
  64  4739.739
  65  4555.258
  66  4891.816
  67  5489.736
  68  5243.447
  69  5471.489
  70  5003.794
  71  4581.229
  72  4577.924
  73  3808.833
  74  3647.749
  75  3924.64
  76  4442.724
  77  4446.762
  78  3729.583
  79  4237.771
  80  4369.133
  81  4174.82
  82  4534.625
  83  4458.403
  84  5119.73
  85  4887.148
  86  5191.884
  87  5295.893
  88  5155.592
  89  6202.323
  90  5752.793
  91  6116.046
  92  5334.672
  93  5372.187
  94  5992.331
  95  5277.857
  96  5336.877
  97  5158.496
  98  5746.195
  99  5170.811
 100  4682.994
 101  4927.048
 102  4986.156
 103  5367.808
 104  4917.05
 105  4831.25
 106  4579.051
 107  4699.57
 108  5315.188
 109  5206.571
 110  5166.218
 111  5700.627
 112  5470.397
 113  4945.169
 114  5138.569
 115  5309.377
 116  5273.478
 117  5128.774
 118  4400.541
 119  4282.263
 120  4304.025
 121  4795.785
 122  4662.78
 123  4779.351
 124  4357.762
 125  4870.703
 126  4866.542
 127  5198.741
 128  4963.331
 129  4650.784
 130  4080.275
 131  5158.651
 132  5021.558
 133  5998.563
 134  4953.298
 135  5064.72
 136  4838.975
 137  4827.108
 138  4101.01
 139  4857.553
 140  4771.581
 141  4200.383
 142  4884.348
 143  5066.631
 144  5086.481
 145  4307.204
 146  4357.513
 147  3948.212
 148  4077.462
 149  4374.428
 150  4597.249
 151  4469.317
 152  4275.123
 153  4565.483
 154  4896.584
 155  4742.262
 156  4480.944
 157  4986
 158  5631.078
 159  5077.66
 160  5611.671
 161  6667.054
 162  7971.224
 163  9417.316
 164  8455.253
 165  6789.208
 166  5929.881
 167  5277.104
 168  5681.448
 169  6335.429
 170  6316.069
 171  5993.82
 172  6055.092
 173  5565.779
 174  5369.806
 175  5532.635
 176  5588.3
 177  5487.226
 178  5493.811
 179  5359.449
 180  5442.062
 181  5920.438
 182  5500.05
 183  5896.211
 184  6191.873
 185  6433.193
 186  6028.527
 187  6711.02
 188  6122.216
 189  5840.398
 190  5755.539
 191  6054.013
 192  6046.454
 193  6013.713
 194  5933.516
 195  6529.193
 196  6227.497
 197  6098.682
 198  5929.783
 199  5802.676
 200  6008.909
 201  5653.055
 202  5183.772
 203  6001.012
 204  5605.926
 205  5992.648
 206  5215.639
 207  5358.698
 208  4967.141
 209  5126.955
 210  4812.033
 211  4711.917
 212  4678.734
 213  5546.793
 214  5754.841
 215  5249.862
 216  5782.789
 217  5115.376
 218  5382.172
 219  5186.93
 220  5104.432
 221  4919.926
 222  4868.893
 223  4869.565
 224  5193.293
 225  5204.317
 226  4755.513
 227  4186.915
 228  4957.75
 229  5137.361
 230  4591.235
 231  4405.691
 232  4935.781
 233  5081.777
 234  4578.181
 235  3947.006
 236  5075.997
 237  5202.238
 238  5127.039
 239  5131.659
 240  4711.84
 241  5266.007
 242  5025.464
 243  4733.591
 244  4655.353
 245  4839.88
 246  4767.932
 247  5484.382
 248  5508.969
 249  5170.344
 250  4595.292
 251  4766.435
 252  4997.715
 253  5116.227
 254  5489.08
 255  5215.899
