# Input file       =  1183338248.119590-PSRB0329-2ms-sampling-dd.dat
# Candidate        =  PSR_0332+5434
# Telescope        =  AR
# Epoch_topo       =  57940.044758328586
# Epoch_bary       =  N/A
# T_sample         =  0.002
# Data Folded      =  7405568
# Data Avg         =  9.95846347300381e-10
# Data StdDev      =  5.91114412811951 
# Profile Bins     =  512
# Profile Avg      =  0.386273678758066
# Profile StdDev   =  710.911852906394 
# Reduced chi-sqr  =  0.602
# Prob(Noise)      <  1   (~0.0 sigma)
# P_topo (ms)      =  714.485273777034  +/- 0.000141
# P'_topo (s/s)    =  -0                +/- 7.36e-11
# P''_topo (s/s^2) =  0                 +/- 3.22e-14
# P_bary (ms)      =  N/A
# P'_bary (s/s)    =  N/A
# P''_bary (s/s^2) =  N/A
# P_orb (s)        =  N/A
# asin(i)/c (s)    =  N/A
# eccentricity     =  N/A
# w (rad)          =  N/A
# T_peri           =  N/A
######################################################
   0  491.2195
   1  673.873
   2  -69.53275
   3  -207.6815
   4  -101.7295
   5  -99.36215
   6  -696.6369
   7  -552.9205
   8  -601.0035
   9  -847.8235
  10  -308.5441
  11  -89.11379
  12  -536.8224
  13  -679.5701
  14  -642.8454
  15  -460.3159
  16  -445.5435
  17  -587.485
  18  -184.7662
  19  84.56614
  20  -161.678
  21  -45.5965
  22  -9.767142
  23  -316.2164
  24  -693.4454
  25  -403.139
  26  -425.4501
  27  -364.9204
  28  -475.8466
  29  19.33707
  30  -230.2277
  31  -166.2683
  32  -501.8531
  33  -478.262
  34  -634.2046
  35  -419.5485
  36  -215.0244
  37  -661.9131
  38  -699.0447
  39  -622.2545
  40  -463.4402
  41  -731.838
  42  -687.7592
  43  -609.0913
  44  -646.1945
  45  -596.2598
  46  -1043.374
  47  -666.8746
  48  -342.6324
  49  260.6602
  50  -380.4566
  51  -379.3549
  52  -85.95193
  53  184.0012
  54  -36.03769
  55  63.98955
  56  -85.91228
  57  -533.9682
  58  -540.5073
  59  -464.4878
  60  -475.463
  61  -679.4735
  62  -591.6452
  63  -201.2721
  64  292.1436
  65  208.4651
  66  113.0224
  67  -111.5244
  68  -68.27372
  69  -324.6778
  70  -66.60728
  71  -370.2911
  72  -334.4211
  73  -203.9642
  74  118.8903
  75  -72.03732
  76  30.02317
  77  -90.36634
  78  -424.1562
  79  -497.2171
  80  -197.9312
  81  81.38702
  82  -243.6002
  83  -109.1923
  84  -255.834
  85  -255.7383
  86  -151.806
  87  -128.1839
  88  98.83482
  89  -152.1296
  90  -42.36712
  91  -205.514
  92  -563.8556
  93  -771.1614
  94  -545.2581
  95  -333.9533
  96  -274.1263
  97  3.898887
  98  -12.30927
  99  -23.57811
 100  121.298
 101  -111.3615
 102  -95.89842
 103  -112.631
 104  -242.9057
 105  -402.2672
 106  -447.8914
 107  293.2829
 108  79.81467
 109  236.1232
 110  254.1052
 111  280.7784
 112  -122.07
 113  -755.6765
 114  -584.0043
 115  -604.1446
 116  56.07596
 117  345.655
 118  379.2219
 119  -64.44115
 120  98.0775
 121  90.98787
 122  67.14394
 123  227.0189
 124  -1.822736
 125  199.3868
 126  -186.9297
 127  -0.4978493
 128  -41.20566
 129  446.8471
 130  477.5565
 131  189.0134
 132  489.248
 133  149.0342
 134  31.78184
 135  38.88865
 136  5.760696
 137  552.4788
 138  681.4254
 139  946.5264
 140  992.2726
 141  616.9534
 142  221.8527
 143  160.2279
 144  108.5561
 145  160.082
 146  266.1731
 147  609.3022
 148  1086.931
 149  756.3384
 150  486.0133
 151  520.5846
 152  493.872
 153  123.7257
 154  104.1662
 155  554.6575
 156  873.5504
 157  538.6074
 158  355.5922
 159  470.2794
 160  95.96627
 161  -271.5157
 162  -60.83758
 163  250.6706
 164  436.4646
 165  350.9735
 166  647.9467
 167  457.4058
 168  -300.5994
 169  -307.0104
 170  328.5567
 171  526.0228
 172  681.8975
 173  820.1141
 174  633.1085
 175  130.5328
 176  95.26654
 177  -132.0612
 178  -108.623
 179  145.2736
 180  481.4006
 181  482.881
 182  167.0303
 183  355.4747
 184  147.1805
 185  -75.28421
 186  -573.2441
 187  -637.2786
 188  -217.6887
 189  -202.0402
 190  43.96944
 191  158.8075
 192  -96.41948
 193  -318.4507
 194  -248.8446
 195  -569.2594
 196  -607.1153
 197  -55.74337
 198  173.4803
 199  426.4926
 200  583.1777
 201  543.9859
 202  463.4793
 203  447.4211
 204  463.2319
 205  351.7971
 206  267.4584
 207  387.3383
 208  -53.27611
 209  -241.9294
 210  -250.7482
 211  176.1093
 212  173.1899
 213  173.7474
 214  543.6887
 215  416.0818
 216  245.3697
 217  80.29189
 218  225.2061
 219  133.551
 220  190.5146
 221  190.5334
 222  455.9176
 223  397.2565
 224  344.8994
 225  92.46032
 226  -56.64742
 227  -143.631
 228  -270.0522
 229  172.8146
 230  455.7224
 231  482.4134
 232  317.5481
 233  27.76301
 234  -356.6857
 235  -555.9621
 236  -185.9924
 237  118.4275
 238  489.6973
 239  244.4179
 240  -179.7594
 241  -345.5762
 242  -638.9189
 243  -322.2838
 244  224.4615
 245  384.348
 246  435.8263
 247  384.0432
 248  113.3287
 249  -297.3601
 250  -313.3255
 251  -322.1269
 252  -371.4174
 253  -401.629
 254  -111.8904
 255  -84.53796
 256  -256.5817
 257  -521.2811
 258  -405.8584
 259  -397.6082
 260  -778.4016
 261  -829.7401
 262  -852.7976
 263  -449.7793
 264  -249.3918
 265  -87.06236
 266  -158.4998
 267  -166.2469
 268  -481.3205
 269  -309.6816
 270  -271.5826
 271  -255.3456
 272  -148.3498
 273  112.3529
 274  274.8246
 275  401.2406
 276  417.0063
 277  268.1264
 278  -121.4897
 279  -313.6956
 280  247.5872
 281  510.6657
 282  999.5235
 283  592.3536
 284  407.397
 285  -91.91923
 286  -55.29861
 287  429.0387
 288  408.3853
 289  485.4797
 290  634.1681
 291  606.17
 292  -185.7648
 293  -556.9747
 294  -429.1657
 295  -74.6511
 296  153.9886
 297  147.2889
 298  315.5384
 299  105.3697
 300  344.5951
 301  24.23725
 302  405.5846
 303  290.6053
 304  109.5303
 305  5.741411
 306  161.2702
 307  220.8732
 308  -146.2379
 309  8.961564
 310  279.5044
 311  167.3502
 312  195.7432
 313  43.16133
 314  236.3003
 315  530.1915
 316  701.4178
 317  611.6851
 318  458.1418
 319  820.346
 320  1299.315
 321  1799.844
 322  1955.186
 323  1318.182
 324  336.8923
 325  -546.0121
 326  -992.2009
 327  -695.9293
 328  -548.9367
 329  -613.8426
 330  -237.0651
 331  141.5587
 332  429.0735
 333  188.0428
 334  -85.12897
 335  162.8531
 336  195.9378
 337  -188.4171
 338  26.17739
 339  268.2335
 340  275.1311
 341  -64.83619
 342  -183.9147
 343  25.19806
 344  -131.9496
 345  -356.6224
 346  -358.0947
 347  -26.47373
 348  111.989
 349  309.0743
 350  -49.45699
 351  -182.6925
 352  -95.00957
 353  -467.1753
 354  -211.6539
 355  34.09937
 356  263.3242
 357  128.2168
 358  -239.2318
 359  -465.231
 360  -738.7178
 361  -521.5369
 362  -254.0674
 363  -103.7601
 364  299.6601
 365  566.2109
 366  262.6934
 367  -60.56498
 368  -477.5174
 369  -233.1672
 370  108.1863
 371  -24.64064
 372  -8.303332
 373  -149.7195
 374  -63.09271
 375  -537.7863
 376  -353.8496
 377  -231.0427
 378  -109.6313
 379  -150.0456
 380  -86.70306
 381  -171.416
 382  -455.9283
 383  -166.7962
 384  -145.4974
 385  -206.0555
 386  -385.402
 387  -225.763
 388  -142.9569
 389  -554.6954
 390  -282.9052
 391  -138.0065
 392  -423.5374
 393  -621.3366
 394  -465.7908
 395  -174.2465
 396  77.04041
 397  -107.2204
 398  563.4084
 399  371.5361
 400  125.2925
 401  103.1292
 402  32.03439
 403  -175.8189
 404  -413.3329
 405  -83.01463
 406  248.0932
 407  25.27472
 408  -295.9278
 409  -252.8116
 410  -430.6149
 411  -279.8443
 412  -195.0319
 413  36.30656
 414  -136.8165
 415  130.011
 416  262.1304
 417  15.97564
 418  201.6662
 419  57.63399
 420  -95.02289
 421  -60.85925
 422  207.2931
 423  421.5738
 424  -310.9044
 425  -253.8633
 426  -360.002
 427  -19.03776
 428  0.6484107
 429  91.42451
 430  705.9089
 431  334.8977
 432  295.9135
 433  26.48227
 434  229.67
 435  180.3064
 436  373.5474
 437  316.5946
 438  459.9845
 439  781.2881
 440  788.7654
 441  976.2264
 442  155.397
 443  -21.27766
 444  52.05672
 445  17.16787
 446  -14.03484
 447  410.969
 448  649.845
 449  552.108
 450  301.7089
 451  -187.335
 452  -91.09583
 453  78.4646
 454  -10.93145
 455  99.84312
 456  178.5818
 457  398.8418
 458  448.1049
 459  490.1643
 460  198.2897
 461  178.742
 462  386.5743
 463  618.6798
 464  558.3505
 465  554.4485
 466  222.9833
 467  276.4362
 468  159.2225
 469  103.2824
 470  325.0977
 471  369.9912
 472  10.51793
 473  -107.7941
 474  92.71627
 475  -111.5866
 476  -91.71473
 477  -363.7629
 478  -453.7394
 479  -494.1617
 480  -32.26962
 481  269.22
 482  278.484
 483  226.2916
 484  -143.4162
 485  -182.1952
 486  -455.7572
 487  -644.1489
 488  -832.9095
 489  -516.5289
 490  -28.82979
 491  -80.82546
 492  -439.2128
 493  -322.6559
 494  23.80717
 495  -93.9967
 496  -213.7313
 497  39.19989
 498  340.6615
 499  531.6829
 500  264.2301
 501  364.4861
 502  106.6789
 503  -59.32276
 504  -59.15
 505  -29.73319
 506  -141.2238
 507  -274.7885
 508  -54.57243
 509  -276.4012
 510  -266.2819
 511  -75.92528
