# Input file       =  1183525578.105013_cleaned.dat
# Candidate        =  PSR_0332+5434
# Telescope        =  AR
# Epoch_topo       =  57942.212929456167
# Epoch_bary       =  N/A
# T_sample         =  0.002
# Data Folded      =  7340032
# Data Avg         =  0.2753014823268  
# Data StdDev      =  4.30824935915569 
# Profile Bins     =  512
# Profile Avg      =  3947.04588626028 
# Profile StdDev   =  515.839777239968 
# Reduced chi-sqr  =  0.770
# Prob(Noise)      <  1   (~0.0 sigma)
# P_topo (ms)      =  714.483682128902  +/- 0.000478
# P'_topo (s/s)    =  -0                +/- 2.52e-10
# P''_topo (s/s^2) =  0                 +/- 1.11e-13
# P_bary (ms)      =  N/A
# P'_bary (s/s)    =  N/A
# P''_bary (s/s^2) =  N/A
# P_orb (s)        =  N/A
# asin(i)/c (s)    =  N/A
# eccentricity     =  N/A
# w (rad)          =  N/A
# T_peri           =  N/A
######################################################
   0  3610.597
   1  3527.165
   2  3575.891
   3  3807.983
   4  3949.039
   5  3891.553
   6  3625.016
   7  3820.16
   8  3918.35
   9  3788.761
  10  3819.232
  11  3854.818
  12  3909.843
  13  4105.866
  14  4090.537
  15  3813.763
  16  3953.66
  17  3852.071
  18  3778.778
  19  3864.201
  20  4087.374
  21  3972.519
  22  4226.815
  23  4250.875
  24  3963.377
  25  4070.372
  26  4095.013
  27  4438.793
  28  4493.289
  29  4510.67
  30  4555.185
  31  4886.63
  32  4632.577
  33  4430.437
  34  4490.122
  35  4308.982
  36  4467.502
  37  4578.813
  38  4314.347
  39  4266.214
  40  4066.025
  41  4132.221
  42  3967.98
  43  4086.799
  44  4208.44
  45  4168.074
  46  4134.15
  47  4230.785
  48  4128.344
  49  4119.047
  50  4111.856
  51  4322.994
  52  4370.15
  53  4200.728
  54  4056.013
  55  4126.686
  56  4065.461
  57  3970.561
  58  3942.112
  59  3624.573
  60  3905.28
  61  4203.154
  62  4000.468
  63  4177.82
  64  4048.477
  65  4409.245
  66  4100.093
  67  3862.383
  68  4068.696
  69  4056.892
  70  4006.905
  71  3762.388
  72  3787.867
  73  3834.269
  74  3558.856
  75  3355.171
  76  3389.021
  77  3434.27
  78  3558.644
  79  3816.446
  80  3430.244
  81  3674.752
  82  3790.646
  83  4108.831
  84  4148.457
  85  4313.154
  86  4006.008
  87  4006.326
  88  3976.616
  89  3916.123
  90  3992.805
  91  3918.107
  92  4112.725
  93  4097.29
  94  3789.372
  95  4179.324
  96  3929.466
  97  3596.438
  98  3799.259
  99  3571.801
 100  3545.301
 101  3882.966
 102  4030.083
 103  3851.524
 104  3394.198
 105  3430.392
 106  3634.519
 107  3338.677
 108  3391.714
 109  3541.043
 110  3508.84
 111  3528.265
 112  3815.786
 113  3432.112
 114  3403.717
 115  3817.736
 116  3636.684
 117  3547.039
 118  3824.552
 119  4126.429
 120  4172.419
 121  4107.615
 122  4234.538
 123  3920.888
 124  3785.655
 125  3755.02
 126  3832.296
 127  3921.546
 128  3775.913
 129  3742.707
 130  4065.037
 131  4336.306
 132  4194.688
 133  4037.882
 134  3907.058
 135  3984.656
 136  4222.094
 137  4472.524
 138  4297.816
 139  4262.829
 140  4402.862
 141  4265.985
 142  3832.023
 143  3740.961
 144  4017.911
 145  4292.568
 146  4199.782
 147  4338.01
 148  4304.709
 149  4346.188
 150  4510.78
 151  4264.982
 152  4130.022
 153  4016.651
 154  4010.908
 155  3889.142
 156  4011.596
 157  3980.909
 158  3825.326
 159  3482.018
 160  3330.501
 161  3855.868
 162  3745.87
 163  3696.116
 164  4094.34
 165  4031.982
 166  3851.246
 167  3845.497
 168  4239.812
 169  4134.767
 170  3856.404
 171  4002.893
 172  3950.758
 173  3998.707
 174  3960.662
 175  3874.273
 176  4053.915
 177  4103.752
 178  4029.073
 179  4153.731
 180  4357.921
 181  3962.105
 182  3570.212
 183  3874.814
 184  4002.04
 185  4118.248
 186  4156.825
 187  3971.438
 188  4106.322
 189  4334.796
 190  4309.589
 191  4236.188
 192  3972.011
 193  4034.111
 194  4071.979
 195  4043.45
 196  4146.431
 197  4167.104
 198  4088.549
 199  4116.957
 200  4053.522
 201  4049.775
 202  3967.009
 203  3659.393
 204  3637.448
 205  3744.823
 206  3755.905
 207  3775.619
 208  3696.565
 209  4071.905
 210  4366.288
 211  4046.825
 212  3667.66
 213  3511.364
 214  3580.293
 215  3962.746
 216  4427.495
 217  4288.622
 218  4193.04
 219  4315.75
 220  4045.634
 221  3966.675
 222  3936.455
 223  4104.093
 224  4093.611
 225  4169.215
 226  4278.89
 227  4079.676
 228  3847.109
 229  3672.254
 230  3810.633
 231  3926.476
 232  3513.492
 233  3601.677
 234  3875.074
 235  3941.162
 236  4011.212
 237  4126.228
 238  4130.606
 239  4027.757
 240  4216.178
 241  4268.649
 242  3994.135
 243  3833.403
 244  3593.097
 245  3711.48
 246  3362.105
 247  3549.118
 248  3485.878
 249  3859.415
 250  4257.758
 251  4257.158
 252  3817.767
 253  3455.615
 254  3570.564
 255  4101.159
 256  4231.497
 257  3993.45
 258  4050.905
 259  4219.788
 260  4427.872
 261  4293.043
 262  4301.905
 263  4248.369
 264  3994.052
 265  3867.614
 266  4137.533
 267  4114.353
 268  3761.98
 269  3768.205
 270  3699.166
 271  3845.24
 272  4043.805
 273  4144.029
 274  3975.569
 275  3696.502
 276  3496.379
 277  3560.909
 278  3731.498
 279  3796.375
 280  4092.502
 281  4067.423
 282  3821.422
 283  3694.444
 284  3929.424
 285  3985.37
 286  3968.361
 287  3850.925
 288  3994.867
 289  4220.784
 290  4280.605
 291  4035.285
 292  4175.27
 293  4250.863
 294  4200.916
 295  4153.194
 296  4196.938
 297  4205.014
 298  4164.743
 299  4016.325
 300  3938.188
 301  4003.017
 302  4296.841
 303  4046.021
 304  3837.03
 305  4079.856
 306  4139.729
 307  4073.272
 308  3682.972
 309  4010.44
 310  4022.755
 311  4066.712
 312  4149.033
 313  3909.996
 314  3817.928
 315  3656.023
 316  3397.082
 317  3531.233
 318  3911.884
 319  4246.141
 320  4127.303
 321  3805.375
 322  3579.991
 323  3808.631
 324  3847.32
 325  4149.81
 326  4357.45
 327  4028.063
 328  3840.901
 329  3912.312
 330  3621.079
 331  3913.344
 332  4186.542
 333  4549.087
 334  4208.537
 335  4168.854
 336  4257.277
 337  4142.926
 338  3823.376
 339  3912.187
 340  3875.205
 341  4151.601
 342  4230.344
 343  4347.653
 344  4073.17
 345  3930.627
 346  4095.429
 347  4108.177
 348  3765.135
 349  3698.976
 350  3859.271
 351  3929.351
 352  4079.22
 353  3825.912
 354  4052.089
 355  4217.697
 356  4349.505
 357  4579.162
 358  4299.437
 359  4516.566
 360  5304.384
 361  5935.529
 362  5937.626
 363  5849.48
 364  5337.614
 365  4671.171
 366  4534.494
 367  4480.977
 368  4222.649
 369  4029.398
 370  3822.332
 371  3909.26
 372  3962.719
 373  3908.957
 374  4092.205
 375  4259.783
 376  4252.115
 377  3996.529
 378  3924.594
 379  3607.242
 380  3666.708
 381  4131.691
 382  3965.365
 383  4054.413
 384  3649.119
 385  3697.485
 386  3642.176
 387  3545.286
 388  3461.774
 389  3530.345
 390  3444.726
 391  3174.214
 392  3609.296
 393  3856.896
 394  3702.406
 395  3599.553
 396  3535.621
 397  3645.081
 398  3688.028
 399  3868.813
 400  3896.537
 401  3649.098
 402  3874.71
 403  3910.719
 404  3744.067
 405  3836.792
 406  3764.449
 407  3919.334
 408  3792.712
 409  3534.172
 410  3468.721
 411  3576.208
 412  3707.206
 413  3730.584
 414  3641.294
 415  3732.716
 416  3941.825
 417  3775.46
 418  3944.094
 419  3862.522
 420  3582.842
 421  3306.119
 422  3386.847
 423  3383.946
 424  3385.381
 425  3552.482
 426  3352.334
 427  3363.735
 428  3507.902
 429  3781.371
 430  3648.696
 431  3678.855
 432  3789.051
 433  3913.322
 434  4082.606
 435  4103.186
 436  3784.402
 437  3831.559
 438  3759.735
 439  3490.468
 440  3661.837
 441  4104.505
 442  4031.172
 443  3596.538
 444  3794.555
 445  3904.439
 446  3614.47
 447  3906.403
 448  3971.378
 449  4157.586
 450  4130.069
 451  3860.511
 452  3576.614
 453  3404.206
 454  3846.073
 455  3816.842
 456  4051.847
 457  4311.807
 458  4062.454
 459  3928.489
 460  3521.022
 461  3460.618
 462  3572.315
 463  3667.915
 464  3671.674
 465  3744.451
 466  3635.767
 467  3575.15
 468  3571.561
 469  3777.476
 470  3979.746
 471  4062.147
 472  3782.47
 473  3646.562
 474  3591.749
 475  3938.995
 476  3972.054
 477  3982.925
 478  3992.723
 479  3550.906
 480  3273.719
 481  3626.798
 482  3299.654
 483  3433.257
 484  3555.425
 485  3323.489
 486  3645.783
 487  4190.278
 488  4357.594
 489  4139.89
 490  3894.886
 491  3924.92
 492  4074.352
 493  3661.576
 494  3721.788
 495  3883.734
 496  4123.218
 497  4128.49
 498  4049.035
 499  4155.872
 500  4324.074
 501  4100.663
 502  3508.523
 503  3702.82
 504  3922.405
 505  3959.324
 506  3973.644
 507  3779.38
 508  3933.21
 509  3810.702
 510  3446.386
 511  3677.32
