# Input file       =  1183165821.120904_cleaned.dat
# Candidate        =  PSR_0332+5434
# Telescope        =  AR
# Epoch_topo       =  57938.049075473427
# Epoch_bary       =  N/A
# T_sample         =  0.002
# Data Folded      =  7405568
# Data Avg         =  0.0237573104823456
# Data StdDev      =  1.00008670251355 
# Profile Bins     =  512
# Profile Avg      =  343.908441195498 
# Profile StdDev   =  120.276798423647 
# Reduced chi-sqr  =  1.694
# Prob(Noise)      <  1.12e-20   (~9.3 sigma)
# P_topo (ms)      =  714.486804107385  +/- 0.000286
# P'_topo (s/s)    =  -0                +/- 1.5e-10
# P''_topo (s/s^2) =  0                 +/- 6.55e-14
# P_bary (ms)      =  N/A
# P'_bary (s/s)    =  N/A
# P''_bary (s/s^2) =  N/A
# P_orb (s)        =  N/A
# asin(i)/c (s)    =  N/A
# eccentricity     =  N/A
# w (rad)          =  N/A
# T_peri           =  N/A
######################################################
   0  1273.478
   1  1136.563
   2  947.4962
   3  521.0164
   4  455.6588
   5  350.1592
   6  391.3726
   7  335.4625
   8  442.7637
   9  343.4628
  10  194.66
  11  351.413
  12  417.0916
  13  405.0687
  14  363.5468
  15  377.3791
  16  411.0629
  17  384.5311
  18  363.8649
  19  307.3875
  20  230.8355
  21  303.9194
  22  260.2564
  23  236.0806
  24  282.3954
  25  287.4871
  26  309.3627
  27  356.3921
  28  331.5615
  29  409.278
  30  349.5537
  31  435.0316
  32  369.3491
  33  362.2386
  34  440.2059
  35  406.6926
  36  341.465
  37  276.2657
  38  257.3369
  39  296.9662
  40  328.3585
  41  400.904
  42  410.7508
  43  435.8016
  44  457.6333
  45  340.9506
  46  227.5541
  47  243.5823
  48  271.7382
  49  277.6061
  50  485.2119
  51  465.97
  52  212.1665
  53  123.4528
  54  302.1752
  55  309.026
  56  403.8365
  57  351.0817
  58  311.3668
  59  264.893
  60  270.0598
  61  315.2725
  62  281.9313
  63  307.5718
  64  309.7809
  65  294.0558
  66  368.0468
  67  316.1071
  68  353.217
  69  362.2156
  70  332.7279
  71  418.538
  72  362.815
  73  380.267
  74  408.0686
  75  329.6756
  76  449.4146
  77  283.3904
  78  234.2434
  79  332.4828
  80  325.6409
  81  378.6112
  82  347.4798
  83  412.0093
  84  406.0473
  85  321.201
  86  309.9135
  87  344.4642
  88  310.0866
  89  287.6123
  90  406.0755
  91  428.8596
  92  391.1943
  93  315.9392
  94  353.7334
  95  336.2132
  96  300.4485
  97  387.5663
  98  444.6451
  99  422.9205
 100  328.2937
 101  265.0276
 102  237.9976
 103  357.0227
 104  360.4875
 105  365.6774
 106  357.9952
 107  304.4962
 108  327.2805
 109  417.081
 110  359.9952
 111  305.0614
 112  257.6683
 113  331.7774
 114  349.7977
 115  318.4591
 116  324.4709
 117  399.0876
 118  377.5367
 119  330.6927
 120  383.4633
 121  357.0614
 122  396.3372
 123  378.4767
 124  353.2897
 125  227.021
 126  180.8104
 127  316.3571
 128  450.0318
 129  457.1474
 130  362.3655
 131  266.0126
 132  272.7554
 133  313.0741
 134  255.1482
 135  161.5388
 136  132.2632
 137  253.7883
 138  409.7379
 139  325.9586
 140  338.6036
 141  374.8196
 142  292.0272
 143  417.0946
 144  321.7514
 145  383.5516
 146  350.3727
 147  297.8775
 148  251.2484
 149  324.8946
 150  495.0196
 151  428.2469
 152  393.9702
 153  314.042
 154  207.1165
 155  212.6339
 156  249.6614
 157  387.8013
 158  414.5291
 159  426.3571
 160  369.9341
 161  362.158
 162  244.9866
 163  367.2091
 164  437.756
 165  287.2552
 166  254.6482
 167  274.0097
 168  445.5844
 169  398.8326
 170  250.4151
 171  319.7202
 172  347.3968
 173  457.0794
 174  507.4322
 175  342.4344
 176  338.6903
 177  357.8224
 178  383.523
 179  133.6717
 180  203.9543
 181  408.0627
 182  371.7326
 183  199.5546
 184  318.0503
 185  408.5596
 186  484.904
 187  390.1401
 188  368.3047
 189  370.758
 190  300.1127
 191  312.0052
 192  292.955
 193  185.756
 194  332.6011
 195  339.14
 196  233.6162
 197  191.4235
 198  324.8541
 199  384.9747
 200  329.7122
 201  342.5654
 202  256.7984
 203  369.1798
 204  348.9995
 205  322.1593
 206  282.6176
 207  340.2356
 208  364.3124
 209  334.5209
 210  424.4409
 211  372.2791
 212  261.4122
 213  163.3131
 214  235.6244
 215  254.041
 216  315.8804
 217  317.803
 218  221.4434
 219  237.3522
 220  280.8736
 221  216.022
 222  234.4034
 223  387.0475
 224  500.5774
 225  441.6275
 226  333.737
 227  302.793
 228  457.9144
 229  415.5441
 230  376.953
 231  455.1608
 232  359.6292
 233  325.5017
 234  276.0852
 235  413.8103
 236  435.8044
 237  447.6966
 238  345.0503
 239  337.0867
 240  206.0705
 241  256.5457
 242  227.5303
 243  267.6485
 244  253.2816
 245  264.38
 246  348.1124
 247  315.8284
 248  288.1008
 249  199.5749
 250  211.79
 251  317.607
 252  311.2933
 253  339.9017
 254  363.0397
 255  346.0245
 256  456.8351
 257  372.0818
 258  292.3824
 259  344.5207
 260  375.7889
 261  301.8336
 262  338.7524
 263  295.1312
 264  432.9442
 265  401.8738
 266  326.0801
 267  357.0722
 268  365.415
 269  304.9525
 270  223.4079
 271  378.7132
 272  354.8114
 273  215.4833
 274  213.3575
 275  341.7035
 276  354.3615
 277  411.6457
 278  388.8094
 279  363.1342
 280  402.2174
 281  376.1957
 282  258.8574
 283  360.9257
 284  376.0945
 285  368.1219
 286  320.2082
 287  266.4225
 288  329.2545
 289  333.5456
 290  365.2021
 291  399.4167
 292  331.9268
 293  357.3975
 294  339.0856
 295  308.6745
 296  352.5304
 297  269.9553
 298  323.2466
 299  323.1706
 300  366.8091
 301  314.7035
 302  243.1775
 303  236.8912
 304  316.7814
 305  322.1531
 306  295.8762
 307  264.1596
 308  192.4558
 309  344.2378
 310  313.0648
 311  248.6676
 312  397.2563
 313  490.5965
 314  470.0567
 315  278.4547
 316  268.1873
 317  213.0621
 318  252.9994
 319  368.1625
 320  362.9381
 321  453.4591
 322  307.1039
 323  319.8272
 324  367.1813
 325  318.0579
 326  277.1494
 327  180.8714
 328  255.1935
 329  382.6292
 330  379.9797
 331  432.5422
 332  417.4281
 333  428.1414
 334  457.1277
 335  463.9464
 336  412.1916
 337  362.9488
 338  362.3539
 339  292.6417
 340  302.5245
 341  341.3383
 342  399.0676
 343  468.3062
 344  433.1115
 345  450.1503
 346  370.183
 347  365.4447
 348  329.0576
 349  407.3515
 350  335.7191
 351  302.5189
 352  286.7883
 353  327.7458
 354  262.0047
 355  239.8322
 356  292.5183
 357  337.4264
 358  255.5461
 359  347.0222
 360  459.6465
 361  427.817
 362  358.2697
 363  409.1971
 364  423.4984
 365  346.2233
 366  344.7249
 367  434.8708
 368  284.6642
 369  265.2458
 370  369.7569
 371  344.2948
 372  293.6406
 373  273.0461
 374  356.4565
 375  320.5085
 376  264.9253
 377  142.0986
 378  243.2133
 379  300.0495
 380  308.2799
 381  322.0559
 382  329.3797
 383  338.4805
 384  256.5425
 385  214.2115
 386  211.0835
 387  263.0551
 388  377.3795
 389  254.4589
 390  183.2607
 391  280.9958
 392  336.7212
 393  345.8433
 394  310.9302
 395  404.8764
 396  373.2633
 397  392.9246
 398  287.8398
 399  325.0574
 400  289.5591
 401  339.0002
 402  378.6187
 403  385.9579
 404  333.0742
 405  349.7305
 406  310.8948
 407  173.8019
 408  302.1742
 409  377.4629
 410  354.2589
 411  340.1259
 412  375.5441
 413  427.3191
 414  363.3477
 415  306.9067
 416  221.1188
 417  285.6407
 418  255.3705
 419  276.096
 420  188.9417
 421  171.9527
 422  161.5527
 423  317.8553
 424  181.7819
 425  247.9419
 426  384.3215
 427  362.5646
 428  354.9337
 429  321.7214
 430  200.4692
 431  190.4635
 432  261.0198
 433  335.9168
 434  215.2254
 435  246.1228
 436  270.7896
 437  351.3672
 438  431.799
 439  422.8907
 440  345.4968
 441  298.9264
 442  271.5643
 443  281.2586
 444  324.7787
 445  368.2549
 446  463.7977
 447  437.653
 448  334.4449
 449  322.8146
 450  375.8713
 451  351.9214
 452  355.0235
 453  365.1879
 454  352.5989
 455  268.7231
 456  318.2162
 457  353.1917
 458  319.8249
 459  318.3418
 460  246.2843
 461  213.1602
 462  266.1286
 463  238.6931
 464  318.625
 465  269.9658
 466  202.0584
 467  207.0597
 468  241.3575
 469  359.0193
 470  355.3956
 471  329.1037
 472  372.4314
 473  340.5787
 474  206.2858
 475  218.2809
 476  223.1646
 477  231.4529
 478  341.8599
 479  421.5081
 480  437.6685
 481  336.2913
 482  331.0217
 483  379.5201
 484  443.1918
 485  280.0859
 486  302.2757
 487  275.8762
 488  369.9453
 489  408.8802
 490  437.4234
 491  439.8389
 492  436.7315
 493  395.8153
 494  428.9935
 495  408.5767
 496  400
 497  342.9941
 498  448.0756
 499  316.752
 500  422.4339
 501  482.9988
 502  447.4794
 503  362.926
 504  533.1465
 505  528.9445
 506  523.9747
 507  695.597
 508  812.7549
 509  857.5047
 510  1077.034
 511  1235.343
