# Input file       =  1183023208.110605_cleaned.dat
# Candidate        =  PSR_0332+5434
# Telescope        =  AR
# Epoch_topo       =  57936.398461928300
# Epoch_bary       =  N/A
# T_sample         =  0.002
# Data Folded      =  7340032
# Data Avg         =  0.0302998783527476
# Data StdDev      =  1.0000551077221  
# Profile Bins     =  512
# Profile Avg      =  434.405396862699 
# Profile StdDev   =  119.739634591661 
# Reduced chi-sqr  =  1.150
# Prob(Noise)      <  0.0107   (~2.3 sigma)
# P_topo (ms)      =  714.488457510133  +/- 0.000188
# P'_topo (s/s)    =  -0                +/- 9.92e-11
# P''_topo (s/s^2) =  0                 +/- 4.38e-14
# P_bary (ms)      =  N/A
# P'_bary (s/s)    =  N/A
# P''_bary (s/s^2) =  N/A
# P_orb (s)        =  N/A
# asin(i)/c (s)    =  N/A
# eccentricity     =  N/A
# w (rad)          =  N/A
# T_peri           =  N/A
######################################################
   0  249.4691
   1  439.9328
   2  548.337
   3  535.8738
   4  494.2035
   5  501.4157
   6  482.7407
   7  467.0471
   8  573.6197
   9  468.1234
  10  447.6945
  11  473.8947
  12  460.1414
  13  554.6026
  14  658.5385
  15  528.4736
  16  438.4622
  17  349.4922
  18  398.5508
  19  380.122
  20  360.3444
  21  470.5213
  22  497.1586
  23  333.9137
  24  278.4389
  25  405.308
  26  396.8645
  27  361.8552
  28  367.7331
  29  373.0996
  30  460.9713
  31  500.9758
  32  434.0877
  33  428.9962
  34  342.6028
  35  380.4414
  36  307.8489
  37  344.9184
  38  417.149
  39  294.036
  40  359.5361
  41  347.4482
  42  414.3778
  43  411.0105
  44  392.163
  45  432.6114
  46  457.5311
  47  424.5716
  48  431.9292
  49  441.2314
  50  416.8133
  51  424.1147
  52  478.1865
  53  464.9256
  54  411.4127
  55  494.878
  56  577.2033
  57  443.2567
  58  341.3472
  59  475.2513
  60  470.2134
  61  389.4729
  62  368.6293
  63  368.163
  64  442.8709
  65  487.2698
  66  442.8863
  67  387.9753
  68  349.3508
  69  454.1199
  70  510.0197
  71  436.003
  72  397.8582
  73  299.2643
  74  448.8355
  75  525.5151
  76  500.237
  77  621.5464
  78  519.5498
  79  432.6432
  80  399.6813
  81  427.2587
  82  394.9067
  83  392.7056
  84  346.3262
  85  449.1633
  86  485.6147
  87  414.5605
  88  400.4915
  89  424.6031
  90  404.1804
  91  348.9559
  92  434.3199
  93  542.4533
  94  572.9883
  95  468.8026
  96  628.6475
  97  628.0633
  98  503.7903
  99  482.9997
 100  320.8033
 101  386.0536
 102  511.2765
 103  571.1293
 104  543.6923
 105  473.2566
 106  459.7165
 107  409.6932
 108  347.406
 109  507.8959
 110  462.2816
 111  512.6037
 112  470.3351
 113  363.9871
 114  357.6999
 115  453.5911
 116  500.9824
 117  494.9978
 118  457.0077
 119  442.9042
 120  599.3054
 121  517.4794
 122  554.7567
 123  457.6635
 124  456.4697
 125  524.2631
 126  468.8425
 127  458.4019
 128  504.3203
 129  471.489
 130  482.436
 131  417.9958
 132  313.3458
 133  453.7467
 134  415.0023
 135  372.2444
 136  360.2729
 137  473.021
 138  520.3162
 139  525.1415
 140  603.613
 141  498.9594
 142  476.5229
 143  534.6581
 144  410.2739
 145  451.4777
 146  514.9207
 147  361.0321
 148  440.376
 149  380.2673
 150  418.3491
 151  372.4668
 152  277.7164
 153  374.679
 154  554.8822
 155  403.0497
 156  417.1782
 157  351.1407
 158  394.1231
 159  318.7444
 160  279.4963
 161  366.8911
 162  377.9398
 163  454.3242
 164  491.7049
 165  353.2799
 166  399.615
 167  520.4489
 168  503.1023
 169  329.6607
 170  375.8777
 171  422.1261
 172  483.6907
 173  419.2195
 174  365.1114
 175  354.5456
 176  284.659
 177  382.8636
 178  423.8902
 179  413.6534
 180  490.5854
 181  513.7071
 182  601.1129
 183  436.7183
 184  519.9178
 185  563.9074
 186  568.1424
 187  571.6268
 188  664.1512
 189  735.7365
 190  823.9383
 191  931.6237
 192  921.562
 193  981.1276
 194  864.8954
 195  708.6959
 196  595.656
 197  419.3771
 198  354.1345
 199  439.9891
 200  461.2749
 201  431.9876
 202  461.6369
 203  411.776
 204  491.8444
 205  383.282
 206  446.89
 207  595.894
 208  389.5631
 209  364.4379
 210  416.472
 211  516.5283
 212  519.0861
 213  440.4316
 214  273.3176
 215  220.5003
 216  241.9776
 217  349.1134
 218  446.3092
 219  277.8153
 220  331.4948
 221  437.7939
 222  398.9029
 223  494.6299
 224  457.5016
 225  411.7206
 226  442.2178
 227  473.5277
 228  533.7131
 229  450.6942
 230  373.7217
 231  342.7104
 232  443.2718
 233  465.984
 234  389.2763
 235  381.3294
 236  430.9759
 237  510.1821
 238  505.1121
 239  403.3528
 240  268.8098
 241  294.9448
 242  365.8455
 243  399.0179
 244  424.6621
 245  470.1202
 246  470.3394
 247  411.5317
 248  300.2761
 249  367.3713
 250  421.0368
 251  528.2234
 252  451.5483
 253  479.1214
 254  561.1757
 255  523.6072
 256  506.1027
 257  510.3626
 258  506.69
 259  400.5576
 260  370.425
 261  427.6223
 262  477.3351
 263  527.3218
 264  517.5418
 265  414.8725
 266  319.921
 267  421.7466
 268  528.5249
 269  460.9266
 270  552.271
 271  554.8564
 272  528.8365
 273  474.717
 274  471.0739
 275  555.2013
 276  473.0918
 277  433.9629
 278  460.1436
 279  486.0547
 280  335.2269
 281  260.1805
 282  432.0226
 283  407.4291
 284  448.9323
 285  407.8188
 286  388.1355
 287  457.7368
 288  571.64
 289  511.2299
 290  353.4142
 291  275.0105
 292  333.0303
 293  356.399
 294  396.3386
 295  319.3059
 296  469.7378
 297  512.5239
 298  413.8214
 299  399.1826
 300  559.9185
 301  569.2485
 302  486.8638
 303  444.2484
 304  454.4835
 305  431.1982
 306  460.6585
 307  435.7123
 308  447.1854
 309  527.7164
 310  519.8669
 311  410.2843
 312  445.1588
 313  445.5887
 314  405.6344
 315  380.9822
 316  495.8728
 317  524.6225
 318  372.8949
 319  355.066
 320  455.8296
 321  292.4433
 322  308.3259
 323  250.6543
 324  333.8302
 325  422.6385
 326  420.341
 327  372.745
 328  472.3319
 329  321.7556
 330  331.5306
 331  407.6356
 332  405.151
 333  347.4989
 334  295.3825
 335  339.5909
 336  319.8637
 337  327.5898
 338  406.9537
 339  491.5764
 340  440.2316
 341  328.5639
 342  257.2676
 343  208.134
 344  375.7592
 345  407.9407
 346  446.1881
 347  433.6221
 348  351.4798
 349  286.602
 350  409.8318
 351  381.493
 352  415.9876
 353  432.3941
 354  316.7036
 355  435.1738
 356  385.4704
 357  420.351
 358  514.9261
 359  358.6286
 360  301.7967
 361  290.4673
 362  250.3068
 363  266.4448
 364  400.1134
 365  407.7337
 366  331.0378
 367  338.5213
 368  465.306
 369  476.3549
 370  387.8061
 371  336.9398
 372  380.9286
 373  398.0889
 374  418.4514
 375  389.1285
 376  327.737
 377  365.7367
 378  418.0833
 379  395.2873
 380  468.1316
 381  471.191
 382  478.5403
 383  429.2791
 384  263.1001
 385  456.6204
 386  546.0416
 387  551.58
 388  448.4068
 389  351.8833
 390  365.4589
 391  385.5821
 392  361.178
 393  408.4456
 394  475.1259
 395  487.0408
 396  512.8832
 397  558.4679
 398  475.788
 399  424.8682
 400  421.1123
 401  366.996
 402  382.1877
 403  411.5568
 404  386.3136
 405  357.483
 406  389.0872
 407  362.955
 408  412.1696
 409  489.2333
 410  524.6738
 411  470.2887
 412  329.3434
 413  233.2298
 414  249.5754
 415  342.5555
 416  475.2511
 417  433.0562
 418  516.6969
 419  599.5883
 420  537.7749
 421  389.3055
 422  389.8544
 423  338.7002
 424  393.5815
 425  442.3586
 426  371.3925
 427  344.1542
 428  434.588
 429  339.5083
 430  417.2777
 431  436.7894
 432  415.8647
 433  382.6367
 434  470.3027
 435  468.1959
 436  549.2435
 437  543.8717
 438  495.276
 439  454.1823
 440  391.5094
 441  392.0181
 442  483.7267
 443  487.3293
 444  447.3347
 445  254.5653
 446  372.2948
 447  512.2609
 448  400.3893
 449  350.9556
 450  559.7909
 451  449.056
 452  262.1872
 453  304.8324
 454  399.8434
 455  389.7862
 456  369.8202
 457  398.6409
 458  449.0782
 459  479.7388
 460  407.6572
 461  387.985
 462  377.6417
 463  293.8396
 464  368.627
 465  327.8019
 466  518.2632
 467  430.3553
 468  418.5768
 469  419.7767
 470  286.786
 471  343.6435
 472  345.5863
 473  376.0778
 474  399.7956
 475  500.3507
 476  424.5474
 477  410.412
 478  419.9391
 479  441.808
 480  569.1069
 481  442.5867
 482  492.9466
 483  538.3367
 484  473.516
 485  555.2844
 486  424.3542
 487  391.1505
 488  477.5146
 489  447.9765
 490  553.2684
 491  591.2201
 492  452.6789
 493  510.3164
 494  528.7409
 495  472.9488
 496  413.5331
 497  419.1026
 498  473.4593
 499  473.7389
 500  366.3603
 501  446.6782
 502  488.1335
 503  358.0232
 504  436.4722
 505  417.9449
 506  452.1024
 507  476.8029
 508  433.5542
 509  423.9808
 510  482.2234
 511  246.3006
