# Input file       =  1183180763.103634_cleaned.dat
# Candidate        =  PSR_0332+5434
# Telescope        =  AR
# Epoch_topo       =  57938.222015088359
# Epoch_bary       =  N/A
# T_sample         =  0.002
# Data Folded      =  7340032
# Data Avg         =  0.141105562465132
# Data StdDev      =  3.28997438776716 
# Profile Bins     =  256
# Profile Avg      =  4047.24629097178 
# Profile StdDev   =  557.085059187448 
# Reduced chi-sqr  =  1.655
# Prob(Noise)      <  2.24e-10   (~6.2 sigma)
# P_topo (ms)      =  714.486691878293  +/- 0.000407
# P'_topo (s/s)    =  -0                +/- 2.15e-10
# P''_topo (s/s^2) =  0                 +/- 9.48e-14
# P_bary (ms)      =  N/A
# P'_bary (s/s)    =  N/A
# P''_bary (s/s^2) =  N/A
# P_orb (s)        =  N/A
# asin(i)/c (s)    =  N/A
# eccentricity     =  N/A
# w (rad)          =  N/A
# T_peri           =  N/A
######################################################
   0  4162.818
   1  4150.161
   2  4277.108
   3  4546.256
   4  4298.133
   5  3890.986
   6  4451.431
   7  4044.17
   8  4548.021
   9  4385.269
  10  4424.506
  11  3818.057
  12  4030.503
  13  4238.616
  14  3611.003
  15  4297.917
  16  3992.482
  17  4400.444
  18  3935.615
  19  3961.471
  20  3611.941
  21  3726.637
  22  3887.151
  23  3915.429
  24  3465.006
  25  3134.564
  26  3939.204
  27  3749.909
  28  3172.873
  29  3503.763
  30  3550.583
  31  3680.232
  32  3863.641
  33  3235.369
  34  3736.909
  35  3602.924
  36  4229.942
  37  3722.474
  38  4012.577
  39  4150.538
  40  4171.622
  41  4705.22
  42  4161.302
  43  4179.839
  44  3714.289
  45  4072.441
  46  4252.851
  47  3706.701
  48  3792.989
  49  4199.25
  50  4644.295
  51  4115.587
  52  4037.009
  53  4287.22
  54  4247.044
  55  3281.579
  56  2776.434
  57  3647.651
  58  3614.635
  59  3650.66
  60  3580.416
  61  3804.15
  62  4107.182
  63  3374.613
  64  3822.844
  65  3399.368
  66  4003.329
  67  4563.532
  68  4567.141
  69  4681.586
  70  4394.143
  71  4582.159
  72  4560.181
  73  4172.354
  74  3217.503
  75  4051.323
  76  3498.967
  77  4042.942
  78  4088.649
  79  3566.354
  80  3498.816
  81  3859.909
  82  4660.05
  83  3815.985
  84  3825.603
  85  4127.31
  86  4173.811
  87  4254.255
  88  4232.686
  89  4401.145
  90  4381.514
  91  3732.78
  92  3377.148
  93  3585.739
  94  4148.713
  95  3777.34
  96  4447.474
  97  4245.954
  98  3885.917
  99  4695.857
 100  4453.71
 101  4242.481
 102  4275.76
 103  4188.842
 104  4271.15
 105  4533.525
 106  4123.677
 107  4594.123
 108  4068.769
 109  4053.806
 110  4338.365
 111  4036.152
 112  3956.166
 113  3602.416
 114  4262.336
 115  4198.172
 116  4071.304
 117  3007.14
 118  3781.819
 119  4507.703
 120  3764.513
 121  3473.02
 122  3789.52
 123  3817.388
 124  3268.829
 125  3755.14
 126  3499.747
 127  4032.405
 128  3497.703
 129  3660.579
 130  4212.886
 131  4021.922
 132  3838.537
 133  2644.053
 134  2732.293
 135  3616.688
 136  3163.712
 137  3161.714
 138  2991.331
 139  3415.233
 140  2939.983
 141  2388.327
 142  3320.314
 143  3657.794
 144  4115.477
 145  3932.777
 146  3895.282
 147  3729.511
 148  3634.491
 149  4444.407
 150  3491.453
 151  4061.392
 152  4927.875
 153  4607.843
 154  4387.764
 155  4482.044
 156  4606.062
 157  3819.526
 158  3984.732
 159  4061.796
 160  4756.215
 161  5569.415
 162  7127.469
 163  8280.096
 164  7076.917
 165  4901.554
 166  3668.879
 167  3819.714
 168  4127.121
 169  3978.183
 170  4418.791
 171  4642.785
 172  4095.838
 173  3896.987
 174  3950.714
 175  4340.885
 176  4279.225
 177  4144.123
 178  3721.334
 179  3727.323
 180  3877.758
 181  3284.316
 182  3620.576
 183  3548.316
 184  3413.758
 185  3988.655
 186  3958.14
 187  3901.219
 188  4080.548
 189  4780.991
 190  4740.555
 191  4788.805
 192  4721.397
 193  4584.376
 194  4534.973
 195  3984.741
 196  3809.145
 197  4720.519
 198  4023.76
 199  4135.02
 200  3068.701
 201  3383.446
 202  3565.266
 203  3810.728
 204  3165.089
 205  3452.748
 206  3309.312
 207  3389.045
 208  3136.634
 209  3702.143
 210  3435.971
 211  3840.44
 212  3549.543
 213  4267.2
 214  4374.724
 215  3598.969
 216  4393.805
 217  3729.062
 218  4337.852
 219  4191.213
 220  4254.343
 221  4266.581
 222  3966.084
 223  4238.595
 224  3540.083
 225  3441.991
 226  4030.582
 227  4711.174
 228  4112.516
 229  3166.239
 230  4239.896
 231  3686.611
 232  4217.774
 233  4487.745
 234  3969.584
 235  4467.444
 236  4187.409
 237  4732.506
 238  5212.935
 239  4463.664
 240  4572.729
 241  4739.727
 242  4990.982
 243  4154.187
 244  4617.539
 245  4575.189
 246  4636.874
 247  4653.194
 248  5194.858
 249  5349.103
 250  4278.315
 251  4914.032
 252  4207.882
 253  3928.478
 254  4260.087
 255  3669.62
