# Input file       =  1183079651.114455_cleaned.dat
# Candidate        =  PSR_0332+5434
# Telescope        =  AR
# Epoch_topo       =  57937.051737435824
# Epoch_bary       =  N/A
# T_sample         =  0.002
# Data Folded      =  7405568
# Data Avg         =  0.0297603970019698
# Data StdDev      =  1.00007415172094 
# Profile Bins     =  512
# Profile Avg      =  430.469518691358 
# Profile StdDev   =  120.275288985366 
# Reduced chi-sqr  =  1.183
# Prob(Noise)      <  0.00268   (~2.8 sigma)
# P_topo (ms)      =  714.487584299222  +/- 0.000114
# P'_topo (s/s)    =  -0                +/- 5.94e-11
# P''_topo (s/s^2) =  0                 +/- 2.6e-14
# P_bary (ms)      =  N/A
# P'_bary (s/s)    =  N/A
# P''_bary (s/s^2) =  N/A
# P_orb (s)        =  N/A
# asin(i)/c (s)    =  N/A
# eccentricity     =  N/A
# w (rad)          =  N/A
# T_peri           =  N/A
######################################################
   0  479.9498
   1  316.9759
   2  347.8181
   3  406.2643
   4  426.6635
   5  436.5477
   6  454.3417
   7  421.0168
   8  481.1825
   9  382.3315
  10  359.2946
  11  426.4377
  12  362.7647
  13  417.5898
  14  384.6597
  15  428.12
  16  410.8797
  17  291.2984
  18  328.9439
  19  250.222
  20  240.7324
  21  271.9188
  22  324.9418
  23  411.2181
  24  490.6372
  25  473.3706
  26  413.8602
  27  474.22
  28  446.7672
  29  417.4278
  30  372.0342
  31  424.2018
  32  473.0847
  33  447.2884
  34  402.2966
  35  465.7494
  36  378.9532
  37  326.1252
  38  331.3271
  39  388.1972
  40  546.6648
  41  549.9599
  42  526.0015
  43  402.9518
  44  398.3837
  45  375.8332
  46  504.1017
  47  527.6121
  48  508.7636
  49  450.6873
  50  518.2599
  51  598.5367
  52  436.3751
  53  409.1844
  54  534.373
  55  540.5491
  56  490.9687
  57  523.2462
  58  520.8104
  59  502.266
  60  452.0226
  61  339.0956
  62  361.1804
  63  404.0526
  64  385.7808
  65  397.64
  66  481.4539
  67  324.6134
  68  331.0286
  69  281.8374
  70  427.5792
  71  479.2729
  72  368.9739
  73  359.9975
  74  458.4295
  75  416.8191
  76  418.4605
  77  282.371
  78  336.8786
  79  436.5826
  80  435.1606
  81  393.8201
  82  468.7217
  83  439.6608
  84  448.6312
  85  365.1678
  86  338.5397
  87  416.1414
  88  431.8948
  89  421.3918
  90  459.3128
  91  422.5465
  92  423.6729
  93  343.1796
  94  259.6597
  95  325.8759
  96  368.5336
  97  437.9548
  98  384.4253
  99  516.0847
 100  506.9258
 101  340.1986
 102  345.3011
 103  411.32
 104  407.0012
 105  371.1267
 106  413.2233
 107  421.8566
 108  444.9554
 109  495.8938
 110  411.475
 111  303.5489
 112  369.0862
 113  398.9554
 114  548.5827
 115  506.6571
 116  496.1074
 117  457.714
 118  446.6184
 119  407.9727
 120  431.8057
 121  443.3616
 122  558.7858
 123  594.9645
 124  646.1146
 125  469.7828
 126  392.2308
 127  406.2387
 128  552.3684
 129  390.2093
 130  393.08
 131  426.6542
 132  473.1199
 133  476.6717
 134  485.8361
 135  444.2955
 136  385.3771
 137  340.2317
 138  437.2702
 139  429.9424
 140  320.0089
 141  396.6543
 142  414.0924
 143  435.5501
 144  502.7777
 145  497.2288
 146  605.1466
 147  581.0743
 148  408.0539
 149  399.3949
 150  463.3869
 151  482.9863
 152  503.1165
 153  350.1219
 154  459.7497
 155  500.4069
 156  483.1636
 157  424.7849
 158  442.2946
 159  434.2867
 160  444.8296
 161  339.1988
 162  387.3144
 163  574.4119
 164  469.7013
 165  410.5548
 166  528.8885
 167  486.5385
 168  515.1064
 169  533.6255
 170  564.2227
 171  410.3453
 172  514.8765
 173  499.817
 174  415.8786
 175  393.2333
 176  397.8661
 177  415.5752
 178  470.3686
 179  447.0797
 180  367.2695
 181  428.5667
 182  471.8952
 183  471.1156
 184  523.699
 185  378.6562
 186  416.8324
 187  428.821
 188  440.881
 189  538.6404
 190  465.9321
 191  354.9262
 192  398.9597
 193  340.5041
 194  337.131
 195  407.5083
 196  523.1861
 197  532.4677
 198  404.2196
 199  368.7976
 200  309.8707
 201  274.614
 202  319.3796
 203  430.8714
 204  460.2636
 205  569.0481
 206  495.5487
 207  368.7865
 208  367.9753
 209  474.4381
 210  427.7228
 211  397.6422
 212  448.3713
 213  496.22
 214  447.3366
 215  474.4395
 216  356.3722
 217  357.9523
 218  326.4659
 219  377.9771
 220  380.55
 221  329.2903
 222  304.0667
 223  368.8202
 224  382.9793
 225  400.3359
 226  316.0821
 227  327.6379
 228  351.7245
 229  466.507
 230  446.9483
 231  320.4543
 232  306.1999
 233  450.577
 234  472.2008
 235  473.7967
 236  453.1374
 237  329.5888
 238  471.0596
 239  470.7039
 240  511.2622
 241  509.068
 242  402.2166
 243  424.5611
 244  463.7965
 245  473.7741
 246  432.7482
 247  419.5039
 248  520.1696
 249  467.9079
 250  474.8882
 251  393.113
 252  365.2103
 253  467.4432
 254  487.2049
 255  404.3608
 256  288.6706
 257  379.9033
 258  327.9446
 259  396.9934
 260  403.9723
 261  432.2422
 262  472.8112
 263  591.1573
 264  570.4191
 265  569.1355
 266  488.058
 267  411.9197
 268  354.1511
 269  438.2333
 270  449.4503
 271  507.0484
 272  514.2138
 273  492.115
 274  438.8452
 275  451.0475
 276  511.1813
 277  462.5301
 278  417.8078
 279  526.9579
 280  425.39
 281  424.2031
 282  445.0679
 283  360.7158
 284  335.5688
 285  386.3192
 286  433.3608
 287  423.327
 288  493.5708
 289  551.3179
 290  644.3151
 291  828.4592
 292  1038.207
 293  1031.944
 294  1064.969
 295  1030.365
 296  795.9904
 297  728.8568
 298  456.0883
 299  298.0962
 300  356.8943
 301  361.3855
 302  372.8828
 303  410.9038
 304  399.4546
 305  386.889
 306  351.0568
 307  296.9607
 308  432.2151
 309  566.7053
 310  523.4773
 311  475.1167
 312  369.2943
 313  360.6674
 314  419.0919
 315  430.5675
 316  432.5386
 317  488.6533
 318  478.8277
 319  402.0634
 320  512.695
 321  516.4037
 322  482.487
 323  323.0214
 324  359.072
 325  429.6296
 326  395.5304
 327  467.3603
 328  514.7911
 329  440.5926
 330  392.9864
 331  511.7167
 332  471.5299
 333  338.2101
 334  313.9829
 335  268.438
 336  424.3866
 337  463.4178
 338  495.5603
 339  456.8803
 340  544.0584
 341  515.3715
 342  433.4728
 343  441.6548
 344  435.6591
 345  489.1842
 346  539.4531
 347  472.8687
 348  412.1633
 349  381.8879
 350  414.1015
 351  362.0313
 352  418.9702
 353  428.6358
 354  454.2693
 355  301.1279
 356  441.3159
 357  466.2464
 358  368.9809
 359  337.5291
 360  371.5787
 361  367.334
 362  352.38
 363  399.0155
 364  382.3074
 365  346.7868
 366  353.6455
 367  323.3615
 368  369.8371
 369  285.687
 370  355.1394
 371  360.51
 372  327.5221
 373  305.7008
 374  291.9053
 375  356.7677
 376  322.1261
 377  430.3369
 378  458.3913
 379  438.9056
 380  523.9478
 381  536.463
 382  455.316
 383  370.7083
 384  367.9677
 385  309.478
 386  441.5433
 387  405.6253
 388  275.214
 389  371.9365
 390  374.4708
 391  413.048
 392  343.0197
 393  385.5872
 394  332.5552
 395  437.2144
 396  434.0559
 397  329.1415
 398  402.1857
 399  428.5149
 400  435.8344
 401  356.3664
 402  477.6799
 403  476.8104
 404  432.8754
 405  468.9137
 406  393.5622
 407  350.5837
 408  465.1872
 409  479.403
 410  491.6618
 411  539.3749
 412  439.841
 413  402.0302
 414  435.3678
 415  449.6278
 416  389.5957
 417  477.9505
 418  481.4888
 419  443.7419
 420  486.2059
 421  522.1537
 422  423.546
 423  509.7611
 424  388.0303
 425  323.581
 426  489.5931
 427  539.4269
 428  461.8929
 429  339.8316
 430  448.9504
 431  445.0671
 432  278.5292
 433  180.1619
 434  322.6161
 435  461.4766
 436  460.4448
 437  443.3404
 438  425.64
 439  375.0664
 440  303.1392
 441  370.4092
 442  396.2802
 443  466.8523
 444  459.7964
 445  422.4138
 446  303.5902
 447  312.9783
 448  342.893
 449  322.2902
 450  339.0226
 451  374.286
 452  421.6033
 453  459.0945
 454  446.3929
 455  329.109
 456  386.7769
 457  290.8624
 458  360.7794
 459  489.4012
 460  563.2763
 461  518.7021
 462  522.0204
 463  466.4583
 464  458.5211
 465  451.319
 466  458.371
 467  411.9683
 468  337.6956
 469  392.1756
 470  447.7719
 471  350.1114
 472  415.0954
 473  373.2967
 474  343.1364
 475  332.4652
 476  239.7755
 477  245.304
 478  427.1994
 479  517.7963
 480  390.8675
 481  330.3551
 482  472.8284
 483  439.2715
 484  365.2297
 485  560.7924
 486  588.9733
 487  473.6314
 488  460.8141
 489  438.5142
 490  445.3117
 491  445.8858
 492  504.6275
 493  384.9601
 494  460.957
 495  475.8898
 496  507.7465
 497  508.6867
 498  329.077
 499  390.509
 500  424.0049
 501  487.4406
 502  537.9601
 503  472.6358
 504  420.9405
 505  281.9765
 506  221.3118
 507  390.2186
 508  587.3994
 509  408.7995
 510  450.3296
 511  549.9141
