# Input file       =  1183439200.089815_cleaned.dat
# Candidate        =  PSR_0332+5434
# Telescope        =  AR
# Epoch_topo       =  57941.213183909895
# Epoch_bary       =  N/A
# T_sample         =  0.002
# Data Folded      =  7340032
# Data Avg         =  0.409263527708909
# Data StdDev      =  6.88409396699671 
# Profile Bins     =  1024
# Profile Avg      =  2933.57682226796 
# Profile StdDev   =  582.835220437548 
# Reduced chi-sqr  =  0.861
# Prob(Noise)      <  0.999   (~0.0 sigma)
# P_topo (ms)      =  714.484418191087  +/- 0.000716
# P'_topo (s/s)    =  -0                +/- 3.78e-10
# P''_topo (s/s^2) =  0                 +/- 1.67e-13
# P_bary (ms)      =  N/A
# P'_bary (s/s)    =  N/A
# P''_bary (s/s^2) =  N/A
# P_orb (s)        =  N/A
# asin(i)/c (s)    =  N/A
# eccentricity     =  N/A
# w (rad)          =  N/A
# T_peri           =  N/A
######################################################
   0  2560.641
   1  2568.034
   2  2681.549
   3  2827.39
   4  2832.101
   5  2885.438
   6  2959.417
   7  3001.357
   8  2952.362
   9  2869.483
  10  2879.91
  11  2942.842
  12  2956.77
  13  3108.373
  14  3153.142
  15  3101.394
  16  2953.98
  17  3013.62
  18  2929.427
  19  2910.634
  20  2793.332
  21  2732.747
  22  2757.836
  23  2779.405
  24  2879.212
  25  2828.777
  26  2696.103
  27  2645.797
  28  2600.302
  29  2640.656
  30  2605.432
  31  2681.543
  32  2708.334
  33  2687.523
  34  2681.456
  35  2647.396
  36  2708.267
  37  2703.782
  38  2765.497
  39  2784.355
  40  2805.565
  41  2878.508
  42  2886.015
  43  2891.979
  44  2994.927
  45  3062.301
  46  3067.816
  47  3029.502
  48  2985.644
  49  2996.153
  50  2863.984
  51  2793.19
  52  2773.044
  53  2744.609
  54  2707.882
  55  2643.725
  56  2647.128
  57  2758.07
  58  2815.303
  59  2734.257
  60  2590.849
  61  2629.657
  62  2727.953
  63  2946.327
  64  2823.079
  65  2658.274
  66  2525.687
  67  2639.334
  68  2732.804
  69  2809.221
  70  2810.514
  71  2811.722
  72  2783.135
  73  2626.156
  74  2553.348
  75  2541.456
  76  2655.059
  77  2827.548
  78  2992.002
  79  3158.58
  80  3153.869
  81  3213.737
  82  3206.313
  83  3136.261
  84  2993.219
  85  3001.276
  86  3009.061
  87  2969.836
  88  2978.765
  89  3076.717
  90  3225.525
  91  3236.782
  92  3180.556
  93  3162.527
  94  3125.959
  95  3083.982
  96  3118.5
  97  3113.493
  98  3066.112
  99  2997.529
 100  3051.334
 101  3063.494
 102  3065.486
 103  3118.528
 104  3263.386
 105  3233.291
 106  3093.257
 107  3006.19
 108  2883.475
 109  2950.371
 110  2918.842
 111  3060.367
 112  3056.424
 113  2988.74
 114  2925.186
 115  2997.266
 116  2983.79
 117  3035.769
 118  3051.399
 119  3139.562
 120  2943.164
 121  2849.185
 122  2847.094
 123  2786.072
 124  2807.908
 125  2739.74
 126  2878.443
 127  2954.734
 128  2910.783
 129  2945.081
 130  2920.623
 131  2941.889
 132  2969.697
 133  3099.99
 134  3227.01
 135  3167.972
 136  3013.828
 137  2912.603
 138  2866.405
 139  2890.769
 140  2908.433
 141  3003.568
 142  3054.322
 143  3022.525
 144  3024.809
 145  2943.632
 146  2833.635
 147  2796.697
 148  2900.186
 149  3177.209
 150  3126.087
 151  3069.974
 152  2913.622
 153  2986.957
 154  2924.542
 155  2873.772
 156  2807.615
 157  2872.494
 158  2863.822
 159  2870.144
 160  2891.965
 161  2868.504
 162  2866.619
 163  2814.835
 164  2869.047
 165  2734.107
 166  2680.949
 167  2678.426
 168  2775.411
 169  2781.879
 170  2695.957
 171  2611.235
 172  2640.889
 173  2771.51
 174  2701.067
 175  2682.904
 176  2688.331
 177  2713.934
 178  2744.875
 179  2779.865
 180  2675.416
 181  2509.685
 182  2493.99
 183  2683.963
 184  2760.763
 185  2765.337
 186  2834.284
 187  2814.847
 188  2808.115
 189  2697.123
 190  2628.989
 191  2549.206
 192  2437.374
 193  2412.031
 194  2639.885
 195  2776.472
 196  2772.671
 197  2766.144
 198  2712.464
 199  2704.008
 200  2554.723
 201  2508.005
 202  2627.302
 203  2754.913
 204  2796.124
 205  2696.685
 206  2680.983
 207  2732.159
 208  2827.445
 209  2814.78
 210  2892.672
 211  2787.748
 212  2652.564
 213  2607.98
 214  2720.583
 215  3095.537
 216  3226.97
 217  3272.025
 218  3195.904
 219  3241.891
 220  3129.527
 221  3022.082
 222  2906.585
 223  2918.595
 224  2974.239
 225  2979.917
 226  3051.31
 227  3110.752
 228  3106.324
 229  3103.436
 230  3113.065
 231  3271.106
 232  3310.346
 233  3111.674
 234  2933.768
 235  2824.197
 236  2838.626
 237  2776.97
 238  2770
 239  2773.814
 240  2859.273
 241  2944.675
 242  2915.041
 243  2989.278
 244  2946.251
 245  3084.064
 246  3094.533
 247  3110.187
 248  3021.539
 249  3110.983
 250  3038.351
 251  3070.832
 252  3094.61
 253  3164.542
 254  3155.362
 255  3130.724
 256  3257.375
 257  3264.127
 258  3208.799
 259  3167.095
 260  3105.813
 261  3207.625
 262  3257.848
 263  3191.586
 264  3052.408
 265  3051.277
 266  3205.186
 267  3269.636
 268  3095.241
 269  2950.767
 270  2943.692
 271  3002.925
 272  3062.831
 273  3044.196
 274  3086.71
 275  3109.891
 276  2981.204
 277  2979.881
 278  2944.662
 279  3005.096
 280  2925.225
 281  2899.126
 282  2886.035
 283  2935.349
 284  3027.969
 285  2968.814
 286  3097.524
 287  3130.065
 288  3154.572
 289  3197.838
 290  3295.959
 291  3378.95
 292  3403.425
 293  3466.182
 294  3596.606
 295  3566.789
 296  3553.657
 297  3533.729
 298  3495.769
 299  3395.657
 300  3296.251
 301  3114.595
 302  2953.078
 303  2846.425
 304  3029.101
 305  3176.202
 306  3036.191
 307  3007.009
 308  3000.658
 309  3050.697
 310  3120.213
 311  3176.077
 312  3160.485
 313  3029.563
 314  3035.24
 315  3042.906
 316  3106.443
 317  3057.708
 318  3043.363
 319  2989.193
 320  3012.825
 321  3114.732
 322  3059.248
 323  2984.879
 324  2891.696
 325  2922.969
 326  2989.625
 327  3087.998
 328  3090.119
 329  3099.812
 330  3130.603
 331  3178.467
 332  3186.639
 333  2971.351
 334  2841.668
 335  2959.846
 336  3062.291
 337  3157.062
 338  3146.866
 339  3113.166
 340  3082.648
 341  3129.255
 342  3193.357
 343  3187.014
 344  3039.336
 345  2994.328
 346  3060.263
 347  3218.638
 348  3353.583
 349  3429.719
 350  3279.943
 351  3076.124
 352  3012.866
 353  3012.765
 354  3097.117
 355  3036.326
 356  3076.729
 357  3015.053
 358  2983.252
 359  3049.997
 360  3016.231
 361  2989.918
 362  3104.122
 363  3135.701
 364  3142.514
 365  2994.155
 366  2870.061
 367  2816.096
 368  2787.284
 369  2827.031
 370  2952.531
 371  2847.002
 372  2761.269
 373  2679.192
 374  2778.724
 375  2886.449
 376  2897.876
 377  3099.006
 378  3126.65
 379  3097.479
 380  3017.15
 381  2993.736
 382  2954.739
 383  2901.172
 384  2869.815
 385  2845.579
 386  2811.557
 387  2824.748
 388  2904.886
 389  2915.529
 390  2985.061
 391  2967.319
 392  3050.194
 393  2909.175
 394  2979.723
 395  3074.015
 396  3125.222
 397  3152.267
 398  3144.844
 399  3145.051
 400  3013.646
 401  2998.299
 402  2989.09
 403  3024.913
 404  2954.485
 405  2824.845
 406  2800.47
 407  2889.308
 408  2975.865
 409  3123.292
 410  3107.688
 411  3105.754
 412  2987.832
 413  2977.426
 414  3072.933
 415  3038.977
 416  3064.584
 417  3034.408
 418  3039.551
 419  2952.565
 420  2890.186
 421  2871.05
 422  2895.28
 423  2851.729
 424  2716.97
 425  2705.133
 426  2748.949
 427  2777.381
 428  2837.914
 429  2763.658
 430  2711.3
 431  2603.482
 432  2669.49
 433  2775.093
 434  2918.254
 435  2910.034
 436  2799.703
 437  2686.304
 438  2667.124
 439  2665.617
 440  2546.897
 441  2498.856
 442  2668.896
 443  2785.159
 444  2803.387
 445  2802.189
 446  2874.097
 447  2940.842
 448  2869.308
 449  2865.447
 450  2787.864
 451  2659.615
 452  2476.485
 453  2419.487
 454  2540.261
 455  2605.427
 456  2714.925
 457  2752.16
 458  2633.897
 459  2515.046
 460  2621.173
 461  2704.182
 462  2723.285
 463  2727.758
 464  2801.016
 465  2993.067
 466  3077.514
 467  3094.32
 468  3071.538
 469  3036.452
 470  3070.976
 471  3086.961
 472  2992.718
 473  2956.433
 474  2921.862
 475  2963.922
 476  2737.705
 477  2809.334
 478  2800.832
 479  2950.573
 480  2846.608
 481  3069.035
 482  3045.303
 483  2948.493
 484  2922.187
 485  2995.16
 486  2859.461
 487  2834.658
 488  2750.148
 489  2723.626
 490  2658.431
 491  2719.04
 492  2888.631
 493  2965.906
 494  2916.649
 495  2950.673
 496  2981.204
 497  3030.345
 498  3034.265
 499  2983.986
 500  3031.599
 501  2976.884
 502  3035.504
 503  3065.29
 504  3069.288
 505  3005.58
 506  2978.933
 507  3039.266
 508  3025.547
 509  2949.666
 510  2857.49
 511  2956.799
 512  3040.442
 513  2999.411
 514  2906.733
 515  2662.62
 516  2672.295
 517  2807.175
 518  2938.399
 519  3005.585
 520  3038.548
 521  3144.64
 522  3059.16
 523  2944.077
 524  2846.032
 525  2844.346
 526  2749.001
 527  2762.671
 528  2796.769
 529  2812.438
 530  2865.966
 531  2999.575
 532  3094.392
 533  3000.827
 534  2827.883
 535  2872.411
 536  2893.832
 537  2987.097
 538  3035.685
 539  3035.802
 540  3001.625
 541  2914.932
 542  2894.984
 543  2874.142
 544  2835.728
 545  2752.847
 546  2669.791
 547  2783.331
 548  2899.042
 549  3047.971
 550  3078.753
 551  2926.196
 552  2744.35
 553  2579.391
 554  2638.504
 555  2795.51
 556  2808.906
 557  2853.591
 558  2873.559
 559  2817.671
 560  2826.219
 561  2966.263
 562  3081.482
 563  3066.26
 564  3042.566
 565  3150.24
 566  3116.129
 567  3119.116
 568  3251.121
 569  3335.589
 570  3349.111
 571  3250.908
 572  3219.961
 573  3179.616
 574  3176.092
 575  3206.841
 576  3201.164
 577  3193.687
 578  3153.77
 579  3154.097
 580  3042.51
 581  2999.819
 582  2989.667
 583  2928.772
 584  2940.069
 585  2975.39
 586  3035.133
 587  2979.78
 588  2995.027
 589  3050.693
 590  3096.701
 591  3008.594
 592  2991.826
 593  3024.039
 594  3011.385
 595  2925.936
 596  2892.269
 597  2979.175
 598  2983.447
 599  2992.595
 600  3119.456
 601  3129.155
 602  3123.371
 603  3091.551
 604  3251.785
 605  3250.948
 606  3207.445
 607  3119.646
 608  3261.052
 609  3316.649
 610  3404.511
 611  3440.177
 612  3340.702
 613  3261.516
 614  3207.009
 615  3328.393
 616  3458.19
 617  3543.169
 618  3668.045
 619  3666.789
 620  3657.653
 621  3715.802
 622  3587.211
 623  3576.71
 624  3585.258
 625  3622.543
 626  3659.751
 627  3615.058
 628  3646.651
 629  3592.122
 630  3639.552
 631  3621.002
 632  3675.88
 633  3638.907
 634  3688.624
 635  3660.583
 636  3583.273
 637  3456.273
 638  3260.459
 639  3253.803
 640  3271.963
 641  3248.825
 642  3381.134
 643  3492.254
 644  3363.002
 645  3354.374
 646  3454.171
 647  3735.007
 648  3850.666
 649  3908.167
 650  3892.324
 651  3907.467
 652  3821.645
 653  3752.167
 654  3852.757
 655  4013.691
 656  4070.013
 657  3915.346
 658  3679.63
 659  3427.245
 660  3346.243
 661  3336.901
 662  3310.679
 663  3171.327
 664  3100.269
 665  3156.458
 666  3171.624
 667  2952.833
 668  2943.682
 669  3078.152
 670  3333.108
 671  3302.083
 672  3319.195
 673  3383.83
 674  3423.848
 675  3470.791
 676  3326.683
 677  3274.61
 678  3199.548
 679  3318.917
 680  3347.643
 681  3352.894
 682  3179.37
 683  3282.882
 684  3379.347
 685  3498.534
 686  3314.117
 687  3273.846
 688  3290.678
 689  3394.981
 690  3459.293
 691  3608.789
 692  3485.135
 693  3517.064
 694  3480.252
 695  3538.048
 696  3495.392
 697  3371.205
 698  3341.451
 699  3384.569
 700  3352.219
 701  3282.966
 702  3269.634
 703  3323.767
 704  3411.7
 705  3490.736
 706  3479.823
 707  3453.551
 708  3463.27
 709  3446.387
 710  3378.556
 711  3292.618
 712  3182.076
 713  3148.771
 714  3233.577
 715  3225.03
 716  3261.613
 717  3244.44
 718  3279.447
 719  3265.299
 720  3195.613
 721  3350.591
 722  3429.611
 723  3414.579
 724  3298.91
 725  3156.272
 726  3197.57
 727  3245.215
 728  3353.853
 729  3267.015
 730  3258.35
 731  3147.883
 732  3165.01
 733  3059.946
 734  3124
 735  3043.692
 736  3006.437
 737  3006.003
 738  3076.299
 739  3069.779
 740  3094.823
 741  3063.678
 742  3111.255
 743  2978.109
 744  2805.365
 745  2734.583
 746  2794.506
 747  2874.822
 748  2888.572
 749  3068.822
 750  3166.049
 751  3191.117
 752  3200.474
 753  3274.102
 754  3183.99
 755  3081.836
 756  2955.891
 757  2867.954
 758  2803.701
 759  2849.685
 760  2751.081
 761  2866.393
 762  2835.725
 763  2716.407
 764  2625.371
 765  2559.609
 766  2634.653
 767  2595.552
 768  2551.674
 769  2547.647
 770  2536.735
 771  2581.988
 772  2633.568
 773  2601.304
 774  2391.969
 775  2217.559
 776  2259.719
 777  2248.828
 778  2274.437
 779  2409.66
 780  2590.386
 781  2710.127
 782  2759.907
 783  2825.975
 784  2815.14
 785  2871.119
 786  2806.522
 787  2809.561
 788  2867.904
 789  2799.088
 790  2707.742
 791  2769.954
 792  2724.66
 793  2687.933
 794  2548.739
 795  2602.385
 796  2650.134
 797  2692.103
 798  2761.812
 799  2715.779
 800  2786.411
 801  2670.075
 802  2592.119
 803  2584.909
 804  2630.331
 805  2721.532
 806  2620.303
 807  2627.243
 808  2668.506
 809  2682.819
 810  2684.048
 811  2587.144
 812  2691.658
 813  2695.02
 814  2759.162
 815  2617.033
 816  2499.85
 817  2418.038
 818  2526.819
 819  2585.293
 820  2499.652
 821  2494.455
 822  2511.329
 823  2380.275
 824  2368.692
 825  2333.144
 826  2313.041
 827  2307.409
 828  2375.314
 829  2451.697
 830  2407.406
 831  2444.666
 832  2431.091
 833  2226.063
 834  2093.377
 835  2094.512
 836  2140.421
 837  2228.809
 838  2287.347
 839  2353.735
 840  2268.998
 841  2188.549
 842  2141.623
 843  2136.764
 844  2126.304
 845  2193.559
 846  2166.34
 847  2190.577
 848  2127.284
 849  2188.405
 850  2205.102
 851  2244.021
 852  2320.107
 853  2483.333
 854  2650.412
 855  2736.56
 856  2728.052
 857  2517.96
 858  2514.306
 859  2719.596
 860  2803.643
 861  2808.567
 862  2638.669
 863  2665.722
 864  2663.261
 865  2712.765
 866  2746.593
 867  2761.026
 868  2711.541
 869  2665.83
 870  2625.266
 871  2768.097
 872  2963.838
 873  3179.808
 874  3257.191
 875  3164.076
 876  3169.298
 877  3108.728
 878  2897.145
 879  2836.816
 880  2789.548
 881  2978.578
 882  3187.136
 883  3237.016
 884  3368.927
 885  3306.407
 886  3384.35
 887  3340.934
 888  3313.433
 889  3154.787
 890  3026.318
 891  2978.917
 892  3004.892
 893  3058.078
 894  3119.66
 895  3169.165
 896  3123.753
 897  3123.096
 898  3083.935
 899  3038.162
 900  3073.673
 901  3039.755
 902  3002.207
 903  2895.631
 904  2960.499
 905  2927.268
 906  2963.651
 907  2900.897
 908  2816.063
 909  2836.408
 910  2746.226
 911  2702.909
 912  2700.014
 913  2733.983
 914  2765.263
 915  2650.374
 916  2606.441
 917  2637.443
 918  2658.753
 919  2778.26
 920  2772.739
 921  2792.078
 922  2763.47
 923  2790.264
 924  2717.122
 925  2693.497
 926  2539.401
 927  2484.268
 928  2537.278
 929  2510.27
 930  2483.651
 931  2558.919
 932  2814.14
 933  2864.756
 934  2754.149
 935  2553.885
 936  2428.414
 937  2367.323
 938  2470.537
 939  2559.422
 940  2574.511
 941  2574.501
 942  2601.05
 943  2605.292
 944  2686.374
 945  2699.892
 946  2728.783
 947  2644.308
 948  2590.536
 949  2516.224
 950  2516.945
 951  2488.154
 952  2663.127
 953  2767.945
 954  2789.829
 955  2853.375
 956  2920.349
 957  2960.68
 958  2885.155
 959  2824.467
 960  2731.756
 961  2839.874
 962  2954.143
 963  2959.617
 964  2727.661
 965  2614.82
 966  2553.029
 967  2545.023
 968  2422.638
 969  2383.679
 970  2455.426
 971  2670.736
 972  2749.591
 973  2684.053
 974  2682.167
 975  2680.661
 976  2749.51
 977  2788.118
 978  2734.887
 979  2688.13
 980  2608.499
 981  2563.041
 982  2589.047
 983  2598.883
 984  2649.571
 985  2577.062
 986  2636.24
 987  2671.838
 988  2623.115
 989  2641.186
 990  2580.835
 991  2673.409
 992  2596.758
 993  2673.174
 994  2680.482
 995  2696.398
 996  2755.134
 997  2752.314
 998  2837.331
 999  2910.733
1000  2818.632
1001  2619.088
1002  2496.38
1003  2519.203
1004  2581.641
1005  2711.484
1006  2748.686
1007  2718.079
1008  2654.963
1009  2677.196
1010  2785.761
1011  2762.852
1012  2594.198
1013  2529.617
1014  2498.381
1015  2557.947
1016  2687.419
1017  2775.537
1018  2751.75
1019  2760.572
1020  2706.645
1021  2751.406
1022  2721.8
1023  2660.07
