# Input file       =  1183626022.165991_cleaned.dat
# Candidate        =  PSR_0332+5434
# Telescope        =  AR
# Epoch_topo       =  57943.375476458226
# Epoch_bary       =  N/A
# T_sample         =  0.002
# Data Folded      =  7340032
# Data Avg         =  0.257263212265181
# Data StdDev      =  5.57383701840907 
# Profile Bins     =  512
# Profile Avg      =  3688.22543016386 
# Profile StdDev   =  667.372430483338 
# Reduced chi-sqr  =  0.675
# Prob(Noise)      <  1   (~0.0 sigma)
# P_topo (ms)      =  714.483159886915  +/- 0.000628
# P'_topo (s/s)    =  -0                +/- 3.31e-10
# P''_topo (s/s^2) =  0                 +/- 1.46e-13
# P_bary (ms)      =  N/A
# P'_bary (s/s)    =  N/A
# P''_bary (s/s^2) =  N/A
# P_orb (s)        =  N/A
# asin(i)/c (s)    =  N/A
# eccentricity     =  N/A
# w (rad)          =  N/A
# T_peri           =  N/A
######################################################
   0  3159.597
   1  3506.199
   2  3506.854
   3  3416.266
   4  3417.623
   5  3377.953
   6  3245.275
   7  3675.926
   8  3539.704
   9  3329.859
  10  2746.367
  11  3246.325
  12  2879.428
  13  2886.815
  14  2919.43
  15  3284.022
  16  3158.75
  17  2884.415
  18  2835.406
  19  3007.045
  20  3306.683
  21  3080.893
  22  3311.273
  23  3565.371
  24  3363.249
  25  3454.573
  26  3611.972
  27  3544.111
  28  3597.901
  29  3325.745
  30  3549.56
  31  3976.511
  32  4053.038
  33  3804.882
  34  3497.072
  35  3046.091
  36  3033.48
  37  3325.613
  38  3422.349
  39  3482.145
  40  3614.984
  41  3569.685
  42  3659.341
  43  3803.785
  44  3889.543
  45  3939.363
  46  3997.402
  47  4094.526
  48  4145.833
  49  4352.108
  50  4339.426
  51  3987.88
  52  4050.458
  53  3672.343
  54  3766.129
  55  4213.926
  56  4225.472
  57  4295.067
  58  4346.34
  59  3637.062
  60  3430.068
  61  3527.016
  62  3691.067
  63  3479.135
  64  2841.966
  65  3089.088
  66  3196.349
  67  3621.602
  68  3625.842
  69  3453.767
  70  3412.749
  71  3225.158
  72  3101.373
  73  3166.571
  74  3293.74
  75  3440.147
  76  3421.121
  77  3233.596
  78  3259.962
  79  3279.514
  80  3356.24
  81  3563.625
  82  3763.722
  83  3623.204
  84  3680.909
  85  3743.297
  86  3721.038
  87  3637.868
  88  3782.676
  89  3957.076
  90  3979.49
  91  3441.083
  92  3798.149
  93  3652.476
  94  3739.351
  95  3868.582
  96  3736.406
  97  3767.662
  98  3466.055
  99  3599.749
 100  3586.862
 101  3637.428
 102  3812.203
 103  3740.051
 104  3285.066
 105  3184.615
 106  3438.469
 107  3395.245
 108  3493.896
 109  3678.535
 110  3441.992
 111  3373.492
 112  3419.953
 113  3764.354
 114  3857.944
 115  3461.011
 116  3733.92
 117  3483.357
 118  3451.327
 119  3667.373
 120  3727.503
 121  3684.001
 122  3518.709
 123  3908.339
 124  3887.042
 125  3818.421
 126  3466.41
 127  3530.045
 128  3888.859
 129  3811.093
 130  3961.696
 131  4241.331
 132  3958.522
 133  3845.517
 134  3702.217
 135  3623.021
 136  3584.61
 137  3347.593
 138  3246.987
 139  3546.388
 140  3639.962
 141  4081.157
 142  3722.818
 143  3638.146
 144  3991.878
 145  3681.092
 146  3598.153
 147  3911.804
 148  3847.503
 149  3429.299
 150  3446.406
 151  3543.161
 152  3341.734
 153  3363.232
 154  3612.055
 155  3874.574
 156  3597.704
 157  3005.558
 158  3169.601
 159  3256.375
 160  3333.737
 161  3525.617
 162  3480.002
 163  3541.01
 164  3683.675
 165  3366.851
 166  3224.783
 167  3302.504
 168  3323.713
 169  3095.355
 170  3270.52
 171  3248.657
 172  3430.757
 173  3599.696
 174  3935.521
 175  4136.358
 176  4185.932
 177  4030.66
 178  4143.549
 179  3749.403
 180  3542.759
 181  3837.449
 182  3990.302
 183  3998.485
 184  3618.535
 185  3420.733
 186  3321.904
 187  3345.982
 188  3214.283
 189  3741.021
 190  3735.055
 191  3663.336
 192  3270.435
 193  3018.757
 194  3119.413
 195  3417.089
 196  3621.134
 197  3523.792
 198  3823.475
 199  4016.851
 200  4061.594
 201  3700.101
 202  3306.667
 203  3298.521
 204  2954.737
 205  2983.633
 206  3040.147
 207  3266.597
 208  3276.394
 209  3459.133
 210  3077.459
 211  2873.281
 212  3328.548
 213  3480.949
 214  3556.668
 215  3920.103
 216  4005.035
 217  3966.319
 218  3760.673
 219  4260.943
 220  4165.711
 221  3722.503
 222  3853.119
 223  3984.024
 224  4043.997
 225  3994.59
 226  4153.755
 227  4233.064
 228  4059.799
 229  4085.225
 230  3781.12
 231  3985.606
 232  3700.601
 233  3744.973
 234  3971.295
 235  3904.69
 236  3873.053
 237  3992.11
 238  4033.325
 239  3601.508
 240  3414.908
 241  3648.48
 242  3405.299
 243  3424.611
 244  3665.034
 245  3702.166
 246  3730.055
 247  3838.831
 248  4079.26
 249  4193.894
 250  3862.01
 251  3537.091
 252  3832.989
 253  4263.882
 254  4035.486
 255  4188.903
 256  4318.296
 257  4365.059
 258  4337.623
 259  4276.259
 260  4468.596
 261  4611.537
 262  4188.298
 263  3793.688
 264  3791.303
 265  4241.653
 266  4023.025
 267  4012.192
 268  3905.885
 269  4035.273
 270  4144.734
 271  4143.822
 272  4076.131
 273  3527.306
 274  2940.411
 275  3117.314
 276  3588.993
 277  3607.585
 278  3521.826
 279  3166.372
 280  3144.265
 281  3416.233
 282  3249.128
 283  3274.724
 284  3504.038
 285  3615.1
 286  3487.779
 287  3560.897
 288  3994.503
 289  3420.294
 290  3515.653
 291  3680.584
 292  3572.853
 293  3398.975
 294  3625.208
 295  4069.015
 296  4041.669
 297  4297.389
 298  4440.588
 299  4317.404
 300  4161.947
 301  4075.644
 302  4129.314
 303  4073.254
 304  4377.613
 305  4435.787
 306  4458.972
 307  4422.15
 308  4358.263
 309  4323.172
 310  4341.818
 311  4266.003
 312  4488.455
 313  4222.647
 314  4468.71
 315  4472.221
 316  4357.076
 317  4276.93
 318  4157.44
 319  4376.928
 320  4467.27
 321  4361.092
 322  4340.715
 323  4543.897
 324  4820.567
 325  5041.534
 326  5660.144
 327  5943.936
 328  5258.793
 329  4282.065
 330  3731.194
 331  3158.541
 332  3453.48
 333  3881.996
 334  3815.823
 335  3847.338
 336  3753.505
 337  3690.504
 338  3871.235
 339  3768.653
 340  4229.387
 341  4460.664
 342  4056.831
 343  4001.481
 344  4002.682
 345  4196.917
 346  4098.414
 347  3739.197
 348  3940.485
 349  4233.934
 350  3930.082
 351  3272.966
 352  3295.237
 353  3335.456
 354  3118.51
 355  3534.624
 356  3544.858
 357  3142.154
 358  2938.746
 359  3334.764
 360  3486.418
 361  3414.981
 362  3615.446
 363  3208.354
 364  3103.245
 365  3156.899
 366  3079.467
 367  2888.286
 368  3129.674
 369  3344.611
 370  3507.288
 371  3400.375
 372  3264.645
 373  3197.479
 374  3145.882
 375  3575.371
 376  3567.025
 377  3517.162
 378  3619.78
 379  3379.061
 380  3764.304
 381  3601.401
 382  3688.773
 383  3667.871
 384  3929.786
 385  3851.497
 386  3789.764
 387  3539.992
 388  3991.944
 389  4120.288
 390  4205.35
 391  4422.066
 392  4246.801
 393  3922.061
 394  3710.954
 395  3340.983
 396  3512.634
 397  3866.848
 398  3875.022
 399  3884.944
 400  3648.369
 401  3561.794
 402  3607.119
 403  3325.09
 404  3368.116
 405  3544.288
 406  3537.417
 407  3428.06
 408  3494.448
 409  3665.272
 410  3273.308
 411  3466.452
 412  3503.376
 413  3353.017
 414  3367.423
 415  3174.738
 416  3437.678
 417  3538.935
 418  3549.563
 419  3527.578
 420  3648.009
 421  3559.858
 422  3614.824
 423  3875.062
 424  3839.979
 425  3586.678
 426  3590.57
 427  3486.035
 428  3667.374
 429  3813.931
 430  3861.523
 431  3792.053
 432  3688.863
 433  3614.461
 434  3744.712
 435  3905.961
 436  4035.665
 437  3858.953
 438  3673.045
 439  3740.265
 440  3807.818
 441  3614.889
 442  3530.006
 443  3924.542
 444  4069.953
 445  3698.867
 446  3496.956
 447  3341.617
 448  3313.141
 449  3685.271
 450  3750.643
 451  3745.39
 452  3973.796
 453  4045.396
 454  4004.694
 455  3887.925
 456  3736.25
 457  3574.645
 458  3905.624
 459  3567.061
 460  3704.642
 461  3827.55
 462  4113.22
 463  4193.33
 464  4045.01
 465  3821.488
 466  3453.105
 467  3264.534
 468  3565.24
 469  4004.628
 470  4319.035
 471  4203.611
 472  4050.833
 473  4005.15
 474  3913.601
 475  3639.829
 476  3652.218
 477  3711.59
 478  3759.935
 479  3702.204
 480  3480.598
 481  3460.82
 482  3270.364
 483  3087.514
 484  3245.486
 485  3626.928
 486  3388.387
 487  3580.065
 488  3485.379
 489  3390.987
 490  3658.424
 491  3719.653
 492  3816.952
 493  3570.597
 494  3518.699
 495  3286.606
 496  3426.786
 497  3160.572
 498  3419.961
 499  3418.074
 500  3145.345
 501  3320.66
 502  3765.372
 503  3778.343
 504  3753.991
 505  3809.831
 506  3520.893
 507  3341.878
 508  3694.088
 509  3978.644
 510  3754.63
 511  3455.471
