# Input file       =  1183697231.101892-PSRB0329-2ms-sampling-dd.dat
# Candidate        =  PSR_0332+5434
# Telescope        =  AR
# Epoch_topo       =  57944.199653957083
# Epoch_bary       =  N/A
# T_sample         =  0.002
# Data Folded      =  7340032
# Data Avg         =  -4.16560751615999e-10
# Data StdDev      =  5.15056877872993 
# Profile Bins     =  512
# Profile Avg      =  -5.18425793232278
# Profile StdDev   =  616.693238944706 
# Reduced chi-sqr  =  0.826
# Prob(Noise)      <  0.998   (~0.0 sigma)
# P_topo (ms)      =  714.482232733279  +/- 0.000928
# P'_topo (s/s)    =  -0                +/- 4.9e-10
# P''_topo (s/s^2) =  0                 +/- 2.16e-13
# P_bary (ms)      =  N/A
# P'_bary (s/s)    =  N/A
# P''_bary (s/s^2) =  N/A
# P_orb (s)        =  N/A
# asin(i)/c (s)    =  N/A
# eccentricity     =  N/A
# w (rad)          =  N/A
# T_peri           =  N/A
######################################################
   0  -587.5308
   1  -518.46
   2  -607.2134
   3  -776.4633
   4  -728.4073
   5  -544.9642
   6  -335.3352
   7  -350.7062
   8  -158.2114
   9  -437.614
  10  -515.6652
  11  -126.881
  12  -228.1362
  13  -516.4731
  14  -648.2097
  15  -584.9288
  16  -549.0901
  17  -596.6356
  18  -722.8958
  19  -613.801
  20  -389.9206
  21  -429.7905
  22  -554.8698
  23  -738.6851
  24  -754.7911
  25  -332.7942
  26  -534.0088
  27  -152.8592
  28  -282.5291
  29  -561.8667
  30  -850.1823
  31  -638.9147
  32  -532.6927
  33  -393.21
  34  -392.156
  35  -526.2303
  36  -399.7455
  37  -223.4754
  38  -72.38883
  39  -98.73079
  40  -138.1348
  41  -76.76266
  42  23.17181
  43  234.2343
  44  230.9081
  45  517.3188
  46  394.1584
  47  99.17185
  48  -14.03603
  49  187.4531
  50  -129.7988
  51  47.18251
  52  56.22612
  53  88.3386
  54  23.58027
  55  -89.484
  56  212.2635
  57  320.1147
  58  312.7414
  59  157.8772
  60  216.4795
  61  212.4399
  62  58.04229
  63  -363.981
  64  -334.1337
  65  -272.878
  66  -433.3328
  67  -509.987
  68  -267.2762
  69  -453.5573
  70  -437.1602
  71  -510.7902
  72  -415.5254
  73  -173.5898
  74  -358.436
  75  -546.0054
  76  -510.0158
  77  -774.1111
  78  -318.084
  79  -234.0663
  80  -83.5107
  81  -109.9459
  82  -188.2811
  83  -76.38818
  84  188.5004
  85  -91.72306
  86  -310.7678
  87  -257.4023
  88  -140.1634
  89  -139.0901
  90  -276.5433
  91  -342.5724
  92  -203.9016
  93  -142.8829
  94  -361.8144
  95  -196.6692
  96  -325.0063
  97  -280.5967
  98  -126.7417
  99  -238.7799
 100  -204.8207
 101  -64.77801
 102  -74.87373
 103  84.22707
 104  -72.70731
 105  -304.5222
 106  -289.7577
 107  -534.2374
 108  -415.0404
 109  -245.457
 110  -314.2275
 111  -255.802
 112  -154.1993
 113  -145.5562
 114  -113.7267
 115  72.54135
 116  -9.704631
 117  0.2208879
 118  353.391
 119  333.436
 120  16.66492
 121  -35.79515
 122  -180.3314
 123  -108.9548
 124  -243.5745
 125  -110.945
 126  -459.775
 127  -326.5618
 128  -233.3435
 129  -427.5155
 130  -834.6196
 131  -847.0984
 132  -604.0005
 133  -394.526
 134  -366.1977
 135  -374.3974
 136  -396.1492
 137  -525.6498
 138  -87.88241
 139  -175.8075
 140  -211.4649
 141  -86.47001
 142  8.721356
 143  156.1686
 144  4.275409
 145  -264.0787
 146  -282.0193
 147  31.7243
 148  61.43047
 149  -94.69333
 150  -90.56347
 151  -245.2088
 152  -355.062
 153  -384.545
 154  -247.2938
 155  -239.3032
 156  -312.1072
 157  -248.2001
 158  -267.41
 159  -217.3624
 160  -350.9835
 161  -271.8513
 162  -18.62419
 163  37.5722
 164  -183.5785
 165  -370.736
 166  -333.8461
 167  -629.6877
 168  -528.9576
 169  -288.0501
 170  -323.6556
 171  -631.2639
 172  -544.8699
 173  -468.2993
 174  -486.9586
 175  -423.9176
 176  -74.76378
 177  -8.642635
 178  -319.5847
 179  -125.5631
 180  165.0833
 181  124.6688
 182  -269.1649
 183  -317.3692
 184  -308.8117
 185  -155.2118
 186  -87.49714
 187  -65.70213
 188  -176.8139
 189  -267.0801
 190  -395.2971
 191  -369.4898
 192  -265.0518
 193  -508.3406
 194  -537.8775
 195  -399.736
 196  -353.9176
 197  -232.8666
 198  -184.3026
 199  -421.7488
 200  -594.5356
 201  -583.3057
 202  -732.8351
 203  -904.6388
 204  -784.3005
 205  -367.8809
 206  -478.5877
 207  -1062.917
 208  -921.8074
 209  -795.2573
 210  -405.3402
 211  -297.7863
 212  -229.4868
 213  -264.666
 214  -371.8816
 215  -375.5841
 216  -400.4882
 217  -644.3336
 218  -853.6553
 219  -652.9766
 220  -485.6049
 221  -265.0432
 222  -316.4364
 223  -270.5594
 224  -428.5919
 225  -609.8578
 226  -543.2961
 227  -556.0126
 228  -423.1652
 229  -227.5681
 230  -179.7163
 231  -115.1933
 232  -19.50097
 233  -189.6783
 234  -272.5042
 235  -185.1904
 236  -154.1225
 237  -270.8742
 238  -191.8055
 239  -128.6464
 240  -222.903
 241  -126.7256
 242  147.1608
 243  201.6986
 244  -36.23917
 245  4.247718
 246  280.5457
 247  -219.4901
 248  -71.52129
 249  -15.03012
 250  -63.43231
 251  10.13471
 252  -191.0404
 253  -43.32353
 254  49.8883
 255  -26.28426
 256  -18.11185
 257  140.9301
 258  343.5742
 259  105.6382
 260  -134.5063
 261  18.44688
 262  -142.5923
 263  20.94913
 264  374.7896
 265  485.567
 266  372.3777
 267  219.3046
 268  415.3822
 269  341.2033
 270  533.6818
 271  203.2247
 272  196.9356
 273  502.9417
 274  242.8648
 275  215.1632
 276  429.4068
 277  356.3974
 278  474.9984
 279  357.9279
 280  18.00521
 281  103.4312
 282  351.2133
 283  443.19
 284  452.1473
 285  99.04607
 286  283.6303
 287  422.5999
 288  368.2233
 289  302.628
 290  -14.69064
 291  245.786
 292  397.653
 293  334.7071
 294  562.1739
 295  500.5539
 296  400.7314
 297  340.6589
 298  623.9505
 299  541.8143
 300  1008.591
 301  1063.685
 302  757.0759
 303  254.534
 304  303.5281
 305  485.2755
 306  313.738
 307  419.5695
 308  521.1447
 309  309.4198
 310  311.2505
 311  125.0568
 312  487.3799
 313  405.8416
 314  248.4648
 315  372.7143
 316  171.078
 317  143.9769
 318  250.358
 319  121.9753
 320  305.6747
 321  451.2332
 322  464.1057
 323  348.9987
 324  116.7138
 325  -68.64835
 326  -106.4762
 327  -441.505
 328  -154.7289
 329  21.54325
 330  -36.23886
 331  43.40171
 332  -143.0218
 333  -167.1509
 334  -162.4805
 335  -111.9726
 336  -96.05901
 337  -348.3333
 338  -56.38148
 339  277.0338
 340  -147.4963
 341  -237.461
 342  29.97934
 343  77.87466
 344  122.2883
 345  160.7462
 346  101.2876
 347  -40.92673
 348  -318.2665
 349  49.4258
 350  252.3132
 351  291.0507
 352  254.1253
 353  68.8279
 354  -34.19455
 355  302.6821
 356  229.7902
 357  544.5778
 358  583.7333
 359  328.3221
 360  301.3446
 361  624.8738
 362  205.1061
 363  86.87939
 364  319.2875
 365  537.0467
 366  405.4261
 367  52.51982
 368  83.90329
 369  184.477
 370  103.7087
 371  46.42257
 372  363.9842
 373  413.9641
 374  392.2205
 375  318.2089
 376  121.2648
 377  167.0143
 378  241.6588
 379  533.0232
 380  232.4474
 381  442.5923
 382  588.0279
 383  336.6718
 384  312.4214
 385  410.1129
 386  687.6892
 387  511.3418
 388  596.0529
 389  627.2401
 390  266.3949
 391  368.2141
 392  176.5034
 393  495.0682
 394  941.5756
 395  847.022
 396  718.4149
 397  654.5186
 398  585.9542
 399  585.1521
 400  433.3838
 401  493.5302
 402  667.1586
 403  364.7176
 404  188.5979
 405  241.3153
 406  403.7362
 407  524.8568
 408  412.6586
 409  182.7247
 410  349.8522
 411  386.6334
 412  324.9118
 413  228.0471
 414  474.3606
 415  410.892
 416  559.1833
 417  340.8858
 418  364.6292
 419  639.5468
 420  603.3241
 421  545.2133
 422  331.8999
 423  64.8184
 424  67.8843
 425  304.7824
 426  230.3317
 427  60.63009
 428  37.75246
 429  84.43851
 430  -23.42266
 431  144.5811
 432  42.03736
 433  -51.47005
 434  -110.3462
 435  -92.54967
 436  47.80669
 437  -6.41686
 438  87.01987
 439  165.6534
 440  286.5062
 441  190.2328
 442  85.24181
 443  -28.87864
 444  -296.8912
 445  -274.5086
 446  39.27137
 447  70.39409
 448  50.53499
 449  -327.0618
 450  -512.8805
 451  -215.3908
 452  150.8061
 453  295.7178
 454  194.499
 455  -168.014
 456  -200.7355
 457  196.4121
 458  230.7338
 459  140.1897
 460  127.7818
 461  186.9638
 462  209.6764
 463  85.21732
 464  -5.705321
 465  223.0546
 466  243.2746
 467  141.3376
 468  387.6853
 469  396.5947
 470  282.4071
 471  140.6222
 472  99.74461
 473  288.1026
 474  454.6787
 475  452.3219
 476  400.0365
 477  305.7224
 478  340.8838
 479  270.4206
 480  363.1506
 481  199.8841
 482  82.52814
 483  202.5245
 484  443.6153
 485  699.2461
 486  1236.406
 487  1722.228
 488  2047.245
 489  1996.079
 490  1677.035
 491  823.0678
 492  147.7051
 493  255.3014
 494  417.2762
 495  863.1639
 496  1044.068
 497  178.3743
 498  -2.499895
 499  -82.11283
 500  -286.2126
 501  -318.118
 502  -2.859353
 503  -146.4782
 504  -134.9593
 505  -67.00534
 506  -232.6309
 507  -408.865
 508  -405.7338
 509  -498.0909
 510  -528.47
 511  -663.0933
