# Input file       =  1183596519.103687_cleaned.dat
# Candidate        =  PSR_0332+5434
# Telescope        =  AR
# Epoch_topo       =  57943.034005829708
# Epoch_bary       =  N/A
# T_sample         =  0.002
# Data Folded      =  7143424
# Data Avg         =  0.0228819120269129
# Data StdDev      =  1.00002009201467 
# Profile Bins     =  512
# Profile Avg      =  319.249496998573 
# Profile StdDev   =  118.120957722199 
# Reduced chi-sqr  =  1.491
# Prob(Noise)      <  3.4e-12   (~6.9 sigma)
# P_topo (ms)      =  714.483060232738  +/- 0.000272
# P'_topo (s/s)    =  -0                +/- 1.47e-10
# P''_topo (s/s^2) =  0                 +/- 6.68e-14
# P_bary (ms)      =  N/A
# P'_bary (s/s)    =  N/A
# P''_bary (s/s^2) =  N/A
# P_orb (s)        =  N/A
# asin(i)/c (s)    =  N/A
# eccentricity     =  N/A
# w (rad)          =  N/A
# T_peri           =  N/A
######################################################
   0  273.9976
   1  302.5536
   2  208.7641
   3  263.9993
   4  255.4844
   5  298.3123
   6  380.9491
   7  412.7024
   8  356.7753
   9  222.1418
  10  360.4473
  11  308.7534
  12  307.5581
  13  284.969
  14  194.9888
  15  209.3746
  16  312.3389
  17  304.4369
  18  234.601
  19  170.0056
  20  159.582
  21  175.7008
  22  255.8776
  23  252.5938
  24  268.2763
  25  336.9348
  26  368.6689
  27  220.0543
  28  179.5841
  29  336.1472
  30  287.6614
  31  227.0108
  32  397.3274
  33  328.6321
  34  257.8825
  35  303.5257
  36  272.4792
  37  219.8948
  38  293.4835
  39  281.6613
  40  383.4404
  41  294.0734
  42  326.5141
  43  367.724
  44  156.9826
  45  212.503
  46  219.0615
  47  353.8583
  48  363.4839
  49  337.4374
  50  456.2655
  51  423.0991
  52  319.8305
  53  346.7498
  54  338.9419
  55  234.8372
  56  314.5865
  57  285.0808
  58  339.0462
  59  298.6778
  60  367.0949
  61  447.7837
  62  456.9186
  63  355.2227
  64  264.1006
  65  317.7061
  66  341.7338
  67  358.1996
  68  304.5942
  69  279.7975
  70  229.7956
  71  368.8183
  72  388.1841
  73  351.8883
  74  199.7866
  75  284.9413
  76  338.2438
  77  347.0852
  78  394.6796
  79  321.4355
  80  468.2347
  81  430.8062
  82  334.9579
  83  356.5314
  84  344.2792
  85  396.0341
  86  441.822
  87  417.0834
  88  340.256
  89  287.2353
  90  211.3557
  91  329.5012
  92  370.8672
  93  221.6578
  94  183.1656
  95  332.4122
  96  558.2808
  97  306.1623
  98  278.5828
  99  406.2245
 100  402.4392
 101  373.4987
 102  394.1429
 103  328.2273
 104  271.5031
 105  331.004
 106  285.1272
 107  207.2174
 108  254.5634
 109  254.9328
 110  205.3407
 111  280.8618
 112  342.2527
 113  452.1669
 114  489.669
 115  441.2943
 116  435.6085
 117  442.881
 118  286.3457
 119  253.2196
 120  340.6762
 121  433.0754
 122  437.7661
 123  480.4226
 124  527.8636
 125  417.6932
 126  411.4189
 127  350.4149
 128  190.8439
 129  240.1096
 130  288.7413
 131  372.7672
 132  341.765
 133  301.4159
 134  344.8297
 135  304.2419
 136  229.8672
 137  241.1091
 138  329.5695
 139  411.15
 140  384.0086
 141  391.6746
 142  228.1717
 143  390.4254
 144  454.288
 145  356.5103
 146  325.2676
 147  428.9408
 148  363.2862
 149  373.812
 150  421.4597
 151  400.2833
 152  375.1479
 153  344.8809
 154  413.0671
 155  368.1488
 156  315.3512
 157  373.7464
 158  359.9249
 159  236.9278
 160  205.4288
 161  249.3882
 162  271.3918
 163  282.0593
 164  333.7003
 165  372.1862
 166  417.2345
 167  232.0589
 168  232.26
 169  297.4277
 170  408.191
 171  446.4917
 172  369.7638
 173  303.1976
 174  403.4855
 175  254.4747
 176  235.9781
 177  307.6099
 178  220.8726
 179  327.5893
 180  316.8827
 181  372.5914
 182  165.5219
 183  147.7222
 184  201.1326
 185  348.8398
 186  268.8561
 187  293.0713
 188  307.2878
 189  283.0142
 190  243.2955
 191  173.5141
 192  248.3525
 193  347.3652
 194  495.3228
 195  331.9654
 196  357.6304
 197  273.7219
 198  374.1276
 199  316.3531
 200  294.0319
 201  321.539
 202  251.703
 203  353.3594
 204  325.0383
 205  351.5633
 206  321.1174
 207  381.7247
 208  386.4846
 209  470.6072
 210  365.4468
 211  305.2253
 212  328.8024
 213  279.836
 214  265.4973
 215  233.6206
 216  237.7086
 217  212.9028
 218  232.8004
 219  232.1168
 220  239.7781
 221  313.0012
 222  334.7261
 223  338.1434
 224  273.7484
 225  314.8833
 226  257.1181
 227  415.638
 228  336.3874
 229  239.0206
 230  294.6408
 231  295.2576
 232  258.193
 233  244.5719
 234  312.6892
 235  345.7037
 236  254.2132
 237  265.0496
 238  378.4154
 239  353.0849
 240  284.9181
 241  276.8769
 242  304.3679
 243  237.0087
 244  342.9009
 245  348.1064
 246  269.2916
 247  270.515
 248  406.1981
 249  331.4421
 250  235.9791
 251  158.323
 252  198.0151
 253  331.2794
 254  322.465
 255  268.3538
 256  148.8237
 257  267.9508
 258  243.416
 259  418.8823
 260  444.1769
 261  280.4485
 262  228.1333
 263  205.1845
 264  307.3012
 265  368.625
 266  386.3917
 267  304.6497
 268  271.579
 269  273.1252
 270  365.6085
 271  207.0262
 272  238.8253
 273  207.6675
 274  235.3252
 275  341.358
 276  283.0873
 277  138.233
 278  124.6508
 279  208.5257
 280  343.3703
 281  410.3836
 282  498.2195
 283  384.8818
 284  192.0062
 285  241.2119
 286  374.6174
 287  306.1527
 288  243.8923
 289  302.2466
 290  353.5938
 291  166.9452
 292  266.9785
 293  346.7029
 294  448.1892
 295  367.9071
 296  278.1133
 297  280.3629
 298  293.5612
 299  221.1333
 300  365.823
 301  335.9156
 302  199.6755
 303  262.2435
 304  177.772
 305  199.5237
 306  237.54
 307  228.3837
 308  171.7158
 309  317.4654
 310  373.1997
 311  277.4792
 312  236.1216
 313  254.8343
 314  310.1967
 315  319.0968
 316  244.8866
 317  271.3428
 318  250.6683
 319  247.4512
 320  356.6452
 321  375.7536
 322  286.2528
 323  210.3716
 324  211.7559
 325  279.7485
 326  228.4036
 327  266.8116
 328  332.7772
 329  199.4151
 330  195.4986
 331  254.4218
 332  209.7038
 333  368.0283
 334  322.6115
 335  242.4476
 336  85.91763
 337  203.7396
 338  385.2627
 339  398.5275
 340  329.2983
 341  367.3008
 342  254.5526
 343  342.9609
 344  337.3819
 345  372.2069
 346  420.0802
 347  380.9159
 348  232.2236
 349  254.7583
 350  258.4223
 351  268.4944
 352  347.293
 353  324.1719
 354  281.0244
 355  325.6993
 356  258.2737
 357  226.5438
 358  283.784
 359  380.4964
 360  245.167
 361  212.4763
 362  264.7636
 363  317.7181
 364  292.6862
 365  309.4525
 366  348.1979
 367  379.7712
 368  388.1292
 369  282.5355
 370  231.6463
 371  243.9634
 372  221.9964
 373  295.161
 374  257.2669
 375  305.2845
 376  357.088
 377  290.0183
 378  326.3252
 379  308.3545
 380  266.9738
 381  321.0884
 382  292.054
 383  270.994
 384  300.1013
 385  381.5164
 386  416.4661
 387  270.4084
 388  311.6568
 389  352.902
 390  326.7831
 391  216.495
 392  195.6317
 393  216.2356
 394  335.7645
 395  391.8061
 396  357.3231
 397  391.4072
 398  267.7511
 399  275.3073
 400  310.2181
 401  276.5752
 402  191.2424
 403  198.0817
 404  258.535
 405  164.3153
 406  112.2681
 407  333.032
 408  417.4808
 409  304.177
 410  254.7539
 411  243.7686
 412  161.4546
 413  298.8989
 414  382.2785
 415  251.8112
 416  238.0252
 417  187.9652
 418  360.3102
 419  275.6151
 420  343.3405
 421  530.8322
 422  453.8082
 423  450.023
 424  546.3372
 425  577.0948
 426  772.0858
 427  1019.016
 428  984.8747
 429  1070.541
 430  961.6496
 431  817.347
 432  491.4547
 433  454.8535
 434  552.1572
 435  453.5352
 436  304.5663
 437  349.0006
 438  385.4543
 439  289.0757
 440  245.724
 441  355.2165
 442  324.7598
 443  302.7182
 444  276.6603
 445  404.8082
 446  373.7878
 447  320.6088
 448  447.2641
 449  383.0446
 450  285.5207
 451  251.6641
 452  303.5214
 453  302.6533
 454  199.8387
 455  200.0561
 456  58.25016
 457  235.4
 458  320.8893
 459  418.7748
 460  352.8712
 461  405.6454
 462  326.3686
 463  352.1319
 464  422.0826
 465  330.8347
 466  361.8953
 467  498.3329
 468  453.2676
 469  359.1653
 470  376.0438
 471  407.9112
 472  288.6401
 473  321.5302
 474  323.7925
 475  279.8938
 476  333.1137
 477  429.4232
 478  331.3754
 479  229.1811
 480  238.7215
 481  322.436
 482  389.0437
 483  401.135
 484  311.4105
 485  274.6306
 486  204.0734
 487  296.9956
 488  283.558
 489  310.9256
 490  334.6847
 491  307.2994
 492  291.0338
 493  325.1329
 494  277.4109
 495  269.4718
 496  322.8
 497  391.7401
 498  399.2712
 499  307.2739
 500  432.9814
 501  406.0402
 502  332.6988
 503  475.8273
 504  475.8536
 505  385.2753
 506  364.3611
 507  276.6539
 508  294.9396
 509  312.9243
 510  185.916
 511  169.3262
