# Input file       =  1183626022.165991_cleaned.dat
# Candidate        =  PSR_0332+5434
# Telescope        =  AR
# Epoch_topo       =  57943.375476458226
# Epoch_bary       =  N/A
# T_sample         =  0.002
# Data Folded      =  7340032
# Data Avg         =  0.0344718388852378
# Data StdDev      =  1.00007174190095 
# Profile Bins     =  512
# Profile Avg      =  494.237807315734 
# Profile StdDev   =  119.741626252403 
# Reduced chi-sqr  =  1.387
# Prob(Noise)      <  1.47e-08   (~5.5 sigma)
# P_topo (ms)      =  714.483159177253  +/- 0.000368
# P'_topo (s/s)    =  -0                +/- 1.94e-10
# P''_topo (s/s^2) =  0                 +/- 8.57e-14
# P_bary (ms)      =  N/A
# P'_bary (s/s)    =  N/A
# P''_bary (s/s^2) =  N/A
# P_orb (s)        =  N/A
# asin(i)/c (s)    =  N/A
# eccentricity     =  N/A
# w (rad)          =  N/A
# T_peri           =  N/A
######################################################
   0  1211.302
   1  1127.078
   2  873.7055
   3  611.3055
   4  490.9727
   5  397.1767
   6  549.8689
   7  530.1454
   8  531.863
   9  566.4312
  10  484.418
  11  488.1852
  12  502.0886
  13  565.426
  14  732.7446
  15  610.8541
  16  524.1006
  17  509.177
  18  585.9399
  19  652.0516
  20  484.8672
  21  508.2582
  22  649.9496
  23  662.6919
  24  509.6862
  25  440.9718
  26  515.2813
  27  445.4232
  28  501.5177
  29  597.5455
  30  474.2544
  31  367.7668
  32  439.1135
  33  609.142
  34  530.357
  35  576.1133
  36  469.616
  37  353.355
  38  355.7808
  39  448.0609
  40  343.6326
  41  400.7126
  42  377.7846
  43  450.1959
  44  506.2111
  45  419.7375
  46  406.5306
  47  399.693
  48  502.7051
  49  546.2112
  50  470.5443
  51  513.8525
  52  442.2724
  53  410.2149
  54  505.2832
  55  543.9669
  56  495.4671
  57  550.1508
  58  549.4655
  59  428.5109
  60  385.046
  61  498.3213
  62  570.1487
  63  606.0149
  64  637.0912
  65  630.3888
  66  547.686
  67  586.3318
  68  498.1628
  69  401.614
  70  526.6155
  71  487.7499
  72  582.8719
  73  566.5848
  74  550.9957
  75  543.6542
  76  530.4012
  77  438.3761
  78  450.1123
  79  423.1129
  80  478.4377
  81  473.4067
  82  566.6855
  83  498.0165
  84  456.8784
  85  539.5805
  86  487.4396
  87  503.9914
  88  463.0063
  89  525.952
  90  552.586
  91  524.8555
  92  533.9297
  93  557.9241
  94  499.1004
  95  422.4496
  96  524.7759
  97  613.7704
  98  551.7711
  99  459.712
 100  464.8896
 101  487.8026
 102  470.3305
 103  554.8785
 104  499.684
 105  446.7552
 106  418.4725
 107  506.0593
 108  533.7416
 109  623.8048
 110  553.0372
 111  562.7341
 112  535.9931
 113  509.8006
 114  548.0051
 115  437.2745
 116  507.9405
 117  619.3533
 118  546.2689
 119  404.5185
 120  371.3761
 121  418.286
 122  502.8018
 123  567.1445
 124  526.6326
 125  552.2776
 126  546.6369
 127  478.689
 128  549.6995
 129  544.6406
 130  531.3936
 131  564.7603
 132  522.5448
 133  497.1082
 134  481.1644
 135  521.3361
 136  640.8293
 137  640.643
 138  536.6674
 139  395.8206
 140  304.1241
 141  339.3383
 142  464.558
 143  608.6575
 144  621.6885
 145  538.0366
 146  500.4894
 147  472.0073
 148  416.206
 149  418.5779
 150  485.6694
 151  448.2261
 152  456.8295
 153  423.8171
 154  439.2491
 155  462.9964
 156  405.7729
 157  392.1091
 158  515.069
 159  442.5152
 160  458.0381
 161  474.1684
 162  403.4464
 163  517.0573
 164  528.9734
 165  542.9311
 166  521.7062
 167  476.2241
 168  435.9296
 169  395.1792
 170  365.2355
 171  395.1659
 172  458.4637
 173  394.3499
 174  379.8852
 175  527.873
 176  556.7537
 177  447.1612
 178  530.9017
 179  464.612
 180  407.6018
 181  451.3149
 182  621.7585
 183  542.0565
 184  480.2749
 185  367.3852
 186  353.5556
 187  380.4621
 188  471.3276
 189  485.8749
 190  489.3968
 191  427.4644
 192  478.0811
 193  453.7304
 194  430.8395
 195  220.8339
 196  390.537
 197  401.2222
 198  337.8873
 199  250.2047
 200  326.4088
 201  403.7151
 202  361.0209
 203  367.5696
 204  375.7505
 205  484.0679
 206  341.2608
 207  350.1707
 208  466.5336
 209  474.2224
 210  454.2169
 211  534.6465
 212  453.89
 213  464.8487
 214  437.6832
 215  456.144
 216  500.4848
 217  563.1641
 218  546.9843
 219  502.3254
 220  358.2704
 221  318.0182
 222  411.8309
 223  462.9427
 224  457.8501
 225  488.8769
 226  447.0778
 227  397.6011
 228  448.1065
 229  493.3831
 230  506.0128
 231  481.9072
 232  480.1441
 233  532.7676
 234  544.8269
 235  576.5557
 236  504.8315
 237  566.2582
 238  422.8122
 239  391.2522
 240  551.7166
 241  603.2121
 242  501.6183
 243  577.05
 244  476.5337
 245  361.8233
 246  343.1021
 247  361.4653
 248  458.1197
 249  192.2027
 250  245.9412
 251  292.7408
 252  371.9055
 253  450.382
 254  415.208
 255  437.0493
 256  468.9862
 257  364.4292
 258  366.8073
 259  414.2035
 260  484.6076
 261  574.9857
 262  528.6985
 263  531.1749
 264  410.4511
 265  450.3845
 266  415.7854
 267  477.3507
 268  533.4196
 269  527.1991
 270  575.2812
 271  554.7164
 272  487.9956
 273  515.922
 274  602.6076
 275  592.1221
 276  441.7173
 277  536.5423
 278  564.9765
 279  484.0535
 280  509.705
 281  472.9934
 282  500.4216
 283  373.7848
 284  395.5294
 285  394.4701
 286  439.9098
 287  501.7694
 288  510.7451
 289  438.9684
 290  323.3752
 291  421.7596
 292  393.2781
 293  455.7903
 294  512.2473
 295  522.7462
 296  430.7146
 297  403.6338
 298  479.4669
 299  545.7607
 300  447.5599
 301  518.0497
 302  518.1119
 303  421.5293
 304  469.4297
 305  525.5747
 306  491.7075
 307  446.6942
 308  538.3886
 309  608.4033
 310  478.3226
 311  381.5536
 312  412.7972
 313  511.3398
 314  469.1691
 315  438.2081
 316  643.7662
 317  539.737
 318  460.0003
 319  406.2325
 320  410.1257
 321  427.8915
 322  388.6846
 323  283.536
 324  422.5427
 325  446.7474
 326  549.0029
 327  489.158
 328  492.7021
 329  542.9681
 330  521.3835
 331  423.9007
 332  533.816
 333  533.4899
 334  466.8238
 335  484.3263
 336  488.2419
 337  436.8439
 338  393.3669
 339  431.2458
 340  439.1485
 341  551.3486
 342  404.938
 343  439.2399
 344  471.7502
 345  427.1602
 346  432.4927
 347  408.3547
 348  451.4349
 349  480.0706
 350  469.041
 351  387.673
 352  407.4691
 353  364.0856
 354  273.1877
 355  341.4345
 356  417.724
 357  415.2914
 358  447.2141
 359  497.5094
 360  519.9099
 361  638.6949
 362  574.632
 363  567.1127
 364  477.4529
 365  388.1937
 366  406.1962
 367  482.5071
 368  563.3354
 369  545.5616
 370  499.1353
 371  498.4351
 372  498.0371
 373  436.5545
 374  508.6845
 375  573.3499
 376  518.6033
 377  480.7285
 378  456.1888
 379  427.023
 380  463.9153
 381  536.902
 382  514.3075
 383  494.4526
 384  589.019
 385  662.4403
 386  589.5932
 387  482.2322
 388  429.5444
 389  415.1789
 390  372.3706
 391  387.0102
 392  410.9556
 393  388.0306
 394  384.7607
 395  445.3692
 396  379.111
 397  392.8882
 398  400.5662
 399  447.6751
 400  549.8109
 401  594.0703
 402  567.9952
 403  447.6802
 404  488.7708
 405  627.7838
 406  535.5872
 407  542.0176
 408  571.2596
 409  597.2178
 410  502.4128
 411  535.2064
 412  583.768
 413  612.9868
 414  625.0925
 415  544.4127
 416  500.64
 417  494.7439
 418  583.8534
 419  583.7103
 420  509.5739
 421  459.4027
 422  508.4792
 423  531.6554
 424  484.0918
 425  360.7744
 426  453.733
 427  396.3756
 428  372.6659
 429  473.2151
 430  493.4658
 431  510.0455
 432  524.3446
 433  587.9245
 434  611.9963
 435  583.6201
 436  446.4192
 437  456.3038
 438  572.6808
 439  559.7579
 440  570.2102
 441  554.0391
 442  592.4432
 443  564.2012
 444  498.4126
 445  517.2695
 446  549.3132
 447  535.3463
 448  420.3662
 449  358.2758
 450  500.6221
 451  491.5713
 452  507.277
 453  497.6176
 454  478.7628
 455  548.2092
 456  546.8932
 457  547.8149
 458  491.9829
 459  282.414
 460  271.7969
 461  414.046
 462  518.0405
 463  485.8883
 464  366.8021
 465  330.4943
 466  404.3321
 467  400.3179
 468  402.2506
 469  478.6902
 470  507.9071
 471  519.8015
 472  480.2766
 473  626.046
 474  515.6406
 475  375.1891
 476  514.0808
 477  475.932
 478  402.0481
 479  436.9618
 480  552.5295
 481  574.444
 482  689.5587
 483  681.4229
 484  656.7172
 485  599.3585
 486  569.9648
 487  548.7777
 488  545.6095
 489  611.9885
 490  624.4151
 491  646.2184
 492  675.1192
 493  665.2807
 494  563.9836
 495  597.315
 496  475.6111
 497  529.244
 498  532.7474
 499  531.225
 500  687.1661
 501  617.2601
 502  671.7668
 503  544.1614
 504  563.5159
 505  680.1066
 506  733.6863
 507  707.457
 508  760.0057
 509  894.0488
 510  947.558
 511  1074.891
