# Input file       =  1183008434.122497_cleaned.dat
# Candidate        =  PSR_0332+5434
# Telescope        =  AR
# Epoch_topo       =  57936.227466695571
# Epoch_bary       =  N/A
# T_sample         =  0.002
# Data Folded      =  7340032
# Data Avg         =  0.179125627780324
# Data StdDev      =  3.54880362086866 
# Profile Bins     =  512
# Profile Avg      =  2567.10340158589 
# Profile StdDev   =  424.909033031467 
# Reduced chi-sqr  =  1.395
# Prob(Noise)      <  7.75e-09   (~5.7 sigma)
# P_topo (ms)      =  714.488257162125  +/- 0.000507
# P'_topo (s/s)    =  -0                +/- 2.68e-10
# P''_topo (s/s^2) =  0                 +/- 1.18e-13
# P_bary (ms)      =  N/A
# P'_bary (s/s)    =  N/A
# P''_bary (s/s^2) =  N/A
# P_orb (s)        =  N/A
# asin(i)/c (s)    =  N/A
# eccentricity     =  N/A
# w (rad)          =  N/A
# T_peri           =  N/A
######################################################
   0  2614.724
   1  2571.488
   2  2638.602
   3  2851.606
   4  2743.046
   5  2324.706
   6  2299.17
   7  2243.777
   8  2611.001
   9  2647.791
  10  2558.765
  11  2513.558
  12  2747.715
  13  2651.456
  14  2580.215
  15  2291.99
  16  2336.81
  17  2566.693
  18  2467.556
  19  2467.784
  20  2874.948
  21  2565.603
  22  2482.443
  23  2528.325
  24  2354.766
  25  2247.216
  26  2417.733
  27  2834.334
  28  2658.495
  29  2436.296
  30  2488.364
  31  2225.457
  32  2310.418
  33  2471.189
  34  2281.985
  35  2180.449
  36  2333.535
  37  2557.198
  38  2893.89
  39  2647.859
  40  2532.402
  41  2647.94
  42  2859.153
  43  2621.812
  44  2679.231
  45  3000.669
  46  2894.493
  47  2856.755
  48  2850.846
  49  2935.417
  50  2761.764
  51  2456.044
  52  2919.114
  53  2604.094
  54  2486.626
  55  2316.8
  56  2230.138
  57  2311.795
  58  2395.152
  59  2603.811
  60  2636.643
  61  2375.045
  62  2595.213
  63  2637.966
  64  2634.505
  65  2341.701
  66  1844.406
  67  1965.859
  68  2130.197
  69  2047.33
  70  2181.281
  71  2259.941
  72  2262.325
  73  1833.42
  74  1849.842
  75  1698.07
  76  2061.126
  77  2116.699
  78  2102.224
  79  2068.834
  80  2242.526
  81  2236.06
  82  2276.986
  83  2359.165
  84  2444.933
  85  2357.544
  86  2445.684
  87  2673.412
  88  2478.062
  89  2313.232
  90  2203.863
  91  2313.901
  92  2641.891
  93  2601.305
  94  2688.137
  95  2699.161
  96  2940.192
  97  2858.757
  98  2775.904
  99  2768.071
 100  2486.506
 101  2493.981
 102  2665.813
 103  2842.133
 104  2673.991
 105  2325.277
 106  2410.341
 107  2477.645
 108  2526.657
 109  2400.013
 110  2248.746
 111  2472.992
 112  2709.589
 113  2721.987
 114  2439.906
 115  2366.831
 116  2327.999
 117  2360.382
 118  2488.133
 119  2365.27
 120  2213.184
 121  2551.36
 122  2468.348
 123  2405.416
 124  2318.213
 125  2538.621
 126  2925.047
 127  2443.452
 128  2289.373
 129  2450.365
 130  2354.473
 131  2200.785
 132  2355.301
 133  2536.516
 134  2794.156
 135  2695.58
 136  2715.659
 137  2527.788
 138  2637.855
 139  2833.634
 140  2595.383
 141  2408.412
 142  2354.859
 143  2226.37
 144  2195.119
 145  2382.805
 146  2000.274
 147  1808.559
 148  1988.361
 149  1659.388
 150  1853.399
 151  2071.241
 152  2121.119
 153  2321.605
 154  2122.236
 155  2324.526
 156  2008.507
 157  1721.077
 158  1998.984
 159  2238.786
 160  2076.022
 161  2293.112
 162  1987.069
 163  2187.751
 164  2374.887
 165  2159.737
 166  2036.682
 167  2421.721
 168  2672.553
 169  2447.177
 170  2443.714
 171  2443.434
 172  2617.723
 173  2574.16
 174  2669.042
 175  2626.852
 176  2321.878
 177  2833.714
 178  3016.445
 179  3185.879
 180  2942.433
 181  2810.36
 182  3109.205
 183  3006.841
 184  2712.693
 185  2621.979
 186  2696.639
 187  2675.548
 188  2943.672
 189  3048.659
 190  2746.86
 191  2530.997
 192  2631.4
 193  2705.477
 194  2540.825
 195  2617.671
 196  2901.021
 197  2845.174
 198  2608.605
 199  2562.206
 200  2440.863
 201  2242.131
 202  2410.943
 203  2516.106
 204  2409.913
 205  2576.242
 206  2631.784
 207  2736.024
 208  2363.126
 209  2553.924
 210  2469.515
 211  2361.736
 212  2255.65
 213  2323.401
 214  2277.189
 215  2422.38
 216  2419.979
 217  2895.21
 218  2804.362
 219  2402.21
 220  2506.62
 221  2659.598
 222  2842.202
 223  2858.425
 224  2878.552
 225  2591.846
 226  2394.459
 227  2550.71
 228  2532.484
 229  2606.085
 230  2628.395
 231  2680.982
 232  2585.875
 233  2687.602
 234  2758.293
 235  2370.481
 236  2303.004
 237  2097.537
 238  2223.892
 239  2058.371
 240  2162.4
 241  2141.625
 242  2359.35
 243  2436.434
 244  2340.758
 245  2322.022
 246  2342.731
 247  2436.62
 248  2274.428
 249  2083.334
 250  2372.572
 251  2498.131
 252  2398.891
 253  2467.651
 254  2665.283
 255  2533.458
 256  2522.163
 257  2441.168
 258  2258.9
 259  2391.884
 260  2190.184
 261  1890.091
 262  2304.851
 263  2853.8
 264  2549.798
 265  2471.76
 266  2925.37
 267  3073.193
 268  2546.835
 269  2406.463
 270  2504.199
 271  2560.521
 272  2506.79
 273  2332.185
 274  2480.738
 275  2346.37
 276  2041.562
 277  2059.448
 278  2475.752
 279  2381.802
 280  2387.764
 281  2383.817
 282  1993.513
 283  2206.87
 284  2524.029
 285  2360.318
 286  2392.386
 287  2674.245
 288  2724.029
 289  2362.452
 290  2094.893
 291  2212.311
 292  2124.7
 293  2232.813
 294  1868.634
 295  2079.579
 296  2052.457
 297  2025.005
 298  1995.589
 299  2378.839
 300  2436.571
 301  2160.678
 302  2235.054
 303  2234.263
 304  2246.13
 305  2028.992
 306  2226.325
 307  2339.157
 308  2337.932
 309  2558.652
 310  2502.919
 311  2239.343
 312  2227.683
 313  2253.261
 314  2408.431
 315  2577.569
 316  2885.078
 317  2746
 318  2688.33
 319  2389.33
 320  2572.232
 321  3039.439
 322  3162.359
 323  3504.695
 324  3573.309
 325  4397.915
 326  4559.164
 327  4858.152
 328  4426.216
 329  4029.037
 330  3657.29
 331  3131.918
 332  2981.396
 333  2948.485
 334  2736.105
 335  2540.999
 336  2689.731
 337  2991.717
 338  3165.275
 339  3170.154
 340  3169.868
 341  3146.201
 342  3041.616
 343  2952.204
 344  3030.802
 345  3024.291
 346  2836.068
 347  2729.71
 348  2607.592
 349  2762.214
 350  2665.434
 351  2867.201
 352  2920.992
 353  2667.308
 354  2865.071
 355  2622.156
 356  2763.564
 357  2730.247
 358  2789.377
 359  2570.072
 360  2676.223
 361  2765.84
 362  2795.779
 363  3124.659
 364  2901.22
 365  2598.83
 366  2822.187
 367  3074.023
 368  3131.901
 369  3059.972
 370  3175.562
 371  3257.631
 372  3033.337
 373  2995.19
 374  3209.651
 375  3501.368
 376  3307.316
 377  2814.9
 378  2912.831
 379  2927.567
 380  2840.246
 381  2915.293
 382  2917.444
 383  3136.569
 384  2992.09
 385  3054.364
 386  3038.728
 387  2974.985
 388  2923.084
 389  3010.432
 390  3259.534
 391  3269.659
 392  3275.375
 393  2952.122
 394  2813.43
 395  3285.252
 396  3178.885
 397  2750.898
 398  2817.51
 399  2985.167
 400  3008.554
 401  3000.354
 402  2680.157
 403  2972.898
 404  2679.566
 405  2504.206
 406  2877.603
 407  3123.409
 408  2978.166
 409  2627.76
 410  2929.671
 411  3062.977
 412  2791.958
 413  2423.681
 414  2626.211
 415  2732.488
 416  2374.55
 417  2592.591
 418  2547.488
 419  2579.467
 420  2489.788
 421  2322.246
 422  2424.114
 423  2287.803
 424  2238.011
 425  2440.723
 426  2828.471
 427  2718.322
 428  2931.802
 429  2823.039
 430  2652.616
 431  2597.246
 432  2955.657
 433  2827.133
 434  2560.819
 435  2554.557
 436  2735.406
 437  2646.767
 438  2549.364
 439  2637.566
 440  2551.267
 441  2553.165
 442  2349.557
 443  2570.368
 444  2399.171
 445  2469.722
 446  2334.604
 447  2534.961
 448  2685.914
 449  2507.379
 450  2604.632
 451  2599.685
 452  2385.99
 453  2369.523
 454  2191.71
 455  1995.205
 456  2261.049
 457  2696.7
 458  2748.777
 459  2388.585
 460  2320.149
 461  2271.085
 462  2150.762
 463  2254.929
 464  2546.901
 465  2388.88
 466  2530.284
 467  2551.493
 468  2470.996
 469  2107.185
 470  2005.521
 471  1941.484
 472  2480.821
 473  2595.176
 474  2601.615
 475  2600.624
 476  2467.041
 477  2659.998
 478  2664.802
 479  2466.856
 480  2426.968
 481  2284.872
 482  2564.715
 483  2701.292
 484  2620.018
 485  2405.446
 486  2434.15
 487  2299.442
 488  2282.315
 489  2373.038
 490  2443.26
 491  2396.62
 492  2345.805
 493  2422.127
 494  2741.496
 495  2742.886
 496  2840.132
 497  2668.838
 498  2539.493
 499  2630.852
 500  2364.505
 501  2230.787
 502  2377.743
 503  2388.691
 504  2405.841
 505  2591.875
 506  2601.472
 507  2514.755
 508  2809.831
 509  2679.25
 510  2602.132
 511  2613.768
