# Input file       =  1183970685.111763-PSRB0329-2ms-sampling-dd.dat
# Candidate        =  PSR_0332+5434
# Telescope        =  AR
# Epoch_topo       =  57947.364630923184
# Epoch_bary       =  N/A
# T_sample         =  0.002
# Data Folded      =  7340032
# Data Avg         =  -1.76649648846317e-09
# Data StdDev      =  7.63038599253227 
# Profile Bins     =  512
# Profile Avg      =  -0.0734357243714534
# Profile StdDev   =  913.609283612632 
# Reduced chi-sqr  =  0.447
# Prob(Noise)      <  1   (~0.0 sigma)
# P_topo (ms)      =  714.480358208515  +/- 0.00119
# P'_topo (s/s)    =  -0                +/- 6.3e-10
# P''_topo (s/s^2) =  0                 +/- 2.78e-13
# P_bary (ms)      =  N/A
# P'_bary (s/s)    =  N/A
# P''_bary (s/s^2) =  N/A
# P_orb (s)        =  N/A
# asin(i)/c (s)    =  N/A
# eccentricity     =  N/A
# w (rad)          =  N/A
# T_peri           =  N/A
######################################################
   0  -147.1456
   1  324.8506
   2  394.6673
   3  751.659
   4  527.9148
   5  419.7826
   6  384.1514
   7  561.4139
   8  763.2661
   9  638.2783
  10  576.8195
  11  371.3278
  12  401.5417
  13  421.6919
  14  453.0801
  15  -14.56172
  16  18.25071
  17  -201.2243
  18  -385.6024
  19  -374.9819
  20  -743.3926
  21  -511.2629
  22  -215.7145
  23  -35.4003
  24  6.945402
  25  219.3176
  26  520.7761
  27  -227.2786
  28  -349.7479
  29  -237.4618
  30  5.753782
  31  240.7488
  32  370.4534
  33  273.8027
  34  -83.1682
  35  -171.8365
  36  192.0375
  37  330.4825
  38  435.918
  39  597.6175
  40  713.3427
  41  744.9685
  42  290.4413
  43  582.8392
  44  933.5259
  45  1146.238
  46  1065.111
  47  1044.091
  48  1316.286
  49  322.4786
  50  346.0518
  51  397.6771
  52  531.405
  53  462.4072
  54  410.674
  55  400.6382
  56  111.2726
  57  189.7045
  58  150.1085
  59  582.3512
  60  528.343
  61  759.8997
  62  687.4293
  63  682.2443
  64  409.4485
  65  328.9089
  66  394.0984
  67  370.0993
  68  894.4713
  69  623.4755
  70  820.7261
  71  418.0849
  72  254.5597
  73  403.118
  74  600.2225
  75  873.8285
  76  840.6671
  77  710.9958
  78  503.6808
  79  199.4982
  80  122.4327
  81  -54.26758
  82  -161.1661
  83  -325.1384
  84  -233.6061
  85  97.02695
  86  -63.10039
  87  -405.3016
  88  -102.581
  89  202.0226
  90  146.8589
  91  -84.88289
  92  -514.2894
  93  -415.6096
  94  -296.8427
  95  204.7416
  96  515.5667
  97  128.2323
  98  591.8195
  99  755.1023
 100  596.7838
 101  642.2662
 102  1172.031
 103  1714.691
 104  1275.096
 105  987.8485
 106  758.6667
 107  281.3403
 108  60.46628
 109  71.0909
 110  157.1659
 111  257.5094
 112  150.4652
 113  185.7235
 114  -312.004
 115  -605.3182
 116  -307.7123
 117  -193.1042
 118  111.7251
 119  446.0768
 120  -118.6147
 121  -203.8433
 122  -92.16756
 123  -146.2081
 124  -123.2242
 125  -155.8138
 126  280.0587
 127  748.332
 128  650.0835
 129  729.105
 130  232.058
 131  262.323
 132  551.6677
 133  212.8732
 134  211.1638
 135  626.8754
 136  493.2725
 137  340.3958
 138  -130.5785
 139  -297.9672
 140  61.51233
 141  498.7602
 142  670.3334
 143  410.4677
 144  116.1827
 145  -578.9866
 146  -362.4281
 147  -283.5742
 148  -200.024
 149  -53.97227
 150  125.0251
 151  585.9066
 152  704.5165
 153  540.8027
 154  -140.9297
 155  -253.9213
 156  -123.7519
 157  -44.22831
 158  329.7347
 159  411.5702
 160  487.8182
 161  178.797
 162  196.4348
 163  -388.4254
 164  -154.6534
 165  410.671
 166  378.7164
 167  292.9987
 168  122.1381
 169  199.8041
 170  647.3332
 171  406.2101
 172  247.9218
 173  257.0645
 174  158.8152
 175  15.01918
 176  -158.6586
 177  271.3763
 178  135.7236
 179  -367.7269
 180  -453.308
 181  -501.6228
 182  -480.8255
 183  -425.2734
 184  -64.60148
 185  -349.3276
 186  -686.8572
 187  -1100.444
 188  -789.239
 189  -398.5217
 190  -423.5246
 191  36.48601
 192  -182.5904
 193  -406.3522
 194  -217.4861
 195  84.39821
 196  215.9708
 197  -172.8037
 198  61.65736
 199  286.1008
 200  34.75639
 201  95.01398
 202  182.675
 203  368.5602
 204  217.8764
 205  290.0648
 206  453.5596
 207  100.7843
 208  330.2036
 209  385.068
 210  294.8085
 211  406.5855
 212  194.2346
 213  154.9807
 214  61.71539
 215  439.1081
 216  105.7874
 217  424.5167
 218  216.4531
 219  478.3511
 220  483.6523
 221  -39.45988
 222  -441.3615
 223  -475.5048
 224  -148.2588
 225  -442.948
 226  -525.4697
 227  -403.445
 228  -125.4912
 229  -625.3631
 230  -927.7693
 231  -845.767
 232  -96.92422
 233  86.87058
 234  -129.3162
 235  -281.3879
 236  -292.7328
 237  -451.02
 238  -160.2852
 239  94.97205
 240  111.7559
 241  -258.0969
 242  -342.461
 243  -596.7896
 244  -330.4444
 245  63.12405
 246  -244.8286
 247  -239.5329
 248  -156.9003
 249  -385.6045
 250  -328.4066
 251  -186.0885
 252  -51.29121
 253  -427.313
 254  -1152.855
 255  -890.1327
 256  -709.6309
 257  -320.0896
 258  -281.4678
 259  -351.9033
 260  -653.7827
 261  -653.6008
 262  -302.9763
 263  -542.3699
 264  -614.7578
 265  -259.3681
 266  295.9585
 267  -52.02345
 268  -548.8975
 269  -1139.839
 270  -1085.035
 271  -1115.052
 272  -653.9934
 273  -65.08004
 274  -151.5342
 275  271.5563
 276  -22.96758
 277  -399.4373
 278  -743.998
 279  -882.8094
 280  -533.8714
 281  65.39822
 282  177.0868
 283  -328.8016
 284  -239.0572
 285  -191.8973
 286  -175.927
 287  -259.731
 288  -663.7104
 289  -443.5174
 290  167.208
 291  121.985
 292  -479.0853
 293  -902.8148
 294  -318.2558
 295  -186.9204
 296  -370.9593
 297  -672.9646
 298  -310.7023
 299  -205.5794
 300  -294.4302
 301  -357.5783
 302  -878.9705
 303  -768.9868
 304  -509.9874
 305  -196.3574
 306  325.448
 307  -87.97531
 308  -488.6826
 309  -763.4203
 310  -615.8463
 311  -399.0267
 312  -374.4847
 313  -630.4526
 314  -6.043135
 315  103.5307
 316  -393.6053
 317  -552.3254
 318  -148.4683
 319  -15.21266
 320  -510.3096
 321  -450.5872
 322  -841.9471
 323  -161.9201
 324  70.99988
 325  -97.17812
 326  -698.9104
 327  -793.1238
 328  -634.2175
 329  -824.4187
 330  -456.4064
 331  6.192825
 332  118.7513
 333  40.56811
 334  -177.6531
 335  -365.2521
 336  -854.2201
 337  -1031.586
 338  40.40947
 339  365.2261
 340  -154.2148
 341  -662.6501
 342  -1190.772
 343  -1371.732
 344  -1040.292
 345  -624.088
 346  -393.5201
 347  -91.14191
 348  49.51145
 349  7.785442
 350  -500.9752
 351  -623.2491
 352  -174.3343
 353  265.5945
 354  110.7739
 355  83.68652
 356  496.9534
 357  166.7029
 358  485.6689
 359  444.4331
 360  -198.8969
 361  -168.8938
 362  148.6635
 363  409.1235
 364  404.8532
 365  941.9426
 366  990.6408
 367  663.8544
 368  34.26919
 369  -86.60839
 370  -56.59889
 371  357.6326
 372  597.586
 373  696.4805
 374  280.797
 375  -285.9853
 376  -608.3977
 377  -613.6636
 378  -693.3246
 379  -348.2921
 380  -7.171455
 381  678.5797
 382  7.593813
 383  -957.5028
 384  -561.7576
 385  -274.2471
 386  -287.9702
 387  -271.5575
 388  7.431109
 389  279.4973
 390  142.7538
 391  527.8231
 392  138.257
 393  279.1188
 394  237.9779
 395  173.3496
 396  -70.46761
 397  -88.10439
 398  -560.0532
 399  -534.3974
 400  0.6969901
 401  189.8204
 402  -98.80108
 403  -135.7078
 404  -49.52697
 405  244.68
 406  -193.2139
 407  115.658
 408  281.0626
 409  38.96213
 410  -150.7436
 411  -2.19444
 412  105.3322
 413  -65.82864
 414  139.9758
 415  109.6521
 416  -133.3493
 417  -352.0375
 418  -435.1591
 419  -235.6673
 420  121.3161
 421  357.3446
 422  -0.7667956
 423  -20.08695
 424  2.144371
 425  -104.4958
 426  -307.8845
 427  -462.0583
 428  -288.9504
 429  114.2881
 430  82.49131
 431  42.2438
 432  -14.24067
 433  86.84974
 434  245.2733
 435  102.511
 436  -171.6666
 437  93.90857
 438  -206.2984
 439  -40.67736
 440  289.4202
 441  104.6335
 442  394.0189
 443  -212.4432
 444  -164.5223
 445  243.0099
 446  381.8424
 447  166.4201
 448  81.72065
 449  -253.5517
 450  -333.3357
 451  -353.2846
 452  -44.46782
 453  371.9429
 454  523.1329
 455  515.0966
 456  520.2622
 457  56.5646
 458  -141.5847
 459  -294.1696
 460  110.0937
 461  -347.7733
 462  -232.2953
 463  -140.4675
 464  -3.754805
 465  -267.2582
 466  -409.167
 467  179.265
 468  354.8065
 469  -21.24261
 470  234.7917
 471  149.0146
 472  474.2698
 473  677.348
 474  868.8409
 475  815.4757
 476  436.3651
 477  236.8187
 478  89.8392
 479  188.3311
 480  13.70716
 481  258.3691
 482  -30.49751
 483  -335.7622
 484  -416.962
 485  -296.8382
 486  187.9577
 487  -163.3015
 488  -81.59982
 489  -181.1699
 490  -368.6164
 491  -277.1308
 492  -229.1302
 493  -139.629
 494  -614.7171
 495  -189.2767
 496  -273.5615
 497  266.6434
 498  -73.2122
 499  -53.22213
 500  -112.4737
 501  -238.5093
 502  -176.0713
 503  -559.2687
 504  -254.6667
 505  164.8627
 506  60.30528
 507  -139.3171
 508  -30.5338
 509  -110.7791
 510  -351.9541
 511  -136.1433
