# Input file       =  1183510533.099951_cleaned.dat
# Candidate        =  PSR_0332+5434
# Telescope        =  AR
# Epoch_topo       =  57942.038797453140
# Epoch_bary       =  N/A
# T_sample         =  0.002
# Data Folded      =  7405568
# Data Avg         =  0.153003071393587
# Data StdDev      =  5.40523543277029 
# Profile Bins     =  256
# Profile Avg      =  4426.08260683846 
# Profile StdDev   =  919.335052840129 
# Reduced chi-sqr  =  0.699
# Prob(Noise)      <  1   (~0.0 sigma)
# P_topo (ms)      =  714.483785885328  +/- 0.000161
# P'_topo (s/s)    =  -0                +/- 8.45e-11
# P''_topo (s/s^2) =  0                 +/- 3.7e-14
# P_bary (ms)      =  N/A
# P'_bary (s/s)    =  N/A
# P''_bary (s/s^2) =  N/A
# P_orb (s)        =  N/A
# asin(i)/c (s)    =  N/A
# eccentricity     =  N/A
# w (rad)          =  N/A
# T_peri           =  N/A
######################################################
   0  5155.525
   1  4347.787
   2  4190.574
   3  3849.42
   4  4343.776
   5  4732.273
   6  4226.982
   7  4025.661
   8  4090.38
   9  4805.049
  10  4602.867
  11  4171.465
  12  4413.304
  13  4881.042
  14  3954.87
  15  3595.147
  16  4821.859
  17  5412.862
  18  4527.041
  19  3107.173
  20  4209.199
  21  4526.125
  22  4897.123
  23  3336.149
  24  4046.48
  25  4559.661
  26  4588.542
  27  4023.274
  28  4023.146
  29  4212.989
  30  4190.913
  31  5035.586
  32  4363.502
  33  5113.597
  34  4365.168
  35  4310.148
  36  4650.862
  37  5375.537
  38  4638.102
  39  4817.371
  40  3920.973
  41  3805.179
  42  4271.981
  43  3983.149
  44  3710.357
  45  4078.689
  46  4788.593
  47  4243.55
  48  3468.872
  49  4156.296
  50  3624.471
  51  4202.226
  52  3809.967
  53  4516.989
  54  4596.565
  55  4827.538
  56  3738.865
  57  4981.724
  58  4918.956
  59  4835.817
  60  3946.968
  61  4164.811
  62  4675.285
  63  5093.255
  64  5124.276
  65  4394.977
  66  4835.695
  67  4198.919
  68  4384.519
  69  4684.235
  70  4525.978
  71  4715.945
  72  5110.809
  73  4344.182
  74  4279.25
  75  4581.753
  76  4430.513
  77  4207.058
  78  3935.55
  79  4103.727
  80  4995.778
  81  4374.81
  82  3605.036
  83  3866.612
  84  4527
  85  4362.68
  86  4346.184
  87  3754.455
  88  4501.936
  89  4296.751
  90  4080.463
  91  4026.553
  92  4562.915
  93  4208.198
  94  4261.198
  95  4487.465
  96  4430.407
  97  4257.043
  98  3988.076
  99  4471.561
 100  4714.01
 101  5157.576
 102  4405.349
 103  4962.982
 104  5009.101
 105  5006.647
 106  3860.004
 107  5065.329
 108  5096.794
 109  4464.573
 110  3114.878
 111  4408.444
 112  5139.809
 113  5322.434
 114  4717.486
 115  4197.664
 116  4381.232
 117  4312.115
 118  4507.777
 119  4495.522
 120  4351.349
 121  5154.17
 122  4769.974
 123  5071.917
 124  4677.186
 125  4471.95
 126  3188.736
 127  3902.622
 128  4375.135
 129  4308.414
 130  4080.518
 131  3260.976
 132  4636.002
 133  4166.077
 134  4071.246
 135  3766.864
 136  4848.116
 137  4250.534
 138  3939.761
 139  4113.578
 140  4111.534
 141  3750.516
 142  3905.516
 143  3706.082
 144  4156.132
 145  3683.474
 146  5219.368
 147  3711.346
 148  3405.505
 149  4448.996
 150  5414.889
 151  3417.821
 152  3348.509
 153  4564.217
 154  5257.576
 155  4438.027
 156  4356.093
 157  3823.351
 158  4842.785
 159  5043.553
 160  5734.414
 161  5251.927
 162  7498.431
 163  8712.405
 164  7387.215
 165  4903.821
 166  5509.467
 167  4570.346
 168  2693.25
 169  3715.471
 170  4306.281
 171  5191.456
 172  3473.161
 173  3784.931
 174  3772.991
 175  4157.601
 176  3557.457
 177  4236.628
 178  3615.462
 179  3606.748
 180  3850.406
 181  3580.598
 182  4535.771
 183  4757.13
 184  3494.089
 185  3893.613
 186  4414.641
 187  5410.879
 188  4855.955
 189  3557.603
 190  4032.051
 191  4937.692
 192  4108.732
 193  3933.073
 194  4476.216
 195  4493.273
 196  4160.073
 197  4891.692
 198  5062.13
 199  3909.194
 200  4570.107
 201  4461.288
 202  4744.601
 203  4633.14
 204  5420.89
 205  4887.318
 206  5171.688
 207  5094.577
 208  6103.902
 209  4827.092
 210  5118.193
 211  5658.937
 212  4855.438
 213  4431.507
 214  4955.75
 215  4124.11
 216  3381.722
 217  3724.474
 218  4226.848
 219  4325.141
 220  4143.962
 221  4664.705
 222  4031.269
 223  4559.146
 224  4579.618
 225  4071.251
 226  3227.689
 227  3521.812
 228  4151.696
 229  3971.257
 230  3601.135
 231  4606.742
 232  4303.618
 233  3884.764
 234  3870.243
 235  4406.136
 236  4589.35
 237  4244.259
 238  4332.7
 239  4677.768
 240  3932.459
 241  4785.706
 242  4584.024
 243  3831.962
 244  4108.259
 245  5201.018
 246  4929.087
 247  5480.208
 248  5005.323
 249  4139.891
 250  4402.12
 251  5257.92
 252  4831.296
 253  4171.596
 254  4492.728
 255  5221.191
