# Input file       =  1183424315.089450-PSRB0329-2ms-sampling-dd.dat
# Candidate        =  PSR_0332+5434
# Telescope        =  AR
# Epoch_topo       =  57941.040903813075
# Epoch_bary       =  N/A
# T_sample         =  0.002
# Data Folded      =  7405568
# Data Avg         =  1.07545134745091e-09
# Data StdDev      =  6.55917278305493 
# Profile Bins     =  512
# Profile Avg      =  0.700043313467841
# Profile StdDev   =  788.847907556974 
# Reduced chi-sqr  =  0.509
# Prob(Noise)      <  1   (~0.0 sigma)
# P_topo (ms)      =  714.484526378389  +/- 0.000616
# P'_topo (s/s)    =  -0                +/- 3.22e-10
# P''_topo (s/s^2) =  0                 +/- 1.41e-13
# P_bary (ms)      =  N/A
# P'_bary (s/s)    =  N/A
# P''_bary (s/s^2) =  N/A
# P_orb (s)        =  N/A
# asin(i)/c (s)    =  N/A
# eccentricity     =  N/A
# w (rad)          =  N/A
# T_peri           =  N/A
######################################################
   0  156.0535
   1  199.0166
   2  -359.3972
   3  -238.5985
   4  -306.1061
   5  -64.94684
   6  -274.4409
   7  -395.5842
   8  -514.0589
   9  -693.8631
  10  -521.7028
  11  -737.6219
  12  -202.9977
  13  -200.5203
  14  -97.83841
  15  -68.33543
  16  -260.8372
  17  -346.4559
  18  -882.525
  19  -745.1959
  20  -398.2899
  21  -198.2035
  22  -826.4062
  23  -890.7668
  24  -794.5738
  25  -532.6311
  26  -410.2105
  27  -773.9572
  28  -342.1329
  29  -741.7129
  30  -804.0944
  31  -754.7836
  32  -660.4879
  33  -130.0688
  34  -656.5909
  35  -626.9751
  36  -1164.08
  37  -922.9821
  38  -686.42
  39  -432.116
  40  -217.1947
  41  164.9839
  42  121.3743
  43  -517.2783
  44  -352.5417
  45  -222.0515
  46  215.5907
  47  255.3763
  48  180.2875
  49  588.0656
  50  256.2991
  51  -26.30231
  52  -438.2491
  53  -191.4911
  54  -56.57074
  55  -195.3922
  56  -80.93552
  57  -151.7024
  58  -295.1344
  59  -388.0341
  60  -349.3576
  61  -536.8502
  62  -18.75928
  63  397.6569
  64  49.46603
  65  -261.6771
  66  -271.1585
  67  -127.2664
  68  -270.2159
  69  -371.1779
  70  -86.14247
  71  -72.50631
  72  -75.3203
  73  -339.3224
  74  -150.8376
  75  75.60221
  76  -454.2445
  77  -481.5469
  78  -595.9273
  79  -210.9976
  80  -145.386
  81  80.97253
  82  -374.2942
  83  -261.9701
  84  -18.93544
  85  -52.47051
  86  -228.2615
  87  -128.8618
  88  206.5438
  89  -279.0916
  90  -502.438
  91  52.09864
  92  -107.4921
  93  18.69495
  94  -152.1908
  95  185.0122
  96  575.2311
  97  205.6534
  98  -332.4045
  99  -315.9881
 100  -311.1316
 101  -294.1427
 102  257.7931
 103  375.8542
 104  412.2289
 105  73.22911
 106  22.58377
 107  138.4715
 108  -42.75792
 109  -101.0122
 110  -132.8294
 111  581.8564
 112  320.7335
 113  11.71592
 114  215.2685
 115  661.2054
 116  662.249
 117  485.2888
 118  367.5601
 119  81.39947
 120  166.1734
 121  20.27232
 122  -5.579418
 123  134.4876
 124  210.5119
 125  123.5891
 126  30.48243
 127  -247.3996
 128  103.9685
 129  514.0504
 130  440.9613
 131  501.6414
 132  -82.34087
 133  -88.17157
 134  -408.8049
 135  28.72101
 136  347.1717
 137  40.58223
 138  -181.8513
 139  -246.6697
 140  -425.0164
 141  -576.3631
 142  -567.249
 143  -392.6981
 144  -17.06985
 145  104.5609
 146  41.54939
 147  -614.1776
 148  -283.4189
 149  -395.6668
 150  -164.2715
 151  -496.2273
 152  -594.6042
 153  -337.436
 154  -493.6681
 155  -467.6039
 156  -558.4263
 157  -355.0056
 158  -575.2435
 159  -919.8433
 160  -392.0657
 161  3.694131
 162  376.5616
 163  464.9857
 164  464.4028
 165  -9.012482
 166  -51.71114
 167  -85.85251
 168  -298.4403
 169  -68.51244
 170  277.0373
 171  241.5181
 172  -39.93682
 173  -114.5405
 174  -138.4038
 175  -122.3884
 176  85.14655
 177  -51.64435
 178  20.17046
 179  138.0696
 180  -73.87066
 181  -13.10697
 182  44.57541
 183  -298.9749
 184  -472.3883
 185  -239.8387
 186  23.80258
 187  -120.863
 188  9.543901
 189  131.4917
 190  443.6016
 191  663.0239
 192  513.1155
 193  387.6874
 194  545.0297
 195  213.4709
 196  103.2449
 197  364.4439
 198  605.9742
 199  929.194
 200  190.8702
 201  53.42594
 202  -19.49301
 203  595.1011
 204  566.8819
 205  375.5413
 206  7.905591
 207  -465.8693
 208  -525.8211
 209  -664.5305
 210  -201.1301
 211  -25.27801
 212  147.9831
 213  166.2948
 214  -249.303
 215  -353.0256
 216  -668.3387
 217  -422.8095
 218  -692.1447
 219  -680.2401
 220  -379.1137
 221  -201.7381
 222  -161.6156
 223  -676.4547
 224  -758.6963
 225  -760.4269
 226  -626.8646
 227  -366.1146
 228  -117.7132
 229  170.3388
 230  -454.0835
 231  -510.4527
 232  -189.7936
 233  -30.70976
 234  -472.8703
 235  286.4401
 236  598.2961
 237  177.5377
 238  -115.8522
 239  125.0622
 240  -14.68355
 241  -390.6827
 242  -19.73578
 243  320.3579
 244  185.1154
 245  -355.4388
 246  -138.5905
 247  109.8218
 248  -428.067
 249  15.38153
 250  -29.73781
 251  -98.44798
 252  -389.4738
 253  -302.0699
 254  43.46476
 255  -251.9545
 256  86.92242
 257  934.1809
 258  462.444
 259  497.7956
 260  728.12
 261  1661.852
 262  1468.823
 263  1166.39
 264  1209.002
 265  1225.06
 266  681.9785
 267  179.2007
 268  466.2379
 269  321.5575
 270  -436.1398
 271  -455.8628
 272  -203.8354
 273  30.66381
 274  216.1346
 275  -49.70794
 276  -132.0863
 277  206.0602
 278  -302.2428
 279  35.47916
 280  -75.51201
 281  -728.9133
 282  -787.1079
 283  -657.4972
 284  -99.98531
 285  -35.31419
 286  -143.1661
 287  -296.3031
 288  -531.5618
 289  -493.3406
 290  -283.6746
 291  -195.5636
 292  -249.7059
 293  -257.6429
 294  -271.7416
 295  -194.2791
 296  -497.1725
 297  -298.3545
 298  -165.1113
 299  -414.0927
 300  -367.1126
 301  -137.3249
 302  208.619
 303  37.38922
 304  -190.8542
 305  -310.6339
 306  -184.4332
 307  -47.93849
 308  -231.2831
 309  191.7505
 310  417.8394
 311  277.5039
 312  -413.8377
 313  -755.625
 314  -312.0838
 315  126.1364
 316  89.43671
 317  -29.26636
 318  31.99831
 319  4.498366
 320  -449.0104
 321  -464.009
 322  -221.7482
 323  -205.6372
 324  -360.1069
 325  -41.6519
 326  -315.1846
 327  -474.7552
 328  183.0973
 329  98.55589
 330  190.7792
 331  549.0316
 332  494.8841
 333  77.9515
 334  -299.302
 335  -69.44698
 336  -156.4749
 337  -308.6577
 338  -286.3276
 339  104.2357
 340  571.0442
 341  485.0163
 342  195.8603
 343  136.7982
 344  -123.4715
 345  -674.6234
 346  -192.4684
 347  -183.1657
 348  -134.794
 349  242.5264
 350  234.4894
 351  615.0345
 352  322.8187
 353  -10.53709
 354  -315.2248
 355  -396.0868
 356  -406.2023
 357  -23.14466
 358  342.6145
 359  295.3753
 360  396.6806
 361  328.0908
 362  242.0188
 363  -603.9853
 364  -451.461
 365  95.52959
 366  -292.1103
 367  62.43159
 368  162.1655
 369  183.5871
 370  -247.089
 371  -556.0953
 372  -535.4754
 373  -119.4314
 374  -92.04085
 375  -261.7573
 376  -59.78113
 377  -510.0394
 378  -759.6784
 379  -595.9806
 380  -366.1351
 381  -386.0277
 382  -409.3064
 383  -171.0573
 384  73.4669
 385  277.1344
 386  9.216026
 387  -335.7987
 388  26.77205
 389  181.2915
 390  -34.44598
 391  -9.037416
 392  342.4594
 393  -23.9798
 394  200.7061
 395  454.7469
 396  359.3162
 397  734.525
 398  537.5891
 399  258.5296
 400  396.4174
 401  309.6106
 402  477.6728
 403  615.9236
 404  582.2612
 405  571.1688
 406  521.0912
 407  244.948
 408  338.1693
 409  433.6819
 410  37.12991
 411  402.8226
 412  547.4775
 413  593.5816
 414  738.1263
 415  449.0864
 416  192.6912
 417  -5.567597
 418  667.4022
 419  449.5323
 420  147.0463
 421  148.9609
 422  485.4565
 423  724.0342
 424  504.7345
 425  890.1906
 426  866.9951
 427  1033.944
 428  972.7203
 429  665.9753
 430  370.2078
 431  593.5979
 432  795.2051
 433  576.9498
 434  786.9078
 435  383.7823
 436  -39.62157
 437  -17.58324
 438  173.562
 439  -24.08645
 440  -148.2847
 441  180.6224
 442  141.3532
 443  429.8497
 444  -0.1455043
 445  -195.7029
 446  38.29979
 447  216.5102
 448  143.3939
 449  91.91321
 450  83.29017
 451  -186.4558
 452  -298.7463
 453  -11.75985
 454  -103.0664
 455  125.1747
 456  -21.72669
 457  -10.42397
 458  -197.2313
 459  -55.29097
 460  90.6591
 461  152.9753
 462  267.3669
 463  189.4725
 464  343.4931
 465  -31.85669
 466  -86.18892
 467  200.2343
 468  510.0873
 469  348.934
 470  291.6561
 471  539.791
 472  224.5825
 473  171.7696
 474  7.754623
 475  335.0282
 476  647.756
 477  832.774
 478  640.8733
 479  642.3583
 480  761.9949
 481  -3.07821
 482  425.6875
 483  649.0074
 484  529.4379
 485  382.3863
 486  185.0006
 487  426.2013
 488  630.1961
 489  346.0843
 490  209.3908
 491  392.4518
 492  142.3744
 493  388.41
 494  376.2842
 495  402.5149
 496  569.8855
 497  629.0831
 498  388.2095
 499  233.3763
 500  550.8298
 501  583.5076
 502  318.7897
 503  531.7155
 504  206.3578
 505  -107.6465
 506  -189.2992
 507  -149.4369
 508  209.1406
 509  273.8096
 510  146.6017
 511  -188.2032
