# Input file       =  1183611107.093294_cleaned.dat
# Candidate        =  PSR_0332+5434
# Telescope        =  AR
# Epoch_topo       =  57943.202848302011
# Epoch_bary       =  N/A
# T_sample         =  0.002
# Data Folded      =  7340032
# Data Avg         =  0.172191337524315
# Data StdDev      =  3.74479716402893 
# Profile Bins     =  512
# Profile Avg      =  2470.20848794315 
# Profile StdDev   =  448.375935064286 
# Reduced chi-sqr  =  1.153
# Prob(Noise)      <  0.00951   (~2.3 sigma)
# P_topo (ms)      =  714.482950495916  +/- 0.000314
# P'_topo (s/s)    =  -0                +/- 1.66e-10
# P''_topo (s/s^2) =  0                 +/- 7.33e-14
# P_bary (ms)      =  N/A
# P'_bary (s/s)    =  N/A
# P''_bary (s/s^2) =  N/A
# P_orb (s)        =  N/A
# asin(i)/c (s)    =  N/A
# eccentricity     =  N/A
# w (rad)          =  N/A
# T_peri           =  N/A
######################################################
   0  2494.968
   1  2648.592
   2  2634.989
   3  2902.519
   4  2807.587
   5  2822.047
   6  2658.477
   7  2631.38
   8  2554.953
   9  2374.768
  10  2127.93
  11  2117.839
  12  2317.695
  13  2324.615
  14  2471.432
  15  2474.156
  16  2293.073
  17  2189.509
  18  2208.557
  19  2052.684
  20  1841.662
  21  1765.447
  22  1885.102
  23  2077.331
  24  1952.937
  25  1732.511
  26  1841.858
  27  1848.233
  28  1898.7
  29  1946.688
  30  1881.12
  31  1930.898
  32  1846.115
  33  1955.435
  34  2095.334
  35  2171.145
  36  2202.661
  37  2088.501
  38  2040.045
  39  2200.923
  40  2337.654
  41  2723.795
  42  2705.433
  43  2532.844
  44  2319.942
  45  2563.923
  46  2584.069
  47  2325.008
  48  2352.16
  49  2692.015
  50  2549.881
  51  2177.784
  52  2365.759
  53  2337.339
  54  2138.701
  55  2212.13
  56  2519.568
  57  2457.151
  58  2504.786
  59  2258.516
  60  2289.746
  61  2280.658
  62  1988.294
  63  1963.589
  64  2256.53
  65  2565.381
  66  2541.568
  67  2240.963
  68  2067.963
  69  2019.993
  70  1860.19
  71  2195.544
  72  2303.784
  73  2253.957
  74  1936.097
  75  2154.455
  76  1951.42
  77  1957.266
  78  1684.758
  79  1656.553
  80  1722.754
  81  2182.606
  82  2192.999
  83  2221.239
  84  2005.792
  85  2281.129
  86  2089.925
  87  2209.426
  88  2348.129
  89  2092.641
  90  2146.758
  91  2097.572
  92  2412.204
  93  2545.756
  94  2298.446
  95  2064.023
  96  1915.572
  97  2029.941
  98  2149.307
  99  2002.206
 100  2142.397
 101  2196.519
 102  2051.747
 103  2001.401
 104  2147.036
 105  2117.674
 106  2351.492
 107  2340.441
 108  2198.175
 109  2220.108
 110  2378.58
 111  2092.479
 112  1995.912
 113  2221
 114  2172.421
 115  2062.008
 116  2104.384
 117  2043.8
 118  2237.142
 119  2484.041
 120  2566.64
 121  2476.723
 122  2491.206
 123  2376.915
 124  2654.758
 125  2885.776
 126  2901.714
 127  3010.69
 128  3206.738
 129  2940.825
 130  2850.898
 131  2709.839
 132  2501.454
 133  2576.02
 134  2659.692
 135  2513.508
 136  2179.953
 137  2212.806
 138  2170.042
 139  2214.311
 140  2460.914
 141  2574.786
 142  2543.732
 143  2703.006
 144  2901.399
 145  2869.174
 146  3201.906
 147  4094.16
 148  4354.875
 149  4275.504
 150  3892.383
 151  3179.333
 152  2449.237
 153  2342.802
 154  2295.534
 155  2344.449
 156  2131.002
 157  2405.964
 158  2719.673
 159  2714.116
 160  2644.161
 161  2434.479
 162  2192.772
 163  2192.638
 164  2640.142
 165  2825.674
 166  2824.788
 167  2911.695
 168  2781.927
 169  2923.896
 170  2830.339
 171  2682.427
 172  2633.5
 173  2428.625
 174  2337.455
 175  2477.029
 176  2525.885
 177  2581.424
 178  2746.597
 179  2564.167
 180  2353.303
 181  2369.202
 182  2423.194
 183  2135.561
 184  2349.985
 185  2537.741
 186  2670.993
 187  2256.574
 188  2604.961
 189  2556.58
 190  2450.672
 191  2497.484
 192  2563.14
 193  2392.915
 194  2467.006
 195  2629.4
 196  2851.641
 197  2611.401
 198  2392.033
 199  2314.364
 200  2593.918
 201  2727.401
 202  3095.664
 203  2629.437
 204  2663.998
 205  2666.305
 206  2443.531
 207  2901.931
 208  3279.526
 209  3065.079
 210  3328.524
 211  3191.175
 212  2714.912
 213  2795.663
 214  3148.653
 215  3014.708
 216  2860.496
 217  2821.427
 218  2627.585
 219  2727.825
 220  2942.605
 221  2888.625
 222  2565.78
 223  2970.733
 224  2791.049
 225  2323.634
 226  2368.829
 227  2312.281
 228  2413.744
 229  2173.029
 230  2803.61
 231  2668.128
 232  2529.378
 233  2185.059
 234  2303.021
 235  2554.231
 236  2437.733
 237  2185.096
 238  2326.451
 239  2228.792
 240  1957.534
 241  2239.957
 242  2271.012
 243  1957.281
 244  1885.183
 245  2294.217
 246  2006.996
 247  2080.825
 248  2651.506
 249  2324.172
 250  2439.849
 251  2108.788
 252  2117.938
 253  2213.409
 254  2164.765
 255  2412.473
 256  2122.25
 257  2418.458
 258  2504.896
 259  2442.009
 260  2270.028
 261  2471.115
 262  2562.665
 263  2750.799
 264  2651.728
 265  2562.155
 266  2435.034
 267  2410.223
 268  2231.82
 269  2446.56
 270  2520.633
 271  2651.679
 272  2468.817
 273  2275.091
 274  1956.801
 275  2120.539
 276  2625.198
 277  2427.343
 278  2398.796
 279  2390.665
 280  2352.829
 281  2445.559
 282  2473.336
 283  2440.49
 284  2375.249
 285  2254.298
 286  2208.833
 287  2010.601
 288  1963.159
 289  2064.83
 290  2531.558
 291  2673.007
 292  2720.718
 293  2540.061
 294  2901.613
 295  2627.914
 296  2506.87
 297  2886.133
 298  3050.941
 299  3080.13
 300  2841.559
 301  2679.016
 302  2720.486
 303  2788.36
 304  2759.686
 305  2460.623
 306  2528.601
 307  2630.37
 308  2503.4
 309  2780.264
 310  2728.201
 311  2475.517
 312  2501.526
 313  2508.004
 314  2373.15
 315  2020.949
 316  2273.866
 317  2262.19
 318  2363.4
 319  2452.548
 320  2163.086
 321  2174.011
 322  2148.278
 323  2247.444
 324  2182.472
 325  2145.052
 326  2076.255
 327  2384.725
 328  2412.151
 329  2725.261
 330  2686.509
 331  2684.267
 332  2583.041
 333  2637.537
 334  2759.707
 335  2631.74
 336  2661.792
 337  2927.458
 338  2759.912
 339  2293.455
 340  2143.61
 341  2852.251
 342  2992.884
 343  2659.01
 344  2815.737
 345  2999.104
 346  2805.562
 347  2637.854
 348  2628.892
 349  2710.201
 350  3090.307
 351  2936.19
 352  2748.347
 353  2924.434
 354  2944.689
 355  2950.739
 356  2750.358
 357  2757.298
 358  2707.566
 359  2511.519
 360  2447.187
 361  2636.872
 362  2557.573
 363  2461.682
 364  2346.531
 365  2514.887
 366  2509.674
 367  2532.183
 368  2596.014
 369  2631.84
 370  2666.614
 371  2640.913
 372  2664.18
 373  2611.777
 374  2659.345
 375  2719.808
 376  2654.756
 377  2913.879
 378  2954.576
 379  3162.009
 380  3058.6
 381  3102.26
 382  3022.834
 383  3052.209
 384  2873.831
 385  2956.732
 386  3001.138
 387  2898.592
 388  2736.032
 389  2452.796
 390  2646.598
 391  2678.623
 392  2432.97
 393  2270.319
 394  2593.652
 395  2532.919
 396  2319.365
 397  2536.676
 398  2519.317
 399  2662.645
 400  2578.347
 401  2259.138
 402  2324.485
 403  2106.683
 404  2170.873
 405  2098.911
 406  2110.329
 407  2289.194
 408  2612.245
 409  2681.982
 410  2396.993
 411  2234.046
 412  2263.928
 413  2104.32
 414  2204.541
 415  2192.805
 416  2425.208
 417  2738.554
 418  2671.214
 419  2208.964
 420  2297.722
 421  2468.055
 422  2664.515
 423  2767.461
 424  2916.016
 425  2707.252
 426  2505.838
 427  2349.634
 428  2667.188
 429  2710.55
 430  2828.646
 431  3022.08
 432  3033.786
 433  3037.687
 434  2691.451
 435  2572.047
 436  2373.138
 437  2572.154
 438  2690.215
 439  2659.932
 440  2476.989
 441  2468.261
 442  2526.51
 443  2304.231
 444  2255.72
 445  2285.857
 446  2071.645
 447  2314.524
 448  2437.443
 449  2440.855
 450  2678.46
 451  2507.412
 452  2518.516
 453  2612.369
 454  2693.758
 455  2465.346
 456  2154.717
 457  2402.671
 458  2389.45
 459  2133.752
 460  2332.9
 461  2451.327
 462  2465.289
 463  2386.741
 464  2287.429
 465  2561.022
 466  2709.63
 467  2772.415
 468  3029.746
 469  3031.692
 470  3023.685
 471  2851.806
 472  2985.077
 473  2921.972
 474  3048.155
 475  2902.412
 476  2766.097
 477  2745.925
 478  2754.062
 479  2459.153
 480  2364.292
 481  2248.491
 482  2472.048
 483  2840.603
 484  2434.63
 485  2039.475
 486  2127.36
 487  2192.498
 488  2097.731
 489  2014.711
 490  2688.882
 491  2530.118
 492  2166.95
 493  1958.002
 494  1722.394
 495  1930.279
 496  1813.138
 497  1827.514
 498  1640.307
 499  1953.629
 500  2000.055
 501  1932.152
 502  2319.225
 503  2456.886
 504  2332.666
 505  2275.74
 506  2324.891
 507  2483.053
 508  2353.818
 509  2291.359
 510  2428.067
 511  2433.91
