# Input file       =  1183611107.093294_cleaned.dat
# Candidate        =  PSR_0332+5434
# Telescope        =  AR
# Epoch_topo       =  57943.202848302011
# Epoch_bary       =  N/A
# T_sample         =  0.002
# Data Folded      =  7340032
# Data Avg         =  0.172191337524315
# Data StdDev      =  3.74479716402893 
# Profile Bins     =  512
# Profile Avg      =  2470.20848804855 
# Profile StdDev   =  448.375935064286 
# Reduced chi-sqr  =  1.150
# Prob(Noise)      <  0.0105   (~2.3 sigma)
# P_topo (ms)      =  714.48295038016   +/- 0.000319
# P'_topo (s/s)    =  -0                +/- 1.68e-10
# P''_topo (s/s^2) =  0                 +/- 7.44e-14
# P_bary (ms)      =  N/A
# P'_bary (s/s)    =  N/A
# P''_bary (s/s^2) =  N/A
# P_orb (s)        =  N/A
# asin(i)/c (s)    =  N/A
# eccentricity     =  N/A
# w (rad)          =  N/A
# T_peri           =  N/A
######################################################
   0  2765.663
   1  2562.984
   2  2784.933
   3  2919.372
   4  2641.623
   5  2188.555
   6  2278.315
   7  3026.272
   8  2861.152
   9  2666.024
  10  2920.079
  11  2943.957
  12  2742.889
  13  2612.519
  14  2634.503
  15  2816.336
  16  3102.219
  17  2833.149
  18  2804.318
  19  2943.613
  20  2967.783
  21  2883.375
  22  2739.515
  23  2746.322
  24  2677.54
  25  2424.737
  26  2521.638
  27  2622.168
  28  2569.687
  29  2404.841
  30  2379.041
  31  2500.826
  32  2542.969
  33  2533.507
  34  2632.95
  35  2639.181
  36  2653.173
  37  2633.407
  38  2679.167
  39  2595.265
  40  2708.346
  41  2682.706
  42  2707.724
  43  2962.512
  44  2963.651
  45  3160.608
  46  3085.353
  47  3085.714
  48  3008.848
  49  3018.594
  50  2849.656
  51  3022.82
  52  2956.36
  53  2885.61
  54  2618.347
  55  2490.653
  56  2668.751
  57  2672.292
  58  2317.85
  59  2352.451
  60  2609.373
  61  2462.284
  62  2369.033
  63  2532.875
  64  2546.172
  65  2658.976
  66  2494.011
  67  2251.541
  68  2278.876
  69  2092.018
  70  2191.683
  71  2080.179
  72  2181.994
  73  2355.047
  74  2680.435
  75  2606.871
  76  2309.543
  77  2252.319
  78  2225.619
  79  2123.732
  80  2191.519
  81  2256.106
  82  2484.566
  83  2817.72
  84  2518.809
  85  2178.606
  86  2343.19
  87  2533.733
  88  2683.171
  89  2844.877
  90  2862.049
  91  2662.179
  92  2426.767
  93  2428.428
  94  2692.396
  95  2765.816
  96  2875.296
  97  3036.395
  98  3045.619
  99  2946.209
 100  2636.906
 101  2522.593
 102  2383.633
 103  2644.541
 104  2701.956
 105  2578.521
 106  2446.472
 107  2519.467
 108  2483.514
 109  2262.929
 110  2288.483
 111  2222.758
 112  2088.646
 113  2395.551
 114  2381.973
 115  2539.909
 116  2649.473
 117  2483.768
 118  2535.261
 119  2674.049
 120  2637.992
 121  2366.323
 122  2174.294
 123  2487.079
 124  2292.719
 125  2144.637
 126  2400.435
 127  2435.96
 128  2446.087
 129  2360.017
 130  2301.478
 131  2671.805
 132  2700.522
 133  2869.663
 134  3042.111
 135  3031.937
 136  2987.57
 137  2829.002
 138  3014.19
 139  2930.639
 140  3048.125
 141  2841.5
 142  2729.079
 143  2777.729
 144  2676.239
 145  2429.744
 146  2325.671
 147  2255.476
 148  2619.235
 149  2823.933
 150  2243.565
 151  2041.808
 152  2143.613
 153  2208.24
 154  1997.973
 155  2188.373
 156  2749.065
 157  2401.506
 158  2107.203
 159  1854.336
 160  1773.107
 161  1957.792
 162  1774.658
 163  1780.042
 164  1670.912
 165  2050.407
 166  1946.415
 167  1997.645
 168  2444.345
 169  2415.47
 170  2291.372
 171  2224.023
 172  2438.603
 173  2436.713
 174  2359.11
 175  2283.563
 176  2503.628
 177  2393.174
 178  2570.859
 179  2636.07
 180  2675.877
 181  2923.236
 182  2807.282
 183  2790.692
 184  2625.716
 185  2605.57
 186  2525.48
 187  2292.584
 188  2095.85
 189  2208.625
 190  2316.147
 191  2322.33
 192  2529.587
 193  2403.854
 194  2264.088
 195  2164.147
 196  2227.594
 197  1991.875
 198  1794.774
 199  1784.718
 200  1931.93
 201  2066.394
 202  1876.922
 203  1742.412
 204  1897.475
 205  1796.352
 206  1964.855
 207  1904.487
 208  1902.224
 209  1901.289
 210  1862.757
 211  1992.807
 212  2150.767
 213  2171.673
 214  2184.546
 215  2022.761
 216  2107.793
 217  2200.055
 218  2491.631
 219  2727.701
 220  2659.127
 221  2498.092
 222  2320.35
 223  2657.942
 224  2443.354
 225  2308.297
 226  2457.282
 227  2773.12
 228  2358.912
 229  2236.256
 230  2343.481
 231  2332.153
 232  2063.337
 233  2335.391
 234  2533.696
 235  2472.762
 236  2462.797
 237  2206.51
 238  2317.782
 239  2201.683
 240  1936.139
 241  2065.424
 242  2307.528
 243  2632.061
 244  2434.144
 245  2181.949
 246  2072.993
 247  1968.61
 248  1875.877
 249  2299.385
 250  2303.038
 251  2156.689
 252  1998.555
 253  2121.162
 254  1943.192
 255  1875.923
 256  1628.044
 257  1662.755
 258  1874.793
 259  2191.591
 260  2233.893
 261  2138.349
 262  2027.315
 263  2318.543
 264  2024.895
 265  2361.687
 266  2229.337
 267  2095.521
 268  2145.196
 269  2152.572
 270  2512.307
 271  2447.127
 272  2240.902
 273  2000.293
 274  1918.388
 275  2114.198
 276  2086.85
 277  2034.684
 278  2161.976
 279  2167.343
 280  2007.312
 281  2052.936
 282  2141.099
 283  2191.599
 284  2367.902
 285  2319.36
 286  2170.855
 287  2285.589
 288  2334.871
 289  1975.927
 290  2073.272
 291  2248.595
 292  2146.432
 293  2049.67
 294  2088.914
 295  2040.135
 296  2356.064
 297  2543.106
 298  2515.188
 299  2489.277
 300  2448.399
 301  2424.039
 302  2757.314
 303  2874.854
 304  2913.208
 305  3108.501
 306  3163.864
 307  2875.426
 308  2842.518
 309  2624.007
 310  2499.174
 311  2624.551
 312  2626.96
 313  2428.965
 314  2122.192
 315  2261.021
 316  2128.528
 317  2279.732
 318  2527.142
 319  2533.324
 320  2616.176
 321  2722.862
 322  2968.529
 323  2861.341
 324  3490.183
 325  4239.852
 326  4338.892
 327  4203.474
 328  3713.614
 329  2926.817
 330  2354.083
 331  2361.199
 332  2251.26
 333  2378.295
 334  2095.53
 335  2585.698
 336  2694.533
 337  2684.586
 338  2582.717
 339  2365.528
 340  2163.809
 341  2306.799
 342  2752.805
 343  2796.801
 344  2840.249
 345  2885.81
 346  2781.34
 347  2994.872
 348  2752.293
 349  2687.232
 350  2559.876
 351  2375.518
 352  2360.616
 353  2514.95
 354  2530.487
 355  2642.004
 356  2728.902
 357  2493.968
 358  2302.946
 359  2469.288
 360  2282.138
 361  2193.816
 362  2365.336
 363  2666.874
 364  2503.313
 365  2334.936
 366  2650.575
 367  2534.221
 368  2411.968
 369  2526.503
 370  2559.125
 371  2368.905
 372  2524.713
 373  2686.203
 374  2806.355
 375  2510.155
 376  2369.187
 377  2421.801
 378  2605.303
 379  2879.256
 380  2992.052
 381  2568.079
 382  2692.598
 383  2543.909
 384  2546.444
 385  3080.266
 386  3252.963
 387  3033.348
 388  3401.885
 389  3040.804
 390  2685.247
 391  2903.843
 392  3157.937
 393  2948.362
 394  2858.474
 395  2758.808
 396  2636.379
 397  2746.583
 398  3041.141
 399  2714.85
 400  2674.066
 401  2999.841
 402  2627.607
 403  2344.385
 404  2330.222
 405  2336.791
 406  2301.804
 407  2331.17
 408  2868.923
 409  2625.22
 410  2399.537
 411  2214.686
 412  2331.637
 413  2630.104
 414  2304.348
 415  2198.589
 416  2344.211
 417  2098.955
 418  2016.962
 419  2339.886
 420  2182.038
 421  1866.712
 422  2015.798
 423  2244.948
 424  1957.112
 425  2238.426
 426  2654.866
 427  2309.413
 428  2396.351
 429  2021.852
 430  2207.177
 431  2165.425
 432  2236.314
 433  2375.285
 434  2125.258
 435  2492.44
 436  2501.472
 437  2371.399
 438  2339.745
 439  2474.628
 440  2652.41
 441  2716.224
 442  2658.265
 443  2487.545
 444  2449.253
 445  2319.203
 446  2274.602
 447  2478.398
 448  2569.435
 449  2610.134
 450  2420.706
 451  2209.978
 452  1900.767
 453  2354.664
 454  2562.979
 455  2420.83
 456  2388.737
 457  2376.525
 458  2340.508
 459  2506.14
 460  2436.097
 461  2480.631
 462  2259.559
 463  2297.461
 464  2121.326
 465  2013.553
 466  1933.832
 467  2167.024
 468  2647.164
 469  2693.342
 470  2671.569
 471  2624.552
 472  2938.813
 473  2488.73
 474  2572.593
 475  2958.156
 476  3075.549
 477  3069.335
 478  2733.18
 479  2728.307
 480  2696.185
 481  2828.927
 482  2642.602
 483  2440.053
 484  2584.87
 485  2588.599
 486  2548.279
 487  2836.262
 488  2625.816
 489  2465.395
 490  2536.646
 491  2481.683
 492  2265.509
 493  2044.147
 494  2329.733
 495  2219.901
 496  2456.56
 497  2356.33
 498  2153.587
 499  2196.159
 500  2135.146
 501  2271.081
 502  2125.932
 503  2136.647
 504  2147.92
 505  2400.205
 506  2513.907
 507  2743.669
 508  2688.239
 509  2648.365
 510  2607.385
 511  2629.093
