# Input file       =  1183453964.104919_cleaned.dat
# Candidate        =  PSR_0332+5434
# Telescope        =  AR
# Epoch_topo       =  57941.384063714337
# Epoch_bary       =  N/A
# T_sample         =  0.002
# Data Folded      =  7340032
# Data Avg         =  0.535065135608811
# Data StdDev      =  8.66304680260251 
# Profile Bins     =  1024
# Profile Avg      =  3835.58543216428 
# Profile StdDev   =  733.448557945584 
# Reduced chi-sqr  =  0.674
# Prob(Noise)      <  1   (~0.0 sigma)
# P_topo (ms)      =  714.484626326975  +/- 0.000399
# P'_topo (s/s)    =  -0                +/- 2.11e-10
# P''_topo (s/s^2) =  0                 +/- 9.3e-14
# P_bary (ms)      =  N/A
# P'_bary (s/s)    =  N/A
# P''_bary (s/s^2) =  N/A
# P_orb (s)        =  N/A
# asin(i)/c (s)    =  N/A
# eccentricity     =  N/A
# w (rad)          =  N/A
# T_peri           =  N/A
######################################################
   0  3737.012
   1  3611.438
   2  3562.559
   3  3620.029
   4  3600.163
   5  3592.27
   6  3627.547
   7  3694.754
   8  3735.456
   9  3650.962
  10  3655.765
  11  3622.206
  12  3735.966
  13  3678.946
  14  3680.578
  15  3623.627
  16  3533.081
  17  3640.796
  18  3832.102
  19  3946.958
  20  3937.812
  21  3987.475
  22  3926.685
  23  3741.807
  24  3481.117
  25  3381.93
  26  3416.67
  27  3513.064
  28  3666.438
  29  3592.473
  30  3716.496
  31  3791.473
  32  3785.572
  33  3599.883
  34  3513.281
  35  3641.177
  36  3791.978
  37  3891.642
  38  3867.762
  39  3961.382
  40  4044.257
  41  3944.906
  42  3845.154
  43  3859.138
  44  3814.256
  45  3816.459
  46  3745.588
  47  3737.214
  48  3711.414
  49  3792.257
  50  3896.23
  51  3989.146
  52  4020.055
  53  3989.819
  54  3876.104
  55  3754.771
  56  3700.027
  57  3659.2
  58  3612.133
  59  3436.781
  60  3355.589
  61  3390.206
  62  3334.269
  63  3355.587
  64  3365.59
  65  3220.519
  66  3125.94
  67  3283.999
  68  3407.249
  69  3385.96
  70  3280.942
  71  3325.296
  72  3253.616
  73  3262.396
  74  3415.752
  75  3430.854
  76  3374.164
  77  3334.531
  78  3284.611
  79  3380.543
  80  3350.196
  81  3360.231
  82  3370.83
  83  3397.881
  84  3443.588
  85  3591.973
  86  3785.263
  87  3956.588
  88  4122.553
  89  4010.729
  90  3874.805
  91  3676.128
  92  3526.692
  93  3379.157
  94  3570.747
  95  3732.882
  96  3756.348
  97  3652.012
  98  3718.461
  99  3709.031
 100  3735.208
 101  3828.344
 102  3858.325
 103  3924.983
 104  3944.906
 105  3793.372
 106  3663.85
 107  3569.569
 108  3591.01
 109  3667.104
 110  3561.895
 111  3426.285
 112  3489.838
 113  3581.877
 114  3697.598
 115  3634.42
 116  3737.594
 117  3709.857
 118  3742.733
 119  3621.304
 120  3563.561
 121  3466.287
 122  3473.684
 123  3498.544
 124  3614.764
 125  3586.329
 126  3643.654
 127  3548.009
 128  3567.892
 129  3472.352
 130  3484.224
 131  3671.062
 132  3720.274
 133  3594.79
 134  3403.586
 135  3410.702
 136  3473.777
 137  3475.654
 138  3478.625
 139  3436.43
 140  3279.064
 141  3469.745
 142  3737.561
 143  3886.674
 144  3832.018
 145  3816.049
 146  3624.922
 147  3585.205
 148  3479.33
 149  3580.885
 150  3551.78
 151  3598.672
 152  3691.684
 153  3756.318
 154  3698.866
 155  3739.1
 156  3831.015
 157  3936.779
 158  3906.672
 159  4083.558
 160  4033.684
 161  3985.763
 162  4013.702
 163  4174.828
 164  4270.378
 165  4204.121
 166  4066.659
 167  3931.651
 168  3935.268
 169  4047.324
 170  4114.637
 171  4299.326
 172  4278.691
 173  4277.428
 174  4111.611
 175  4002.895
 176  3955.654
 177  3917.231
 178  3906.158
 179  3845.968
 180  3927.305
 181  4075.185
 182  4258.203
 183  4264.668
 184  4336.025
 185  4201.604
 186  4059.595
 187  3928.393
 188  3861.633
 189  3857.967
 190  4127.123
 191  4312.348
 192  4402.344
 193  4392.037
 194  4253.386
 195  4321.939
 196  4046.859
 197  3971.934
 198  4013.134
 199  4155.871
 200  4030.861
 201  4048.37
 202  4052.79
 203  3998.644
 204  3701.371
 205  3659.306
 206  3695.663
 207  3833.65
 208  3810.069
 209  3948.205
 210  4074.896
 211  4123.11
 212  4223.762
 213  4200.262
 214  4197.25
 215  4083.942
 216  3951.413
 217  3895.575
 218  3880.464
 219  3956.099
 220  4003.58
 221  4065.372
 222  4176.099
 223  4103.969
 224  4109.471
 225  3922.447
 226  4026.897
 227  4047.041
 228  4186.474
 229  4180.333
 230  4300.317
 231  4289.724
 232  4300.509
 233  4254.903
 234  4213.683
 235  4254.775
 236  4159.897
 237  3887.219
 238  3623.32
 239  3547.191
 240  3601.436
 241  3736.57
 242  3913.106
 243  4074.745
 244  3992.143
 245  3851.354
 246  3838.2
 247  3817.998
 248  3932.603
 249  3839.29
 250  3699.252
 251  3498.695
 252  3529.306
 253  3434.855
 254  3422.265
 255  3426.723
 256  3619.221
 257  3740.498
 258  3888.886
 259  3881.748
 260  3843.117
 261  3726.955
 262  3744.603
 263  3747.365
 264  3800.332
 265  3637.501
 266  3610.74
 267  3641.54
 268  3750.51
 269  3802.282
 270  3819.313
 271  3856.816
 272  3851.093
 273  3850.043
 274  3742.48
 275  3886.333
 276  4084.79
 277  4197.148
 278  4130.757
 279  3777.649
 280  3560.415
 281  3452.269
 282  3475.356
 283  3368.604
 284  3375.408
 285  3418.247
 286  3453.925
 287  3408.615
 288  3301.999
 289  3352.742
 290  3510.267
 291  3409.158
 292  3427.321
 293  3360.668
 294  3372.481
 295  3444.357
 296  3668.589
 297  3901.975
 298  3627.118
 299  3388.542
 300  3245.552
 301  3205.065
 302  3111.797
 303  3164.058
 304  3150.604
 305  3460.861
 306  3471.827
 307  3721.947
 308  3782.839
 309  3631.671
 310  3388.891
 311  3464.262
 312  3572.122
 313  3626.018
 314  3726.567
 315  3702.863
 316  3602.744
 317  3480.481
 318  3547.841
 319  3744.7
 320  3790.912
 321  3822.835
 322  3820.674
 323  3803.538
 324  3754.135
 325  3877.973
 326  3965.853
 327  3979.193
 328  3719.687
 329  3735.314
 330  3847.547
 331  3883.63
 332  3868.639
 333  3690.847
 334  3636.335
 335  3741.001
 336  3739.589
 337  3528.636
 338  3386.973
 339  3405.545
 340  3585.421
 341  3582.943
 342  3541.898
 343  3527.25
 344  3332.231
 345  3261.165
 346  3378.343
 347  3415.868
 348  3392.616
 349  3247.544
 350  3243.508
 351  3187.424
 352  3052.181
 353  3137.728
 354  3338.258
 355  3414.768
 356  3492.941
 357  3509.96
 358  3459.192
 359  3392.132
 360  3410.6
 361  3582.896
 362  3584.472
 363  3488.495
 364  3410.081
 365  3372.387
 366  3273.957
 367  3412.251
 368  3444.377
 369  3361.515
 370  3428.287
 371  3449.854
 372  3451.875
 373  3583.589
 374  3637.536
 375  3733.847
 376  3634.113
 377  3563.392
 378  3527.087
 379  3379.456
 380  3377.011
 381  3364.36
 382  3348.637
 383  3473.867
 384  3470.115
 385  3442.804
 386  3395.222
 387  3615.588
 388  3611.225
 389  3594.632
 390  3422.73
 391  3551.88
 392  3743.695
 393  3889.692
 394  4079.409
 395  4021.491
 396  3855.44
 397  3739.182
 398  3623.028
 399  3723.094
 400  3833.071
 401  3910.893
 402  3975.725
 403  3925.032
 404  3900.555
 405  3869.856
 406  3775.725
 407  3843.237
 408  3885.404
 409  3945.412
 410  3851.745
 411  3792.896
 412  3777.172
 413  3906.719
 414  3961.582
 415  3844.757
 416  3642.421
 417  3666.452
 418  3773.605
 419  3774.24
 420  3587.04
 421  3784.496
 422  3820.779
 423  3919.827
 424  3954.102
 425  3970.373
 426  3972.238
 427  3965.356
 428  4119.044
 429  4352.165
 430  4613.392
 431  4727.355
 432  4661.092
 433  4605.044
 434  4658.431
 435  4647.6
 436  4704.431
 437  4637.038
 438  4736.126
 439  4704.093
 440  4713.227
 441  4676.214
 442  4741.333
 443  4621.325
 444  4352.292
 445  4246.273
 446  4184.227
 447  4167.182
 448  4102.699
 449  4263.623
 450  4410.457
 451  4366.691
 452  4224.829
 453  4215.12
 454  4070.885
 455  3698.094
 456  3640.747
 457  3719.529
 458  3954.814
 459  4058.128
 460  4071.319
 461  4046.167
 462  4103.345
 463  4117.524
 464  4130.448
 465  4016.048
 466  3968.033
 467  3886.902
 468  4055.338
 469  4174.218
 470  4223.827
 471  4160.49
 472  4194.272
 473  4190.265
 474  4137.952
 475  4230.886
 476  4037.232
 477  3986.435
 478  4129.204
 479  4222.587
 480  4230.048
 481  4088.523
 482  3977.056
 483  4049.889
 484  3950.386
 485  3819.877
 486  3701.667
 487  3585.477
 488  3706.523
 489  4067.961
 490  4263.113
 491  4237.521
 492  4136.205
 493  4228.302
 494  4290.889
 495  4372.843
 496  4160.908
 497  4082.653
 498  4120.511
 499  4336.804
 500  4380.849
 501  4296.506
 502  4382.261
 503  4349.744
 504  4404.64
 505  4584.165
 506  4597.81
 507  4617.714
 508  4433.086
 509  4464.526
 510  4651.697
 511  4695.078
 512  4660.116
 513  4552.542
 514  4375.884
 515  4308.205
 516  4362.646
 517  4583.489
 518  4642.546
 519  4494.771
 520  4372.174
 521  4303.563
 522  4258.731
 523  4163.041
 524  4096.553
 525  4050.46
 526  4041.566
 527  4164.028
 528  4319.188
 529  4357.009
 530  4207.982
 531  4193.146
 532  4302.166
 533  4349.027
 534  4300.07
 535  4324.095
 536  4385.179
 537  4463.578
 538  4365.896
 539  4316.115
 540  4044.115
 541  3938.522
 542  4022.685
 543  4117.434
 544  4053.082
 545  4115.006
 546  4165.589
 547  4213.938
 548  4108.011
 549  4052.436
 550  3920.271
 551  4060.781
 552  4115.724
 553  4276.42
 554  4328.009
 555  4524.582
 556  4546.191
 557  4297.462
 558  4186.743
 559  4247.907
 560  4346.392
 561  4252.65
 562  4232.939
 563  4208.519
 564  4265.04
 565  4246.478
 566  4392.897
 567  4389.042
 568  4279.594
 569  4279.766
 570  4495.91
 571  4562.2
 572  4615.583
 573  4633.345
 574  4732.361
 575  4705.532
 576  4627.111
 577  4535.445
 578  4459.803
 579  4469.457
 580  4717.488
 581  4634.385
 582  4539.398
 583  4465.581
 584  4473.646
 585  4450.376
 586  4479.416
 587  4325.547
 588  4133.274
 589  3916.03
 590  3745.94
 591  3837.789
 592  3826.521
 593  3851.289
 594  3985.14
 595  3981.358
 596  4022.361
 597  3785.818
 598  3725.076
 599  3639.906
 600  3652.39
 601  3858.807
 602  3942.126
 603  3907.656
 604  3882.458
 605  3779.729
 606  3749.097
 607  3619.953
 608  3616.536
 609  3736.752
 610  3905.975
 611  4000.349
 612  3994.593
 613  4072.449
 614  4065.719
 615  4062.391
 616  4011.747
 617  4038.164
 618  3992.714
 619  3789.791
 620  3787.783
 621  3873.515
 622  3975.284
 623  4026.108
 624  4079.018
 625  3976.563
 626  3874.51
 627  3760.044
 628  3806.019
 629  3629.216
 630  3645.618
 631  3728.595
 632  3724.3
 633  3754.421
 634  3745.365
 635  3787.406
 636  3759.898
 637  3834.569
 638  3897.578
 639  4119.901
 640  4065.206
 641  4118.675
 642  4070.757
 643  4116.052
 644  4226.554
 645  4190.659
 646  4191.081
 647  4292.896
 648  4564.843
 649  4732.667
 650  4817.339
 651  4933.17
 652  5066.548
 653  5123.297
 654  5052.101
 655  4822.162
 656  4508.698
 657  4306.332
 658  4189.786
 659  4053.911
 660  3941.622
 661  3939.047
 662  3748.915
 663  3726.752
 664  3667.323
 665  3681.968
 666  3736.949
 667  3773.233
 668  3759.552
 669  3704.562
 670  3724.112
 671  3959.242
 672  4049.933
 673  4025.5
 674  3806.224
 675  3602.128
 676  3574.667
 677  3558.129
 678  3449.456
 679  3436.995
 680  3665.755
 681  3849.898
 682  3976.841
 683  3828.723
 684  3641.856
 685  3627.272
 686  3775.605
 687  3784.921
 688  3622.359
 689  3551.433
 690  3508.638
 691  3414.366
 692  3518.017
 693  3538.909
 694  3462.902
 695  3383.012
 696  3513.281
 697  3615.046
 698  3686.484
 699  3702.646
 700  3761.526
 701  3642.515
 702  3521.216
 703  3360.307
 704  3229.284
 705  3180.04
 706  3180.164
 707  3385.498
 708  3469.575
 709  3627.071
 710  3747.059
 711  3879.285
 712  3866.535
 713  3806.575
 714  3862.387
 715  3751.181
 716  3755.363
 717  3661.869
 718  3574.826
 719  3641.352
 720  3646.62
 721  3581.072
 722  3427.977
 723  3335.124
 724  3457.846
 725  3432.902
 726  3545.317
 727  3580.55
 728  3538.657
 729  3572.476
 730  3785.141
 731  3912.192
 732  3751.179
 733  3631.752
 734  3539.598
 735  3498.576
 736  3441.204
 737  3450.387
 738  3580.441
 739  3527.13
 740  3582.115
 741  3659.742
 742  3600.48
 743  3691.507
 744  3591.256
 745  3659.8
 746  3652.026
 747  3885.304
 748  3955.247
 749  3832.611
 750  3736.848
 751  3668.104
 752  3619.868
 753  3615.424
 754  3802.932
 755  3753.012
 756  3755.393
 757  3850.936
 758  3855.228
 759  3725.634
 760  3666.275
 761  3632.006
 762  3761.4
 763  3589.014
 764  3498.508
 765  3489.567
 766  3549.991
 767  3753.398
 768  3780.969
 769  3562.596
 770  3318.951
 771  3166.195
 772  3271.298
 773  3411.52
 774  3482.002
 775  3400.468
 776  3432.81
 777  3404.857
 778  3450.119
 779  3354.27
 780  3267.857
 781  3245.186
 782  3358.551
 783  3525.474
 784  3777.366
 785  3850.101
 786  3932.019
 787  3844.732
 788  3870.188
 789  3837.481
 790  3784.448
 791  3670.94
 792  3674.172
 793  3676.163
 794  3788.778
 795  3815.66
 796  3763.781
 797  3682.279
 798  3788.695
 799  3805.332
 800  3877.93
 801  3820.991
 802  3708.853
 803  3643.869
 804  3484.376
 805  3467.288
 806  3396.841
 807  3198.592
 808  3250.365
 809  3407.373
 810  3551.481
 811  3480.997
 812  3605.869
 813  3711.202
 814  3759.587
 815  3653.188
 816  3577.635
 817  3582.199
 818  3483.549
 819  3646.279
 820  3717.263
 821  3765.978
 822  3724.452
 823  3773.827
 824  3851.836
 825  3994.097
 826  3841.999
 827  3833.954
 828  3797.763
 829  3848.262
 830  3919.88
 831  3912.134
 832  3848.362
 833  3707.447
 834  3853.621
 835  3962.429
 836  3815.472
 837  3683.992
 838  3852.535
 839  3806.906
 840  3673.743
 841  3552.114
 842  3610.845
 843  3615.24
 844  3465.905
 845  3452.288
 846  3467.329
 847  3295.054
 848  3347.521
 849  3502.248
 850  3601.098
 851  3633.898
 852  3580.867
 853  3692.02
 854  3818.442
 855  3808.401
 856  3618.377
 857  3596.642
 858  3677.341
 859  3807.475
 860  3878.65
 861  3831.649
 862  3891.969
 863  3831.184
 864  3649.468
 865  3566.834
 866  3613.682
 867  3748.256
 868  3727.025
 869  3585.829
 870  3567.596
 871  3423.291
 872  3464.625
 873  3457.331
 874  3382.583
 875  3314.594
 876  3198.491
 877  3247.358
 878  3338.791
 879  3480.906
 880  3708.027
 881  3916.991
 882  3957.142
 883  3964.105
 884  3852.432
 885  3838.193
 886  3859.098
 887  3823.405
 888  3901.778
 889  3851.154
 890  3838.22
 891  3944.201
 892  4108.499
 893  4315.077
 894  4248.597
 895  4048.781
 896  3897.207
 897  3934.12
 898  3927.167
 899  3928.497
 900  4010.714
 901  4151.45
 902  4175.144
 903  3943.089
 904  3694.317
 905  3654.178
 906  3803.724
 907  3864.88
 908  3897.758
 909  3809.453
 910  3989.499
 911  4073.926
 912  4010.488
 913  3950.719
 914  3945.142
 915  4010.929
 916  4043.18
 917  3911.026
 918  3908.219
 919  3938.08
 920  4059.175
 921  4161.299
 922  4007.56
 923  4018.97
 924  4002.185
 925  3977.217
 926  3947.588
 927  3912.387
 928  3988.81
 929  4066.179
 930  3961.777
 931  3723.895
 932  3711.723
 933  3807.687
 934  3974.84
 935  3975.712
 936  4175.674
 937  4237.211
 938  4255.22
 939  4087.689
 940  4040.958
 941  3909.536
 942  3875.416
 943  3876.321
 944  3893
 945  3925.94
 946  3918.74
 947  4045.362
 948  4196.441
 949  4248.232
 950  4111.855
 951  3909.948
 952  3832.115
 953  3828.24
 954  3888.465
 955  3829.938
 956  4013.245
 957  4093.042
 958  4306.864
 959  4316.77
 960  4084.659
 961  3952.169
 962  4100.17
 963  4205.415
 964  4298.103
 965  4130.391
 966  3956.943
 967  3820.257
 968  3908.447
 969  3963.162
 970  4012.848
 971  4023.086
 972  4015.414
 973  3923.18
 974  3904.237
 975  3946.473
 976  4049.545
 977  4064.09
 978  4047.455
 979  3956.66
 980  4065.397
 981  4027.357
 982  3833.765
 983  3862.885
 984  3831.167
 985  3932.122
 986  3893.42
 987  3920.768
 988  3962.271
 989  3779.626
 990  3686.182
 991  3640.101
 992  3657.063
 993  3714.065
 994  3803.703
 995  3721.906
 996  3667.36
 997  3545.229
 998  3518.865
 999  3649.36
1000  3685.567
1001  3800.925
1002  3709.316
1003  3586.662
1004  3528.244
1005  3558.105
1006  3653.747
1007  3777.32
1008  3659.082
1009  3585.285
1010  3473.945
1011  3434.128
1012  3636.632
1013  3641.351
1014  3558.564
1015  3602.412
1016  3698.397
1017  3718.402
1018  3632.714
1019  3484.785
1020  3625.564
1021  3682.04
1022  3800.201
1023  3850.544
