# Input file       =  1183266337.135035-PSRB0329-2ms-sampling-dd.dat
# Candidate        =  PSR_0332+5434
# Telescope        =  AR
# Epoch_topo       =  57939.212455266606
# Epoch_bary       =  N/A
# T_sample         =  0.002
# Data Folded      =  7340032
# Data Avg         =  -2.63970688267123e-10
# Data StdDev      =  6.11064464507917 
# Profile Bins     =  512
# Profile Avg      =  2.54948440467179 
# Profile StdDev   =  731.646037574756 
# Reduced chi-sqr  =  0.733
# Prob(Noise)      <  1   (~0.0 sigma)
# P_topo (ms)      =  714.485920785929  +/- 0.00122
# P'_topo (s/s)    =  -0                +/- 6.43e-10
# P''_topo (s/s^2) =  0                 +/- 2.84e-13
# P_bary (ms)      =  N/A
# P'_bary (s/s)    =  N/A
# P''_bary (s/s^2) =  N/A
# P_orb (s)        =  N/A
# asin(i)/c (s)    =  N/A
# eccentricity     =  N/A
# w (rad)          =  N/A
# T_peri           =  N/A
######################################################
   0  -370.8314
   1  -278.607
   2  -159.9275
   3  -576.2928
   4  -535.9412
   5  -327.4014
   6  -129.9088
   7  -287.257
   8  -581.8018
   9  -312.7581
  10  -112.1006
  11  -186.7029
  12  73.97466
  13  0.3256618
  14  -103.8999
  15  -356.1783
  16  -276.4194
  17  68.6581
  18  154.6066
  19  -55.64026
  20  -187.6037
  21  -422.5415
  22  -79.03477
  23  14.1858
  24  -124.1758
  25  122.2752
  26  478.1629
  27  659.8727
  28  57.81243
  29  -303.343
  30  222.8761
  31  543.6408
  32  657.0131
  33  217.3362
  34  280.9007
  35  -17.5453
  36  -231.9409
  37  193.0277
  38  621.9073
  39  679.1216
  40  232.3746
  41  211.4433
  42  457.4378
  43  313.5556
  44  253.8995
  45  -22.5407
  46  242.6011
  47  335.5707
  48  115.2233
  49  275.0248
  50  382.1958
  51  244.1974
  52  75.81384
  53  363.5709
  54  681.3478
  55  501.288
  56  477.6571
  57  22.84497
  58  480.499
  59  73.40183
  60  393.4705
  61  476.4916
  62  229.9458
  63  164.5691
  64  -75.47359
  65  -43.80309
  66  119.635
  67  282.3512
  68  365.0728
  69  562.6969
  70  176.8979
  71  53.57438
  72  262.9812
  73  339.3208
  74  585.6931
  75  35.31301
  76  33.34797
  77  -20.8156
  78  -121.9673
  79  -66.47709
  80  -112.4529
  81  56.169
  82  125.7206
  83  -47.99264
  84  89.55106
  85  52.98088
  86  -23.34888
  87  -358.5734
  88  -298.7877
  89  -736.9724
  90  -762.7601
  91  -622.9282
  92  -676.6965
  93  -299.1484
  94  -215.8768
  95  -326.3143
  96  -470.3364
  97  -378.3326
  98  -355.6379
  99  -280.6436
 100  -254.9876
 101  11.76375
 102  105.0524
 103  -49.53355
 104  27.54207
 105  -118.7219
 106  -25.67598
 107  -16.0805
 108  11.07913
 109  119.9064
 110  79.08356
 111  -0.3094235
 112  -84.6842
 113  -241.3121
 114  -524.3653
 115  -616.0995
 116  -603.7485
 117  -442.5769
 118  -348.5594
 119  -65.90462
 120  -44.4767
 121  -52.30665
 122  973.1197
 123  1102.433
 124  1277.169
 125  1130.348
 126  168.4561
 127  -12.82544
 128  130.1217
 129  1068.619
 130  1247.141
 131  1223.839
 132  1062.927
 133  737.6022
 134  481.3016
 135  310.6751
 136  292.26
 137  161.9725
 138  3.443879
 139  134.3143
 140  174.9861
 141  164.841
 142  215.315
 143  344.4365
 144  526.1062
 145  287.5262
 146  240.2706
 147  208.3012
 148  341.6318
 149  335.1011
 150  286.9516
 151  332.7155
 152  456.416
 153  282.8931
 154  519.9249
 155  500.8169
 156  536.8193
 157  287.8789
 158  302.2251
 159  383.2308
 160  410.1417
 161  203.0575
 162  467.0543
 163  359.2375
 164  399.3928
 165  213.1296
 166  265.3051
 167  234.2548
 168  373.1378
 169  548.2736
 170  261.8007
 171  303.5086
 172  751.1746
 173  1049.046
 174  1172.365
 175  1010.641
 176  830.7728
 177  -45.12138
 178  160.1356
 179  436.4668
 180  627.4075
 181  661.1494
 182  541.482
 183  207.2788
 184  -307.045
 185  -143.6827
 186  -386.5716
 187  -290.5556
 188  -1.283327
 189  7.41388
 190  -193.2215
 191  -416.8804
 192  -357.4116
 193  -401.0002
 194  -428.3129
 195  -305.5419
 196  -289.3144
 197  -327.0305
 198  -121.6064
 199  -168.1506
 200  -305.5982
 201  -183.7239
 202  -197.9979
 203  -194.1757
 204  -405.2637
 205  -584.7093
 206  -27.32959
 207  280.9417
 208  -45.85457
 209  -7.953424
 210  -19.21029
 211  -7.247253
 212  -95.76661
 213  41.81467
 214  109.2666
 215  2.020466
 216  -72.24847
 217  -152.8701
 218  -54.43166
 219  -241.2329
 220  -134.2112
 221  -92.08518
 222  -209.9485
 223  -207.6964
 224  -119.0054
 225  -195.288
 226  -181.0341
 227  -340.8092
 228  -336.2248
 229  -841.6168
 230  -629.1761
 231  -319.3589
 232  -393.0637
 233  -681.341
 234  -445.0407
 235  -319.703
 236  -313.5989
 237  -230.4117
 238  -695.2589
 239  -301.9764
 240  -5.783324
 241  12.46116
 242  -153.9491
 243  135.059
 244  88.76736
 245  -325.8793
 246  -211.5656
 247  -148.8456
 248  -100.7596
 249  -12.29834
 250  230.3168
 251  247.197
 252  29.18324
 253  -3.951266
 254  -56.65104
 255  -217.1097
 256  -100.672
 257  -137.401
 258  -94.43159
 259  -586.6672
 260  -496.7301
 261  -455.941
 262  -375.7184
 263  -183.8188
 264  -529.0457
 265  -845.4197
 266  -1027.218
 267  -1043.918
 268  -1035.894
 269  -766.9954
 270  -398.3135
 271  -103.4048
 272  -270.566
 273  -370.1389
 274  -612.4885
 275  -857.5847
 276  -455.3523
 277  -485.4078
 278  -161.4482
 279  47.51189
 280  -263.2922
 281  -373.1058
 282  -665.8871
 283  -657.4749
 284  -643.8396
 285  -413.5944
 286  -479.2352
 287  -826.5682
 288  -828.0355
 289  -482.5534
 290  -473.5823
 291  -516.2753
 292  -428.0919
 293  -614.8697
 294  -649.5545
 295  -635.1676
 296  -445.8742
 297  -315.7338
 298  -496.5608
 299  -254.2683
 300  -399.8492
 301  -548.9985
 302  -591.2264
 303  -659.3752
 304  -702.9465
 305  -440.1711
 306  -605.2044
 307  -745.7292
 308  -883.6804
 309  -630.5801
 310  -427.1308
 311  -502.9826
 312  -376.0399
 313  -325.0325
 314  -315.6053
 315  -159.2073
 316  114.6732
 317  -253.4547
 318  -552.3876
 319  -573.0483
 320  -638.6158
 321  -611.9293
 322  -133.1385
 323  -178.0689
 324  -428.44
 325  -638.1786
 326  -563.658
 327  -792.4725
 328  -744.4336
 329  -345.9395
 330  -164.5489
 331  -135.4854
 332  -213.2012
 333  85.13216
 334  -25.77748
 335  -162.7385
 336  121.9567
 337  258.0091
 338  -102.991
 339  240.6043
 340  273.6529
 341  40.14716
 342  -246.0746
 343  -231.9373
 344  -247.6194
 345  -442.75
 346  -207.2529
 347  -340.2081
 348  -487.5556
 349  -462.4015
 350  -626.0494
 351  -482.2693
 352  -219.3998
 353  -441.1233
 354  -477.9943
 355  -133.9637
 356  -77.18459
 357  158.2631
 358  133.7376
 359  105.0229
 360  261.4818
 361  -41.94033
 362  -242.2896
 363  -5.777767
 364  -23.70522
 365  -74.9231
 366  -13.6734
 367  -16.96204
 368  97.15996
 369  200.1348
 370  -46.66342
 371  -78.03508
 372  -87.6844
 373  118.3359
 374  25.53115
 375  78.04582
 376  150.8574
 377  125.252
 378  111.6893
 379  -14.32597
 380  -280.1965
 381  2.089749
 382  184.2784
 383  44.00844
 384  -12.48785
 385  92.8791
 386  -22.70407
 387  -148.3242
 388  -43.28183
 389  -41.10205
 390  279.6114
 391  350.1657
 392  323.3643
 393  97.59451
 394  113.8886
 395  236.7583
 396  443.1787
 397  704.4543
 398  934.5856
 399  932.0637
 400  982.4794
 401  1457.295
 402  1937.664
 403  2065.643
 404  2198.241
 405  1769.346
 406  1272.328
 407  501.37
 408  -129.1766
 409  -167.5191
 410  -359.073
 411  -523.7479
 412  -441.2302
 413  29.46585
 414  658.28
 415  1367.059
 416  1129.549
 417  349.9788
 418  -270.3705
 419  -645.7605
 420  -175.621
 421  624.3157
 422  1055.481
 423  762.5713
 424  655.326
 425  86.5108
 426  -287.6828
 427  113.8362
 428  224.3511
 429  178.0997
 430  261.251
 431  206.5471
 432  213.6634
 433  110.4738
 434  209.7871
 435  354.6848
 436  251.5414
 437  -69.50972
 438  -68.79164
 439  -264.7884
 440  248.0507
 441  339.0394
 442  259.0028
 443  429.6115
 444  252.8159
 445  256.6151
 446  198.1218
 447  366.7786
 448  452.4456
 449  567.2756
 450  269.3389
 451  161.8457
 452  351.2904
 453  168.6193
 454  348.5813
 455  399.5807
 456  251.7788
 457  -8.184772
 458  328.6322
 459  411.0003
 460  235.6701
 461  467.9753
 462  181.7796
 463  111.6229
 464  36.20296
 465  236.9855
 466  610.7042
 467  -62.02201
 468  55.95948
 469  263.2008
 470  608.7285
 471  297.2895
 472  82.89953
 473  231.9317
 474  160.8135
 475  182.991
 476  419.0677
 477  545.6246
 478  637.782
 479  455.4834
 480  386.0132
 481  242.907
 482  362.593
 483  -31.17004
 484  -237.7828
 485  -229.9157
 486  -283.5117
 487  -97.10339
 488  300.6415
 489  -31.20026
 490  -404.8991
 491  -253.8258
 492  -238.7476
 493  -398.0491
 494  -474.3391
 495  -474.45
 496  -170.8439
 497  -206.0576
 498  -248.5182
 499  -554.9483
 500  -733.9736
 501  -535.6307
 502  -625.4202
 503  -275.3592
 504  -198.5558
 505  -27.13758
 506  -340.7351
 507  -306.5937
 508  -116.3144
 509  -375.4728
 510  -494.4084
 511  -407.2574
