# Input file       =  1183955774.111918-PSRB0329-2ms-sampling-dd.dat
# Candidate        =  PSR_0332+5434
# Telescope        =  AR
# Epoch_topo       =  57947.192049906458
# Epoch_bary       =  N/A
# T_sample         =  0.002
# Data Folded      =  7340032
# Data Avg         =  2.3442327385411e-10
# Data StdDev      =  5.06976896107875 
# Profile Bins     =  512
# Profile Avg      =  -3.06154062633226
# Profile StdDev   =  607.018831438642 
# Reduced chi-sqr  =  0.716
# Prob(Noise)      <  1   (~0.0 sigma)
# P_topo (ms)      =  714.480141414046  +/- 0.000658
# P'_topo (s/s)    =  -0                +/- 3.47e-10
# P''_topo (s/s^2) =  0                 +/- 1.53e-13
# P_bary (ms)      =  N/A
# P'_bary (s/s)    =  N/A
# P''_bary (s/s^2) =  N/A
# P_orb (s)        =  N/A
# asin(i)/c (s)    =  N/A
# eccentricity     =  N/A
# w (rad)          =  N/A
# T_peri           =  N/A
######################################################
   0  -313.3015
   1  -32.79981
   2  -41.46011
   3  -30.8374
   4  76.47716
   5  -146.9595
   6  -181.9118
   7  109.151
   8  -42.96673
   9  -368.9323
  10  -120.4196
  11  -301.2644
  12  -635.3133
  13  -333.0978
  14  -466.3248
  15  -312.1236
  16  58.95758
  17  64.14799
  18  -326.4993
  19  -291.5718
  20  -271.193
  21  -99.7295
  22  78.53326
  23  329.6973
  24  278.2295
  25  127.3518
  26  93.36459
  27  -14.20549
  28  167.5274
  29  -47.24994
  30  38.60984
  31  -13.15452
  32  -58.72309
  33  88.31988
  34  -181.9195
  35  -196.662
  36  -356.5049
  37  -230.0531
  38  -97.86568
  39  -287.671
  40  -195.2737
  41  -506.5407
  42  -535.6661
  43  -193.9802
  44  -114.4687
  45  -606.3557
  46  -679.9674
  47  -412.5275
  48  -262.615
  49  -68.13003
  50  -176.5953
  51  -326.9889
  52  -538.6724
  53  -516.6033
  54  -373.3804
  55  -171.1162
  56  -284.8889
  57  -148.0696
  58  -220.559
  59  -128.4079
  60  -205.6545
  61  -265.4265
  62  -505.9839
  63  -501.9856
  64  -465.5754
  65  -247.9281
  66  -136.8282
  67  -259.9593
  68  -351.808
  69  -570.1025
  70  -113.488
  71  41.68391
  72  59.58683
  73  -76.83817
  74  -11.52678
  75  187.7368
  76  62.71771
  77  -286.1112
  78  -206.2206
  79  37.01805
  80  40.69349
  81  579.621
  82  546.377
  83  132.8647
  84  87.79826
  85  -35.7351
  86  -46.31239
  87  -144.021
  88  -54.01076
  89  -20.78923
  90  -8.954988
  91  -23.99834
  92  123.2992
  93  2.163072
  94  -250.1923
  95  -4.361895
  96  -107.2189
  97  -77.78802
  98  -20.43722
  99  135.3321
 100  38.69258
 101  98.33945
 102  140.0449
 103  -10.18221
 104  93.68898
 105  -65.01973
 106  9.451448
 107  182.7598
 108  144.1314
 109  104.7237
 110  43.98013
 111  128.0077
 112  43.82167
 113  222.9979
 114  92.27695
 115  -161.8355
 116  297.0396
 117  142.0358
 118  -129.0819
 119  -16.71276
 120  160.1102
 121  116.1107
 122  -61.46087
 123  87.51768
 124  -258.2159
 125  -163.5878
 126  -149.9153
 127  -60.2591
 128  -39.10215
 129  46.42721
 130  9.985047
 131  -53.01095
 132  151.5124
 133  171.381
 134  -115.8831
 135  -133.8044
 136  13.09531
 137  -144.9227
 138  -262.1603
 139  -128.9356
 140  -149.7445
 141  -111.9489
 142  -66.15999
 143  -399.3342
 144  -305.6095
 145  58.95144
 146  -278.0371
 147  -244.8582
 148  351.3043
 149  445.9101
 150  -157.9901
 151  -627.165
 152  -764.9684
 153  -366.1581
 154  -32.43391
 155  -47.00675
 156  -106.202
 157  -275.9131
 158  -250.755
 159  -320.257
 160  375.4866
 161  678.2495
 162  454.557
 163  272.7916
 164  301.0675
 165  211.2908
 166  375.771
 167  -8.917639
 168  -94.92705
 169  -98.00853
 170  24.75223
 171  35.88445
 172  -108.9377
 173  178.1705
 174  290.7205
 175  307.9343
 176  283.4351
 177  227.1634
 178  37.7222
 179  192.9012
 180  313.7112
 181  416.1176
 182  499.6674
 183  440.2796
 184  265.0295
 185  64.3749
 186  249.457
 187  317.4771
 188  214.2387
 189  259.8998
 190  592.9428
 191  384.7327
 192  -14.68311
 193  196.0403
 194  297.0559
 195  313.9233
 196  213.1881
 197  39.04959
 198  156.4358
 199  306.6237
 200  353.5014
 201  333.8596
 202  349.3905
 203  324.3451
 204  319.7054
 205  104.8885
 206  436.5668
 207  456.7268
 208  318.61
 209  332.0533
 210  338.5655
 211  -46.26339
 212  -17.07664
 213  132.3543
 214  360.7325
 215  474.7492
 216  331.4438
 217  404.7063
 218  57.55387
 219  196.4395
 220  480.93
 221  293.8716
 222  444.6428
 223  601.9381
 224  873.1047
 225  826.9836
 226  483.6743
 227  386.7614
 228  499.1792
 229  555.8944
 230  736.4405
 231  819.171
 232  737.4006
 233  518.4232
 234  430.7858
 235  75.09026
 236  -82.18385
 237  -43.26665
 238  206.1295
 239  -61.87643
 240  -232.5929
 241  -322.7303
 242  -235.5331
 243  -487.3447
 244  -872.5459
 245  -412.3201
 246  -261.2445
 247  -350.116
 248  -165.8899
 249  -95.03553
 250  -324.1505
 251  -557.2263
 252  -274.9331
 253  -215.1198
 254  -540.388
 255  -606.1411
 256  -367.3273
 257  -143.0626
 258  -3.74063
 259  -385.4368
 260  -705.8283
 261  -373.6047
 262  -193.7501
 263  -327.8467
 264  -208.3271
 265  -219.6058
 266  -364.5716
 267  -565.7021
 268  -265.241
 269  -343.6292
 270  -553.4932
 271  -260.4779
 272  -365.3864
 273  -289.9184
 274  -606.2667
 275  -527.4795
 276  -498.4908
 277  -339.4662
 278  -499.2509
 279  -469.2276
 280  -484.3374
 281  -571.6307
 282  -491.0105
 283  -309.1167
 284  -486.8718
 285  -805.6424
 286  -664.3125
 287  -172.2431
 288  -209.0347
 289  -602.8051
 290  -527.7467
 291  -439.2199
 292  -683.272
 293  -577.2636
 294  -392.9217
 295  -548.0683
 296  -464.3566
 297  -341.3423
 298  -103.9745
 299  -81.99081
 300  -543.9421
 301  -539.047
 302  -823.4187
 303  -910.8888
 304  -726.5584
 305  -454.1793
 306  -86.15618
 307  -152.3225
 308  -349.291
 309  -62.6358
 310  25.78109
 311  -242.1727
 312  -94.06281
 313  -149.3033
 314  -230.4041
 315  -174.3877
 316  -17.24175
 317  -332.7144
 318  -245.3592
 319  -162.0721
 320  -150.9202
 321  -255.6503
 322  -419.8983
 323  -245.197
 324  228.9029
 325  87.75263
 326  9.759089
 327  -43.52814
 328  225.3971
 329  244.0824
 330  498.3694
 331  573.3568
 332  568.4513
 333  478.1024
 334  220.8133
 335  524.9121
 336  705.442
 337  206.8361
 338  191.253
 339  246.2381
 340  111.7505
 341  53.23001
 342  -6.885658
 343  190.032
 344  -8.852717
 345  20.06447
 346  -81.63808
 347  -181.0374
 348  -175.4793
 349  -291.5612
 350  -7.178953
 351  221.8298
 352  250.951
 353  211.8621
 354  -193.5815
 355  -225.5758
 356  -151.7747
 357  179.9941
 358  84.24427
 359  114.7323
 360  265.3801
 361  245.4871
 362  395.1116
 363  284.2403
 364  519.3976
 365  583.7024
 366  508.7461
 367  377.677
 368  362.4638
 369  251.3334
 370  85.50691
 371  54.66683
 372  269.0538
 373  300.0652
 374  602.9724
 375  710.5148
 376  224.1179
 377  -61.3743
 378  -141.5178
 379  -267.5513
 380  13.21829
 381  135.0709
 382  74.04882
 383  21.46585
 384  285.6507
 385  -15.85563
 386  -233.2005
 387  -174.417
 388  -76.33148
 389  -100.924
 390  -41.97596
 391  200.7855
 392  -222.964
 393  -383.991
 394  -172.1399
 395  343.5891
 396  162.1824
 397  10.49167
 398  88.30089
 399  28.14939
 400  -137.0506
 401  160.9487
 402  161.5816
 403  -282.6001
 404  -127.3844
 405  -91.50994
 406  -102.2209
 407  -62.57172
 408  -135.7167
 409  -63.21082
 410  -675.0706
 411  -399.4794
 412  -183.1611
 413  -348.1999
 414  -420.1899
 415  -263.7159
 416  -361.0034
 417  -424.6207
 418  -411.6187
 419  -488.6079
 420  -627.4055
 421  -468.6545
 422  -404.0898
 423  -588.2471
 424  -465.3875
 425  -194.5067
 426  -45.6242
 427  -198.7765
 428  9.54942
 429  -19.00588
 430  -377.665
 431  -251.8122
 432  -4.602873
 433  -240.6057
 434  -145.5267
 435  -46.56796
 436  1.375884
 437  -100.3059
 438  94.37067
 439  -79.57493
 440  -345.8985
 441  39.59884
 442  218.9923
 443  128.5272
 444  -65.04704
 445  -263.9228
 446  -78.07458
 447  159.7236
 448  299.1706
 449  58.261
 450  -238.0697
 451  28.1194
 452  253.875
 453  73.05338
 454  -199.3941
 455  130.8483
 456  203.6412
 457  -353.0903
 458  -511.8885
 459  -243.5437
 460  92.47862
 461  292.5609
 462  210.6347
 463  335.2186
 464  659.0585
 465  763.2999
 466  847.0088
 467  1169.332
 468  2023.318
 469  2001.986
 470  1920.112
 471  1616.341
 472  1184.983
 473  881.3832
 474  580.0477
 475  264.6218
 476  138.8717
 477  295.8309
 478  171.6655
 479  288.1152
 480  518.8182
 481  784.6638
 482  656.0237
 483  453.5376
 484  662.7625
 485  536.5031
 486  339.9634
 487  422.0127
 488  295.4101
 489  357.6007
 490  197.3079
 491  -54.36246
 492  -208.2848
 493  -383.9404
 494  -193.4108
 495  34.28987
 496  210.0504
 497  -231.0112
 498  -287.2886
 499  6.721047
 500  130.3444
 501  317.0688
 502  409.8961
 503  286.1941
 504  -57.58264
 505  -57.62723
 506  152.6367
 507  -40.83501
 508  130.0796
 509  157.9033
 510  244.5873
 511  -74.35062
