# Input file       =  1183079651.114455_cleaned.dat
# Candidate        =  PSR_0332+5434
# Telescope        =  AR
# Epoch_topo       =  57937.051737435824
# Epoch_bary       =  N/A
# T_sample         =  0.002
# Data Folded      =  7405568
# Data Avg         =  0.183402722463449
# Data StdDev      =  5.02969519747206 
# Profile Bins     =  512
# Profile Avg      =  2652.76916832844 
# Profile StdDev   =  604.90318877181  
# Reduced chi-sqr  =  0.825
# Prob(Noise)      <  0.998   (~0.0 sigma)
# P_topo (ms)      =  714.487584322133  +/- 3.42e-05
# P'_topo (s/s)    =  -0                +/- 1.79e-11
# P''_topo (s/s^2) =  0                 +/- 7.82e-15
# P_bary (ms)      =  N/A
# P'_bary (s/s)    =  N/A
# P''_bary (s/s^2) =  N/A
# P_orb (s)        =  N/A
# asin(i)/c (s)    =  N/A
# eccentricity     =  N/A
# w (rad)          =  N/A
# T_peri           =  N/A
######################################################
   0  2992.014
   1  2497.442
   2  2225.314
   3  2567.609
   4  2699.37
   5  2260.237
   6  2719.256
   7  3422.766
   8  2882.49
   9  2711.815
  10  2535.043
  11  2382.052
  12  2366.915
  13  2714.902
  14  2672.125
  15  2956.943
  16  2894.814
  17  2804.517
  18  2999
  19  2417.807
  20  2131.993
  21  2543.936
  22  2923.372
  23  3210.805
  24  3247.183
  25  2996.315
  26  2327.718
  27  1705.999
  28  1987.639
  29  2555.597
  30  2617.775
  31  2813.162
  32  3463.697
  33  3050.476
  34  1983.347
  35  1768.087
  36  1902.465
  37  2345.61
  38  2523.999
  39  3031.217
  40  3268.823
  41  2919.836
  42  2388.864
  43  1699.303
  44  1999.228
  45  1837.932
  46  2076.185
  47  2388.34
  48  2836.791
  49  3018.523
  50  2393.31
  51  2208.294
  52  1966.676
  53  1890.021
  54  2099.959
  55  2310.504
  56  2754.611
  57  3231.106
  58  3212.404
  59  2550.107
  60  2572.332
  61  2644.578
  62  2585.154
  63  2334.668
  64  2432.712
  65  2754.182
  66  2810.702
  67  2646.466
  68  2465.372
  69  2428.202
  70  2362.525
  71  2355.125
  72  2688.012
  73  3270.419
  74  3227.871
  75  2808.76
  76  2189.628
  77  2294.199
  78  2282.951
  79  2632.509
  80  2925.983
  81  2986.545
  82  2843.034
  83  2722.12
  84  3056.158
  85  2774.669
  86  2481.108
  87  2741.314
  88  2828.814
  89  2739.57
  90  2870.262
  91  2907.114
  92  2944.211
  93  2937.245
  94  2535.824
  95  2289.987
  96  2574.387
  97  2865.745
  98  2670.239
  99  2874.858
 100  2340.103
 101  2480.515
 102  2270.659
 103  2195.471
 104  2822.886
 105  2856.438
 106  2965.947
 107  3146.763
 108  2699.174
 109  2564.307
 110  2008.269
 111  1931.111
 112  2234.71
 113  2939.787
 114  3095.76
 115  3152.367
 116  2961.692
 117  2463.99
 118  2224.392
 119  1866.71
 120  2403.686
 121  2684.012
 122  3017.659
 123  3219.651
 124  2908.735
 125  2514.246
 126  2155.368
 127  2024.405
 128  2150.323
 129  2245.148
 130  2654.12
 131  2824.24
 132  2903.865
 133  2790.37
 134  2355.808
 135  2174.669
 136  2529.594
 137  2814.734
 138  2562.646
 139  2773.782
 140  2799.592
 141  2521.766
 142  2531.05
 143  2457.568
 144  2237.919
 145  2362.558
 146  2752.031
 147  3143.034
 148  3226.806
 149  2907.881
 150  2667.717
 151  2527.81
 152  2524.039
 153  2483.27
 154  2826.918
 155  3242.103
 156  3447.599
 157  3751.008
 158  2964.104
 159  2300.929
 160  2210.651
 161  2797.632
 162  2732.367
 163  2481.622
 164  2728.514
 165  2658.767
 166  2820.11
 167  2640.314
 168  2903.458
 169  2656.773
 170  2261.762
 171  2364.311
 172  2680.557
 173  2458.117
 174  2268.321
 175  2569.684
 176  2639.547
 177  2797.944
 178  2943.422
 179  3081.021
 180  3552.061
 181  3047.906
 182  2467.637
 183  2619.495
 184  2386.501
 185  2731.593
 186  2270.632
 187  2545.335
 188  3140.719
 189  3225.974
 190  2913.188
 191  2855.292
 192  2426.747
 193  2417.608
 194  2122.355
 195  2313.402
 196  3073.684
 197  3361.287
 198  2873.584
 199  2792.343
 200  2580.706
 201  2405.484
 202  2612.025
 203  2928.898
 204  2813.753
 205  3130.054
 206  3312.948
 207  2740.572
 208  2175.167
 209  2335.396
 210  2447.545
 211  2650.24
 212  2896.824
 213  2932.769
 214  2588.461
 215  2784.793
 216  2575.144
 217  2782.104
 218  2603.065
 219  2544.354
 220  2989.162
 221  2920.732
 222  3366.213
 223  2884.851
 224  2402.242
 225  2042.73
 226  2175.264
 227  2409.123
 228  2584.582
 229  2972.987
 230  3128.196
 231  2999.591
 232  2574.721
 233  2470.719
 234  1970.216
 235  2249.926
 236  2380.526
 237  2803.237
 238  3260.867
 239  3127.263
 240  2815.55
 241  2349.053
 242  2738.92
 243  2688.355
 244  2392.779
 245  2529.336
 246  2890.718
 247  2807.536
 248  2862.147
 249  2448.764
 250  2363.12
 251  2339.04
 252  2442.889
 253  2671.311
 254  2658.319
 255  2689.418
 256  2480.257
 257  2429.381
 258  2167.212
 259  2051.238
 260  2086.435
 261  2237.489
 262  2847.475
 263  2985.781
 264  2736.044
 265  2571.918
 266  2617.784
 267  2645.81
 268  2691.099
 269  2744.552
 270  2451.99
 271  2822.569
 272  3038.611
 273  2899.432
 274  2983.85
 275  2575.756
 276  2469.502
 277  2519.006
 278  2688.062
 279  2961.341
 280  2965.608
 281  3072.747
 282  2596.039
 283  2653.701
 284  2526.835
 285  2238.763
 286  2709.925
 287  3345.112
 288  3136.419
 289  2631.086
 290  2506.339
 291  2259.455
 292  2092.334
 293  2296.995
 294  2541.447
 295  2935.896
 296  3475.773
 297  3382.428
 298  3154.683
 299  2522.693
 300  2399.777
 301  2203.071
 302  2760.499
 303  2967.746
 304  3434.573
 305  3359.103
 306  2917.094
 307  2656.308
 308  2614.163
 309  2718.887
 310  2616.366
 311  2441.521
 312  2962.378
 313  2998.642
 314  2868.794
 315  2884.299
 316  2689.088
 317  2584.446
 318  2517.948
 319  2965.687
 320  2929.016
 321  3039.525
 322  3121.199
 323  2978.986
 324  3322.384
 325  4105.341
 326  4256.283
 327  4449.741
 328  4565.284
 329  4157.219
 330  3839.818
 331  3316.506
 332  2417.641
 333  2259.77
 334  2572.094
 335  2696.086
 336  2645.087
 337  2962.298
 338  3018.094
 339  2829.066
 340  2327.222
 341  2075.533
 342  2633.198
 343  2584.065
 344  2808.147
 345  2589.683
 346  2443.655
 347  2533.431
 348  2702.901
 349  2551.695
 350  2826.861
 351  2949.666
 352  2657.932
 353  2875.158
 354  3165.194
 355  2881.78
 356  2283.018
 357  2005.403
 358  2445.739
 359  2282.782
 360  2717.047
 361  3088.454
 362  2946.916
 363  2690.374
 364  2801.56
 365  2604.625
 366  2170.8
 367  2140.047
 368  2084.55
 369  2552.781
 370  3296.339
 371  3494.21
 372  3225.686
 373  2648.558
 374  2827.444
 375  2279.611
 376  2334.266
 377  2570.485
 378  2973.698
 379  3240.72
 380  3059.288
 381  2697.949
 382  2280.608
 383  2374.043
 384  2240.006
 385  2610.504
 386  2986.719
 387  3265.01
 388  2761.28
 389  2593.621
 390  2669.417
 391  2581.532
 392  2342.93
 393  2544.112
 394  2785.906
 395  2673.39
 396  2721.733
 397  2445.525
 398  2417.463
 399  2074.27
 400  2169.988
 401  2565.486
 402  2503.516
 403  2496.444
 404  2734.124
 405  2396.385
 406  2042.491
 407  1936.529
 408  2180.25
 409  2196.43
 410  2328.719
 411  2874.042
 412  2815.973
 413  3037.58
 414  2811.911
 415  2712.929
 416  2341.329
 417  2291.768
 418  2217.181
 419  2519.817
 420  2820.224
 421  2321.322
 422  2391.549
 423  2599.295
 424  2470.698
 425  2333.399
 426  2378.884
 427  2471.409
 428  2742.159
 429  2762.999
 430  2229.853
 431  2366.542
 432  2600.517
 433  2550.204
 434  2427.438
 435  2656.092
 436  2925.121
 437  2774.671
 438  2726.146
 439  2432.935
 440  1934.858
 441  2413.377
 442  2661.127
 443  2756.015
 444  3107.953
 445  3177.156
 446  2844.924
 447  2559.589
 448  2414.749
 449  2181.507
 450  2138.642
 451  2500.469
 452  2966.21
 453  3314.002
 454  3553.433
 455  2871.088
 456  2568.804
 457  2067.434
 458  1825.35
 459  2456.96
 460  3112.559
 461  3293.636
 462  2708.629
 463  2779.582
 464  2576.499
 465  2133.504
 466  1581.244
 467  2006.412
 468  2755.733
 469  3135.572
 470  3190.124
 471  2716.065
 472  2217.61
 473  1690.837
 474  2092.488
 475  2158.86
 476  2653.65
 477  3035.399
 478  3089.933
 479  2685.366
 480  2263.123
 481  2065.943
 482  2011.721
 483  2080.084
 484  2360.709
 485  2854.759
 486  3085.048
 487  3164.874
 488  2502.102
 489  2438.509
 490  2036.202
 491  1848.799
 492  2344.776
 493  2886.154
 494  2945.526
 495  3074.937
 496  2875.737
 497  2697.505
 498  2660.977
 499  2566.986
 500  2551.568
 501  2407.481
 502  2570.378
 503  2688.19
 504  2486.385
 505  2434.432
 506  2316.853
 507  2421.378
 508  2311.847
 509  2162.464
 510  2254.787
 511  2604.694
