# Input file       =  1183798301.101795_cleaned.dat
# Candidate        =  PSR_0332+5434
# Telescope        =  AR
# Epoch_topo       =  57945.369445622629
# Epoch_bary       =  N/A
# T_sample         =  0.002
# Data Folded      =  7340032
# Data Avg         =  0.288763867046717
# Data StdDev      =  5.21294428945298 
# Profile Bins     =  512
# Profile Avg      =  4139.59100916855 
# Profile StdDev   =  624.161648239128 
# Reduced chi-sqr  =  0.511
# Prob(Noise)      <  1   (~0.0 sigma)
# P_topo (ms)      =  714.481737552671  +/- 0.000652
# P'_topo (s/s)    =  -0                +/- 3.44e-10
# P''_topo (s/s^2) =  0                 +/- 1.52e-13
# P_bary (ms)      =  N/A
# P'_bary (s/s)    =  N/A
# P''_bary (s/s^2) =  N/A
# P_orb (s)        =  N/A
# asin(i)/c (s)    =  N/A
# eccentricity     =  N/A
# w (rad)          =  N/A
# T_peri           =  N/A
######################################################
   0  4025.747
   1  4197.15
   2  4278.236
   3  4218.69
   4  4366.346
   5  3855.473
   6  3890.809
   7  3794.53
   8  3917.088
   9  4530.511
  10  4326.995
  11  4131.982
  12  3901.82
  13  4326.241
  14  4511.625
  15  4410.157
  16  4497.336
  17  4953.998
  18  4854.322
  19  4479.428
  20  4306.272
  21  4230.563
  22  4486.097
  23  4694.346
  24  4495.73
  25  4426.738
  26  4255.744
  27  4208.957
  28  4400.208
  29  4478.087
  30  3842.049
  31  3872.326
  32  4003.004
  33  4027.133
  34  3798.754
  35  3762.967
  36  3811.21
  37  3889.56
  38  4282.625
  39  3870.038
  40  3592.806
  41  3491.87
  42  3747.567
  43  4042.528
  44  4213.204
  45  4029.728
  46  3689.507
  47  3947.26
  48  3632.543
  49  3485.285
  50  3676.997
  51  4105.991
  52  4545.24
  53  4374.38
  54  4121.421
  55  4324.05
  56  4618.935
  57  4434.866
  58  4804.045
  59  4953.75
  60  4602.723
  61  4286.355
  62  4371.912
  63  4243.295
  64  4524.221
  65  4266.801
  66  4562.043
  67  4582.593
  68  4411.818
  69  4213.82
  70  4049.626
  71  4504.517
  72  4302.423
  73  4113.264
  74  4242.47
  75  4104.939
  76  4455.487
  77  4517.182
  78  4526.194
  79  4574.673
  80  4427.856
  81  4254.613
  82  3933.62
  83  4021.093
  84  4285.69
  85  4543.771
  86  4181.309
  87  3884.175
  88  3974.148
  89  4278.499
  90  4399.374
  91  4500.025
  92  4041.457
  93  3963.932
  94  4271.25
  95  4489.968
  96  4834.147
  97  4797.427
  98  4542.169
  99  4408.774
 100  4250.228
 101  4219.493
 102  4197.47
 103  4348.068
 104  4595.171
 105  4574.242
 106  4142.917
 107  4313.785
 108  4498.127
 109  4614.443
 110  4914.885
 111  4848.579
 112  4447.513
 113  4099.244
 114  4236.782
 115  4448.263
 116  4127.458
 117  4518.064
 118  4243.717
 119  3821.136
 120  3788.694
 121  3767.865
 122  3790.576
 123  3943.2
 124  4437.855
 125  4263.001
 126  3755.243
 127  3668.122
 128  4013.012
 129  3923.528
 130  3844.139
 131  3730.582
 132  3773.436
 133  3745.941
 134  3810.591
 135  3705.044
 136  3866.28
 137  3954.169
 138  4123.712
 139  4071.278
 140  3774.076
 141  3617.229
 142  3952.526
 143  4041.206
 144  3810.392
 145  3789.983
 146  3839.577
 147  3852.931
 148  4016.499
 149  4022.439
 150  4183.19
 151  4139.469
 152  4202.936
 153  4396.015
 154  4121.251
 155  4168.879
 156  3785.49
 157  3945.089
 158  4120.525
 159  4169.883
 160  4471.244
 161  4480.239
 162  4403.744
 163  4176.899
 164  3950.1
 165  3816.08
 166  3636.099
 167  3768.95
 168  3675.484
 169  4119.87
 170  4085.573
 171  3993.493
 172  4122.377
 173  4013.895
 174  3705.887
 175  3666.742
 176  3905.037
 177  3981.29
 178  3824.789
 179  3836.354
 180  3859.552
 181  4058.713
 182  4579.482
 183  4590.097
 184  4184.425
 185  4289.881
 186  4021.762
 187  4227.635
 188  4347.96
 189  4204.512
 190  4126.88
 191  3925.968
 192  4020.228
 193  3984.056
 194  4174.341
 195  4098.837
 196  4152.235
 197  4179.92
 198  4397.12
 199  4315.255
 200  4626.791
 201  4659.213
 202  4261.742
 203  4144.768
 204  4323.835
 205  4226.281
 206  4511.132
 207  4232.033
 208  4015.093
 209  4018.172
 210  4141.361
 211  4057.854
 212  3549.8
 213  3490.066
 214  3670.229
 215  3608.074
 216  3406.543
 217  3495.41
 218  3318.17
 219  3688.483
 220  3986.777
 221  3943.678
 222  3757.796
 223  3820.188
 224  3859.963
 225  4087.054
 226  3934.412
 227  3872.843
 228  3811.074
 229  3674.005
 230  3689.007
 231  3956.374
 232  3983.899
 233  3667.116
 234  3875.055
 235  3946.011
 236  3678.563
 237  3530.159
 238  3707.965
 239  4072.893
 240  3854.535
 241  3381.977
 242  3672.969
 243  4008.379
 244  4189.483
 245  3986.409
 246  3918.13
 247  4157.66
 248  4092.815
 249  4187.803
 250  4276.158
 251  4361.18
 252  4087.165
 253  3772.298
 254  3892.203
 255  3785.649
 256  4072.013
 257  4053.351
 258  4254.427
 259  4148.458
 260  3965.449
 261  3805.694
 262  3657.223
 263  3825.111
 264  3878.501
 265  3711.268
 266  3804.924
 267  4234.794
 268  4633.01
 269  4835.862
 270  4712.995
 271  4495.573
 272  4564.569
 273  4898.134
 274  4726.662
 275  4585.288
 276  4265.625
 277  4504.856
 278  4585.645
 279  4512.363
 280  4438.461
 281  4663.547
 282  4052.417
 283  4316.462
 284  4154.974
 285  3987.823
 286  3963.508
 287  4207.421
 288  4366.303
 289  4180.89
 290  4195.628
 291  3985.094
 292  4055.449
 293  3849.163
 294  4026.441
 295  4147.296
 296  4092.615
 297  4426.75
 298  3756.038
 299  3592.593
 300  4154.282
 301  4014.288
 302  3960.201
 303  4203.86
 304  3950.392
 305  4071.755
 306  3943.317
 307  3902.802
 308  3980.045
 309  3716.967
 310  4027.06
 311  4317.74
 312  4292.668
 313  4452.497
 314  4326.226
 315  4170.875
 316  4027.171
 317  3804.823
 318  3774.511
 319  3945.931
 320  4370.546
 321  4683.8
 322  4452.135
 323  4180.813
 324  4058.336
 325  4075.894
 326  4152.892
 327  3988.015
 328  4171.311
 329  4123.327
 330  4115.461
 331  4046.391
 332  3916.23
 333  4422.333
 334  4232.573
 335  4291.568
 336  4186.482
 337  3975.608
 338  4207.642
 339  4390.343
 340  4426.141
 341  4245.474
 342  3882.727
 343  4223.645
 344  4184.444
 345  4277.465
 346  4208.366
 347  4020.573
 348  4284.313
 349  3910.427
 350  4102.583
 351  3985.102
 352  4082.86
 353  4451.123
 354  4407.741
 355  4400.954
 356  4542.78
 357  4509.688
 358  4366.193
 359  4353.456
 360  4450.704
 361  4236.383
 362  4563.207
 363  4628.476
 364  4696.703
 365  4497.17
 366  3552.223
 367  3988.563
 368  4238.351
 369  4304.986
 370  4541.494
 371  4684.231
 372  4558.368
 373  4532.002
 374  4345.13
 375  4534.772
 376  4571.142
 377  4824.701
 378  4593.56
 379  4387.522
 380  4487.393
 381  4707.062
 382  4333.301
 383  4205.302
 384  4190.512
 385  4137.535
 386  3848.228
 387  4001.793
 388  4332.034
 389  4340.065
 390  3992.456
 391  4083.54
 392  4373.227
 393  4113.573
 394  3606.383
 395  3672.555
 396  4290.586
 397  4294.587
 398  4131.459
 399  4191.196
 400  4430.484
 401  4137.25
 402  4246.633
 403  4034.665
 404  3884.425
 405  4252.18
 406  4300.232
 407  4307.253
 408  4207.579
 409  4175.374
 410  4087.526
 411  4421.51
 412  4433.455
 413  4204.836
 414  4574.505
 415  4586.965
 416  4230.046
 417  3706.061
 418  3481.771
 419  3849.169
 420  3972.448
 421  4357.421
 422  4520.481
 423  4198.147
 424  3677.726
 425  3769.053
 426  3783.91
 427  4265.445
 428  4089.563
 429  4057.999
 430  4556.875
 431  5172.865
 432  5464.966
 433  5245.223
 434  5353.344
 435  5190.459
 436  4297.054
 437  3929.263
 438  4186.167
 439  4312.665
 440  3932.293
 441  4172.354
 442  4049.568
 443  3985.457
 444  4369.638
 445  4853.1
 446  4605.186
 447  4057.841
 448  4183.145
 449  4433.223
 450  4500.672
 451  4225.83
 452  4034.909
 453  3895.147
 454  4039.976
 455  4042.887
 456  3943.697
 457  3883.466
 458  3830.772
 459  3878.384
 460  3920.049
 461  3679.565
 462  3788.57
 463  4120.234
 464  3910.012
 465  3866.326
 466  3955.292
 467  3504.629
 468  3756.142
 469  4056.347
 470  3825.245
 471  3809.368
 472  3748.104
 473  4096.716
 474  4306.619
 475  4215.082
 476  4031.429
 477  3648.541
 478  3887.201
 479  4156.822
 480  4208.015
 481  3897.476
 482  3529.489
 483  3779.662
 484  3845.576
 485  4224.795
 486  4163.042
 487  4165.173
 488  4127.362
 489  3448.443
 490  3528.355
 491  4156.38
 492  4296.312
 493  4231.077
 494  4155.405
 495  4100.192
 496  3923.031
 497  4043.373
 498  4170.19
 499  4184.021
 500  3786.084
 501  3856.302
 502  3963.717
 503  3803.914
 504  4102.509
 505  4020.646
 506  3945.435
 507  3933.805
 508  3749.18
 509  3762.252
 510  3686.307
 511  3716.27
