# Input file       =  1183008434.122497_cleaned.dat
# Candidate        =  PSR_0332+5434
# Telescope        =  AR
# Epoch_topo       =  57936.227466695571
# Epoch_bary       =  N/A
# T_sample         =  0.002
# Data Folded      =  7340032
# Data Avg         =  0.179125627780324
# Data StdDev      =  3.54880362086866 
# Profile Bins     =  512
# Profile Avg      =  2567.10340175496 
# Profile StdDev   =  424.909033031467 
# Reduced chi-sqr  =  1.391
# Prob(Noise)      <  1.03e-08   (~5.6 sigma)
# P_topo (ms)      =  714.488257143029  +/- 0.000509
# P'_topo (s/s)    =  -0                +/- 2.68e-10
# P''_topo (s/s^2) =  0                 +/- 1.18e-13
# P_bary (ms)      =  N/A
# P'_bary (s/s)    =  N/A
# P''_bary (s/s^2) =  N/A
# P_orb (s)        =  N/A
# asin(i)/c (s)    =  N/A
# eccentricity     =  N/A
# w (rad)          =  N/A
# T_peri           =  N/A
######################################################
   0  2321.992
   1  2494.366
   2  2068.523
   3  2066.864
   4  2492.078
   5  2380.38
   6  2382.789
   7  2549.579
   8  2802.99
   9  2441.12
  10  2146.915
  11  2191.737
  12  2153.229
  13  2241.446
  14  1941.343
  15  1969.556
  16  2156.335
  17  2008.783
  18  1967.702
  19  2232.32
  20  2438.296
  21  2295.501
  22  2166.732
  23  2280.083
  24  2235.614
  25  2044.473
  26  2176.041
  27  2295.373
  28  2366.884
  29  2459.578
  30  2580.857
  31  2293.024
  32  2233.37
  33  2237.123
  34  2377.208
  35  2497.275
  36  2811.861
  37  2785.906
  38  2738.582
  39  2477.176
  40  2442.457
  41  2942.779
  42  3085.439
  43  3451.045
  44  3462.701
  45  4193.696
  46  4518.708
  47  4812.821
  48  4607.754
  49  4066.848
  50  3853.044
  51  3249.144
  52  3045.07
  53  2917.589
  54  2844.134
  55  2503.524
  56  2677.554
  57  2859.949
  58  3202.345
  59  3145.819
  60  3176.98
  61  3126.296
  62  3090.991
  63  2937.498
  64  3034.477
  65  3038.696
  66  2905.6
  67  2767.934
  68  2618.04
  69  2711.644
  70  2716.693
  71  2769.942
  72  2979.617
  73  2700.756
  74  2776.711
  75  2742.717
  76  2690.018
  77  2756.26
  78  2782.095
  79  2613.678
  80  2623.034
  81  2784.805
  82  2769.616
  83  2993.44
  84  3055.632
  85  2576.926
  86  2789.753
  87  2974.437
  88  3158.439
  89  3060.708
  90  3128.665
  91  3278.228
  92  3100.28
  93  2981.602
  94  3112.02
  95  3421.874
  96  3460.37
  97  2906.971
  98  2874.673
  99  2936.646
 100  2827.843
 101  2900.655
 102  2923.796
 103  3066.771
 104  3067.933
 105  2996.709
 106  3050.299
 107  2997.547
 108  2947.755
 109  2967.277
 110  3181.088
 111  3321.916
 112  3223.289
 113  3143.969
 114  2718.233
 115  3166.074
 116  3287.583
 117  2840.183
 118  2773.932
 119  2927.434
 120  3020.265
 121  3043.688
 122  2747.508
 123  2878.274
 124  2830.79
 125  2491.248
 126  2738.057
 127  3117.886
 128  3014.013
 129  2717.573
 130  2777.037
 131  3090.888
 132  2893.611
 133  2514.458
 134  2498.791
 135  2789.545
 136  2459.108
 137  2495.423
 138  2621.29
 139  2529.464
 140  2549.541
 141  2331.14
 142  2384.619
 143  2338.349
 144  2254.69
 145  2328.663
 146  2786.192
 147  2754.163
 148  2795.4
 149  2928.212
 150  2692.463
 151  2559.427
 152  2866.327
 153  2904.267
 154  2666.821
 155  2458.008
 156  2763.529
 157  2641.05
 158  2597.76
 159  2601.384
 160  2569.104
 161  2594.646
 162  2346.839
 163  2522.467
 164  2465.962
 165  2446.947
 166  2385.964
 167  2396.023
 168  2708.789
 169  2556.647
 170  2563.846
 171  2636.953
 172  2429.964
 173  2357.778
 174  2291.926
 175  2002.983
 176  2149.119
 177  2597.947
 178  2749.277
 179  2535.821
 180  2246.604
 181  2373.117
 182  2141.445
 183  2212.674
 184  2485.783
 185  2447.632
 186  2458.665
 187  2507.896
 188  2584.009
 189  2192.735
 190  2054.773
 191  1876.406
 192  2301.377
 193  2630.886
 194  2588.044
 195  2630.18
 196  2488.654
 197  2554.745
 198  2728.516
 199  2481.711
 200  2503.46
 201  2262.524
 202  2480.788
 203  2660.902
 204  2675.06
 205  2481.983
 206  2404.669
 207  2370.044
 208  2250.241
 209  2381.462
 210  2409.78
 211  2437.686
 212  2303.967
 213  2365.385
 214  2690.042
 215  2745.178
 216  2832.1
 217  2740.116
 218  2531.743
 219  2627.903
 220  2457.041
 221  2243.303
 222  2342.954
 223  2387.237
 224  2378.018
 225  2567.409
 226  2617.092
 227  2489.692
 228  2734.714
 229  2770.658
 230  2568.35
 231  2641.816
 232  2576.984
 233  2594.235
 234  2591.809
 235  2786.589
 236  2857.68
 237  2412.244
 238  2302.8
 239  2207.119
 240  2511.614
 241  2679.316
 242  2589.226
 243  2501.492
 244  2655.806
 245  2729.344
 246  2576.058
 247  2422.209
 248  2259.531
 249  2516.328
 250  2561.26
 251  2350.855
 252  2838.995
 253  2675.77
 254  2447.196
 255  2554.675
 256  2397.806
 257  2279.198
 258  2297.03
 259  2749.911
 260  2742.803
 261  2458.851
 262  2507.46
 263  2325.936
 264  2252.672
 265  2420.6
 266  2384.56
 267  2138.561
 268  2351.587
 269  2415.684
 270  2854.662
 271  2729.178
 272  2555.052
 273  2572.639
 274  2844.539
 275  2677.505
 276  2625.146
 277  2917.324
 278  2977.409
 279  2830.594
 280  2845.162
 281  2921.069
 282  2832.55
 283  2517.232
 284  2754.073
 285  2789.231
 286  2473.783
 287  2403.228
 288  2216.886
 289  2297.779
 290  2356.972
 291  2509.323
 292  2683.168
 293  2383.06
 294  2562.479
 295  2622.224
 296  2653.9
 297  2470.566
 298  1966.642
 299  1879.873
 300  2124.884
 301  2068.133
 302  2119.368
 303  2255.047
 304  2316.822
 305  1953.098
 306  1827.562
 307  1696.43
 308  1931.177
 309  2136.078
 310  2148.82
 311  2020.578
 312  2209.555
 313  2236.477
 314  2244.334
 315  2351.458
 316  2416.563
 317  2402.868
 318  2374.812
 319  2634.072
 320  2536.085
 321  2368.399
 322  2235.154
 323  2253.298
 324  2582.452
 325  2620.225
 326  2652.604
 327  2668.515
 328  2879.976
 329  2906.194
 330  2773.334
 331  2764.647
 332  2616.148
 333  2397.762
 334  2661.123
 335  2772.41
 336  2851.745
 337  2340.912
 338  2372.188
 339  2447.284
 340  2548.583
 341  2457.397
 342  2260.183
 343  2365.832
 344  2673.122
 345  2728.886
 346  2537.032
 347  2356.847
 348  2350.792
 349  2336.775
 350  2454.464
 351  2428.709
 352  2235.754
 353  2450.749
 354  2559.404
 355  2351.838
 356  2373.897
 357  2369.716
 358  2908.333
 359  2620.895
 360  2264.636
 361  2424.321
 362  2417.818
 363  2201.844
 364  2292.764
 365  2470.302
 366  2744.154
 367  2743.852
 368  2693.799
 369  2602.752
 370  2575.281
 371  2801.74
 372  2665.112
 373  2479.325
 374  2329.628
 375  2314.228
 376  2169.969
 377  2339.229
 378  2179.756
 379  1738.068
 380  2002.185
 381  1769.97
 382  1735.527
 383  2074.994
 384  2033.896
 385  2368.158
 386  2103.369
 387  2294.979
 388  2148.416
 389  1751.677
 390  1841.588
 391  2264.953
 392  2071.463
 393  2247.084
 394  2142.615
 395  1989.258
 396  2433.932
 397  2180.22
 398  2069.061
 399  2274.272
 400  2658.956
 401  2525.761
 402  2411.18
 403  2474.612
 404  2531.49
 405  2629.75
 406  2573.036
 407  2746.209
 408  2327.246
 409  2659.525
 410  3002.139
 411  3129.589
 412  3083.437
 413  2737.293
 414  3053.289
 415  3075.406
 416  2828.119
 417  2597.035
 418  2668.608
 419  2660.948
 420  2850.712
 421  3077.979
 422  2853.327
 423  2558.006
 424  2595.079
 425  2706.561
 426  2615.365
 427  2523.472
 428  2839.939
 429  2897.514
 430  2631.895
 431  2594.58
 432  2460.111
 433  2337.24
 434  2295.17
 435  2547.969
 436  2385.304
 437  2538.46
 438  2605.863
 439  2785.082
 440  2424.387
 441  2484.935
 442  2517.763
 443  2386.177
 444  2252.387
 445  2330.593
 446  2279.442
 447  2424.419
 448  2347.014
 449  2745.701
 450  2949.518
 451  2472.852
 452  2455.16
 453  2591.221
 454  2795.205
 455  2887.713
 456  2871.029
 457  2730.329
 458  2352.073
 459  2516.089
 460  2536.391
 461  2627.905
 462  2594.37
 463  2689.932
 464  2599.461
 465  2641.454
 466  2772.861
 467  2445.534
 468  2320.178
 469  2176.008
 470  2179.364
 471  2114.444
 472  2141.114
 473  2134.103
 474  2292.795
 475  2420.402
 476  2393.114
 477  2302.356
 478  2328.33
 479  2401.538
 480  2386.882
 481  2096.304
 482  2237.384
 483  2511.687
 484  2414.711
 485  2435.25
 486  2633.912
 487  2570.492
 488  2510.013
 489  2494.523
 490  2301.376
 491  2381.129
 492  2239.503
 493  1951.893
 494  2103.668
 495  2754.635
 496  2694.057
 497  2412.118
 498  2761.298
 499  3153.22
 500  2703.165
 501  2385.372
 502  2486.184
 503  2540.418
 504  2572.381
 505  2326.486
 506  2429.531
 507  2409.028
 508  2152.934
 509  2004.152
 510  2355.653
 511  2462.06
