# Input file       =  1183370233.240542_cleaned.dat
# Candidate        =  PSR_0332+5434
# Telescope        =  AR
# Epoch_topo       =  57940.414956487752
# Epoch_bary       =  N/A
# T_sample         =  0.002
# Data Folded      =  7340032
# Data Avg         =  0.308561491650055
# Data StdDev      =  6.470245429693   
# Profile Bins     =  512
# Profile Avg      =  4423.33189996469 
# Profile StdDev   =  774.702131400036 
# Reduced chi-sqr  =  1.775
# Prob(Noise)      <  1.54e-24   (~10.2 sigma)
# P_topo (ms)      =  714.485413880195  +/- 1.13e-05
# P'_topo (s/s)    =  -0                +/- 5.97e-12
# P''_topo (s/s^2) =  0                 +/- 2.64e-15
# P_bary (ms)      =  N/A
# P'_bary (s/s)    =  N/A
# P''_bary (s/s^2) =  N/A
# P_orb (s)        =  N/A
# asin(i)/c (s)    =  N/A
# eccentricity     =  N/A
# w (rad)          =  N/A
# T_peri           =  N/A
######################################################
   0  4724.703
   1  5116.838
   2  4209.871
   3  4003.209
   4  4427.872
   5  4483.042
   6  5075.842
   7  4605.663
   8  3991.671
   9  4583.951
  10  5577.925
  11  5875.194
  12  4999.778
  13  4633.302
  14  4828.367
  15  5454.719
  16  5437.853
  17  4373.471
  18  4266.904
  19  5003.259
  20  5333.867
  21  4591.933
  22  3683.256
  23  4010.661
  24  4794.677
  25  5075.668
  26  4512.132
  27  3731.231
  28  3644.362
  29  4754.218
  30  4741.792
  31  3732.406
  32  3186.614
  33  4052.596
  34  5582.655
  35  5317.512
  36  4281.543
  37  3798.132
  38  4724.519
  39  5921.527
  40  5345.696
  41  4197.765
  42  4190.917
  43  5247.471
  44  5937.485
  45  5514.192
  46  4734.148
  47  4500.77
  48  5335.884
  49  5885.144
  50  4923.504
  51  3866.297
  52  4498.063
  53  5642.806
  54  5375.208
  55  4395.312
  56  3796.556
  57  4376.56
  58  4939.399
  59  5050.191
  60  4131.648
  61  4022.957
  62  4631.695
  63  5201.787
  64  4874.135
  65  3499.706
  66  3467.518
  67  4962.61
  68  5467.883
  69  4903.347
  70  4241.687
  71  3873.987
  72  4562.69
  73  4474.988
  74  3662.815
  75  2914.127
  76  4113.606
  77  5243.484
  78  4859.178
  79  3611.868
  80  3147.309
  81  3749.792
  82  4500.921
  83  4287.363
  84  3417.195
  85  3393.512
  86  4167.184
  87  4935.275
  88  4362.016
  89  3504.961
  90  3672.531
  91  4577.531
  92  4788.771
  93  3715.572
  94  2471.612
  95  2856.39
  96  3935.127
  97  4146.23
  98  3226.016
  99  2616.806
 100  3195.351
 101  4168.854
 102  4437.777
 103  3455.705
 104  2722.539
 105  3747.718
 106  4523.384
 107  4276.351
 108  3115.745
 109  3433.156
 110  4472.515
 111  4978.305
 112  3817.9
 113  2723.315
 114  3028.409
 115  4131.025
 116  4745.02
 117  4230.405
 118  3170.178
 119  3285.429
 120  4562.102
 121  4299.47
 122  3027.605
 123  3136.964
 124  3726.1
 125  4722.99
 126  4601.218
 127  3587.586
 128  3285.967
 129  3737.189
 130  4344.069
 131  4292.298
 132  3626.072
 133  3908.544
 134  4970.034
 135  5333.441
 136  4165.161
 137  3111.234
 138  3693.137
 139  4995.286
 140  5285.094
 141  4494.712
 142  3463.119
 143  3671.969
 144  4581.12
 145  5018.877
 146  4312.981
 147  3269.559
 148  4269.701
 149  4793.431
 150  5031.033
 151  4131.796
 152  3587.654
 153  4288.673
 154  4840.059
 155  4343.847
 156  3342.68
 157  3276.036
 158  4406.592
 159  4894.244
 160  4138.54
 161  3417.535
 162  3666.784
 163  4231.096
 164  4693.421
 165  4352.097
 166  3809.816
 167  4029.13
 168  4658.553
 169  4777.093
 170  3804.988
 171  3371.839
 172  4290.299
 173  4906.438
 174  4818.41
 175  3899.117
 176  3847.107
 177  4861.065
 178  5213.191
 179  4617.179
 180  3561.039
 181  4044.52
 182  4989.302
 183  5212.976
 184  4555.03
 185  3707.863
 186  4149.446
 187  4425.088
 188  4640.959
 189  3860.799
 190  3420.889
 191  3945.882
 192  4586.165
 193  4483.559
 194  3568.659
 195  3326.137
 196  4230.04
 197  4847.484
 198  4627.62
 199  3670.725
 200  3414.019
 201  4092.395
 202  4556.845
 203  3975
 204  3177.913
 205  3359.848
 206  3999.647
 207  4437.32
 208  3805.972
 209  3123.247
 210  3975.339
 211  4569.832
 212  4608.514
 213  3267.758
 214  2565.072
 215  3789.775
 216  5205.675
 217  5018.397
 218  3805.437
 219  3851.543
 220  4584.795
 221  4676.569
 222  4296.047
 223  3389.836
 224  3537.95
 225  4812.963
 226  4874.47
 227  4164.481
 228  3074.095
 229  3490.812
 230  4341.046
 231  4318.54
 232  3777.293
 233  3257.608
 234  3987.927
 235  4674.252
 236  4690.531
 237  4069.632
 238  3211.052
 239  3791.511
 240  4208.034
 241  3827.358
 242  2990.936
 243  3158.846
 244  4113.987
 245  4695.196
 246  4040.555
 247  3083.511
 248  3519.285
 249  4950.356
 250  5657.673
 251  4868.985
 252  4073.046
 253  4561.776
 254  5536.484
 255  5417.467
 256  4385.461
 257  3695.083
 258  4480.361
 259  5706.352
 260  5529.56
 261  4255.09
 262  4050.072
 263  4531.571
 264  5266.327
 265  4340.027
 266  3578.83
 267  3944.405
 268  4660.124
 269  4793.077
 270  4180.155
 271  3655.417
 272  4033.674
 273  4935.001
 274  4995.319
 275  3731.702
 276  2925.959
 277  3919.07
 278  4875.936
 279  4556.724
 280  3573.43
 281  3023.23
 282  3747.16
 283  5025.049
 284  5216.349
 285  4125.329
 286  3576.841
 287  4092.561
 288  4862.02
 289  4403.141
 290  2955.811
 291  2963.809
 292  3974.366
 293  4409.802
 294  3586.198
 295  3282.413
 296  4097.739
 297  4405.564
 298  4020.369
 299  3459.279
 300  3187.157
 301  3388.74
 302  4501.67
 303  4697.157
 304  3825.842
 305  3799.041
 306  4859.279
 307  5375.043
 308  4891.975
 309  4155.309
 310  4112.869
 311  5094.23
 312  5193.999
 313  4519.503
 314  3684.301
 315  4327.604
 316  5223.537
 317  5461.695
 318  4986.234
 319  4210.203
 320  4188.816
 321  5219.269
 322  5536.738
 323  4782.821
 324  4191.211
 325  4774.486
 326  5494.25
 327  5471.554
 328  4161.014
 329  3715.403
 330  4537.366
 331  5222.068
 332  4602.078
 333  3439.243
 334  3275.25
 335  4610.214
 336  5015.645
 337  4179.841
 338  3244.629
 339  3730.186
 340  4432.457
 341  4572.298
 342  4149.263
 343  3511.442
 344  3888.383
 345  5073.79
 346  5141.788
 347  4088.333
 348  3587.046
 349  4437.068
 350  5153.755
 351  4788.242
 352  4339.825
 353  4581.006
 354  5373.885
 355  6042.343
 356  5153.994
 357  4696.979
 358  4782.943
 359  5805.738
 360  6305.955
 361  5346.219
 362  4259.542
 363  4790.428
 364  6043.814
 365  5886.993
 366  4954.148
 367  4677.369
 368  5593.403
 369  5975.597
 370  5147.823
 371  4297.226
 372  4034.186
 373  4873.562
 374  5787.33
 375  5338.744
 376  4440.452
 377  4220.491
 378  5071.969
 379  5531.01
 380  4983.062
 381  4572.56
 382  4684.375
 383  5612.453
 384  5871.565
 385  5006.334
 386  4517.346
 387  4743.189
 388  5872.791
 389  5744.468
 390  4949.261
 391  4453.285
 392  4538.612
 393  5538.773
 394  5255.303
 395  3937.105
 396  3932.788
 397  4991.429
 398  5390.937
 399  5133.042
 400  4056.285
 401  3888.828
 402  4642.512
 403  5174.035
 404  4406.218
 405  3550.309
 406  3842.16
 407  4677.351
 408  5141.727
 409  4571.423
 410  3818.256
 411  4035.067
 412  5041.794
 413  5001.898
 414  4085.025
 415  3338.282
 416  3655.294
 417  4352.613
 418  4811.045
 419  3827.254
 420  3889.567
 421  4386.1
 422  4806.012
 423  4064.077
 424  3200.121
 425  3693.916
 426  4933.263
 427  5257.671
 428  5017.745
 429  4128.888
 430  4080.368
 431  4928.705
 432  5029.015
 433  4756.093
 434  4254.277
 435  4531.267
 436  5898.803
 437  5517.349
 438  4582.022
 439  4679
 440  5160.617
 441  5430.023
 442  5619.612
 443  4347.657
 444  4541.403
 445  5798.376
 446  6738.904
 447  5462.723
 448  4274.955
 449  4758.437
 450  5939.994
 451  5917.186
 452  5215.558
 453  4496.006
 454  4811.844
 455  5433.194
 456  5878.659
 457  5033.7
 458  4493.263
 459  4952.097
 460  5828.672
 461  5215.516
 462  4191.614
 463  4178.551
 464  5004.371
 465  5843.817
 466  4892.729
 467  3943.609
 468  4051.299
 469  4765.394
 470  5396.378
 471  4380.743
 472  3707.399
 473  3755.306
 474  4751.101
 475  5232.805
 476  4079.821
 477  3712.501
 478  4177.638
 479  4572.774
 480  4488.278
 481  3692.095
 482  3443.855
 483  4635.364
 484  5566.021
 485  5061.569
 486  4260.578
 487  4012.498
 488  4819.123
 489  5511.66
 490  5372.845
 491  5405.852
 492  5601.189
 493  6163.899
 494  6239.467
 495  5377.05
 496  4332.797
 497  4224.436
 498  4756.096
 499  4583.953
 500  3535.635
 501  3321.44
 502  3794.958
 503  4931.76
 504  4924.827
 505  4036.544
 506  3803.192
 507  4305.003
 508  5062.05
 509  4878.777
 510  3928.707
 511  3754.795
