# Input file       =  1183884525.141243_cleaned.dat
# Candidate        =  PSR_0332+5434
# Telescope        =  AR
# Epoch_topo       =  57946.367409042163
# Epoch_bary       =  N/A
# T_sample         =  0.002
# Data Folded      =  7340032
# Data Avg         =  0.0183327340188811
# Data StdDev      =  1.0000829480908  
# Profile Bins     =  512
# Profile Avg      =  262.81231132008  
# Profile StdDev   =  119.742968003539 
# Reduced chi-sqr  =  1.351
# Prob(Noise)      <  1.82e-07   (~5.1 sigma)
# P_topo (ms)      =  714.481042467323  +/- 0.000498
# P'_topo (s/s)    =  -0                +/- 2.63e-10
# P''_topo (s/s^2) =  0                 +/- 1.16e-13
# P_bary (ms)      =  N/A
# P'_bary (s/s)    =  N/A
# P''_bary (s/s^2) =  N/A
# P_orb (s)        =  N/A
# asin(i)/c (s)    =  N/A
# eccentricity     =  N/A
# w (rad)          =  N/A
# T_peri           =  N/A
######################################################
   0  814.4739
   1  863.8641
   2  634.075
   3  384.2101
   4  211.1032
   5  178.3127
   6  350.946
   7  366.8153
   8  313.1993
   9  220.8257
  10  185.0657
  11  452.8396
  12  390.3666
  13  248.3714
  14  278.3937
  15  261.5442
  16  319.8267
  17  269.6158
  18  254.3747
  19  314.0686
  20  205.3806
  21  138.9067
  22  190.6859
  23  293.0812
  24  273.6303
  25  258.7272
  26  250.6901
  27  260.3267
  28  208.7893
  29  104.9571
  30  145.3466
  31  200.5164
  32  329.3108
  33  310.9498
  34  72.86803
  35  94.36874
  36  137.2537
  37  271.4806
  38  300.9679
  39  377.758
  40  217.9021
  41  131.1684
  42  284.6924
  43  311.7045
  44  215.5015
  45  180.7993
  46  175.1579
  47  211.1049
  48  241.0282
  49  172.1406
  50  242.8316
  51  253.4267
  52  241.5695
  53  220.5337
  54  199.4615
  55  270.8622
  56  364.6234
  57  229.5423
  58  70.41555
  59  188.9807
  60  339.543
  61  286.499
  62  141.764
  63  116.5516
  64  174.4
  65  230.872
  66  320.2064
  67  294.7564
  68  269.7137
  69  295.7589
  70  366.7081
  71  297.3712
  72  313.2956
  73  320.1177
  74  456.1262
  75  271.2904
  76  252.9249
  77  357.5449
  78  337.8228
  79  283.3619
  80  260.0188
  81  293.8173
  82  388.3095
  83  387.9547
  84  325.0422
  85  283.2499
  86  172.2126
  87  143.0889
  88  116.2412
  89  206.5436
  90  203.0324
  91  60.08125
  92  -1.635314
  93  192.6824
  94  274.5651
  95  156.9649
  96  145.7023
  97  174.0757
  98  197.3533
  99  214.5767
 100  313.132
 101  315.4472
 102  275.3391
 103  167.1257
 104  153.845
 105  298.6248
 106  314.2598
 107  247.9201
 108  201.4624
 109  271.1687
 110  334.0912
 111  233.1418
 112  255.0887
 113  405.3673
 114  443.9625
 115  202.022
 116  226.9925
 117  253.9523
 118  374.8879
 119  284.6041
 120  144.5305
 121  162.2041
 122  278.4152
 123  410.5516
 124  288.8689
 125  191.1263
 126  192.9129
 127  214.9655
 128  222.5377
 129  241.563
 130  384.0763
 131  340.2996
 132  357.1534
 133  306.2264
 134  304.6635
 135  221.4907
 136  120.1777
 137  186.016
 138  334.9076
 139  214.9109
 140  233.0965
 141  329.1385
 142  261.9113
 143  187.2321
 144  206.7791
 145  92.7963
 146  195.8378
 147  217.8104
 148  154.9245
 149  297.489
 150  278.1034
 151  190.7883
 152  269.2124
 153  318.6651
 154  267.7018
 155  118.4328
 156  85.30583
 157  129.0105
 158  241.529
 159  304.7147
 160  338.9716
 161  300.9442
 162  244.119
 163  284.2794
 164  242.8968
 165  231.052
 166  190.6747
 167  255.4648
 168  369.0798
 169  292.0138
 170  283.2337
 171  308.4673
 172  460.6268
 173  334.6488
 174  250.2442
 175  368.8085
 176  336.546
 177  273.8647
 178  200.418
 179  342.0909
 180  294.8467
 181  232.0795
 182  193.1485
 183  193.2196
 184  252.0965
 185  268.1446
 186  199.8492
 187  314.5746
 188  219.7824
 189  197.5926
 190  167.9603
 191  55.39765
 192  132.0771
 193  309.1732
 194  275.1509
 195  155.3167
 196  287.3999
 197  223.2668
 198  191.0149
 199  139.1934
 200  67.38256
 201  68.74821
 202  226.7113
 203  239.4332
 204  245.7563
 205  273.4215
 206  126.0847
 207  71.96037
 208  199.1207
 209  159.6692
 210  109.4166
 211  142.4996
 212  148.8572
 213  177.3615
 214  198.7052
 215  287.8088
 216  339.6537
 217  293.962
 218  256.4146
 219  273.4171
 220  281.6967
 221  209.8343
 222  221.9378
 223  244.2303
 224  282.5653
 225  211.7757
 226  204.4176
 227  155.49
 228  226.8042
 229  273.4214
 230  150.0898
 231  170.0888
 232  66.77139
 233  21.77876
 234  197.004
 235  359.2553
 236  215.2465
 237  204.5889
 238  270.3295
 239  306.3314
 240  271.7302
 241  252.1466
 242  178.1172
 243  167.7342
 244  156.4316
 245  199.6228
 246  147.1244
 247  43.63278
 248  159.0529
 249  205.7845
 250  139.9542
 251  206.9337
 252  360.7721
 253  225.4905
 254  168.3664
 255  226.7602
 256  362.5761
 257  351.5441
 258  467.0319
 259  446.8952
 260  297.9235
 261  289.1858
 262  261.5832
 263  233.0045
 264  221.6933
 265  258.5903
 266  227.2567
 267  225.4738
 268  177.4032
 269  184.8816
 270  196.1917
 271  339.1903
 272  255.6558
 273  127.0346
 274  184.8767
 275  263.497
 276  267.2347
 277  248.5667
 278  349.4138
 279  208.6346
 280  298.3638
 281  283.6034
 282  289.0328
 283  338.8074
 284  435.8014
 285  302.1828
 286  234.857
 287  335.2945
 288  349.7623
 289  370.5064
 290  298.131
 291  270.6608
 292  161.1428
 293  197.8638
 294  246.9126
 295  258.3839
 296  309.3413
 297  262.2735
 298  191.0366
 299  334.1243
 300  244.5846
 301  240.1663
 302  273.2972
 303  274.7335
 304  346.7255
 305  278.7895
 306  246.0342
 307  224.9363
 308  326.9948
 309  429.9828
 310  304.4778
 311  246.7602
 312  278.5859
 313  238.3779
 314  290.9179
 315  201.405
 316  221.6839
 317  360.7196
 318  343.5172
 319  337.6889
 320  403.3131
 321  429.6465
 322  426.4787
 323  377.4507
 324  362.0029
 325  247.166
 326  172.8731
 327  348.2993
 328  346.9883
 329  294.8729
 330  480.191
 331  405.3659
 332  360.1792
 333  374.0634
 334  299.5619
 335  223.9341
 336  102.4312
 337  197.8906
 338  259.9895
 339  290.6893
 340  290.5514
 341  216.22
 342  342.4534
 343  361.1215
 344  289.4026
 345  276.9151
 346  296.1865
 347  302.1638
 348  270.8194
 349  311.8075
 350  243.1641
 351  191.5208
 352  282.738
 353  137.8913
 354  134.8066
 355  154.2253
 356  307.3044
 357  224.5158
 358  261.3304
 359  185.5043
 360  166.7478
 361  268.9001
 362  173.4731
 363  120.8056
 364  102.1515
 365  45.28771
 366  195.2793
 367  188.4521
 368  169.8605
 369  246.8076
 370  236.2342
 371  124.9885
 372  246.5963
 373  304.7394
 374  329.4762
 375  361.9037
 376  285.2251
 377  278.0391
 378  253.8981
 379  336.7487
 380  195.2072
 381  112.7018
 382  216.1024
 383  342.1417
 384  321.0768
 385  315.5262
 386  305.6009
 387  167.8042
 388  244.123
 389  254.7806
 390  367.7225
 391  361.3163
 392  355.6033
 393  324.984
 394  254.9613
 395  206.6774
 396  236.2838
 397  175.4252
 398  217.5948
 399  280.7312
 400  206.9085
 401  183.4254
 402  279.3659
 403  358.8644
 404  251.9041
 405  361.722
 406  362.9421
 407  401.5915
 408  426.4333
 409  270.4886
 410  285.2345
 411  205.4212
 412  210.3755
 413  296.3864
 414  307.7454
 415  329.7486
 416  319.1247
 417  202.9725
 418  97.44314
 419  54.36373
 420  93.01229
 421  192.759
 422  263.8595
 423  320.2954
 424  210.0027
 425  164.9039
 426  224.9
 427  232.9495
 428  272.4837
 429  232.8737
 430  266.6847
 431  244.1397
 432  187.1096
 433  92.04609
 434  259.9252
 435  250.6492
 436  229.9354
 437  213.5088
 438  302.2693
 439  276.5015
 440  302.4041
 441  213.7202
 442  209.8697
 443  154.469
 444  136.1554
 445  224.0807
 446  258.2069
 447  274.8932
 448  205.1339
 449  157.6109
 450  299.5627
 451  271.167
 452  106.2485
 453  222.2651
 454  309.0846
 455  302.2593
 456  192.6099
 457  143.2547
 458  195.8818
 459  239.6311
 460  296.024
 461  295.4585
 462  271.5865
 463  295.642
 464  324.2278
 465  278.0668
 466  316.0483
 467  366.4466
 468  287.4046
 469  317.2979
 470  316.2528
 471  399.2646
 472  365.2597
 473  212.9451
 474  284.5155
 475  269.1687
 476  283.9865
 477  350.832
 478  285.039
 479  188.2753
 480  188.5309
 481  189.9051
 482  294.6867
 483  315.1666
 484  363.4395
 485  268.2718
 486  225.7834
 487  295.002
 488  334.7768
 489  375.6562
 490  284.7003
 491  340.1304
 492  398.3276
 493  250.2198
 494  275.5148
 495  365.3952
 496  473.7458
 497  554.8126
 498  441.7534
 499  444.5522
 500  457.3905
 501  301.7568
 502  373.3026
 503  491.6017
 504  451.5611
 505  415.2536
 506  278.0686
 507  336.8251
 508  442.7874
 509  644.804
 510  773.7411
 511  794.9292
