# Input file       =  1183955774.111918_cleaned.dat
# Candidate        =  PSR_0332+5434
# Telescope        =  AR
# Epoch_topo       =  57947.192049906458
# Epoch_bary       =  N/A
# T_sample         =  0.002
# Data Folded      =  7340032
# Data Avg         =  0.238678885095786
# Data StdDev      =  3.76969379742383 
# Profile Bins     =  512
# Profile Avg      =  3420.4095381582  
# Profile StdDev   =  451.356884576217 
# Reduced chi-sqr  =  1.459
# Prob(Noise)      <  5.11e-11   (~6.5 sigma)
# P_topo (ms)      =  714.480141414046  +/- 0.000338
# P'_topo (s/s)    =  -0                +/- 1.78e-10
# P''_topo (s/s^2) =  0                 +/- 7.87e-14
# P_bary (ms)      =  N/A
# P'_bary (s/s)    =  N/A
# P''_bary (s/s^2) =  N/A
# P_orb (s)        =  N/A
# asin(i)/c (s)    =  N/A
# eccentricity     =  N/A
# w (rad)          =  N/A
# T_peri           =  N/A
######################################################
   0  3254.042
   1  3543.598
   2  3458.098
   3  3425.317
   4  3547.998
   5  3322.711
   6  3397.098
   7  3743.639
   8  3517.268
   9  3214.834
  10  3292.423
  11  3199.729
  12  2930.974
  13  3322.948
  14  3238.739
  15  3507.868
  16  3826.865
  17  3771.091
  18  3440.209
  19  3495.336
  20  3501.752
  21  3650.924
  22  3891.134
  23  4012.241
  24  3958.093
  25  3785.242
  26  3611.729
  27  3536.126
  28  3568.419
  29  3568.606
  30  3530.591
  31  3233.407
  32  3329.858
  33  3673.154
  34  3600.865
  35  3671.598
  36  3558.273
  37  3506.728
  38  3577.875
  39  3568.054
  40  3750.373
  41  3428.68
  42  3477.879
  43  3786.318
  44  3766.618
  45  3142.367
  46  3097.177
  47  3404.032
  48  3450.561
  49  3532.981
  50  3413.47
  51  3301.832
  52  2961.586
  53  2954.904
  54  3207.512
  55  3249.216
  56  3173.936
  57  3102.202
  58  2959.638
  59  3173.738
  60  3150.807
  61  3106.854
  62  3015.244
  63  3053.603
  64  3054.014
  65  3112.516
  66  3238.497
  67  3244.808
  68  3236.81
  69  2871.093
  70  3422.7
  71  3551.114
  72  3439.641
  73  3375.898
  74  3714.21
  75  3951.031
  76  3781.733
  77  3385.704
  78  3346.495
  79  3580.512
  80  3565.583
  81  3984.444
  82  3912.84
  83  3565.445
  84  3429.088
  85  3294.772
  86  3346.012
  87  3178.508
  88  3340.537
  89  3523.518
  90  3620.432
  91  3466.672
  92  3569.664
  93  3350.776
  94  3022.36
  95  3365.779
  96  3264.31
  97  3153.684
  98  3241.378
  99  3424.914
 100  3376.583
 101  3501.819
 102  3518.544
 103  3576.489
 104  3569.044
 105  3368
 106  3462.987
 107  3734.628
 108  3685.63
 109  3622.517
 110  3574.761
 111  3492.113
 112  3425.246
 113  3615.529
 114  3433.024
 115  3149.349
 116  3491.753
 117  3379.655
 118  3201.374
 119  3156.674
 120  3283.358
 121  3370.193
 122  3237.043
 123  3529.771
 124  3249.72
 125  3302.028
 126  3362.05
 127  3415.484
 128  3285.499
 129  3374.269
 130  3523.424
 131  3547.135
 132  3675.255
 133  3670.056
 134  3395.757
 135  3462.569
 136  3621.434
 137  3452.776
 138  3270.86
 139  3313.39
 140  3393.64
 141  3141.894
 142  3222.41
 143  2989.873
 144  3114.165
 145  3421.619
 146  3075.801
 147  3077.508
 148  3685.597
 149  3731.778
 150  3213.226
 151  2792.286
 152  2697.461
 153  3016.33
 154  3294.162
 155  3172.217
 156  3133.868
 157  3154.834
 158  3234.958
 159  3261.109
 160  3967.796
 161  4044.784
 162  3719.905
 163  3599.615
 164  3611.274
 165  3592.503
 166  3968.261
 167  3689.373
 168  3566.341
 169  3554.665
 170  3486.984
 171  3342.787
 172  3172.123
 173  3401.437
 174  3469.548
 175  3347.005
 176  3408.127
 177  3387.42
 178  3166.608
 179  3455.168
 180  3530.231
 181  3625.921
 182  3602.983
 183  3348.485
 184  3408.016
 185  3359.05
 186  3582.231
 187  3491.666
 188  3439.875
 189  3505.043
 190  3745.888
 191  3727.774
 192  3344.934
 193  3600.483
 194  3645.689
 195  3698.973
 196  3575.908
 197  3329.227
 198  3613.185
 199  3823.422
 200  3867.124
 201  3749.062
 202  3536.768
 203  3501.714
 204  3479.738
 205  3242.593
 206  3569.492
 207  3550.549
 208  3427.12
 209  3467.081
 210  3575.652
 211  3197.326
 212  3229.707
 213  3312.314
 214  3401.733
 215  3317.869
 216  3128.963
 217  3414.986
 218  3317.24
 219  3462.571
 220  3786.847
 221  3645.201
 222  3757.438
 223  3820.123
 224  4110.596
 225  4272.803
 226  4123.896
 227  3994.45
 228  3899.066
 229  3846.842
 230  3923.041
 231  3974.342
 232  3741.578
 233  3630.833
 234  3575.219
 235  3097.699
 236  2967.412
 237  2992.514
 238  3342.797
 239  3198.982
 240  3091.687
 241  3042.603
 242  3124.481
 243  2716.745
 244  2364.499
 245  2792.694
 246  3013.33
 247  3076.291
 248  3161.39
 249  3003.042
 250  2821.939
 251  2796.199
 252  3042.146
 253  3180.369
 254  3027.727
 255  2939.441
 256  3063.142
 257  3230.503
 258  3460.519
 259  3123.078
 260  2751.098
 261  3016.976
 262  3043.572
 263  2948.438
 264  3033.37
 265  2979.81
 266  2921.806
 267  2913.43
 268  3198.531
 269  3026.887
 270  2715.403
 271  2950.367
 272  2889.22
 273  3263.081
 274  2993.229
 275  2896.053
 276  2773.585
 277  2914.755
 278  2863.451
 279  2837.377
 280  2957.27
 281  2977.268
 282  3046.149
 283  3174.444
 284  2860.994
 285  2635.588
 286  2879.702
 287  3458.864
 288  3394.235
 289  2898.275
 290  2817.709
 291  2890.614
 292  2745.128
 293  2995.466
 294  3045.433
 295  2879.887
 296  2875.598
 297  2860.55
 298  3046.907
 299  3098.058
 300  2879.731
 301  2940.744
 302  2754.234
 303  2581.324
 304  2665.969
 305  2885.623
 306  3136.948
 307  3151.396
 308  3075.792
 309  3480.601
 310  3524.406
 311  3095.368
 312  3428.988
 313  3464.493
 314  3407.86
 315  3217.242
 316  3381
 317  3028.61
 318  3031.075
 319  3108.96
 320  3141.333
 321  3069.668
 322  2755.135
 323  2758.578
 324  3332.308
 325  3082.398
 326  3095.827
 327  3048.082
 328  3277.178
 329  3533.127
 330  3683.083
 331  3660.216
 332  3549.515
 333  3651.124
 334  3747.052
 335  3939.816
 336  4005.958
 337  3626.474
 338  3494.72
 339  3390.248
 340  3449.681
 341  3539.635
 342  3541.213
 343  3416.89
 344  3262.716
 345  3306.902
 346  3159.48
 347  3167.165
 348  3208.658
 349  3295.938
 350  3486.178
 351  3399.382
 352  3371.49
 353  3349.157
 354  3207.839
 355  3188.768
 356  3253.872
 357  3406.16
 358  3170.597
 359  3348.715
 360  3604.978
 361  3567.33
 362  3799.723
 363  3589.643
 364  3650.686
 365  3704.766
 366  3732.248
 367  3671.857
 368  3821.489
 369  3820.885
 370  3655.065
 371  3741.487
 372  3783.325
 373  3888.95
 374  4288.26
 375  4383.013
 376  3922.479
 377  3627.603
 378  3527.889
 379  3314.866
 380  3478.718
 381  3504.305
 382  3370.375
 383  3228.154
 384  3405.745
 385  3180.595
 386  3068.464
 387  3189.499
 388  3268.798
 389  3139.572
 390  3128.771
 391  3454.102
 392  3053.358
 393  2891.635
 394  3234.256
 395  3900.354
 396  3791.906
 397  3561.914
 398  3527.933
 399  3500.164
 400  3532.302
 401  3866.012
 402  3841.61
 403  3590.348
 404  3629.569
 405  3478.663
 406  3435.398
 407  3508.071
 408  3396.582
 409  3425.597
 410  2916.351
 411  3083.086
 412  3247.547
 413  3015.412
 414  2867.07
 415  3200.198
 416  3218.768
 417  3093.218
 418  3107.705
 419  2785.453
 420  2658.308
 421  2941.578
 422  2873.968
 423  2692.92
 424  2894.897
 425  3166.146
 426  3284.752
 427  3094.237
 428  3402.284
 429  3412.383
 430  3093.059
 431  3333.719
 432  3552.949
 433  3331.047
 434  3314.604
 435  3477.383
 436  3562.207
 437  3621.18
 438  3772.025
 439  3577.425
 440  3169.819
 441  3447.55
 442  3785.982
 443  3686.884
 444  3333.484
 445  3249.365
 446  3353.496
 447  3549.216
 448  3683.783
 449  3576.369
 450  3437.517
 451  3668.093
 452  4051.657
 453  3835.251
 454  3477.161
 455  3801.25
 456  3959.467
 457  3465.628
 458  3355.742
 459  3592.241
 460  3934.835
 461  4067.484
 462  4022.023
 463  4054.698
 464  4218.164
 465  4393.285
 466  4524.364
 467  5020.168
 468  5820.958
 469  5794.336
 470  5718.826
 471  5241.938
 472  4794.955
 473  4194.844
 474  3902.153
 475  3544.003
 476  3397.725
 477  3601.141
 478  3480.867
 479  3537.243
 480  3733.491
 481  4088.568
 482  3952.525
 483  3832.681
 484  3972.812
 485  3859.185
 486  3701.534
 487  3908.458
 488  3856.385
 489  3927.474
 490  3891.381
 491  3526.528
 492  3444.725
 493  3151.431
 494  3382.351
 495  3695.343
 496  3845.1
 497  3431.818
 498  3345.026
 499  3694.75
 500  3676.049
 501  3751.258
 502  3739.516
 503  3705.128
 504  3294.216
 505  3162.427
 506  3274.394
 507  3255.102
 508  3472.407
 509  3432.917
 510  3553.208
 511  3244.304
