# Input file       =  1183079651.114455_cleaned.dat
# Candidate        =  PSR_0332+5434
# Telescope        =  AR
# Epoch_topo       =  57937.051737435824
# Epoch_bary       =  N/A
# T_sample         =  0.002
# Data Folded      =  7405568
# Data Avg         =  0.183402722463449
# Data StdDev      =  5.02969519747206 
# Profile Bins     =  512
# Profile Avg      =  2652.76916830402 
# Profile StdDev   =  604.90318877181  
# Reduced chi-sqr  =  0.828
# Prob(Noise)      <  0.998   (~0.0 sigma)
# P_topo (ms)      =  714.487584299222  +/- 3.43e-05
# P'_topo (s/s)    =  -0                +/- 1.79e-11
# P''_topo (s/s^2) =  0                 +/- 7.84e-15
# P_bary (ms)      =  N/A
# P'_bary (s/s)    =  N/A
# P''_bary (s/s^2) =  N/A
# P_orb (s)        =  N/A
# asin(i)/c (s)    =  N/A
# eccentricity     =  N/A
# w (rad)          =  N/A
# T_peri           =  N/A
######################################################
   0  2697.569
   1  1828.761
   2  1746.917
   3  2077.63
   4  2388.145
   5  2634.907
   6  3193.35
   7  3178.754
   8  2799.294
   9  2133.256
  10  1668.97
  11  2028.962
  12  1837.648
  13  2213.552
  14  2534.608
  15  2968.604
  16  2858.562
  17  2254.706
  18  2167.619
  19  1886.573
  20  1963.376
  21  2155.667
  22  2446.078
  23  2909.471
  24  3286.449
  25  3003.571
  26  2469.371
  27  2647.983
  28  2629.969
  29  2541.005
  30  2262.205
  31  2602.663
  32  2744.588
  33  2802.382
  34  2563.406
  35  2460.597
  36  2431.916
  37  2307.896
  38  2464.851
  39  2823.961
  40  3366.854
  41  3116.385
  42  2578.463
  43  2220.629
  44  2267.304
  45  2354.886
  46  2747.674
  47  2936.208
  48  2986.541
  49  2761.929
  50  2838.85
  51  3079.468
  52  2611.279
  53  2522.016
  54  2804.225
  55  2781.152
  56  2778.843
  57  2896.28
  58  2926.226
  59  2985.106
  60  2819.881
  61  2376.574
  62  2349.662
  63  2684.419
  64  2840.523
  65  2712.271
  66  2774.716
  67  2254.55
  68  2527.547
  69  2105.485
  70  2422.09
  71  2939.634
  72  2812.82
  73  3079.304
  74  3012.09
  75  2631.748
  76  2462.719
  77  1903.807
  78  1965.343
  79  2470.278
  80  3067.697
  81  3084.489
  82  3138.673
  83  2777.629
  84  2403.023
  85  2053.282
  86  1959.669
  87  2553.903
  88  2834.955
  89  3086.047
  90  3189.385
  91  2719.573
  92  2438.458
  93  2060.381
  94  2052.215
  95  2167.959
  96  2374.516
  97  2689.375
  98  2878.15
  99  2898.081
 100  2709.988
 101  2222.672
 102  2218.783
 103  2710.646
 104  2739.705
 105  2621.906
 106  2812.057
 107  2727.593
 108  2461.488
 109  2540.635
 110  2384.178
 111  2173.996
 112  2531.965
 113  2834.87
 114  3286.016
 115  3095.34
 116  2894.999
 117  2541.686
 118  2583.453
 119  2462.186
 120  2557.079
 121  2911.647
 122  3339.572
 123  3578.375
 124  3670.994
 125  2641.365
 126  2196.968
 127  2320.598
 128  2948.812
 129  2539.754
 130  2613.153
 131  2689.151
 132  2746.131
 133  2698.443
 134  2788.014
 135  2842.121
 136  2617.048
 137  2131.633
 138  2526.21
 139  2589.445
 140  2406.416
 141  2292.097
 142  2654.525
 143  2639.727
 144  2879.232
 145  2984.104
 146  3204.015
 147  3540.904
 148  2684.989
 149  2576.481
 150  2522.052
 151  2536.575
 152  2601.317
 153  2219.983
 154  2801.389
 155  3187.359
 156  3160.124
 157  2864.323
 158  2817.306
 159  2366.997
 160  2308.111
 161  2141.594
 162  2458.539
 163  3379.799
 164  3137.2
 165  2868.993
 166  2761.856
 167  2451.405
 168  2463.03
 169  2670.53
 170  3005.687
 171  2760.756
 172  3307.625
 173  3131.484
 174  2530.812
 175  2165.071
 176  2389.817
 177  2535.183
 178  2696.672
 179  3023.08
 180  2742.966
 181  2716.912
 182  2647.762
 183  2642.894
 184  2737.671
 185  2537.23
 186  2742.23
 187  2954.272
 188  3080.45
 189  3267.96
 190  2741.464
 191  2214.176
 192  2113.268
 193  2180.547
 194  2498.115
 195  2669.404
 196  3068.413
 197  3164.045
 198  2784.2
 199  2599.419
 200  2275.376
 201  2028.621
 202  2282.544
 203  2505.011
 204  2920.151
 205  3329.254
 206  3022.543
 207  2664.738
 208  2404.275
 209  2823.874
 210  2574.092
 211  2331.457
 212  2697.9
 213  2880.364
 214  2855.781
 215  2712.9
 216  2385.472
 217  2365.49
 218  2354.164
 219  2516.037
 220  2662.091
 221  2719.626
 222  2557.034
 223  2555.212
 224  2247.363
 225  2217.568
 226  1979.869
 227  2123.353
 228  2435.9
 229  2913.284
 230  2988.335
 231  2590.307
 232  2619.007
 233  2575.549
 234  2740.747
 235  2693.498
 236  2678.926
 237  2465.862
 238  2964.896
 239  2998.635
 240  2929.354
 241  2891.428
 242  2497.858
 243  2463.998
 244  2581.109
 245  2781.698
 246  2975.133
 247  2981.114
 248  3015.662
 249  2470.074
 250  2749.661
 251  2365.739
 252  2283.823
 253  2972.749
 254  3298.043
 255  3063.851
 256  2472.916
 257  2520.679
 258  2086.468
 259  2201.216
 260  2349.006
 261  2641.402
 262  3132.56
 263  3513.034
 264  3328.778
 265  2976.018
 266  2418.738
 267  2350.814
 268  2338.414
 269  2849.636
 270  3089.215
 271  3483.577
 272  3251.527
 273  2813.494
 274  2657.867
 275  2578.898
 276  2763.821
 277  2455.688
 278  2587.291
 279  3067.94
 280  2926.573
 281  2915.344
 282  2765.643
 283  2706.425
 284  2463.497
 285  2728.318
 286  2909.293
 287  2960.699
 288  3091.297
 289  3097.491
 290  3053.21
 291  3501.583
 292  4249.248
 293  4274.278
 294  4537.896
 295  4507.637
 296  3952.377
 297  3834.559
 298  2936.104
 299  2322.853
 300  2296.884
 301  2721.368
 302  2643.22
 303  2733.207
 304  3026.473
 305  2906.438
 306  2756.477
 307  2085.036
 308  2319.476
 309  2633.343
 310  2660.251
 311  2773.231
 312  2501.528
 313  2415.396
 314  2638.052
 315  2672.02
 316  2567.288
 317  2929.943
 318  2890.548
 319  2630.352
 320  3081.76
 321  3080.649
 322  2741.745
 323  2084.202
 324  2138.553
 325  2421.126
 326  2327.255
 327  2913.771
 328  3095.029
 329  2822.774
 330  2700.814
 331  2798.053
 332  2469.069
 333  2095.946
 334  2145.582
 335  2100.549
 336  2878.551
 337  3364.949
 338  3568.864
 339  2889.71
 340  2752.765
 341  2680.805
 342  2216.761
 343  2393.198
 344  2656.898
 345  3140.066
 346  3196.681
 347  3000.519
 348  2515.709
 349  2278.015
 350  2374.947
 351  2254.032
 352  2818.423
 353  3040.042
 354  3220.449
 355  2613.126
 356  2599.295
 357  2729.029
 358  2395.458
 359  2457.86
 360  2600.516
 361  2780.764
 362  2658.965
 363  2614.436
 364  2491.73
 365  2265.795
 366  2114.398
 367  2192.552
 368  2695.147
 369  2365.478
 370  2669.416
 371  2599.486
 372  2362.189
 373  1923.044
 374  2043.111
 375  2185.661
 376  2172.423
 377  2566.559
 378  2885.768
 379  2878.173
 380  2993.301
 381  2776.527
 382  2587.233
 383  2298.267
 384  2264.558
 385  2237.709
 386  2690.471
 387  2735.25
 388  2197.816
 389  2551.212
 390  2526.748
 391  2448.671
 392  2293.913
 393  2468.902
 394  2499.757
 395  2819.126
 396  2624.149
 397  2178.486
 398  2490.363
 399  2565.67
 400  2536.262
 401  2438.297
 402  2788.983
 403  2888.58
 404  2726.882
 405  2752.011
 406  2210.386
 407  2014.178
 408  2540.302
 409  2654.867
 410  2864.08
 411  3197.413
 412  3076.663
 413  2694.679
 414  2509.991
 415  2400.337
 416  2078.192
 417  2287.635
 418  2591.083
 419  3110.303
 420  3426.412
 421  3413.039
 422  2720.864
 423  2468.055
 424  1870.833
 425  1955.64
 426  2692.673
 427  3259.07
 428  3140.914
 429  2650.77
 430  2808.019
 431  2464.952
 432  1944.101
 433  1593.178
 434  2244.333
 435  2915.543
 436  3191.016
 437  3086.96
 438  2569.212
 439  2002.05
 440  1751.906
 441  2130.352
 442  2260.038
 443  2821.695
 444  3101.781
 445  2955.372
 446  2577.821
 447  2109.885
 448  2103.872
 449  1952.072
 450  2199.46
 451  2523.371
 452  2936.638
 453  3177.5
 454  2945.275
 455  2412.886
 456  2402.737
 457  1902.789
 458  1990.818
 459  2539.687
 460  2906.598
 461  3044.717
 462  2983.929
 463  2827.25
 464  2633.405
 465  2664.952
 466  2552.755
 467  2536.734
 468  2416.341
 469  2595.756
 470  2717.156
 471  2373.603
 472  2442.28
 473  2282.259
 474  2457.631
 475  2249.255
 476  2146.925
 477  2351.244
 478  2779.241
 479  2946.798
 480  2320.743
 481  2257.883
 482  2688.275
 483  2546.033
 484  2255.687
 485  3099.983
 486  3272.311
 487  2820.816
 488  2647.532
 489  2450.805
 490  2392.831
 491  2467.569
 492  2731.045
 493  2682.54
 494  3001.537
 495  2848.92
 496  2874.854
 497  2937.556
 498  2162.246
 499  2294.894
 500  2607.071
 501  3050.653
 502  3245.764
 503  3150.704
 504  2935.739
 505  1978.273
 506  1800.962
 507  2127.612
 508  2694.076
 509  2542.403
 510  3099.082
 511  3458.589
