# Input file       =  1183424315.08945_cleaned.dat
# Candidate        =  PSR_0332+5434
# Telescope        =  AR
# Epoch_topo       =  57941.040903813075
# Epoch_bary       =  N/A
# T_sample         =  0.002
# Data Folded      =  7405568
# Data Avg         =  0.0242120883261575
# Data StdDev      =  1.0000930166223  
# Profile Bins     =  512
# Profile Avg      =  350.406925681927 
# Profile StdDev   =  120.277557798592 
# Reduced chi-sqr  =  1.124
# Prob(Noise)      <  0.0268   (~1.9 sigma)
# P_topo (ms)      =  714.484525595886  +/- 0.000225
# P'_topo (s/s)    =  -0                +/- 1.18e-10
# P''_topo (s/s^2) =  0                 +/- 5.16e-14
# P_bary (ms)      =  N/A
# P'_bary (s/s)    =  N/A
# P''_bary (s/s^2) =  N/A
# P_orb (s)        =  N/A
# asin(i)/c (s)    =  N/A
# eccentricity     =  N/A
# w (rad)          =  N/A
# T_peri           =  N/A
######################################################
   0  858.1782
   1  823.336
   2  612.7647
   3  384.5992
   4  348.7114
   5  437.5791
   6  241.5785
   7  240.44
   8  355.144
   9  347.3147
  10  417.2781
  11  294.926
  12  225.8761
  13  313.9977
  14  326.1416
  15  376.5854
  16  486.6301
  17  334.4343
  18  226.3046
  19  219.9302
  20  276.8222
  21  382.1873
  22  297.2685
  23  278.9982
  24  262.2396
  25  276.0097
  26  348.8365
  27  307.9999
  28  255.911
  29  304.6129
  30  229.6393
  31  312.5697
  32  246.6779
  33  295.2536
  34  367.6098
  35  321.8667
  36  325.7324
  37  387.0912
  38  363.0124
  39  342.4295
  40  263.2905
  41  323.3239
  42  241.2623
  43  394.162
  44  396.3062
  45  361.4271
  46  477.4711
  47  517.6224
  48  438.5971
  49  323.6776
  50  333.3127
  51  481.3329
  52  454.6171
  53  364.7938
  54  330.4376
  55  420.3928
  56  349.266
  57  241.8493
  58  273.8925
  59  277.3102
  60  306.9426
  61  365.5982
  62  391.671
  63  286.002
  64  425.8543
  65  488.4684
  66  438.1159
  67  490.1727
  68  499.7133
  69  450.9378
  70  342.6575
  71  328.9082
  72  358.6726
  73  346.9864
  74  364.7325
  75  437.5659
  76  432.487
  77  534.5995
  78  396.0496
  79  418.5141
  80  370.8585
  81  219.9673
  82  301.0505
  83  337.4117
  84  304.6048
  85  350.5349
  86  347.93
  87  353.9609
  88  434.3498
  89  409.2824
  90  392.7523
  91  329.8396
  92  295.8103
  93  311.4962
  94  354.9612
  95  372.8232
  96  396.1566
  97  468.025
  98  493.6224
  99  329.5328
 100  225.349
 101  347.3621
 102  348.7256
 103  309.3275
 104  378.6119
 105  494.6663
 106  373.3035
 107  201.7045
 108  149.2354
 109  275.5012
 110  307.6985
 111  257.9417
 112  283.7131
 113  232.6585
 114  189.6659
 115  192.2613
 116  278.1237
 117  322.8277
 118  270.7191
 119  279.9256
 120  343.3556
 121  363.4269
 122  396.3164
 123  273.7561
 124  316.9355
 125  398.664
 126  357.1486
 127  232.4655
 128  352.8457
 129  255.7959
 130  207.1707
 131  319.5676
 132  309.0582
 133  361.8443
 134  438.2598
 135  403.093
 136  373.4891
 137  319.1579
 138  302.8317
 139  391.9903
 140  400.4724
 141  390.0975
 142  397.5359
 143  389.7744
 144  441.8105
 145  505.336
 146  384.0527
 147  339.4647
 148  353.6435
 149  352.5414
 150  384.6823
 151  483.3078
 152  429.1918
 153  450.628
 154  468.7017
 155  452.045
 156  349.4297
 157  355.0048
 158  391.2576
 159  490.3857
 160  381.3629
 161  385.8509
 162  476.6832
 163  514.6656
 164  631.9351
 165  586.5544
 166  412.7804
 167  296.2574
 168  365.9565
 169  345.2133
 170  438.9485
 171  507.4031
 172  332.1381
 173  407.1177
 174  375.176
 175  343.9575
 176  269.0517
 177  380.5275
 178  345.325
 179  371.4319
 180  362.2867
 181  269.9562
 182  254.6757
 183  397.7884
 184  419.7857
 185  358.281
 186  241.532
 187  205.8766
 188  228.2569
 189  343.2425
 190  310.1851
 191  431.7256
 192  403.8974
 193  299.7102
 194  237.4792
 195  272.8842
 196  359.6187
 197  310.7704
 198  357.2684
 199  366.361
 200  354.1921
 201  317.2018
 202  292.9824
 203  317.9899
 204  400.8452
 205  470.9197
 206  358.5715
 207  395.7387
 208  367.6412
 209  314.5844
 210  395.8078
 211  360.2539
 212  380.5082
 213  415.5934
 214  441.7586
 215  371.5012
 216  415.4451
 217  367.396
 218  347.0548
 219  435.0788
 220  389.6843
 221  384.2754
 222  329.6938
 223  316.2615
 224  442.4883
 225  410.4567
 226  344.9139
 227  374.4301
 228  295.5114
 229  313.2989
 230  346.7775
 231  360.3865
 232  446.7392
 233  486.806
 234  452.2156
 235  303.9091
 236  383.2486
 237  378.0166
 238  367.083
 239  403.9974
 240  451.4215
 241  307.3077
 242  217.204
 243  292.0803
 244  383.1387
 245  408.2163
 246  435.1054
 247  349.6016
 248  364.5065
 249  472.9596
 250  322.6377
 251  269.0205
 252  239.674
 253  326.8385
 254  342.8252
 255  318.1089
 256  305.616
 257  232.6356
 258  276.7683
 259  220.2403
 260  288.2767
 261  415.523
 262  431.0803
 263  417.517
 264  363.1495
 265  430.4033
 266  348.3348
 267  269.6955
 268  369.4474
 269  434.2074
 270  388.7849
 271  296.9034
 272  307.1004
 273  279.8455
 274  347.8771
 275  288.183
 276  280.8164
 277  321.8557
 278  183.9069
 279  190.1223
 280  163.1454
 281  234.0791
 282  328.119
 283  248.5633
 284  249.7888
 285  241.2953
 286  261.1974
 287  234.3681
 288  245.8076
 289  370.763
 290  468.8985
 291  280.2107
 292  257.5218
 293  294.1153
 294  353.6621
 295  361.2653
 296  382.7244
 297  460.307
 298  409.8494
 299  397.6293
 300  371.5012
 301  408.3342
 302  307.0445
 303  302.7003
 304  333.1116
 305  375.2274
 306  287.5842
 307  260.2308
 308  298.63
 309  252.6112
 310  223.9082
 311  395.2133
 312  400.812
 313  374.6559
 314  280.1231
 315  385.179
 316  322.343
 317  339.3871
 318  299.1422
 319  338.4218
 320  352.6209
 321  324.7224
 322  269.7987
 323  396.0942
 324  293.8403
 325  273.2003
 326  203.027
 327  259.9392
 328  291.0344
 329  345.6215
 330  215.1571
 331  204.8342
 332  258.4336
 333  290.8652
 334  322.4207
 335  250.7641
 336  308.6133
 337  293.3502
 338  172.904
 339  277.8159
 340  223.0337
 341  287.2795
 342  360.2939
 343  302.3088
 344  481.928
 345  390.0002
 346  263.4121
 347  286.7927
 348  281.9526
 349  340.4506
 350  445.0958
 351  433.4894
 352  435.2732
 353  485.1299
 354  408.2624
 355  505.7379
 356  463.8157
 357  417.2382
 358  309.1218
 359  324.5846
 360  390.7533
 361  341.4319
 362  323.2061
 363  416.9763
 364  396.0713
 365  417.1813
 366  450.9359
 367  440.9315
 368  421.4343
 369  358.9898
 370  234.1257
 371  312.7816
 372  318.7265
 373  319.5309
 374  383.9843
 375  292.8135
 376  233.7195
 377  279.4139
 378  320.4849
 379  384.5912
 380  290.2131
 381  185.5441
 382  235.4585
 383  328.5532
 384  363.0895
 385  271.1779
 386  221.6217
 387  302.2067
 388  265.8864
 389  197.4846
 390  268.9908
 391  301.4937
 392  328.4473
 393  372.4597
 394  408.0194
 395  316.5825
 396  281.2699
 397  275.7678
 398  278.3021
 399  386.631
 400  278.2136
 401  299.9943
 402  274.1536
 403  240.7336
 404  169.7451
 405  206.1235
 406  284.9605
 407  185.9842
 408  195.7207
 409  356.6037
 410  403.6472
 411  415.9384
 412  470.9207
 413  428.4752
 414  389.5404
 415  402.8753
 416  314.3697
 417  313.7949
 418  351.3018
 419  326.4083
 420  369.9188
 421  326.6445
 422  331.8988
 423  331.2741
 424  389.5392
 425  343.4833
 426  279.1386
 427  379.2097
 428  347.8971
 429  377.3999
 430  440.7841
 431  426.981
 432  359.7281
 433  342.2468
 434  411.5758
 435  346.3811
 436  362.5487
 437  432.3097
 438  444.0218
 439  429.9721
 440  427.7554
 441  414.969
 442  494.6382
 443  451.2841
 444  287.8643
 445  372.8851
 446  452.8784
 447  513.6467
 448  497.6372
 449  399.3963
 450  437.3194
 451  472.721
 452  513.2966
 453  480.9523
 454  316.2561
 455  259.5708
 456  259.19
 457  245.0502
 458  247.9922
 459  336.2725
 460  416.7775
 461  436.5873
 462  323.6553
 463  316.3215
 464  254.8722
 465  289.6842
 466  341.9356
 467  304.6465
 468  261.0058
 469  322.3292
 470  312.8122
 471  264.4413
 472  197.7873
 473  277.1808
 474  281.4118
 475  273.3257
 476  276.5849
 477  337.9752
 478  316.4297
 479  241.9814
 480  224.4214
 481  372.1802
 482  261.546
 483  267.1308
 484  423.5258
 485  417.0483
 486  305.2726
 487  245.5416
 488  354.7711
 489  283.9175
 490  302.4749
 491  428.5329
 492  445.5511
 493  287.9828
 494  281.3112
 495  422.9055
 496  358.1851
 497  371.7574
 498  378.6493
 499  339.5816
 500  369.0577
 501  283.6635
 502  318.5271
 503  273.1184
 504  259.923
 505  485.3916
 506  526.3203
 507  452.468
 508  588.3915
 509  802.9901
 510  912.9894
 511  799.97
