# Input file       =  1183165821.120904-PSRB0329-2ms-sampling-dd.dat
# Candidate        =  PSR_0332+5434
# Telescope        =  AR
# Epoch_topo       =  57938.049075473427
# Epoch_bary       =  N/A
# T_sample         =  0.002
# Data Folded      =  7405568
# Data Avg         =  4.36124837133724e-10
# Data StdDev      =  5.99198795057351 
# Profile Bins     =  512
# Profile Avg      =  1.45425693624713 
# Profile StdDev   =  720.634646052887 
# Reduced chi-sqr  =  0.744
# Prob(Noise)      <  1   (~0.0 sigma)
# P_topo (ms)      =  714.486804781747  +/- 0.000133
# P'_topo (s/s)    =  -0                +/- 6.95e-11
# P''_topo (s/s^2) =  0                 +/- 3.04e-14
# P_bary (ms)      =  N/A
# P'_bary (s/s)    =  N/A
# P''_bary (s/s^2) =  N/A
# P_orb (s)        =  N/A
# asin(i)/c (s)    =  N/A
# eccentricity     =  N/A
# w (rad)          =  N/A
# T_peri           =  N/A
######################################################
   0  335.1703
   1  -63.49031
   2  -321.9697
   3  -212.5472
   4  -361.7291
   5  -396.3182
   6  -290.6942
   7  -639.3589
   8  -488.0302
   9  -778.9583
  10  -1011.574
  11  -1014.734
  12  -378.2381
  13  -135.0538
  14  -700.4012
  15  -393.0417
  16  -738.7786
  17  -433.0695
  18  -279.4293
  19  -59.18169
  20  -122.8775
  21  -518.3065
  22  -360.7198
  23  -868.4561
  24  -477.2663
  25  -529.5893
  26  -426.845
  27  -750.3059
  28  -428.7849
  29  -375.1167
  30  -325.7292
  31  -204.9522
  32  -503.1868
  33  -742.4562
  34  -767.4914
  35  -975.9023
  36  -738.1721
  37  -163.0991
  38  441.1579
  39  334.5606
  40  -100.406
  41  -659.3077
  42  -396.5666
  43  -448.2439
  44  -405.3133
  45  28.58078
  46  -165.879
  47  -81.14095
  48  -452.067
  49  167.4339
  50  16.13807
  51  115.6124
  52  602.8953
  53  395.5204
  54  1.871487
  55  -477.138
  56  -347.8832
  57  -379.1686
  58  -428.4987
  59  -116.7416
  60  89.55295
  61  200.198
  62  -84.89026
  63  -429.5168
  64  -396.3398
  65  -119.178
  66  72.16908
  67  177.0348
  68  179.4851
  69  408.4642
  70  368.2109
  71  235.1526
  72  -106.3001
  73  293.8652
  74  586.0367
  75  117.9983
  76  158.4292
  77  -93.61192
  78  194.8972
  79  466.307
  80  263.1294
  81  535.3727
  82  686.4483
  83  412.5827
  84  212.5011
  85  130.2487
  86  442.5317
  87  -40.07861
  88  -135.7605
  89  289.714
  90  304.5652
  91  669.3685
  92  374.3528
  93  565.3334
  94  637.2628
  95  484.0543
  96  347.1117
  97  188.0455
  98  240.981
  99  -31.23889
 100  279.9684
 101  346.5654
 102  214.7039
 103  583.878
 104  607.8923
 105  428.3625
 106  315.4276
 107  156.0831
 108  70.88109
 109  -19.78175
 110  150.6766
 111  431.1341
 112  438.2521
 113  575.0951
 114  344.8228
 115  271.7899
 116  115.6686
 117  -257.7444
 118  -1.233333
 119  538.8146
 120  211.9352
 121  370.6909
 122  -130.8686
 123  210.6154
 124  0.2602134
 125  -59.328
 126  624.3373
 127  850.6021
 128  1096.179
 129  195.8778
 130  -23.34309
 131  -609.1804
 132  -523.3318
 133  106.7681
 134  245.1485
 135  870.5154
 136  691.9853
 137  60.17781
 138  -218.3288
 139  -252.3967
 140  80.67224
 141  -147.6008
 142  -206.9268
 143  394.7234
 144  301.4015
 145  357.1089
 146  341.5662
 147  447.5376
 148  768.082
 149  581.3123
 150  655.9128
 151  503.9708
 152  627.5709
 153  312.157
 154  17.19012
 155  308.2725
 156  553.7712
 157  662.6493
 158  542.6176
 159  414.7971
 160  297.5565
 161  -9.267603
 162  -60.69375
 163  271.8967
 164  108.1111
 165  40.53114
 166  89.90789
 167  88.8128
 168  113.9178
 169  -48.95086
 170  103.9355
 171  -129.567
 172  -252.707
 173  30.61996
 174  259.3635
 175  369.5775
 176  378.9342
 177  425.8773
 178  332.6707
 179  -69.35419
 180  -122.5854
 181  218.7944
 182  33.35361
 183  -301.0424
 184  -219.7443
 185  -24.35045
 186  -48.94206
 187  -178.8272
 188  176.7592
 189  139.3086
 190  -380.5201
 191  -957.9641
 192  -760.3623
 193  -403.9359
 194  -317.4655
 195  -60.75721
 196  -190.0343
 197  -153.3892
 198  -691.1055
 199  -867.4312
 200  -823.0907
 201  -504.53
 202  144.0022
 203  -45.62394
 204  -405.9901
 205  -643.9078
 206  -305.9809
 207  -587.4528
 208  -543.6195
 209  45.17233
 210  217.7873
 211  34.30725
 212  -263.4132
 213  -282.8702
 214  -272.4195
 215  -348.9055
 216  -247.5992
 217  -126.6707
 218  -29.57575
 219  -119.8855
 220  -408.0244
 221  -647.0398
 222  -393.0735
 223  -139.0138
 224  -320.1598
 225  -565.9498
 226  -464.6439
 227  -252.7678
 228  -284.8612
 229  -86.06268
 230  -429.0804
 231  -347.2694
 232  -466.9117
 233  -392.5033
 234  -542.9376
 235  -898.0274
 236  -932.895
 237  -489.9488
 238  -665.0961
 239  -487.7003
 240  -172.2091
 241  -61.42345
 242  -126.1603
 243  -207.978
 244  -599.734
 245  -716.9247
 246  -723.7362
 247  -566.4743
 248  -476.5507
 249  -476.6815
 250  -376.8625
 251  16.84161
 252  -34.37965
 253  -264.7329
 254  -405.3659
 255  -557.4863
 256  -510.4857
 257  -276.5421
 258  -404.4941
 259  -418.0803
 260  28.81218
 261  35.19988
 262  -155.5771
 263  -291.9281
 264  -215.3974
 265  -556.0965
 266  -346.3739
 267  -372.257
 268  17.18904
 269  202.4659
 270  -13.93338
 271  -46.01321
 272  -155.9158
 273  37.36238
 274  -459.9168
 275  -426.6547
 276  -125.3277
 277  -442.1759
 278  -222.2628
 279  -486.1754
 280  -689.7477
 281  -545.2217
 282  -450.2252
 283  97.70736
 284  374.3168
 285  474.1256
 286  283.8105
 287  48.57903
 288  -160.8408
 289  -515.9153
 290  -54.02797
 291  -220.395
 292  -2.227983
 293  348.6444
 294  167.7816
 295  -115.8948
 296  -232.1995
 297  -149.1086
 298  218.6435
 299  -39.01224
 300  -286.1443
 301  -3.265592
 302  162.4789
 303  616.8527
 304  353.1051
 305  550.7964
 306  444.3189
 307  -9.340364
 308  502.9275
 309  133.1815
 310  394.8351
 311  -94.56421
 312  446.6005
 313  230.731
 314  128.3383
 315  668.4094
 316  463.6941
 317  667.7233
 318  730.2545
 319  539.7099
 320  418.4384
 321  701.2924
 322  1338.844
 323  1457.865
 324  2048.687
 325  2535.883
 326  2538.357
 327  2145.869
 328  1813.631
 329  677.4708
 330  366.4288
 331  88.44293
 332  221.5991
 333  104.6061
 334  333.3646
 335  347.2057
 336  -133.1438
 337  -141.2264
 338  404.4299
 339  464.4984
 340  371.8083
 341  -28.60561
 342  411.0555
 343  304.917
 344  76.97218
 345  114.5335
 346  -272.291
 347  108.7267
 348  -70.29121
 349  -245.6371
 350  49.17844
 351  150.0153
 352  179.146
 353  -9.545683
 354  58.81733
 355  61.41956
 356  47.37057
 357  311.4876
 358  320.13
 359  344.8238
 360  274.7157
 361  215.8911
 362  135.5143
 363  -200.6747
 364  -538.5035
 365  -325.4174
 366  24.89766
 367  283.1184
 368  393.1814
 369  514.816
 370  583.4761
 371  159.883
 372  51.99419
 373  247.3897
 374  462.4336
 375  302.5549
 376  359.4727
 377  775.0779
 378  69.80431
 379  30.34927
 380  76.05266
 381  220.2587
 382  462.7966
 383  392.9056
 384  525.4325
 385  -71.4329
 386  -152.9959
 387  -248.0136
 388  -160.8543
 389  -188.6086
 390  29.11974
 391  357.1118
 392  179.6684
 393  151.2161
 394  -218.8918
 395  -84.65288
 396  -328.3652
 397  -70.96596
 398  316.0105
 399  422.7584
 400  564.5925
 401  245.5082
 402  281.693
 403  -56.90833
 404  52.16129
 405  329.1889
 406  172.5218
 407  391.3387
 408  299.3491
 409  430.6208
 410  383.0546
 411  254.4161
 412  18.04358
 413  -51.31399
 414  346.1737
 415  -23.8933
 416  441.6278
 417  505.0012
 418  152.8643
 419  -226.8207
 420  -288.0503
 421  -90.59077
 422  -414.9129
 423  64.36614
 424  311.123
 425  729.072
 426  304.4759
 427  10.22616
 428  14.83207
 429  29.3641
 430  66.05288
 431  57.4143
 432  145.4303
 433  -26.00146
 434  -58.53688
 435  202.0726
 436  166.6474
 437  -37.549
 438  -170.1803
 439  -273.9708
 440  -59.86414
 441  65.32342
 442  36.2016
 443  167.3146
 444  404.0949
 445  0.8254257
 446  148.2953
 447  -69.85017
 448  -27.85901
 449  101.5737
 450  89.67874
 451  -496.1766
 452  -1090.772
 453  -833.0552
 454  -834.5065
 455  -259.1867
 456  -227.9179
 457  -37.62169
 458  161.2973
 459  -135.355
 460  -123.0347
 461  -823.3489
 462  -946.7856
 463  -843.153
 464  -37.02743
 465  404.9676
 466  344.7538
 467  630.7453
 468  -43.64369
 469  -314.4451
 470  -786.6932
 471  -486.0742
 472  -183.0945
 473  22.182
 474  181.6578
 475  283.006
 476  371.9687
 477  -127.6
 478  -51.39793
 479  -54.94328
 480  -377.3152
 481  -448.2512
 482  -373.7455
 483  46.59058
 484  -201.5921
 485  -320.3084
 486  -523.203
 487  -415.6312
 488  -916.9439
 489  -615.8537
 490  316.9799
 491  -284.7499
 492  -215.2902
 493  -384.2794
 494  -65.01691
 495  -102.2707
 496  -610.8594
 497  -122.4966
 498  33.49498
 499  291.8585
 500  238.5939
 501  147.2686
 502  18.38375
 503  -261.9568
 504  8.146486
 505  -560.199
 506  -619.2536
 507  -0.8070098
 508  -25.68957
 509  -675.9317
 510  -284.0095
 511  75.56021
