# Input file       =  1183109348.111727_cleaned.dat
# Candidate        =  PSR_0332+5434
# Telescope        =  AR
# Epoch_topo       =  57937.395452682023
# Epoch_bary       =  N/A
# T_sample         =  0.002
# Data Folded      =  7340032
# Data Avg         =  1.89557312043221 
# Data StdDev      =  33.7349054759552 
# Profile Bins     =  512
# Profile Avg      =  27175.084896314  
# Profile StdDev   =  4039.18266451931 
# Reduced chi-sqr  =  1.287
# Prob(Noise)      <  1.15e-05   (~4.2 sigma)
# P_topo (ms)      =  714.487671185239  +/- 0.000202
# P'_topo (s/s)    =  -0                +/- 1.06e-10
# P''_topo (s/s^2) =  0                 +/- 4.7e-14
# P_bary (ms)      =  N/A
# P'_bary (s/s)    =  N/A
# P''_bary (s/s^2) =  N/A
# P_orb (s)        =  N/A
# asin(i)/c (s)    =  N/A
# eccentricity     =  N/A
# w (rad)          =  N/A
# T_peri           =  N/A
######################################################
   0  27972.09
   1  28516.25
   2  29867.02
   3  31692.13
   4  32132.52
   5  32487.98
   6  32186.92
   7  33341.41
   8  35629.62
   9  35726.64
  10  32770.41
  11  33132.68
  12  32071.58
  13  32117.29
  14  33175.7
  15  32439.89
  16  31593.49
  17  30974.56
  18  30205.58
  19  29451.31
  20  28810.05
  21  29024.06
  22  29038.84
  23  28146.6
  24  27822.29
  25  27300.36
  26  27571.71
  27  27430.63
  28  27270.2
  29  26387.66
  30  26768.56
  31  26219.47
  32  26548.74
  33  26323.19
  34  27221.47
  35  25841.15
  36  23640.5
  37  24370.46
  38  25635.91
  39  26547.21
  40  27202.78
  41  28016.26
  42  28341.79
  43  28256.59
  44  28016.47
  45  27788.7
  46  29630.79
  47  30338.81
  48  29332.76
  49  28351.35
  50  27073.27
  51  27320.27
  52  27147.58
  53  28636.62
  54  30976.22
  55  32064.48
  56  30697.91
  57  28533.45
  58  30470.45
  59  29779.64
  60  29278.77
  61  29604.18
  62  28973.92
  63  27047.26
  64  27513.53
  65  27735.13
  66  26694.11
  67  26610.66
  68  26605.9
  69  26847.81
  70  28160.3
  71  27938.51
  72  28094.08
  73  28240.65
  74  29002
  75  29807.81
  76  29719.52
  77  28980.04
  78  29068.71
  79  27701.08
  80  27147.96
  81  26702.07
  82  26587.02
  83  26596.76
  84  27517.81
  85  27681.66
  86  28044.23
  87  27818.58
  88  27619.19
  89  28335.05
  90  28691.71
  91  28763.04
  92  28424.26
  93  28916.27
  94  29094.38
  95  29587.4
  96  28852.53
  97  29117.53
  98  30543.5
  99  30390.7
 100  30953.68
 101  28442.49
 102  28000.53
 103  28797.12
 104  27701.33
 105  27624.96
 106  26881.84
 107  26670.97
 108  25251.05
 109  24203.88
 110  22010.28
 111  23761.52
 112  23701.45
 113  25541.12
 114  26986.2
 115  24034.79
 116  23335.53
 117  24932.74
 118  22884.23
 119  23390.47
 120  23854.33
 121  23800.7
 122  24226.87
 123  25287.28
 124  27499.76
 125  25799.72
 126  26786.72
 127  28499.9
 128  29427.2
 129  30114.45
 130  30424.39
 131  31255.33
 132  31125.71
 133  30486.49
 134  30717.37
 135  31854.16
 136  32617.41
 137  32630.21
 138  32219.91
 139  32131.47
 140  31425.72
 141  32021.1
 142  33251.13
 143  33142.46
 144  32322.82
 145  29821.54
 146  29281.13
 147  28592.73
 148  27536.67
 149  26988.74
 150  26013.44
 151  25501.98
 152  25567.02
 153  24414.25
 154  24103.34
 155  24443.03
 156  25030.62
 157  25166.29
 158  24040.21
 159  22885.16
 160  22966.75
 161  22167.31
 162  22082.27
 163  22799.03
 164  22295.6
 165  21409.72
 166  21138.52
 167  22680.84
 168  23271.06
 169  24610.84
 170  25536.23
 171  24210.21
 172  25090.1
 173  24897.33
 174  24731.04
 175  24832.67
 176  24428.17
 177  23200.22
 178  23036.32
 179  23110.98
 180  23547.83
 181  22048.57
 182  22458.55
 183  22244.59
 184  23695.33
 185  24022.32
 186  23085.24
 187  23163.78
 188  20932.24
 189  19460.28
 190  20633.48
 191  20289.65
 192  20702.01
 193  21704.57
 194  21376.51
 195  20180.63
 196  20322.54
 197  20020.96
 198  21128.19
 199  20527.63
 200  20841.47
 201  20584.15
 202  20141.34
 203  20364.07
 204  20158.06
 205  20230.02
 206  20587.34
 207  20525.7
 208  19773.6
 209  20209
 210  21320.42
 211  21264
 212  22053.47
 213  22597.55
 214  22680.08
 215  24899.08
 216  26845.76
 217  26685.8
 218  25888.1
 219  26104.35
 220  26073.54
 221  27258.35
 222  27454.21
 223  29730.6
 224  30328.56
 225  29545.93
 226  27916.39
 227  28089.95
 228  28003.04
 229  26621.06
 230  26997.95
 231  26300.97
 232  25972.7
 233  23362.77
 234  24149.08
 235  24115.03
 236  24011.89
 237  24666.34
 238  25114.05
 239  25498.66
 240  24695.3
 241  24177.7
 242  24285.88
 243  23333.77
 244  23776.87
 245  23853.99
 246  24409.54
 247  27049.26
 248  27345.9
 249  25526.84
 250  23620.64
 251  25105.08
 252  25881.95
 253  26760.45
 254  24601.27
 255  24374.13
 256  25355.6
 257  26465.5
 258  28067.12
 259  30704.62
 260  28885.79
 261  26678.76
 262  26987.2
 263  26235.84
 264  26909.18
 265  27921.52
 266  27966.53
 267  28069.85
 268  28077.94
 269  27430.09
 270  29271.76
 271  29748.65
 272  30252.37
 273  30980.7
 274  30205.39
 275  29106.69
 276  28193.33
 277  27462.23
 278  24963.09
 279  23768.28
 280  22869.27
 281  23414.51
 282  23778.53
 283  23029.36
 284  22767.93
 285  22288.58
 286  23137.07
 287  23895.47
 288  24530.71
 289  24696.72
 290  24840.15
 291  25269.6
 292  25777.07
 293  26797.7
 294  27384.03
 295  26857.53
 296  25556.22
 297  26226.75
 298  26197.33
 299  27675.29
 300  28655.76
 301  28850.59
 302  28890.33
 303  28124.4
 304  27511.32
 305  26593.81
 306  25774.97
 307  26807.1
 308  27175.54
 309  28129.02
 310  29324.92
 311  28116.44
 312  27627.77
 313  27791.05
 314  27596.87
 315  27984.64
 316  27408.01
 317  26924.1
 318  27850.71
 319  25424.73
 320  24346.49
 321  22927.28
 322  22729.3
 323  23939.74
 324  24826.77
 325  25504.88
 326  25359.5
 327  22182.36
 328  20949.86
 329  21055.45
 330  20274.79
 331  21924.13
 332  23824.57
 333  23738.74
 334  22417.61
 335  23463.8
 336  22252.83
 337  24517.85
 338  25629.35
 339  26272.46
 340  28974.79
 341  28981.78
 342  29094.56
 343  29079.55
 344  28459.93
 345  28017.62
 346  27585.35
 347  27211.69
 348  26642.68
 349  27327.54
 350  27728.65
 351  28445.23
 352  28886.95
 353  28830.34
 354  30003.06
 355  31280.74
 356  29978.01
 357  29240.32
 358  28405.74
 359  29343.23
 360  27193.5
 361  25644.04
 362  25226.9
 363  24590.53
 364  23379.81
 365  23759.67
 366  22977.18
 367  24143.51
 368  24711.83
 369  24233.62
 370  23009.21
 371  22328.47
 372  23136.13
 373  21289.38
 374  21694.93
 375  22792.98
 376  21999.16
 377  22655.32
 378  23632.97
 379  24217.61
 380  23807.54
 381  24051.45
 382  24935.3
 383  25771.76
 384  25947.73
 385  25735.55
 386  25303.55
 387  26809.6
 388  26979.74
 389  25941.91
 390  26124.23
 391  27023.4
 392  27877.89
 393  30022.1
 394  30660.06
 395  30922.34
 396  31479.54
 397  32272.19
 398  32069.15
 399  32122.47
 400  30876.63
 401  28778.16
 402  29669.13
 403  27540.04
 404  25378.73
 405  25438.25
 406  25730.68
 407  26689.96
 408  27255.67
 409  26892.65
 410  26384.95
 411  26236.66
 412  27870.17
 413  27929.71
 414  27103.22
 415  26104.2
 416  28733.96
 417  30019.7
 418  30152.06
 419  29283.86
 420  28036.43
 421  27040.2
 422  28597.93
 423  26337.56
 424  26030.68
 425  26321.61
 426  25860.68
 427  27253.62
 428  26839.29
 429  28827.95
 430  28596.78
 431  28147.85
 432  28513.61
 433  29718.12
 434  30177.85
 435  31219.04
 436  32614.75
 437  31404.72
 438  33453.72
 439  36067.37
 440  36278.53
 441  36008.22
 442  34323.09
 443  33993.37
 444  33493.53
 445  34038.86
 446  34282.3
 447  32032.22
 448  30484.76
 449  33227.11
 450  32882.02
 451  31910.87
 452  29599.58
 453  30495.26
 454  31746.1
 455  32589.47
 456  31933.61
 457  31215.18
 458  30893.61
 459  30660.56
 460  30381.68
 461  30649.55
 462  30225.68
 463  29952.65
 464  30887.64
 465  30375.84
 466  29854.29
 467  29535.03
 468  29865.56
 469  29327.16
 470  29548.71
 471  29459.42
 472  28246.51
 473  28351.58
 474  28813.78
 475  28433.37
 476  29727.54
 477  29665.14
 478  30702.41
 479  31661.82
 480  32761.04
 481  34030.93
 482  33370.01
 483  32540.04
 484  31894.32
 485  31225.65
 486  32779.75
 487  33690.49
 488  32273.63
 489  30304.47
 490  30038.75
 491  29558.48
 492  29373.23
 493  29458.01
 494  28559.2
 495  27519.89
 496  28416.02
 497  29500.74
 498  29391.13
 499  28413.87
 500  27850.82
 501  27074.02
 502  26704.78
 503  27002.62
 504  27841.29
 505  26992.11
 506  26948.55
 507  26108.54
 508  26298.71
 509  26414.38
 510  26294.57
 511  26088.03
