# Input file       =  1183439200.089815-PSRB0329-2ms-sampling-dd.dat
# Candidate        =  PSR_0332+5434
# Telescope        =  AR
# Epoch_topo       =  57941.213183909895
# Epoch_bary       =  N/A
# T_sample         =  0.002
# Data Folded      =  7340032
# Data Avg         =  1.41836512489474e-09
# Data StdDev      =  9.33548395496933 
# Profile Bins     =  512
# Profile Avg      =  2.34851670161906 
# Profile StdDev   =  1117.76583997506 
# Reduced chi-sqr  =  0.697
# Prob(Noise)      <  1   (~0.0 sigma)
# P_topo (ms)      =  714.484418191087  +/- 0.000857
# P'_topo (s/s)    =  -0                +/- 4.52e-10
# P''_topo (s/s^2) =  0                 +/- 2e-13
# P_bary (ms)      =  N/A
# P'_bary (s/s)    =  N/A
# P''_bary (s/s^2) =  N/A
# P_orb (s)        =  N/A
# asin(i)/c (s)    =  N/A
# eccentricity     =  N/A
# w (rad)          =  N/A
# T_peri           =  N/A
######################################################
   0  199.7395
   1  291.7839
   2  40.14858
   3  242.3169
   4  78.75338
   5  168.4377
   6  774.0612
   7  807.4491
   8  135.0164
   9  164.7626
  10  0.5857222
  11  -393.1477
  12  -208.6044
  13  257.9251
  14  611.8564
  15  135.3979
  16  -306.175
  17  -308.5152
  18  -307.5818
  19  -300.4038
  20  -11.34581
  21  402.9894
  22  300.8745
  23  45.45712
  24  -123.5482
  25  -275.917
  26  -142.256
  27  -113.7403
  28  82.2586
  29  -129.727
  30  60.36968
  31  123.1451
  32  -89.30241
  33  -288.3932
  34  -54.87343
  35  -273.8862
  36  -170.8719
  37  148.3615
  38  -180.2133
  39  -18.29521
  40  235.5362
  41  190.115
  42  -132.8626
  43  -304.1161
  44  -362.9007
  45  -514.3539
  46  -400.8571
  47  -355.0471
  48  -344.4881
  49  181.035
  50  83.39406
  51  -528.1678
  52  -701.2572
  53  -723.6962
  54  -292.8098
  55  117.2476
  56  193.5622
  57  -211.446
  58  -701.9774
  59  -766.603
  60  -475.6112
  61  -366.1532
  62  -431.7267
  63  -253.6686
  64  -146.626
  65  45.91582
  66  -78.15218
  67  -266.6817
  68  -302.2505
  69  -113.3117
  70  34.79905
  71  80.89389
  72  -40.84736
  73  331.4408
  74  250.8807
  75  74.04945
  76  -170.8667
  77  -221.1232
  78  57.30384
  79  103.1989
  80  61.22986
  81  95.12708
  82  296.5837
  83  59.00412
  84  142.0184
  85  -67.37364
  86  -133.3617
  87  -366.6925
  88  -10.27437
  89  180.4534
  90  -372.0754
  91  -81.89498
  92  -108.6663
  93  120.4573
  94  35.47469
  95  -67.90123
  96  -114.494
  97  76.549
  98  405.6277
  99  41.01151
 100  8.094117
 101  267.9268
 102  259.6817
 103  180.6227
 104  151.4496
 105  -49.44617
 106  108.1904
 107  495.8924
 108  208.2852
 109  -102.8759
 110  157.514
 111  598.8909
 112  382.0892
 113  863.1182
 114  730.0935
 115  513.4883
 116  432.4641
 117  475.3531
 118  216.5538
 119  281.2523
 120  543.7919
 121  405.5818
 122  251.8439
 123  -38.44454
 124  -144.5619
 125  245.4779
 126  205.5526
 127  530.8415
 128  444.1662
 129  258.7556
 130  -262.1861
 131  12.75672
 132  21.5323
 133  113.7913
 134  448.5929
 135  466.3745
 136  465.8296
 137  751.5517
 138  510.5467
 139  150.5581
 140  370.8462
 141  1148.155
 142  1319.123
 143  1412.671
 144  1331.832
 145  1136.244
 146  1023.027
 147  1202.447
 148  1267.009
 149  1411.593
 150  1476.688
 151  1112.449
 152  979.6909
 153  970.4302
 154  964.619
 155  1061.797
 156  1890.72
 157  2118.552
 158  2154.816
 159  1940.385
 160  2592.464
 161  1875.642
 162  1234.156
 163  1336.597
 164  995.5554
 165  870.921
 166  626.856
 167  1157.059
 168  1447.02
 169  1769.907
 170  1623.403
 171  1159.051
 172  986.5664
 173  681.4034
 174  743.1652
 175  587.3903
 176  571.6982
 177  905.6328
 178  1046.645
 179  1001.959
 180  1026.624
 181  711.6346
 182  733.9106
 183  515.4223
 184  582.1136
 185  602.6102
 186  747.0501
 187  566.7227
 188  78.83951
 189  382.3691
 190  905.4006
 191  1366.14
 192  1525.759
 193  1602.725
 194  991.3395
 195  251.5245
 196  800.4708
 197  1198.138
 198  1628.247
 199  1671.789
 200  1168.545
 201  617.2146
 202  249.324
 203  156.9697
 204  -398.2253
 205  -534.5591
 206  -343.259
 207  214.256
 208  115.1152
 209  -45.27266
 210  -549.5305
 211  -875.0387
 212  -1037.519
 213  -816.275
 214  -1201.901
 215  -1158.798
 216  -1151.479
 217  -1339.824
 218  -965.566
 219  -1015.234
 220  -1533.005
 221  -1531.937
 222  -1136.439
 223  -550.5482
 224  -529.0974
 225  -634.9199
 226  -688.4151
 227  -1030.466
 228  -1072.378
 229  -1342.708
 230  -1166.601
 231  -956.5206
 232  -855.4343
 233  -1035.892
 234  -1255.877
 235  -1184.522
 236  -951.107
 237  -936.4124
 238  -873.5842
 239  -942.5198
 240  -1352.969
 241  -1270.036
 242  -973.7874
 243  -889.4119
 244  -1249.834
 245  -1380.266
 246  -1436.277
 247  -1249.331
 248  -1172.19
 249  -1516.557
 250  -1375.962
 251  -1144.995
 252  -1255.46
 253  -1436.473
 254  -1627.87
 255  -1541.198
 256  -1521.857
 257  -1626.133
 258  -1295.193
 259  -776.5811
 260  -516.815
 261  -914.4332
 262  -763.9382
 263  -918.6016
 264  -807.662
 265  -498.8319
 266  -573.6414
 267  -548.7563
 268  -50.04961
 269  467.0944
 270  189.1979
 271  101.8216
 272  -64.21636
 273  508.1093
 274  900.6668
 275  695.0657
 276  485.8471
 277  -56.34539
 278  -225.1564
 279  -84.22612
 280  241.5201
 281  337.4315
 282  -99.74097
 283  -181.1264
 284  -295.8085
 285  -263.3645
 286  -380.895
 287  -403.3356
 288  -250.4765
 289  -155.9229
 290  -442.5733
 291  -520.197
 292  -54.84274
 293  -174.3763
 294  -191.2635
 295  -566.5977
 296  -847.5209
 297  -855.5841
 298  -235.019
 299  -22.71966
 300  -672.7609
 301  -824.6713
 302  -638.8837
 303  -452.6684
 304  -294.9302
 305  -220.7181
 306  -332.6639
 307  -318.6271
 308  -135.491
 309  100.7375
 310  291.7457
 311  156.5526
 312  -95.77319
 313  309.3004
 314  151.9085
 315  -62.76453
 316  -243.9216
 317  -279.2538
 318  33.28637
 319  -193.0854
 320  -182.9886
 321  -394.5056
 322  -573.1047
 323  -716.3032
 324  -727.0415
 325  -513.6631
 326  -348.019
 327  -604.9318
 328  -740.9147
 329  -792.4805
 330  -809.3705
 331  -325.1095
 332  -151.8219
 333  -611.2946
 334  -549.5649
 335  -109.3925
 336  -204.3929
 337  -131.8388
 338  -65.36689
 339  -162.9702
 340  34.15038
 341  117.5778
 342  129.1689
 343  -17.98232
 344  -263.3816
 345  -305.3172
 346  72.87287
 347  274.1487
 348  169.9859
 349  121.4939
 350  82.68562
 351  367.3701
 352  291.9291
 353  169.7072
 354  140.5439
 355  38.13993
 356  153.7346
 357  -115.6171
 358  -294.9957
 359  -211.0019
 360  -2.201006
 361  -313.8014
 362  -466.9057
 363  -607.6604
 364  -838.0899
 365  -682.9236
 366  -500.4651
 367  -297.6707
 368  -480.2094
 369  -713.2038
 370  -853.4
 371  -945.907
 372  -942.1884
 373  -577.7746
 374  -680.2255
 375  -501.7206
 376  -195.2229
 377  -622.3695
 378  -589.6547
 379  -337.1402
 380  -276.481
 381  -539.3369
 382  -461.5624
 383  -42.87345
 384  168.488
 385  129.0491
 386  -294.6078
 387  -493.3922
 388  -308.1635
 389  120.2984
 390  313.635
 391  212.231
 392  289.8197
 393  56.26768
 394  -34.50503
 395  95.56084
 396  154.8206
 397  122.1978
 398  -124.023
 399  -150.9452
 400  99.8126
 401  3.4649
 402  -3.607717
 403  -75.50254
 404  426.6727
 405  153.4215
 406  87.0274
 407  231.0745
 408  -93.6754
 409  -90.38345
 410  82.02654
 411  929.2183
 412  751.0694
 413  533.1884
 414  219.8088
 415  112.1279
 416  -103.5422
 417  -309.111
 418  -30.24392
 419  564.9301
 420  433.2643
 421  408.2386
 422  56.81397
 423  51.50531
 424  180.6971
 425  540.9006
 426  837.3202
 427  663.8829
 428  557.892
 429  201.9922
 430  -374.8018
 431  -106.8721
 432  -26.04478
 433  93.79941
 434  233.848
 435  -292.6068
 436  -15.8872
 437  -591.0114
 438  -760.0942
 439  -783.5843
 440  -403.421
 441  -95.12336
 442  240.3688
 443  140.252
 444  -777.3622
 445  -1042.723
 446  -826.3572
 447  -972.6041
 448  -876.2847
 449  -686.5631
 450  -968.3556
 451  -937.7685
 452  -51.8728
 453  38.56293
 454  -30.88637
 455  -460.9382
 456  -557.1512
 457  -228.9214
 458  -52.63742
 459  -192.7813
 460  31.40732
 461  -416.6639
 462  -573.2352
 463  -477.8207
 464  -407.9603
 465  -171.2693
 466  -253.7895
 467  -202.1791
 468  -73.11281
 469  -23.58437
 470  -54.5681
 471  109.392
 472  -93.44476
 473  -351.9507
 474  -529.0281
 475  222.181
 476  748.2286
 477  1046.624
 478  1065.391
 479  570.0992
 480  -217.7339
 481  -95.40446
 482  273.221
 483  1128.788
 484  1545.969
 485  1412.245
 486  946.5276
 487  94.86767
 488  5.015831
 489  240.0585
 490  376.0956
 491  699.0634
 492  767.9035
 493  773.7905
 494  667.4979
 495  158.2319
 496  338.7119
 497  526.5919
 498  463.7643
 499  788.2626
 500  1197.811
 501  980.5292
 502  984.5112
 503  929.6663
 504  650.2013
 505  771.7599
 506  390.5097
 507  139.9945
 508  249.4418
 509  440.5198
 510  805.3851
 511  199.9005
