# Input file       =  1183510533.099951-PSRB0329-2ms-sampling-dd.dat
# Candidate        =  PSR_0332+5434
# Telescope        =  AR
# Epoch_topo       =  57942.038797453140
# Epoch_bary       =  N/A
# T_sample         =  0.002
# Data Folded      =  7405568
# Data Avg         =  -9.10361922452352e-10
# Data StdDev      =  7.54615644105063 
# Profile Bins     =  512
# Profile Avg      =  0.778297095167376
# Profile StdDev   =  907.548850367054 
# Reduced chi-sqr  =  0.413
# Prob(Noise)      <  1   (~0.0 sigma)
# P_topo (ms)      =  714.483785831664  +/- 7.39e-05
# P'_topo (s/s)    =  -0                +/- 3.86e-11
# P''_topo (s/s^2) =  0                 +/- 1.69e-14
# P_bary (ms)      =  N/A
# P'_bary (s/s)    =  N/A
# P''_bary (s/s^2) =  N/A
# P_orb (s)        =  N/A
# asin(i)/c (s)    =  N/A
# eccentricity     =  N/A
# w (rad)          =  N/A
# T_peri           =  N/A
######################################################
   0  -597.7386
   1  53.45819
   2  105.355
   3  -91.95222
   4  -306.6242
   5  -146.5272
   6  74.03925
   7  229.3947
   8  9.544077
   9  -306.3966
  10  -12.23906
  11  188.799
  12  303.0515
  13  -230.3764
  14  -344.4619
  15  188.1893
  16  -235.4893
  17  84.38036
  18  447.1863
  19  591.509
  20  496.6621
  21  167.6237
  22  55.4028
  23  408.6895
  24  407.2338
  25  482.2972
  26  137.11
  27  519.0071
  28  832.0977
  29  270.8546
  30  43.63699
  31  68.10121
  32  411.1931
  33  229.482
  34  55.35348
  35  224.0737
  36  178.8062
  37  -169.8418
  38  57.96746
  39  319.2603
  40  410.6129
  41  -32.32592
  42  89.04968
  43  -182.3335
  44  -256.6331
  45  -349.5046
  46  -216.3716
  47  0.1320524
  48  43.33488
  49  229.6881
  50  322.2972
  51  163.9598
  52  507.2702
  53  552.0781
  54  -23.29308
  55  -294.3611
  56  -101.4259
  57  190.2832
  58  -79.58626
  59  168.6489
  60  636.6615
  61  695.7814
  62  -292.0322
  63  -254.4846
  64  -262.2124
  65  -333.7174
  66  -265.4448
  67  -182.8414
  68  333.6589
  69  253.9487
  70  96.34074
  71  -157.64
  72  -367.2008
  73  141.4319
  74  435.7017
  75  258.6614
  76  136.9357
  77  543.1556
  78  56.92924
  79  -149.7202
  80  286.554
  81  445.6707
  82  -204.4275
  83  -308.499
  84  516.0479
  85  91.77546
  86  -126.7138
  87  -408.392
  88  2.545588
  89  115.9997
  90  -143.1604
  91  -292.4182
  92  -94.00145
  93  33.56775
  94  356.3701
  95  112.7649
  96  225.1974
  97  240.414
  98  164.8811
  99  84.36154
 100  57.81079
 101  731.4279
 102  349.416
 103  489.2331
 104  602.6986
 105  874.2915
 106  842.5468
 107  784.6579
 108  389.3366
 109  111.3118
 110  101.6084
 111  403.5833
 112  619.9739
 113  473.8617
 114  829.6335
 115  641.7493
 116  322.8524
 117  76.67824
 118  375.0082
 119  264.3798
 120  109.8656
 121  16.38326
 122  515.1107
 123  664.5488
 124  -144.9276
 125  -10.85258
 126  297.4947
 127  -166.9647
 128  -78.98431
 129  -470.354
 130  6.069354
 131  49.64873
 132  320.0968
 133  652.2955
 134  446.2232
 135  365.2152
 136  -41.82166
 137  -190.7336
 138  -290.3806
 139  -231.8904
 140  342.2266
 141  411.6418
 142  347.4835
 143  447.6221
 144  502.5317
 145  370.0716
 146  104.337
 147  118.6692
 148  -128.76
 149  -149.6988
 150  203.08
 151  275.8032
 152  192.1519
 153  -146.8289
 154  -299.1728
 155  -81.24773
 156  -103.7237
 157  212.0948
 158  375.4355
 159  573.6578
 160  50.1326
 161  -808.9357
 162  -557.1903
 163  -144.377
 164  -150.466
 165  86.65774
 166  428.6769
 167  598.7479
 168  275.3987
 169  -748.7794
 170  -763.6801
 171  -728.3445
 172  103.6712
 173  295.6399
 174  448.7624
 175  325.672
 176  2.600584
 177  -196.4054
 178  -823.5226
 179  -288.6094
 180  -276.3705
 181  246.8663
 182  -37.78682
 183  -189.646
 184  282.1873
 185  358.4986
 186  186.8132
 187  -50.30083
 188  -132.0267
 189  541.6107
 190  144.7138
 191  -283.4009
 192  47.30102
 193  -16.41768
 194  -331.5309
 195  -369.9305
 196  196.747
 197  568.1469
 198  526.7579
 199  389.286
 200  368.2092
 201  725.7734
 202  210.3325
 203  -411.0622
 204  -261.9574
 205  -22.99184
 206  -293.064
 207  -76.27339
 208  357.5062
 209  409.5378
 210  -276.3035
 211  -284.0908
 212  -769.4434
 213  -413.4804
 214  -417.0704
 215  -100.4338
 216  149.2563
 217  -98.3555
 218  70.16833
 219  -386.2448
 220  -831.4835
 221  -646.2859
 222  -427.7118
 223  -577.3058
 224  -567.3995
 225  -256.2662
 226  433.056
 227  -23.20462
 228  -208.553
 229  -161.0972
 230  -202.8304
 231  -190.9111
 232  -55.49075
 233  750.4095
 234  196.0936
 235  -62.19884
 236  -333.5766
 237  -162.591
 238  302.0527
 239  340.3509
 240  694.8417
 241  744.4297
 242  498.2054
 243  313.3434
 244  -596.37
 245  -517.409
 246  0.8095341
 247  77.0572
 248  505.5488
 249  327.1832
 250  780.3114
 251  532.9966
 252  -503.2771
 253  -430.995
 254  -120.2354
 255  391.4582
 256  -30.82523
 257  -148.2787
 258  27.1739
 259  -40.81604
 260  -326.4019
 261  -3.846718
 262  546.3743
 263  384.6627
 264  448.8336
 265  360.6605
 266  270.4064
 267  488.7578
 268  353.0704
 269  -154.6285
 270  136.3
 271  28.75367
 272  61.94971
 273  53.73979
 274  93.01221
 275  320.4384
 276  199.6645
 277  -256.8019
 278  -151.8013
 279  -204.2968
 280  -87.8791
 281  -75.47051
 282  238.3944
 283  429.5352
 284  228.7847
 285  -4.362002
 286  -154.2079
 287  -559.5457
 288  -273.2155
 289  -80.92477
 290  -418.4601
 291  -281.4171
 292  280.3173
 293  31.94931
 294  59.97855
 295  -177.5154
 296  -112.6205
 297  -99.73454
 298  -586.5244
 299  77.95045
 300  186.6341
 301  275.322
 302  84.63855
 303  -370.3995
 304  -264.7524
 305  -685.4664
 306  -518.2203
 307  -341.5353
 308  267.6876
 309  69.02786
 310  333.2418
 311  104.4076
 312  -75.13789
 313  -251.4423
 314  -478.1435
 315  79.91232
 316  62.48242
 317  134.0612
 318  -136.5939
 319  -576.7451
 320  -718.9993
 321  -401.8664
 322  -183.8011
 323  -94.87827
 324  450.705
 325  140.6365
 326  258.8158
 327  14.59341
 328  337.2133
 329  387.3619
 330  175.9886
 331  228.7735
 332  408.3471
 333  463.5428
 334  215.3387
 335  -568.7726
 336  -55.99704
 337  271.391
 338  29.96983
 339  -206.2227
 340  -153.6553
 341  29.26523
 342  39.63677
 343  -491.6462
 344  -495.8405
 345  -271.7949
 346  -125.2897
 347  -105.8436
 348  -93.65558
 349  -108.6047
 350  334.8709
 351  169.7486
 352  -295.8575
 353  -532.863
 354  -262.7305
 355  -333.4722
 356  -441.6774
 357  -120.1839
 358  231.762
 359  -105.1127
 360  -162.0572
 361  44.17148
 362  -55.04675
 363  39.67517
 364  5.622844
 365  130.3002
 366  229.8803
 367  -165.1055
 368  -105.3746
 369  175.2714
 370  253.4928
 371  -277.8585
 372  -478.458
 373  -344.436
 374  -363.5765
 375  -455.0956
 376  -794.2545
 377  -153.3896
 378  -383.4456
 379  -259.2502
 380  -280.3095
 381  -1015.229
 382  -190.1919
 383  -265.7185
 384  -639.1273
 385  -1037.162
 386  -1136.243
 387  -531.6223
 388  -397.4827
 389  -266.547
 390  -9.285525
 391  204.5785
 392  -614.6548
 393  -566.1531
 394  -309.3597
 395  -26.59311
 396  198.131
 397  25.16371
 398  110.2831
 399  -84.26459
 400  61.64655
 401  -82.24487
 402  -317.8468
 403  -173.1843
 404  -248.6487
 405  -229.0804
 406  -51.28749
 407  307.863
 408  -108.7354
 409  -359.5263
 410  -304.3796
 411  -380.2448
 412  -112.1006
 413  -710.2557
 414  -270.4087
 415  525.9628
 416  373.0416
 417  -46.8425
 418  -794.7429
 419  -875.166
 420  -799.2502
 421  -531.5684
 422  -88.27763
 423  740.2274
 424  467.5111
 425  -140.3162
 426  -899.0517
 427  -946.7461
 428  -780.038
 429  -491.0656
 430  265.7101
 431  778.67
 432  745.6735
 433  392.0574
 434  -255.0894
 435  -130.5686
 436  6.483619
 437  -373.797
 438  -704.1113
 439  -46.6889
 440  366.3364
 441  428.2614
 442  573.0248
 443  510.1481
 444  976.2095
 445  174.221
 446  334.4551
 447  1211.371
 448  1673.341
 449  1978.142
 450  1648.159
 451  1496.103
 452  1054.108
 453  378.8635
 454  -76.18051
 455  170.5835
 456  116.0357
 457  -46.91422
 458  -384.7535
 459  -1078.06
 460  -978.4322
 461  -222.476
 462  -58.34506
 463  -159.2398
 464  -46.59791
 465  344.6534
 466  4.747693
 467  -922.4836
 468  -880.2183
 469  -605.142
 470  -524.426
 471  -675.0844
 472  -240.0956
 473  139.5518
 474  -319.2393
 475  -731.7835
 476  -472.6036
 477  265.5811
 478  -239.7562
 479  -255.0702
 480  -136.9711
 481  -47.99289
 482  -108.876
 483  -479.577
 484  -744.7299
 485  -1127.369
 486  -602.5474
 487  93.34418
 488  -187.9758
 489  181.466
 490  370.3449
 491  -348.3187
 492  -938.7148
 493  -815.3167
 494  -287.5047
 495  182.514
 496  -211.4219
 497  539.3237
 498  980.4704
 499  429.759
 500  -133.137
 501  -875.3271
 502  -649.2028
 503  -551.5228
 504  -253.6249
 505  65.99105
 506  794.9749
 507  349.1057
 508  -247.8915
 509  -539.7606
 510  -439.6617
 511  -248.2208
