# Input file       =  1183079651.114455_cleaned.dat
# Candidate        =  PSR_0332+5434
# Telescope        =  AR
# Epoch_topo       =  57937.051737435824
# Epoch_bary       =  N/A
# T_sample         =  0.002
# Data Folded      =  7405568
# Data Avg         =  0.183402722463449
# Data StdDev      =  5.02969519747206 
# Profile Bins     =  256
# Profile Avg      =  5305.53833665688 
# Profile StdDev   =  855.462293483827 
# Reduced chi-sqr  =  1.000
# Prob(Noise)      <  0.486   (~0.0 sigma)
# P_topo (ms)      =  714.487584322133  +/- 3.62e-05
# P'_topo (s/s)    =  -0                +/- 1.9e-11
# P''_topo (s/s^2) =  0                 +/- 8.29e-15
# P_bary (ms)      =  N/A
# P'_bary (s/s)    =  N/A
# P''_bary (s/s^2) =  N/A
# P_orb (s)        =  N/A
# asin(i)/c (s)    =  N/A
# eccentricity     =  N/A
# w (rad)          =  N/A
# T_peri           =  N/A
######################################################
   0  5489.456
   1  4792.923
   2  4959.607
   3  6142.022
   4  5594.305
   5  4917.096
   6  5081.817
   7  5629.068
   8  5699.331
   9  5416.808
  10  4675.929
  11  6134.178
  12  6243.498
  13  4033.717
  14  4543.236
  15  5430.938
  16  6514.172
  17  3751.434
  18  4248.075
  19  5555.216
  20  6188.659
  21  4088.167
  22  3837.16
  23  4464.524
  24  5855.313
  25  4601.604
  26  3856.697
  27  4410.464
  28  5985.718
  29  5762.511
  30  5216.91
  31  4919.822
  32  5186.894
  33  5457.168
  34  4893.574
  35  4717.651
  36  5958.431
  37  6036.631
  38  4483.828
  39  4915.459
  40  5912.529
  41  5565.153
  42  5830.828
  43  5222.422
  44  5568.383
  45  5777.376
  46  5881.457
  47  4825.811
  48  5440.132
  49  5545.097
  50  4820.618
  51  4466.13
  52  5679.323
  53  6112.71
  54  5263.481
  55  3939.38
  56  5174.497
  57  6248.126
  58  5425.682
  59  4091.102
  60  5087.698
  61  6237.311
  62  5422.981
  63  4179.773
  64  4395.47
  65  5478.359
  66  5694.234
  67  4530.477
  68  5344.329
  69  5336.428
  70  5321.358
  71  4988.617
  72  4600.477
  73  5895.064
  74  6134.687
  75  5195.526
  76  5007.309
  77  6069.021
  78  7198.607
  79  5265.034
  80  5008.283
  81  5213.989
  82  5387.281
  83  5460.423
  84  5560.23
  85  4626.073
  86  5138.674
  87  4838.005
  88  5437.491
  89  6024.443
  90  6599.967
  91  5087.132
  92  5118.094
  93  4815.967
  94  6366.692
  95  5768.479
  96  4844.354
  97  4435.757
  98  6434.971
  99  5665.927
 100  4986.19
 101  5540.923
 102  5943.807
 103  6053.52
 104  4510.562
 105  5097.785
 106  5829.593
 107  5373.254
 108  5357.248
 109  5147.419
 110  5909.894
 111  6251.064
 112  4444.972
 113  4584.387
 114  5557.569
 115  6127.787
 116  5045.439
 117  4220.142
 118  5183.763
 119  6388.13
 120  5164.602
 121  5427.275
 122  4922.115
 123  5698.254
 124  5310.911
 125  4702.16
 126  5114.199
 127  5347.737
 128  4909.639
 129  4218.45
 130  4323.923
 131  5833.256
 132  5307.962
 133  5263.593
 134  5435.651
 135  5274.559
 136  5938.043
 137  5559.606
 138  4988.508
 139  5649.403
 140  6038.355
 141  5249.74
 142  4765.598
 143  6055.037
 144  5767.506
 145  4765.793
 146  4389.33
 147  5477.342
 148  6858.201
 149  5677.376
 150  4602.849
 151  5728.245
 152  6793.676
 153  5573.402
 154  5333.049
 155  5057.887
 156  5961.02
 157  5753.093
 158  5273.534
 159  5483.635
 160  5968.541
 161  6100.186
 162  7427.725
 163  8706.024
 164  8722.504
 165  7156.324
 166  4677.41
 167  5268.181
 168  5607.385
 169  5847.16
 170  4402.755
 171  5217.263
 172  5397.83
 173  4977.086
 174  5254.596
 175  5776.527
 176  5533.09
 177  6046.974
 178  4288.421
 179  4728.521
 180  5805.501
 181  5637.29
 182  5406.185
 183  4310.847
 184  4637.331
 185  6790.549
 186  5874.244
 187  5107.055
 188  4904.751
 189  6214.418
 190  5757.237
 191  4654.652
 192  4850.51
 193  6251.729
 194  5354.9
 195  5250.948
 196  4887.042
 197  5459.295
 198  5167.258
 199  4491.733
 200  4735.475
 201  4999.96
 202  5130.509
 203  3979.021
 204  4376.68
 205  5202.761
 206  5853.553
 207  5524.84
 208  4633.098
 209  4736.999
 210  5141.545
 211  4990.844
 212  4804.097
 213  4850.293
 214  5505.157
 215  4596.396
 216  5150.721
 217  5083.53
 218  5699.792
 219  5159.081
 220  4348.236
 221  5417.142
 222  6285.109
 223  5404.513
 224  4596.256
 225  4639.111
 226  6280.212
 227  6424.521
 228  4636.239
 229  4282.31
 230  6406.195
 231  5488.212
 232  4710.004
 233  3587.656
 234  5891.305
 235  5906.189
 236  3908.447
 237  4251.348
 238  5689.049
 239  5775.299
 240  4329.067
 241  4091.804
 242  5215.468
 243  6249.922
 244  4940.611
 245  3885.001
 246  5230.929
 247  6020.462
 248  5573.242
 249  5227.963
 250  4959.049
 251  5258.567
 252  4920.817
 253  4738.231
 254  4474.311
 255  4859.481
