# Input file       =  1183611107.093294-PSRB0329-2ms-sampling-dd.dat
# Candidate        =  PSR_0332+5434
# Telescope        =  AR
# Epoch_topo       =  57943.202848302011
# Epoch_bary       =  N/A
# T_sample         =  0.002
# Data Folded      =  7340032
# Data Avg         =  -8.38004021717624e-11
# Data StdDev      =  5.10645972155702 
# Profile Bins     =  512
# Profile Avg      =  1.16415542466556 
# Profile StdDev   =  611.411927597678 
# Reduced chi-sqr  =  0.648
# Prob(Noise)      <  1   (~0.0 sigma)
# P_topo (ms)      =  714.482950495916  +/- 0.00105
# P'_topo (s/s)    =  -0                +/- 5.54e-10
# P''_topo (s/s^2) =  0                 +/- 2.45e-13
# P_bary (ms)      =  N/A
# P'_bary (s/s)    =  N/A
# P''_bary (s/s^2) =  N/A
# P_orb (s)        =  N/A
# asin(i)/c (s)    =  N/A
# eccentricity     =  N/A
# w (rad)          =  N/A
# T_peri           =  N/A
######################################################
   0  -585.6247
   1  -331.1748
   2  -196.7449
   3  -22.92676
   4  -149.8769
   5  -162.7274
   6  -325.3238
   7  -359.7262
   8  -329.9769
   9  -390.9816
  10  -641.6582
  11  -625.2276
  12  -441.1356
  13  -475.6076
  14  -294.6942
  15  -153.5414
  16  -280.9999
  17  -262.2241
  18  -237.556
  19  -554.9042
  20  -899.6998
  21  -975.816
  22  -676.6224
  23  -337.8558
  24  -418.7547
  25  -635.6393
  26  -501.4881
  27  -503.4812
  28  -626.6273
  29  -599.8525
  30  -709.4177
  31  -643.5085
  32  -628.8271
  33  -545.7704
  34  -401.0467
  35  -378.5166
  36  -245.0819
  37  -603.1351
  38  -681.3124
  39  -551.8688
  40  -278.9307
  41  134.9605
  42  185.4834
  43  270.656
  44  -113.0494
  45  -59.10382
  46  -105.8332
  47  -283.7922
  48  -44.45596
  49  281.8038
  50  422.9209
  51  -4.439049
  52  -40.60637
  53  -199.9879
  54  -315.9807
  55  -162.3548
  56  63.50224
  57  172.9995
  58  244.3278
  59  115.4318
  60  68.7231
  61  107.603
  62  -141.0692
  63  -297.1062
  64  -93.4425
  65  174.5859
  66  314.1687
  67  -19.38084
  68  -19.80464
  69  -138.257
  70  -238.7702
  71  84.89943
  72  86.07787
  73  138.6632
  74  -196.02
  75  106.2005
  76  -44.80095
  77  -65.92673
  78  -394.2126
  79  -561.1111
  80  -449.5699
  81  -165.5653
  82  -211.4989
  83  -174.2719
  84  -462.5579
  85  -125.2041
  86  -341.4735
  87  -326.717
  88  -278.111
  89  -525.1861
  90  -428.8577
  91  -298.9483
  92  36.82962
  93  184.0516
  94  -92.82528
  95  -447.4544
  96  -655.145
  97  -628.0908
  98  -389.2869
  99  -257.6047
 100  -62.60443
 101  -43.40096
 102  -320.1299
 103  -350.8714
 104  -172.1703
 105  -110.1691
 106  163.9234
 107  393.3253
 108  178.3795
 109  79.21957
 110  412.3586
 111  14.62721
 112  2.298126
 113  290.608
 114  266.5977
 115  131.2497
 116  -9.068533
 117  -105.6857
 118  -51.24652
 119  234.153
 120  340.7894
 121  213.8908
 122  311.0507
 123  64.74723
 124  149.7777
 125  336.4724
 126  400.9077
 127  484.216
 128  492.1551
 129  307.3206
 130  128.6553
 131  28.39591
 132  -181.514
 133  -23.53784
 134  107.329
 135  -132.4806
 136  -387.2239
 137  -390.1687
 138  -352.7154
 139  -101.9243
 140  426.2465
 141  453.8318
 142  315.2734
 143  366.2774
 144  426.0088
 145  564.5785
 146  927.9155
 147  1983.889
 148  2258.777
 149  2153
 150  1756.276
 151  1067.549
 152  329.5452
 153  111.8804
 154  12.93165
 155  31.82346
 156  -256.121
 157  54.72343
 158  346.8936
 159  583.3423
 160  450.575
 161  172.7661
 162  -201.8107
 163  -302.5755
 164  -19.61761
 165  66.81701
 166  155.6876
 167  163.013
 168  -29.29594
 169  47.74971
 170  -67.72439
 171  -34.62209
 172  -86.22981
 173  -158.0155
 174  -239.8674
 175  -12.36073
 176  -1.522817
 177  -75.3819
 178  110.2879
 179  49.61101
 180  -78.87589
 181  19.69162
 182  54.84579
 183  -303.0252
 184  -72.13654
 185  6.206504
 186  180.8186
 187  -227.1008
 188  93.97787
 189  383.7537
 190  281.9886
 191  194.4258
 192  191.1728
 193  11.49429
 194  53.67258
 195  147.6793
 196  484.0983
 197  79.22064
 198  37.66596
 199  13.28653
 200  297.2831
 201  592.1346
 202  812.8628
 203  252.1988
 204  290.254
 205  385.2618
 206  270.7259
 207  662.1629
 208  851.5685
 209  536.6338
 210  862.0256
 211  582.8909
 212  243.477
 213  372.43
 214  682.7463
 215  404.869
 216  122.145
 217  76.28914
 218  3.421341
 219  135.3004
 220  366.9703
 221  446.0507
 222  113.1979
 223  515.0836
 224  200.764
 225  -245.5483
 226  -10.09707
 227  -56.35117
 228  180.9016
 229  -51.30316
 230  586.1938
 231  400.4374
 232  178.4722
 233  -64.23893
 234  25.799
 235  154.7025
 236  12.10116
 237  -101.8176
 238  208.6361
 239  -26.40018
 240  -197.8045
 241  -14.7653
 242  34.70889
 243  -385.4856
 244  -412.0333
 245  52.04913
 246  -263.2637
 247  -295.714
 248  192.3096
 249  -140.3954
 250  -189.9166
 251  -587.2189
 252  -630.2641
 253  -669.499
 254  -716.5609
 255  -429.5492
 256  -647.3558
 257  -241.2499
 258  -337.439
 259  -502.2101
 260  -595.2971
 261  -447.2281
 262  -267.563
 263  44.42992
 264  -101.2687
 265  -204.7896
 266  -293.9113
 267  -226.1938
 268  -316.9198
 269  -276.2587
 270  -117.8841
 271  122.8641
 272  243.8008
 273  219.6523
 274  -46.76759
 275  62.81655
 276  379.9721
 277  117.8606
 278  -50.21344
 279  -48.30131
 280  -137.8846
 281  -38.09198
 282  95.65512
 283  16.95242
 284  47.23745
 285  -25.83105
 286  -141.4953
 287  -333.9224
 288  -405.9145
 289  -262.1893
 290  106.1428
 291  260.9697
 292  319.4003
 293  27.23339
 294  141.2383
 295  -167.4944
 296  -175.9981
 297  254.945
 298  298.9406
 299  346.6082
 300  112.6452
 301  -142.1104
 302  -99.95424
 303  277.1488
 304  315.8064
 305  8.473836
 306  62.49783
 307  126.5239
 308  47.76755
 309  437.1378
 310  421.3565
 311  81.13451
 312  153.2847
 313  -13.51941
 314  -13.64347
 315  -335.0433
 316  32.99323
 317  51.42615
 318  63.94112
 319  32.50588
 320  -261.7223
 321  -15.8072
 322  -25.61329
 323  -118.332
 324  -18.22452
 325  -104.5931
 326  -169.1233
 327  -9.601346
 328  14.91273
 329  344.2655
 330  406.9014
 331  551.4711
 332  376.5651
 333  326.0369
 334  357.2859
 335  129.7697
 336  211.2898
 337  446.6581
 338  367.5599
 339  -152.407
 340  -298.3618
 341  202.8435
 342  258.3588
 343  -16.78363
 344  172.1544
 345  181.3493
 346  -100.5225
 347  -108.3809
 348  -57.53904
 349  94.14447
 350  459.8782
 351  381.0133
 352  169.2528
 353  261.1793
 354  394.9812
 355  409.4465
 356  378.2263
 357  322.8269
 358  230.5427
 359  144.4269
 360  73.74487
 361  171.9722
 362  169.6657
 363  191.049
 364  68.09235
 365  204.4432
 366  172.2866
 367  114.4657
 368  133.4156
 369  36.59058
 370  224.8642
 371  304.1845
 372  400.9372
 373  390.0868
 374  223.7721
 375  240.1304
 376  217.7762
 377  367.4727
 378  332.4387
 379  424.4193
 380  327.4229
 381  412.3153
 382  308.3046
 383  265.3343
 384  81.06839
 385  155.859
 386  244.9145
 387  106.196
 388  63.3905
 389  -131.4218
 390  -8.774062
 391  32.70294
 392  -188.6765
 393  -186.1075
 394  82.61801
 395  154.6013
 396  -137.8497
 397  21.76895
 398  211.7842
 399  205.9759
 400  138.5042
 401  -54.61971
 402  -48.00946
 403  -147.6665
 404  -61.58072
 405  -143.8117
 406  -65.26402
 407  432.9783
 408  692.2802
 409  229.7505
 410  60.00339
 411  -109.9414
 412  -86.12923
 413  -253.5046
 414  -147.4697
 415  -132.909
 416  3.178969
 417  246.9328
 418  226.6286
 419  -248.0498
 420  -42.62603
 421  175.0069
 422  321.5178
 423  249.1572
 424  293.0509
 425  26.11687
 426  -181.5735
 427  -360.4451
 428  -212.8222
 429  -172.3313
 430  108.3846
 431  252.4959
 432  371.9785
 433  402.6161
 434  62.65325
 435  98.05728
 436  -289.2995
 437  -65.63203
 438  5.836081
 439  122.2086
 440  -19.30376
 441  -57.85008
 442  81.22804
 443  -99.12141
 444  -164.5636
 445  -250.5465
 446  -337.7965
 447  -4.833627
 448  99.33643
 449  55.17982
 450  242.195
 451  69.52524
 452  52.59726
 453  118.8859
 454  159.5613
 455  -114.5617
 456  -510.7306
 457  -276.6546
 458  -244.3899
 459  -540.1626
 460  -445.7696
 461  -264.9353
 462  -159.0677
 463  -375.9616
 464  -459.7715
 465  -245.7088
 466  -279.5649
 467  -152.6606
 468  89.96061
 469  36.87922
 470  114.499
 471  85.11876
 472  195.9671
 473  164.3954
 474  416.9194
 475  266.6029
 476  292.4539
 477  173.0816
 478  161.3736
 479  -127.3883
 480  -184.8384
 481  -258.1862
 482  -119.4396
 483  188.4373
 484  -64.70886
 485  -456.8145
 486  -278.8737
 487  -163.9564
 488  -324.5244
 489  -447.5443
 490  187.2995
 491  82.92731
 492  -245.3176
 493  -547.7494
 494  -825.1677
 495  -528.0636
 496  -605.0375
 497  -595.4641
 498  -848.0238
 499  -525.1813
 500  -452.6663
 501  -487.8753
 502  -114.6086
 503  17.75378
 504  -143.2083
 505  -238.8903
 506  -118.4497
 507  -56.0578
 508  -189.3883
 509  -228.8093
 510  -303.05
 511  -445.009
