# Input file       =  1183768721.108474_cleaned.dat
# Candidate        =  PSR_0332+5434
# Telescope        =  AR
# Epoch_topo       =  57945.027084588823
# Epoch_bary       =  N/A
# T_sample         =  0.002
# Data Folded      =  7208960
# Data Avg         =  0.0327590415077239
# Data StdDev      =  1.00007600743151 
# Profile Bins     =  512
# Profile Avg      =  461.25290454776  
# Profile StdDev   =  118.668194772708 
# Reduced chi-sqr  =  1.009
# Prob(Noise)      <  0.434   (~0.2 sigma)
# P_topo (ms)      =  714.481634570847  +/- 0.000183
# P'_topo (s/s)    =  -0                +/- 9.84e-11
# P''_topo (s/s^2) =  0                 +/- 4.42e-14
# P_bary (ms)      =  N/A
# P'_bary (s/s)    =  N/A
# P''_bary (s/s^2) =  N/A
# P_orb (s)        =  N/A
# asin(i)/c (s)    =  N/A
# eccentricity     =  N/A
# w (rad)          =  N/A
# T_peri           =  N/A
######################################################
   0  489.0618
   1  538.9542
   2  470.8062
   3  453.7434
   4  485.7896
   5  497.9258
   6  510.1658
   7  513.8661
   8  495.1732
   9  452.1927
  10  409.0777
  11  450.2731
  12  510.579
  13  496.5227
  14  540.2213
  15  492.0628
  16  511.1825
  17  621.3478
  18  561.7748
  19  514.6074
  20  589.7861
  21  474.0651
  22  493.3141
  23  536.2298
  24  514.2188
  25  467.4101
  26  421.8185
  27  408.763
  28  498.1201
  29  479.0348
  30  426.1378
  31  438.0757
  32  443.2742
  33  441.8614
  34  412.2242
  35  497.925
  36  497.3601
  37  519.4566
  38  530.6096
  39  525.4406
  40  531.8531
  41  530.3712
  42  505.9747
  43  501.3278
  44  361.951
  45  367.8286
  46  466.1722
  47  517.5793
  48  538.8474
  49  500.0352
  50  421.5095
  51  455.9309
  52  500.7097
  53  477.8082
  54  454.2495
  55  505.7677
  56  539.2772
  57  464.575
  58  387.5648
  59  481.9183
  60  480.3731
  61  517.869
  62  586.4115
  63  526.0098
  64  419.1759
  65  377.3259
  66  484.4218
  67  509.4228
  68  382.5538
  69  380.3409
  70  333.4012
  71  455.2226
  72  555.5836
  73  570.1128
  74  519.2341
  75  474.2839
  76  490.8492
  77  484.8867
  78  472.8983
  79  511.9455
  80  488.0968
  81  513.065
  82  492.1678
  83  390.6747
  84  327.6551
  85  511.2128
  86  628.2794
  87  556.4911
  88  566.8152
  89  595.5947
  90  494.4928
  91  482.9832
  92  535.7185
  93  466.0234
  94  471.0804
  95  498.9243
  96  520.3479
  97  405.0206
  98  402.9414
  99  396.7625
 100  399.2742
 101  475.7978
 102  530.3917
 103  519.8835
 104  525.322
 105  470.1844
 106  557.0579
 107  509.8326
 108  396.3332
 109  288.835
 110  366.652
 111  500.1144
 112  437.8743
 113  377.7167
 114  451.1309
 115  571.3926
 116  481.7927
 117  349.2585
 118  398.1833
 119  349.6746
 120  405.2202
 121  483.1551
 122  509.4397
 123  486.6919
 124  444.1974
 125  435.3089
 126  402.7234
 127  358.1543
 128  365.198
 129  506.0837
 130  556.1438
 131  495.7305
 132  474.2696
 133  448.5222
 134  457.2556
 135  363.0002
 136  406.4108
 137  429.461
 138  422.3638
 139  500.6837
 140  512.941
 141  459.896
 142  434.0006
 143  539.3265
 144  592.6039
 145  546.2148
 146  458.6043
 147  568.008
 148  534.3997
 149  531.9153
 150  458.5431
 151  368.2772
 152  432.0896
 153  480.6683
 154  537.9046
 155  458.1049
 156  458.4754
 157  335.1931
 158  400.8258
 159  447.5638
 160  411.4745
 161  420.2022
 162  417.1791
 163  394.9586
 164  354.9477
 165  456.5615
 166  499.9949
 167  522.4333
 168  574.5114
 169  538.1933
 170  389.3447
 171  507.0093
 172  588.9094
 173  564.9263
 174  397.8094
 175  419.1779
 176  477.9155
 177  431.0835
 178  432.102
 179  513.6086
 180  494.8238
 181  590.0668
 182  509.4984
 183  424.3404
 184  395.9464
 185  436.2762
 186  487.392
 187  540.7636
 188  569.9559
 189  621.2411
 190  508.7145
 191  464.1772
 192  394.6029
 193  374.7615
 194  393.5012
 195  377.1752
 196  443.691
 197  581.9587
 198  433.8788
 199  473.9256
 200  458.0292
 201  388.2339
 202  286.8883
 203  288.0569
 204  366.0371
 205  462.3992
 206  466.6078
 207  456.5919
 208  400.3525
 209  374.845
 210  430.59
 211  477.6414
 212  579.216
 213  480.9618
 214  405.3473
 215  497.5518
 216  354.6902
 217  442.2549
 218  589.6808
 219  475.2806
 220  475.4467
 221  520.7115
 222  490.2296
 223  497.8227
 224  375.2164
 225  402.3966
 226  423.1768
 227  384.5148
 228  460.9386
 229  474.9019
 230  514.9028
 231  424.1257
 232  348.5467
 233  370.4009
 234  330.8856
 235  381.2063
 236  397.697
 237  431.8725
 238  315.3846
 239  409.319
 240  430.3608
 241  400.6224
 242  527.5544
 243  593.2179
 244  581.0367
 245  660.2477
 246  879.1759
 247  1088.107
 248  1053.046
 249  1023.303
 250  893.4294
 251  529.118
 252  408.9459
 253  429.2677
 254  428.5053
 255  448.3477
 256  414.6705
 257  460.2902
 258  468.5467
 259  471.4554
 260  441.4469
 261  516.5748
 262  561.2036
 263  547.8305
 264  512.247
 265  491.1397
 266  393.3975
 267  353.2132
 268  387.328
 269  384.3398
 270  477.8043
 271  435.2208
 272  475.4454
 273  301.413
 274  270.2244
 275  423.2103
 276  423.5045
 277  446.656
 278  422.4426
 279  488.0478
 280  434.6374
 281  434.2303
 282  339.3454
 283  358.084
 284  459.9085
 285  457.6231
 286  401.3042
 287  426.0291
 288  368.5914
 289  290.6754
 290  377.1723
 291  479.3722
 292  511.4579
 293  328.6066
 294  383.1919
 295  517.4283
 296  528.7012
 297  543.6007
 298  412.7574
 299  361.1061
 300  392.4372
 301  467.6871
 302  499.0765
 303  463.9173
 304  394.9575
 305  385.5289
 306  483.8495
 307  511.6747
 308  459.03
 309  424.1647
 310  388.9205
 311  344.4383
 312  304.2819
 313  374.5761
 314  458.5046
 315  418.7945
 316  323.2885
 317  338.047
 318  427.7491
 319  527.8405
 320  463.804
 321  551.0931
 322  509.8956
 323  481.1653
 324  445.1624
 325  364.1585
 326  366.4204
 327  345.6815
 328  354.2623
 329  420.0612
 330  508.6237
 331  364.4561
 332  427.4226
 333  526.7335
 334  499.5039
 335  438.4439
 336  505.6449
 337  589.1954
 338  515.6625
 339  392.6229
 340  486.6006
 341  517.4376
 342  487.1191
 343  551.5227
 344  533.7933
 345  442.0394
 346  432.5776
 347  376.4691
 348  343.3073
 349  326.3793
 350  417.6953
 351  423.8528
 352  446.3653
 353  539.3102
 354  607.111
 355  459.3281
 356  513.8612
 357  616.8374
 358  561.2803
 359  538.2746
 360  475.6942
 361  502.7941
 362  510.2535
 363  494.5028
 364  463.7788
 365  444.014
 366  509.8645
 367  428.5114
 368  373.2548
 369  342.7579
 370  352.5896
 371  337.9008
 372  456.5062
 373  451.1786
 374  338.329
 375  312.7437
 376  360.634
 377  416.7556
 378  394.4729
 379  540.9396
 380  474.9688
 381  493.8145
 382  376.6836
 383  376.2052
 384  480.3268
 385  594.4091
 386  519.2128
 387  447.3032
 388  360.5531
 389  444.7849
 390  451.2092
 391  403.0222
 392  527.4485
 393  517.1229
 394  440.825
 395  459.5507
 396  433.2026
 397  475.7036
 398  398.45
 399  501.9049
 400  495.7577
 401  462.3549
 402  358.1035
 403  475.4507
 404  440.1638
 405  344.3527
 406  451.8611
 407  386.458
 408  412.0506
 409  496.4476
 410  381.8262
 411  544.2039
 412  574.749
 413  519.1551
 414  466.9073
 415  373.9213
 416  436.1845
 417  431.3466
 418  400.3524
 419  554.0286
 420  548.9044
 421  506.6724
 422  510.7339
 423  415.0379
 424  570.0311
 425  500.0087
 426  441.1254
 427  434.6673
 428  445.0279
 429  437.1742
 430  399.8148
 431  414.8998
 432  451.001
 433  458.3083
 434  435.5335
 435  434.8625
 436  472.2532
 437  542.6652
 438  445.3063
 439  308.1988
 440  367.4339
 441  296.6092
 442  411.1854
 443  445.5877
 444  416.5146
 445  469.7244
 446  475.0513
 447  413.8986
 448  409.0775
 449  398.6783
 450  417.0472
 451  441.4751
 452  438.0003
 453  462.0086
 454  340.7328
 455  323.05
 456  372.0895
 457  351.3556
 458  438.2575
 459  455.1821
 460  456.8102
 461  477.8715
 462  535.217
 463  555.6124
 464  558.173
 465  439.3492
 466  435.3053
 467  419.085
 468  623.6765
 469  549.7263
 470  405.0776
 471  522.5967
 472  497.9964
 473  507.6659
 474  541.275
 475  474.2831
 476  452.5314
 477  418.7545
 478  468.8811
 479  495.1096
 480  484.8487
 481  513.0638
 482  486.0201
 483  433.8297
 484  385.2943
 485  427.9604
 486  412.4791
 487  401.2827
 488  339.1478
 489  287.1596
 490  434.0965
 491  427.7983
 492  407.6161
 493  542.8923
 494  497.8501
 495  512.4456
 496  460.0585
 497  413.3796
 498  453.3623
 499  449.359
 500  457.0283
 501  421.8146
 502  400.7811
 503  321.5134
 504  432.6345
 505  461.9459
 506  466.0662
 507  421.4939
 508  442.6962
 509  449.4526
 510  520.364
 511  499.3792
