# Input file       =  1183079651.114455-PSRB0329-2ms-sampling-dd.dat
# Candidate        =  PSR_0332+5434
# Telescope        =  AR
# Epoch_topo       =  57937.051737435824
# Epoch_bary       =  N/A
# T_sample         =  0.002
# Data Folded      =  7405568
# Data Avg         =  8.98336302251739e-10
# Data StdDev      =  6.42353567100836 
# Profile Bins     =  512
# Profile Avg      =  0.325753718525655
# Profile StdDev   =  772.535324314553 
# Reduced chi-sqr  =  0.644
# Prob(Noise)      <  1   (~0.0 sigma)
# P_topo (ms)      =  714.487584299222  +/- 3.83e-05
# P'_topo (s/s)    =  -0                +/- 2e-11
# P''_topo (s/s^2) =  0                 +/- 8.77e-15
# P_bary (ms)      =  N/A
# P'_bary (s/s)    =  N/A
# P''_bary (s/s^2) =  N/A
# P_orb (s)        =  N/A
# asin(i)/c (s)    =  N/A
# eccentricity     =  N/A
# w (rad)          =  N/A
# T_peri           =  N/A
######################################################
   0  -167.6055
   1  -1061.004
   2  -1198.012
   3  -743.9691
   4  -308.4939
   5  92.35088
   6  769.064
   7  555.5023
   8  94.94189
   9  -649.25
  10  -998.7094
  11  -716.9191
  12  -637.563
  13  -404.2237
  14  -220.0273
  15  212.83
  16  -228.8425
  17  -690.2938
  18  -721.0368
  19  -790.5573
  20  -735.4972
  21  -802.3675
  22  -586.2579
  23  -236.2965
  24  357.7525
  25  277.6585
  26  -122.6089
  27  -201.8439
  28  -318.0676
  29  -519.9158
  30  -927.5546
  31  -424.3116
  32  -31.49181
  33  111.7887
  34  -291.7571
  35  -238.6239
  36  -549.0934
  37  -800.1227
  38  -587.7315
  39  -52.41788
  40  781.043
  41  659.2849
  42  193.6783
  43  -281.9485
  44  -444.6353
  45  -593.5466
  46  -157.7191
  47  209.6137
  48  234.2399
  49  185.1189
  50  310.2087
  51  502.3024
  52  -191.0257
  53  -217.6207
  54  211.9541
  55  214.4852
  56  274.0851
  57  413.6628
  58  303.9219
  59  321.7034
  60  11.53521
  61  -543.5461
  62  -471.5963
  63  -170.1237
  64  -25.72945
  65  98.71298
  66  335.3705
  67  -281.0906
  68  -185.6999
  69  -413.7336
  70  -7.652154
  71  456.5589
  72  529.5869
  73  852.3607
  74  849.2411
  75  360.4312
  76  102.0314
  77  -497.5713
  78  -624.8777
  79  -182.146
  80  537.2817
  81  683.6066
  82  981.5618
  83  407.4502
  84  -228.7553
  85  -837.924
  86  -626.8033
  87  87.90031
  88  484.5936
  89  780.0764
  90  796.741
  91  269.5458
  92  -182.9916
  93  -343.1245
  94  -394.9407
  95  -197.2669
  96  -204.9104
  97  28.22759
  98  71.62644
  99  -128.0571
 100  -89.15335
 101  -474.0132
 102  -439.88
 103  -168.2522
 104  -312.1722
 105  -194.1772
 106  185.9142
 107  274.3785
 108  199.2904
 109  215.9838
 110  -116.5785
 111  -710.8079
 112  -455.782
 113  -109.8117
 114  548.2385
 115  526.4282
 116  603.8818
 117  40.14006
 118  -274.8893
 119  -620.1186
 120  -589.5783
 121  -13.90819
 122  591.3724
 123  957.2495
 124  1061.868
 125  -18.91005
 126  -632.3383
 127  -585.3291
 128  78.72806
 129  -327.1761
 130  -184.7258
 131  119.2092
 132  235.9975
 133  89.83117
 134  12.25509
 135  -27.52434
 136  -24.43112
 137  -430.6376
 138  -17.8212
 139  286.6238
 140  93.5383
 141  35.36216
 142  352.751
 143  69.16279
 144  282.4289
 145  212.3066
 146  529.9931
 147  953.9676
 148  207.1323
 149  364.6654
 150  79.04113
 151  -41.98792
 152  32.44642
 153  -219.9257
 154  527.4115
 155  1021.055
 156  869.7661
 157  390.5223
 158  373.6317
 159  -295.934
 160  -367.8955
 161  -520.2459
 162  -121.0459
 163  666.0312
 164  726.9471
 165  399.7548
 166  59.83355
 167  -136.2211
 168  -146.4746
 169  125.6349
 170  272.0243
 171  159.7685
 172  702.4075
 173  534.5472
 174  28.59247
 175  -276.2173
 176  17.81649
 177  8.245206
 178  96.27648
 179  291.4601
 180  22.06797
 181  25.28438
 182  -55.23014
 183  335.9169
 184  420.6392
 185  84.43148
 186  -0.9043782
 187  67.08805
 188  283.2292
 189  748.959
 190  299.9998
 191  -118.1205
 192  -202.2233
 193  -524.2605
 194  -271.7394
 195  -51.92613
 196  326.9673
 197  714.5846
 198  460.3647
 199  174.1538
 200  -265.473
 201  -667.1961
 202  -515.1146
 203  -211.9543
 204  218.5095
 205  769.9071
 206  543.3655
 207  6.0165
 208  -269.4598
 209  285.1479
 210  81.70782
 211  -173.1667
 212  300.0834
 213  514.9844
 214  374.5747
 215  -21.40625
 216  -344.9013
 217  -400.8246
 218  -303.8777
 219  -44.43222
 220  23.16459
 221  197.0889
 222  177.7671
 223  -37.97701
 224  -500.9058
 225  -443.5283
 226  -937.1401
 227  -617.6879
 228  -465.4389
 229  235.9339
 230  408.6528
 231  -22.27924
 232  -217.1567
 233  -409.8646
 234  -88.46288
 235  -8.975419
 236  226.1897
 237  2.570996
 238  619.984
 239  868.7009
 240  432.799
 241  133.8781
 242  -331.0631
 243  -223.4576
 244  92.36797
 245  286.4191
 246  544.6285
 247  561.2567
 248  511.6046
 249  -190.069
 250  -125.7408
 251  -233.1935
 252  -91.34417
 253  369.1362
 254  597.2755
 255  178.6767
 256  -103.9329
 257  -107.3048
 258  -489.5948
 259  -192.0881
 260  -373.4168
 261  -120.1358
 262  216.3145
 263  786.629
 264  792.059
 265  364.9268
 266  -251.8226
 267  -496.8188
 268  -530.3134
 269  -69.42643
 270  161.7724
 271  704.9377
 272  689.2393
 273  275.0571
 274  146.6481
 275  -27.94337
 276  244.1066
 277  -193.6407
 278  112.9568
 279  569.3463
 280  272.9163
 281  426.2195
 282  131.7198
 283  -17.10867
 284  -376.1494
 285  -78.39445
 286  124.9602
 287  37.88417
 288  333.2527
 289  367.6737
 290  324.9473
 291  735.0456
 292  1574.89
 293  1620.024
 294  1768.891
 295  1568.479
 296  1182.759
 297  1089.656
 298  219.2083
 299  -519.3943
 300  -513.5992
 301  -96.24474
 302  -231.1233
 303  99.80962
 304  387.0073
 305  351.3831
 306  18.70288
 307  -752.8484
 308  -464.7381
 309  -205.6401
 310  -49.02242
 311  30.23892
 312  -289.9325
 313  -436.9673
 314  -453.6626
 315  -518.4407
 316  -589.3672
 317  -301.7036
 318  87.66821
 319  14.95853
 320  442.3105
 321  396.701
 322  -107.2009
 323  -718.4081
 324  -988.9595
 325  -536.3771
 326  -326.4596
 327  223.0236
 328  323.6927
 329  113.2009
 330  47.74266
 331  -43.03228
 332  -377.2159
 333  -822.886
 334  -532.1959
 335  -483.1172
 336  76.53925
 337  602.5754
 338  767.8973
 339  184.0349
 340  301.6956
 341  -13.69743
 342  -590.6279
 343  -532.9572
 344  -280.3904
 345  235.1886
 346  405.1878
 347  204.3356
 348  -75.33634
 349  -472.9329
 350  -478.8203
 351  -618.5092
 352  -179.821
 353  25.6279
 354  235.7958
 355  -87.70237
 356  -220.0855
 357  -9.262261
 358  -427.7922
 359  -402.9773
 360  -106.2978
 361  -45.36953
 362  -78.14811
 363  37.50953
 364  -218.6908
 365  -451.255
 366  -597.1962
 367  -287.7811
 368  145.0667
 369  -97.53604
 370  -100.805
 371  -144.0791
 372  -299.4391
 373  -868.4396
 374  -610.2084
 375  -360.5627
 376  -530.3388
 377  -182.1629
 378  52.61569
 379  146.552
 380  361.5424
 381  100.8887
 382  -242.1275
 383  -499.5049
 384  -600.7413
 385  -622.4596
 386  -1.777557
 387  129.9263
 388  -485.6589
 389  -218.136
 390  -117.3902
 391  -269.0421
 392  -403.5504
 393  -123.5452
 394  -208.7538
 395  -45.62378
 396  -155.7945
 397  -714.6337
 398  -587.2444
 399  -432.9821
 400  -366.2122
 401  -240.2871
 402  326.2131
 403  358.7558
 404  147.4393
 405  -88.34676
 406  -782.9139
 407  -824.71
 408  -146.1308
 409  89.21507
 410  429.1685
 411  602.5437
 412  264.7621
 413  22.24844
 414  -200.743
 415  -354.0551
 416  -416.4849
 417  -140.6697
 418  261.0926
 419  559.5818
 420  824.6436
 421  919.3231
 422  231.4192
 423  26.83202
 424  -518.2916
 425  -268.5843
 426  277.7097
 427  692.7581
 428  773.5395
 429  633.3051
 430  416.1615
 431  -21.73107
 432  -611.6827
 433  -795.6133
 434  -215.1339
 435  428.5207
 436  908.3618
 437  857.6031
 438  432.7188
 439  -199.9614
 440  -593.2512
 441  -101.3283
 442  -202.456
 443  324.4032
 444  561.6139
 445  478.6363
 446  369.9095
 447  -103.9918
 448  -134.0269
 449  -353.1759
 450  -182.0543
 451  112.3417
 452  540.0894
 453  837.6132
 454  582.2469
 455  246.7872
 456  31.56298
 457  -487.2186
 458  -369.8239
 459  -55.73638
 460  253.5915
 461  303.2078
 462  539.1379
 463  579.5757
 464  199.6413
 465  51.69781
 466  -74.66395
 467  63.03941
 468  -13.82107
 469  40.1174
 470  325.0658
 471  -96.7584
 472  -114.4263
 473  -360.3546
 474  -331.4241
 475  -368.8703
 476  -480.7472
 477  -248.673
 478  73.46009
 479  -19.77552
 480  -515.493
 481  -736.2222
 482  -187.2879
 483  -227.7458
 484  -343.5462
 485  582.4083
 486  566.6874
 487  168.6313
 488  -187.3182
 489  -398.3258
 490  -421.9683
 491  -448.1297
 492  22.93442
 493  -144.6524
 494  155.3486
 495  185.106
 496  252.0703
 497  133.2058
 498  -645.7899
 499  -407.6517
 500  -6.21686
 501  381.6671
 502  477.6361
 503  468.1682
 504  135.9121
 505  -731.4148
 506  -982.392
 507  -773.9386
 508  -140.5286
 509  -160.6881
 510  451.1635
 511  702.8489
