# Input file       =  1183023208.110605-PSRB0329-2ms-sampling-dd.dat
# Candidate        =  PSR_0332+5434
# Telescope        =  AR
# Epoch_topo       =  57936.398461928300
# Epoch_bary       =  N/A
# T_sample         =  0.002
# Data Folded      =  7340032
# Data Avg         =  -1.58605302480437e-10
# Data StdDev      =  6.07062155777686 
# Profile Bins     =  512
# Profile Avg      =  0.0324740323804916
# Profile StdDev   =  726.853951806877 
# Reduced chi-sqr  =  0.532
# Prob(Noise)      <  1   (~0.0 sigma)
# P_topo (ms)      =  714.488457510133  +/- 0.000864
# P'_topo (s/s)    =  -0                +/- 4.56e-10
# P''_topo (s/s^2) =  0                 +/- 2.01e-13
# P_bary (ms)      =  N/A
# P'_bary (s/s)    =  N/A
# P''_bary (s/s^2) =  N/A
# P_orb (s)        =  N/A
# asin(i)/c (s)    =  N/A
# eccentricity     =  N/A
# w (rad)          =  N/A
# T_peri           =  N/A
######################################################
   0  -805.9182
   1  -69.38514
   2  249.3536
   3  371.0121
   4  470.0477
   5  628.1738
   6  481.6183
   7  278.9972
   8  517.0254
   9  -22.67591
  10  -111.218
  11  19.71936
  12  43.74006
  13  321.074
  14  734.2096
  15  375.3138
  16  -48.35232
  17  -464.5532
  18  -513.0568
  19  -574.1686
  20  -740.7035
  21  -390.4167
  22  -63.74111
  23  -532.4551
  24  -794.8549
  25  -471.2902
  26  -517.6215
  27  -429.702
  28  -458.9617
  29  -259.8292
  30  165.0029
  31  398.1245
  32  -17.25718
  33  -181.9193
  34  -360.1485
  35  -419.9522
  36  -858.1021
  37  -655.6317
  38  -209.1526
  39  -402.6283
  40  -105.7648
  41  -116.5111
  42  -76.71584
  43  -238.9216
  44  -234.1022
  45  51.79815
  46  265.2279
  47  174.8691
  48  176.6555
  49  84.83308
  50  -254.3635
  51  -296.3726
  52  -79.24017
  53  -326.4164
  54  -519.7831
  55  134.7567
  56  442.3993
  57  -30.71895
  58  -500.4822
  59  -53.59991
  60  -200.0934
  61  -279.7783
  62  -304.884
  63  -168.9181
  64  504.6857
  65  219.835
  66  192.9516
  67  -72.41567
  68  -180.6208
  69  358.9208
  70  431.9213
  71  271.1262
  72  43.34923
  73  -300.1364
  74  -10.95344
  75  176.5143
  76  -107.0568
  77  171.6364
  78  70.60509
  79  -57.9863
  80  -140.9635
  81  -24.30557
  82  -6.853625
  83  -144.6884
  84  -348.132
  85  57.58221
  86  242.4464
  87  203.6001
  88  241.9425
  89  304.1178
  90  42.05554
  91  -225.0227
  92  194.97
  93  546.3879
  94  715.6771
  95  432.1651
  96  980.7225
  97  959.3757
  98  592.6854
  99  765.2304
 100  398.5512
 101  752.4048
 102  896.7386
 103  1018.936
 104  664.6293
 105  461.3094
 106  417.6232
 107  228.7902
 108  -24.7481
 109  303.3289
 110  281.0408
 111  498.645
 112  296.8758
 113  137.998
 114  -71.47203
 115  117.8151
 116  300.7432
 117  96.34901
 118  -184.8755
 119  -386.1861
 120  258.1751
 121  99.01207
 122  571.7292
 123  416.8721
 124  418.2238
 125  204.3063
 126  75.13005
 127  155.7047
 128  165.1916
 129  300.1484
 130  433.6601
 131  514.4993
 132  12.20945
 133  372.195
 134  42.97671
 135  -153.2912
 136  -73.46152
 137  36.49785
 138  630.6954
 139  540.6788
 140  808.8337
 141  512.4
 142  262.3006
 143  396.732
 144  -62.37214
 145  242.6354
 146  493.6093
 147  337.8188
 148  177.3902
 149  -256.846
 150  -197.551
 151  -184.5573
 152  -28.46105
 153  -301.6465
 154  188.4589
 155  93.93517
 156  1.357086
 157  -196.2977
 158  10.92308
 159  -343.52
 160  -405.5107
 161  -6.956379
 162  21.36648
 163  331.805
 164  556.0611
 165  196.658
 166  -57.69576
 167  45.76842
 168  4.726962
 169  -371.5038
 170  -284.7246
 171  -408.3763
 172  -162.2468
 173  -188.3105
 174  -351.8833
 175  -130.658
 176  -125.6901
 177  -8.803596
 178  -200.4954
 179  -149.653
 180  67.98861
 181  131.8484
 182  654.9169
 183  156.6932
 184  272.3306
 185  152.7993
 186  120.4
 187  118.9979
 188  153.9053
 189  453.275
 190  821.7405
 191  1285.58
 192  1499.136
 193  1616.275
 194  1563.541
 195  921.7852
 196  839.8972
 197  208.8952
 198  -102.5107
 199  244.2502
 200  202.1458
 201  189.8951
 202  260.5043
 203  167.8884
 204  222.9356
 205  282.5556
 206  386.7205
 207  738.0297
 208  43.12217
 209  182.0261
 210  176.0689
 211  391.2953
 212  625.51
 213  654.1625
 214  131.4959
 215  -256.3031
 216  -300.8992
 217  -327.7061
 218  -110.9625
 219  -538.447
 220  -268.6325
 221  516.2625
 222  420.9865
 223  679.8545
 224  322.3286
 225  143.1642
 226  111.115
 227  -18.15375
 228  366.0895
 229  287.3108
 230  247.1207
 231  -10.61496
 232  347.6909
 233  320.9959
 234  -51.59694
 235  -83.26891
 236  50.42056
 237  322.5038
 238  252.3903
 239  -113.3347
 240  -468.5158
 241  -276.5242
 242  61.74183
 243  -26.05148
 244  -171.276
 245  -90.80757
 246  252.1934
 247  120.1226
 248  -107.559
 249  117.4885
 250  -17.60132
 251  113.9606
 252  -197.5455
 253  69.96529
 254  582.945
 255  501.3331
 256  578.1376
 257  585.424
 258  381.0102
 259  -205.2551
 260  -559.0265
 261  -523.0646
 262  -217.5148
 263  86.68112
 264  -133.6586
 265  -153.1827
 266  -492.3058
 267  -556.4664
 268  -368.9108
 269  -474.6391
 270  -92.09151
 271  -103.4991
 272  -60.86293
 273  -12.58567
 274  75.48824
 275  400.2512
 276  267.2997
 277  77.21113
 278  -15.58097
 279  245.1363
 280  -149.1192
 281  -198.5859
 282  132.9239
 283  42.25149
 284  -32.17694
 285  -221.0184
 286  -280.0882
 287  -119.8338
 288  195.2963
 289  157.8679
 290  -234.8782
 291  -468.5452
 292  -461.515
 293  -279.3456
 294  -328.8231
 295  -633.4661
 296  -1.47116
 297  255.2655
 298  -311.3397
 299  -661.9465
 300  -435.8736
 301  -298.0296
 302  -278.864
 303  -32.37157
 304  324.3065
 305  198.5368
 306  -107.9762
 307  -404.9615
 308  -205.9351
 309  -132.6629
 310  19.54241
 311  2.556718
 312  290.7985
 313  264.0997
 314  115.7502
 315  63.16006
 316  109.6262
 317  -33.15862
 318  -201.2201
 319  -83.17483
 320  254.9403
 321  -167.2133
 322  -233.4112
 323  -237.789
 324  -292.7301
 325  -430.1744
 326  -489.9592
 327  -737.5655
 328  -515.6176
 329  -705.4988
 330  -437.6825
 331  -340.6129
 332  -558.2717
 333  -895.1847
 334  -1053.991
 335  -952.4529
 336  -937.3027
 337  -657.5685
 338  -171.3966
 339  -3.034615
 340  -557.5153
 341  -1127.014
 342  -1191.309
 343  -1002.642
 344  -660.539
 345  -218.8115
 346  -0.6964567
 347  -199.3055
 348  -375.2162
 349  -673.2123
 350  -185.3354
 351  -340.1334
 352  -117.0706
 353  -159.9001
 354  -630.9916
 355  -147.189
 356  -149.6628
 357  21.25463
 358  334.2613
 359  -237.2224
 360  -247.2304
 361  -512.2347
 362  -503.1883
 363  -145.1347
 364  -9.776439
 365  -84.20091
 366  -326.174
 367  -385.9697
 368  -366.6583
 369  -414.8348
 370  -381.3075
 371  -517.5249
 372  -238.766
 373  -368.8979
 374  -263.9359
 375  -262.9127
 376  -577.3634
 377  -154.1194
 378  -318.1372
 379  -378.2669
 380  -81.09512
 381  -253.1185
 382  -72.13359
 383  -328.1896
 384  -279.6415
 385  262.2693
 386  507.8867
 387  567.4598
 388  85.94222
 389  -117.2487
 390  -375.1974
 391  -289.7998
 392  -125.2443
 393  68.53807
 394  169.5284
 395  80.05041
 396  -89.37414
 397  164.0794
 398  -131.301
 399  -452.0521
 400  -423.3371
 401  -516.4918
 402  -338.5077
 403  -430.2418
 404  -117.1337
 405  -162.7923
 406  -269.5237
 407  -688.3152
 408  -563.543
 409  -199.0082
 410  69.04318
 411  146.0414
 412  80.49413
 413  -352.1478
 414  -466.4706
 415  -317.133
 416  192.141
 417  293.3726
 418  549.3499
 419  1024.931
 420  755.8615
 421  372.2629
 422  86.27647
 423  -217.4674
 424  -9.41855
 425  155.4457
 426  417.7549
 427  303.1269
 428  459.7241
 429  -140.3282
 430  70.10065
 431  106.3049
 432  -8.406318
 433  224.2702
 434  449.2851
 435  481.5112
 436  376.342
 437  298.9344
 438  166.7461
 439  220.1147
 440  162.9697
 441  199.873
 442  492.6777
 443  480.7471
 444  424.7411
 445  -96.08765
 446  340.4898
 447  741.7258
 448  230.0717
 449  -146.7918
 450  300.5513
 451  65.00224
 452  -448.0302
 453  -294.3109
 454  -20.58389
 455  -195.4483
 456  -42.58512
 457  30.15612
 458  364.0919
 459  429.9314
 460  388.0232
 461  86.32616
 462  -96.84123
 463  -16.16644
 464  81.79621
 465  -177.6265
 466  141.751
 467  92.07104
 468  309.8322
 469  316.8692
 470  20.8028
 471  -61.64281
 472  -210.6093
 473  -233.1945
 474  -87.67677
 475  143.8776
 476  -95.84971
 477  -278.6931
 478  -278.476
 479  -243.8453
 480  223.8064
 481  155.4471
 482  133.1484
 483  168.9943
 484  67.56673
 485  124.7057
 486  -332.6568
 487  -383.1302
 488  -83.75426
 489  -384.3568
 490  -324.9688
 491  -245.6004
 492  -633.3206
 493  -188.1923
 494  -69.57884
 495  -42.16628
 496  -234.1414
 497  -332.3826
 498  -203.7943
 499  -238.9375
 500  -178.1915
 501  106.653
 502  239.8121
 503  -581.8502
 504  -490.7135
 505  -477.8188
 506  -192.4563
 507  145.6402
 508  95.60899
 509  134.719
 510  230.2801
 511  -486.2993
