# Input file       =  1183094583.125446_cleaned.dat
# Candidate        =  PSR_0332+5434
# Telescope        =  AR
# Epoch_topo       =  57937.224561637107
# Epoch_bary       =  N/A
# T_sample         =  0.002
# Data Folded      =  7340032
# Data Avg         =  0.300469989231455
# Data StdDev      =  6.08580986253239 
# Profile Bins     =  512
# Profile Avg      =  4300.62008111811 
# Profile StdDev   =  728.672493652673 
# Reduced chi-sqr  =  1.085
# Prob(Noise)      <  0.0905   (~1.3 sigma)
# P_topo (ms)      =  714.48746926648   +/- 0.000345
# P'_topo (s/s)    =  -0                +/- 1.82e-10
# P''_topo (s/s^2) =  0                 +/- 8.03e-14
# P_bary (ms)      =  N/A
# P'_bary (s/s)    =  N/A
# P''_bary (s/s^2) =  N/A
# P_orb (s)        =  N/A
# asin(i)/c (s)    =  N/A
# eccentricity     =  N/A
# w (rad)          =  N/A
# T_peri           =  N/A
######################################################
   0  5321.98
   1  5560.032
   2  5553.756
   3  5222.672
   4  5075.843
   5  4947.985
   6  5141.188
   7  5271.537
   8  5069.085
   9  4657.022
  10  4610.421
  11  4487.357
  12  4227.998
  13  3970.788
  14  4130.638
  15  4082.907
  16  4132.912
  17  4217.129
  18  3781.471
  19  3535.015
  20  3871.465
  21  4176.333
  22  4041.67
  23  3993.303
  24  4133.566
  25  3889.355
  26  4219.101
  27  3898.643
  28  4063.978
  29  4474.832
  30  4766.359
  31  4533.309
  32  4201.188
  33  4202.604
  34  4320.819
  35  4905.254
  36  4896.003
  37  4938.487
  38  5046.814
  39  5358.571
  40  5601.586
  41  5412.677
  42  5415.443
  43  5132.357
  44  5196.712
  45  5491.356
  46  5514.704
  47  5245.992
  48  4974.459
  49  5000.577
  50  4982.203
  51  5071.873
  52  4863.596
  53  4512.915
  54  4842.989
  55  4838.44
  56  4292.569
  57  4504.787
  58  4854.484
  59  5365.903
  60  5175.196
  61  4967.052
  62  4545.916
  63  4655.807
  64  4914.354
  65  5066.47
  66  5112.317
  67  5352.825
  68  5464.902
  69  5029.002
  70  5038.456
  71  5486.694
  72  5579.399
  73  5502.393
  74  5451.177
  75  5448.106
  76  5326.801
  77  5159.323
  78  5202.503
  79  5472.284
  80  5097.858
  81  5075.238
  82  5223.794
  83  5181.243
  84  5192.342
  85  4468.665
  86  4513.033
  87  4652.875
  88  4400.624
  89  4279.438
  90  4227.576
  91  4190.872
  92  4203.231
  93  3991.117
  94  3574.329
  95  3645.82
  96  3710.46
  97  3375.682
  98  3713.024
  99  3363.211
 100  3252.764
 101  3618.994
 102  4020.002
 103  4180.381
 104  3852.456
 105  3496.369
 106  3236.751
 107  3687.718
 108  4217.149
 109  4042.81
 110  3965.159
 111  3803.957
 112  3971.837
 113  4123.013
 114  3817.137
 115  3544.756
 116  3827.477
 117  4058.588
 118  3810.476
 119  3790.65
 120  4139.886
 121  4246.67
 122  3966.657
 123  4116.719
 124  3937.755
 125  3999.217
 126  4245.789
 127  4373.811
 128  4396.868
 129  4279.959
 130  4509.495
 131  4092.057
 132  4214.255
 133  4612.563
 134  4413.983
 135  4522.898
 136  4335.971
 137  4292.744
 138  4207.84
 139  3886.674
 140  4107.448
 141  4491.027
 142  4629.532
 143  4416.16
 144  4730.188
 145  4088.617
 146  3950.273
 147  3846.544
 148  4328.297
 149  4152.12
 150  4343.613
 151  3978.871
 152  3775.53
 153  3825.695
 154  3879.624
 155  4055.558
 156  3870.172
 157  4024.476
 158  4099.528
 159  4248.73
 160  4407.655
 161  4265.534
 162  4493.317
 163  4454.331
 164  4337.91
 165  4422.312
 166  4362.429
 167  4313.932
 168  4233.466
 169  4449.452
 170  4550.925
 171  4282.247
 172  4142.274
 173  4006.757
 174  3906.249
 175  3860.791
 176  3726.023
 177  3593.752
 178  3732.414
 179  3897.782
 180  3861.822
 181  3394.443
 182  3600.642
 183  3734.51
 184  3425.484
 185  3659.042
 186  3509.819
 187  3672.298
 188  3832.51
 189  3691.896
 190  3664.184
 191  3523.297
 192  3410.472
 193  3767.533
 194  4119.525
 195  3741.951
 196  3579.019
 197  3949.525
 198  4118.813
 199  3960.184
 200  4074.443
 201  3840.209
 202  3881.589
 203  4334.771
 204  4485.905
 205  4386.019
 206  4189.696
 207  4562.649
 208  4278.187
 209  4156.128
 210  4049.454
 211  4382.582
 212  4495.269
 213  4865.351
 214  4694.745
 215  4885.772
 216  4859.881
 217  4671.798
 218  4519.291
 219  4369.276
 220  4230.467
 221  4329.454
 222  4434.109
 223  4159.259
 224  4168.715
 225  3977.28
 226  4031.905
 227  3940.641
 228  4063.49
 229  3905.594
 230  4191.832
 231  3659.57
 232  3619.901
 233  3727.333
 234  3625.053
 235  3813.055
 236  3903.878
 237  4646.248
 238  4698.709
 239  4224.982
 240  4369.632
 241  4405.923
 242  4297.142
 243  4214.831
 244  4467.049
 245  4332.794
 246  4345.007
 247  4041.099
 248  4328.979
 249  4669.871
 250  4688.396
 251  4510.462
 252  4806.797
 253  5021.668
 254  4527.696
 255  4399.283
 256  4544.704
 257  4489.304
 258  4215.394
 259  3915.196
 260  3923.586
 261  3920.03
 262  3797.33
 263  3691.493
 264  3780.543
 265  3956.192
 266  4053.186
 267  3419.115
 268  3073.048
 269  3259.818
 270  3484.676
 271  3763.94
 272  3679.789
 273  3545.503
 274  3617.73
 275  3889.132
 276  4071.176
 277  4277.857
 278  4134.19
 279  3842.325
 280  3667.189
 281  3844.809
 282  4125.554
 283  4259.042
 284  4428.241
 285  4072.29
 286  3821.893
 287  3977.947
 288  3948.042
 289  4097.024
 290  4330.227
 291  4464.449
 292  4508.779
 293  4321.809
 294  4475.614
 295  4574.285
 296  4864.14
 297  4940.426
 298  4814.3
 299  5204.995
 300  5300.871
 301  5332.619
 302  4968.74
 303  5353.59
 304  5506.838
 305  5149.779
 306  5231.872
 307  5166.613
 308  5169.016
 309  5001.094
 310  4864.239
 311  4902.005
 312  4802.031
 313  4897.858
 314  4778.596
 315  4475.1
 316  4431.614
 317  4472.683
 318  4535.18
 319  4470.671
 320  4107.37
 321  4007.348
 322  4393.625
 323  4839.882
 324  5481.213
 325  6207.304
 326  6450.718
 327  6483.716
 328  6075.749
 329  5347.167
 330  5054.932
 331  4925.813
 332  4642.377
 333  4330.402
 334  4197.642
 335  4187.541
 336  4603.997
 337  4771.703
 338  5001.942
 339  4899.317
 340  4790.023
 341  5107.744
 342  5270.415
 343  4974.976
 344  4543.66
 345  4451.258
 346  4305.472
 347  4137.587
 348  4178.875
 349  4059.31
 350  3730.207
 351  3713.745
 352  3814.438
 353  3712.424
 354  3645.197
 355  3851.962
 356  3890.935
 357  3831.509
 358  3970.928
 359  3764.375
 360  3979.934
 361  4071.752
 362  4231.094
 363  3949.242
 364  3996.335
 365  4192.235
 366  4425.346
 367  4156.726
 368  4042.18
 369  3968.542
 370  3708.211
 371  3634.976
 372  3994.351
 373  4038.299
 374  4209.085
 375  4359.546
 376  4722.057
 377  4311.007
 378  4196.036
 379  4799.488
 380  5009.051
 381  4394.204
 382  4421.95
 383  4433.318
 384  4715.431
 385  4969.468
 386  4692.66
 387  4623.765
 388  4209.207
 389  4342.129
 390  4369.889
 391  4118.913
 392  3647.768
 393  3572.072
 394  3759.457
 395  3756.458
 396  3728.824
 397  3643.496
 398  3837.856
 399  3948.982
 400  4257.265
 401  4126.659
 402  3827.336
 403  3979.224
 404  3886.237
 405  3767.474
 406  3579.067
 407  3965.612
 408  4184.322
 409  4058.82
 410  3820.829
 411  3674.206
 412  3697.088
 413  3823.646
 414  3926.858
 415  4220.646
 416  3875.709
 417  4118.705
 418  4132.855
 419  4139.991
 420  3930.14
 421  3965.492
 422  4012.45
 423  3650.909
 424  3359.373
 425  3586.539
 426  4052.321
 427  3764.885
 428  3482.301
 429  3536.085
 430  3512.469
 431  3452.846
 432  3486.935
 433  3776.566
 434  3702.192
 435  3800.274
 436  3785.841
 437  3690.208
 438  3714.208
 439  3719.24
 440  4026.589
 441  3963.403
 442  3867.499
 443  3826.607
 444  3830.336
 445  4078.573
 446  4191.605
 447  4110.915
 448  3972.657
 449  4236.429
 450  4021.663
 451  3928.748
 452  4134.374
 453  4045.028
 454  3652.899
 455  3581.131
 456  3700.424
 457  3941.378
 458  3937.687
 459  4095.819
 460  4080.429
 461  4201.495
 462  4394.376
 463  4428.32
 464  4624.038
 465  5027.857
 466  5385.951
 467  5175.29
 468  5208.764
 469  5157.414
 470  5128.939
 471  4991.594
 472  4685.387
 473  4647.499
 474  4622.744
 475  4514.481
 476  4397.978
 477  4184.945
 478  4219.884
 479  4238.48
 480  3998.826
 481  3772.671
 482  3987.331
 483  3881.765
 484  4073.771
 485  4397.508
 486  4166.747
 487  3802.095
 488  3986.446
 489  3748.591
 490  4054.25
 491  3995.293
 492  3754.171
 493  3636.435
 494  3669.316
 495  3836.399
 496  3776.364
 497  3957.547
 498  4152.136
 499  4280.307
 500  4093.427
 501  4236.625
 502  4226.781
 503  4547.915
 504  4234.575
 505  4273.033
 506  4530.642
 507  4547.648
 508  4715.93
 509  4764.261
 510  5013.048
 511  5022.383
