# Input file       =  1183251928.112236_cleaned.dat
# Candidate        =  PSR_0332+5434
# Telescope        =  AR
# Epoch_topo       =  57939.045684169396
# Epoch_bary       =  N/A
# T_sample         =  0.002
# Data Folded      =  7143424
# Data Avg         =  0.0220751362054604
# Data StdDev      =  1.00005995203454 
# Profile Bins     =  512
# Profile Avg      =  308.044550518872 
# Profile StdDev   =  118.125665931324 
# Reduced chi-sqr  =  1.518
# Prob(Noise)      <  3.31e-13   (~7.2 sigma)
# P_topo (ms)      =  714.486036506182  +/- 0.0002
# P'_topo (s/s)    =  -0                +/- 1.09e-10
# P''_topo (s/s^2) =  0                 +/- 4.92e-14
# P_bary (ms)      =  N/A
# P'_bary (s/s)    =  N/A
# P''_bary (s/s^2) =  N/A
# P_orb (s)        =  N/A
# asin(i)/c (s)    =  N/A
# eccentricity     =  N/A
# w (rad)          =  N/A
# T_peri           =  N/A
######################################################
   0  422.3426
   1  265.9393
   2  282.8312
   3  293.4498
   4  348.9143
   5  409.2167
   6  393.6572
   7  242.2357
   8  215.9011
   9  328.9676
  10  380.0815
  11  320.8038
  12  244.7907
  13  238.4325
  14  377.5809
  15  398.5597
  16  279.4205
  17  246.6634
  18  340.6579
  19  377.2262
  20  294.0323
  21  279.9641
  22  380.7834
  23  330.2154
  24  354.34
  25  309.4532
  26  314.855
  27  353.1963
  28  246.931
  29  261.1929
  30  257.46
  31  233.1237
  32  329.2438
  33  409.3616
  34  270.5241
  35  189.6732
  36  283.0497
  37  426.3872
  38  498.8578
  39  410.9438
  40  330.4521
  41  333.2321
  42  343.749
  43  452.8134
  44  432.8535
  45  394.0337
  46  353.4026
  47  280.884
  48  278.2684
  49  252.9661
  50  309.3039
  51  312.2439
  52  308.4462
  53  282.0598
  54  388.1151
  55  390.986
  56  401.7056
  57  317.3651
  58  362.2502
  59  341.0233
  60  345.1059
  61  137.9642
  62  156.9285
  63  300.0276
  64  256.7549
  65  285.2697
  66  429.9695
  67  529.7154
  68  329.8984
  69  312.5879
  70  318.0137
  71  335.3268
  72  300.6398
  73  309.7179
  74  328.515
  75  357.0074
  76  337.891
  77  366.8816
  78  189.8434
  79  209.9911
  80  343.8349
  81  402.1201
  82  319.7196
  83  313.2311
  84  240.4573
  85  372.5281
  86  263.0951
  87  173.0665
  88  273.9928
  89  362.4131
  90  287.7196
  91  308.0036
  92  300.9433
  93  256.6692
  94  261.6406
  95  237.2891
  96  246.825
  97  226.6789
  98  328.2222
  99  337.6901
 100  373.7524
 101  304.1459
 102  245.7993
 103  133.1406
 104  302.3379
 105  345.1519
 106  302.2367
 107  294.6543
 108  240.6285
 109  289.7933
 110  370.4981
 111  252.3174
 112  246.2466
 113  249.7798
 114  263.1194
 115  452.0308
 116  374.0839
 117  274.3542
 118  236.0563
 119  179.1601
 120  243.0237
 121  291.6878
 122  316.5119
 123  247.2276
 124  191.8435
 125  271.993
 126  360.8127
 127  246.5908
 128  320.5166
 129  357.8337
 130  378.9888
 131  478.3433
 132  390.0266
 133  271.5233
 134  325.093
 135  420.8472
 136  410.231
 137  396.8876
 138  440.1931
 139  395.837
 140  275.1805
 141  194.0458
 142  315.5956
 143  264.2554
 144  181.8569
 145  191.2772
 146  188.9
 147  370.0145
 148  285.6212
 149  311.4951
 150  430.0069
 151  342.3432
 152  211.9267
 153  212.4244
 154  163.9845
 155  214.4801
 156  292.6106
 157  342.8041
 158  352.0088
 159  276.9202
 160  251.7915
 161  153.1701
 162  237.4142
 163  265.4829
 164  178.1684
 165  260.4583
 166  335.3629
 167  242.059
 168  145.3344
 169  247.4115
 170  214.9808
 171  235.3956
 172  280.7879
 173  305.5474
 174  228.1791
 175  170.9449
 176  288.246
 177  279.8997
 178  110.124
 179  85.70758
 180  211.7802
 181  225.1862
 182  227.5809
 183  221.8202
 184  193.2648
 185  162.2672
 186  137.2328
 187  320.5777
 188  284.4869
 189  289.1747
 190  315.7734
 191  328.2693
 192  370.7462
 193  307.3069
 194  378.1432
 195  375.6256
 196  304.1169
 197  321.3369
 198  338.6878
 199  342.467
 200  394.9223
 201  368.334
 202  184.5993
 203  224.2036
 204  253.2363
 205  262.1644
 206  407.3696
 207  381.1527
 208  266.3396
 209  278.7728
 210  213.0436
 211  143.0262
 212  252.3117
 213  339.7066
 214  405.9149
 215  318.4464
 216  204.9155
 217  242.593
 218  265.0341
 219  394.8818
 220  239.0844
 221  144.1608
 222  154.2063
 223  268.2458
 224  264.2619
 225  369.7482
 226  349.4438
 227  146.5916
 228  107.3478
 229  276.1698
 230  331.2007
 231  248.0846
 232  287.37
 233  137.6989
 234  265.8874
 235  305.8694
 236  457.7963
 237  448.1682
 238  427.4088
 239  311.7138
 240  233.2406
 241  319.5612
 242  347.7221
 243  282.2426
 244  290.2288
 245  255.4346
 246  260.5706
 247  311.6934
 248  275.7538
 249  161.0615
 250  195.6959
 251  218.2971
 252  294.2813
 253  282.545
 254  333.0798
 255  345.135
 256  280.8246
 257  326.2942
 258  343.2047
 259  127.8916
 260  72.38284
 261  126.3289
 262  270.4419
 263  384.3006
 264  281.3982
 265  206.5946
 266  250.0459
 267  306.5989
 268  317.9333
 269  362.9171
 270  246.7029
 271  128.2572
 272  250.6914
 273  189.4586
 274  354.7223
 275  301.9857
 276  177.9249
 277  239.5671
 278  282.3249
 279  263.5558
 280  233.1772
 281  214.591
 282  316.9535
 283  369.0887
 284  293.4554
 285  249.2052
 286  263.9153
 287  203.2069
 288  361.8932
 289  272.0223
 290  348.3153
 291  368.7655
 292  240.2116
 293  248.587
 294  214.4924
 295  119.2056
 296  183.9938
 297  247.8084
 298  253.7364
 299  179.4518
 300  249.378
 301  262.6101
 302  283.7639
 303  443.5227
 304  388.0715
 305  240.9773
 306  102.0428
 307  167.9447
 308  315.7621
 309  436.7339
 310  329.2187
 311  200.6769
 312  246.1149
 313  271.7667
 314  427.5185
 315  408.8541
 316  346.9483
 317  326.8645
 318  359.6504
 319  371.1443
 320  403.1972
 321  427.3464
 322  338.1194
 323  297.6556
 324  307.2048
 325  345.2661
 326  344.5857
 327  373.1714
 328  361.3569
 329  316.8423
 330  385.0358
 331  381.5242
 332  277.9594
 333  238.7982
 334  280.7401
 335  404.2303
 336  361.2908
 337  379.1266
 338  388.7007
 339  322.8376
 340  308.7124
 341  250.5826
 342  141.0792
 343  309.5923
 344  307.4869
 345  289.5191
 346  216.5851
 347  182.1666
 348  143.1729
 349  121.0484
 350  173.2774
 351  265.9924
 352  240.5177
 353  372.1432
 354  355.9565
 355  208.1534
 356  225.0685
 357  269.7176
 358  255.6389
 359  302.8991
 360  281.9545
 361  264.987
 362  307.443
 363  304.1705
 364  244.1036
 365  328.4872
 366  365.7187
 367  324.5267
 368  283.1852
 369  246.6836
 370  334.0858
 371  332.5817
 372  261.6204
 373  316.8419
 374  489.675
 375  453.2556
 376  340.4738
 377  248.6599
 378  269.4878
 379  417.14
 380  311.3604
 381  413.6063
 382  412.7206
 383  308.0737
 384  431.8838
 385  369.1375
 386  439.1726
 387  558.8914
 388  463.9097
 389  573.0287
 390  913.9575
 391  1038.505
 392  1045.489
 393  1074.302
 394  908.4779
 395  520.0806
 396  403.8031
 397  435.6933
 398  293.0322
 399  213.7702
 400  248.6779
 401  320.2255
 402  298.0399
 403  390.0747
 404  386.6896
 405  408.5984
 406  410.3532
 407  379.8277
 408  492.2057
 409  434.5128
 410  274.4819
 411  301.4086
 412  311.9238
 413  350.3574
 414  327.0715
 415  246.0853
 416  124.6072
 417  239.8042
 418  261.626
 419  221.3604
 420  177.7633
 421  270.4291
 422  326.11
 423  328.3892
 424  335.0087
 425  211.1395
 426  278.7494
 427  278.8243
 428  170.9896
 429  287.5132
 430  359.3951
 431  376.7029
 432  467.197
 433  473.2429
 434  473.1565
 435  335.2732
 436  195.8807
 437  230.1617
 438  316.4047
 439  407.0019
 440  344.0642
 441  209.4329
 442  371.6909
 443  351.217
 444  275.4037
 445  289.8271
 446  354.0492
 447  343.8149
 448  474.3663
 449  398.5963
 450  318.7173
 451  332.3756
 452  300.4423
 453  299.4234
 454  274.6513
 455  329.0193
 456  315.8855
 457  318.2264
 458  223.5429
 459  392.5742
 460  328.2937
 461  369.2731
 462  359.9152
 463  395.2614
 464  441.4571
 465  388.7234
 466  293.2081
 467  239.5212
 468  203.0496
 469  266.3109
 470  299.756
 471  248.0702
 472  249.143
 473  400.0984
 474  342.5016
 475  258.6673
 476  284.1729
 477  364.229
 478  313.3929
 479  350.9496
 480  382.61
 481  323.9908
 482  336.2321
 483  406.711
 484  308.1936
 485  314.1151
 486  245.8585
 487  343.5358
 488  389.098
 489  343.8389
 490  343.5312
 491  379.1717
 492  197.245
 493  158.1772
 494  369.1158
 495  318.3425
 496  374.8732
 497  282.595
 498  300.6828
 499  324.7498
 500  237.0444
 501  232.1514
 502  231.0388
 503  257.2436
 504  261.3343
 505  254.4908
 506  268.5298
 507  246.7681
 508  324.9266
 509  346.0198
 510  291.0546
 511  287.7567
