# Input file       =  1183023208.110605_cleaned.dat
# Candidate        =  PSR_0332+5434
# Telescope        =  AR
# Epoch_topo       =  57936.398461928300
# Epoch_bary       =  N/A
# T_sample         =  0.002
# Data Folded      =  7340032
# Data Avg         =  0.141293927555255
# Data StdDev      =  3.6344916265     
# Profile Bins     =  512
# Profile Avg      =  2025.64901132446 
# Profile StdDev   =  435.168718126777 
# Reduced chi-sqr  =  0.710
# Prob(Noise)      <  1   (~0.0 sigma)
# P_topo (ms)      =  714.488457408211  +/- 0.000462
# P'_topo (s/s)    =  -0                +/- 2.44e-10
# P''_topo (s/s^2) =  0                 +/- 1.08e-13
# P_bary (ms)      =  N/A
# P'_bary (s/s)    =  N/A
# P''_bary (s/s^2) =  N/A
# P_orb (s)        =  N/A
# asin(i)/c (s)    =  N/A
# eccentricity     =  N/A
# w (rad)          =  N/A
# T_peri           =  N/A
######################################################
   0  1941.981
   1  2014.781
   2  1874.757
   3  2132.766
   4  2089.726
   5  2255.627
   6  2200.907
   7  1661.557
   8  2122.465
   9  2310.155
  10  2397.991
  11  2128.422
  12  1871.922
  13  1898.568
  14  1985.955
  15  2095.79
  16  2059.732
  17  2243.576
  18  2205.722
  19  2202.013
  20  2391.007
  21  2212.277
  22  2082.89
  23  2143.334
  24  1917.692
  25  1873.37
  26  1900.816
  27  1908.755
  28  1811.394
  29  1946.094
  30  1803.362
  31  1832.315
  32  2089.262
  33  2245.342
  34  2088.385
  35  1768.612
  36  1455.386
  37  1578.012
  38  1880.336
  39  2286.09
  40  2197.75
  41  2303.678
  42  2590.128
  43  2472.364
  44  1941.485
  45  2013.358
  46  1880.934
  47  2075.959
  48  2101.58
  49  2022.041
  50  1878.036
  51  1959.738
  52  1730.29
  53  2015.534
  54  2179.505
  55  2103.463
  56  2068.702
  57  2303.095
  58  2336.736
  59  2518.216
  60  2428.896
  61  2314.15
  62  2200.287
  63  2074.176
  64  2087.245
  65  2407.825
  66  2343.69
  67  2078.142
  68  1539.713
  69  1891.865
  70  2296.816
  71  1978.916
  72  1800.53
  73  2402.44
  74  2157.3
  75  1562.242
  76  1669.762
  77  1999.819
  78  1953.241
  79  2047.595
  80  2145.492
  81  2252.975
  82  2301.162
  83  2130.432
  84  2049.498
  85  2005.072
  86  1808.363
  87  2004.909
  88  1886.974
  89  2366.042
  90  2167.526
  91  2052.556
  92  1953.978
  93  1755.272
  94  1921.929
  95  1978.966
  96  1987.713
  97  2012.422
  98  2340.197
  99  2172.583
 100  2116.4
 101  2105.089
 102  2141.83
 103  2463.123
 104  2152.729
 105  2286.083
 106  2479.576
 107  2250.13
 108  2306.869
 109  2014.565
 110  1912.521
 111  2165.55
 112  2066.239
 113  2336.411
 114  2456.722
 115  2054.834
 116  2245.425
 117  2157.312
 118  2044.871
 119  2033.825
 120  2079.323
 121  2230.725
 122  2184.88
 123  1986.752
 124  2257.914
 125  2415.913
 126  1970.028
 127  2100.823
 128  2013.027
 129  2155.164
 130  2255.504
 131  2178.732
 132  2158.257
 133  2309.561
 134  1615.633
 135  1484.982
 136  2180.905
 137  2468.674
 138  2458.114
 139  2307.475
 140  2384.702
 141  2396.487
 142  2278.061
 143  2507.395
 144  2152.395
 145  2068.144
 146  2167.911
 147  2189.137
 148  2516.538
 149  2731.873
 150  2322.478
 151  2088.077
 152  1780.712
 153  1798.092
 154  1851.344
 155  1845.178
 156  2118.325
 157  2253.981
 158  1762.069
 159  1642.412
 160  1920.527
 161  1785.288
 162  1812.551
 163  1927.224
 164  1906.323
 165  2120.923
 166  2037.943
 167  1913.31
 168  1900.439
 169  1683.655
 170  1774.385
 171  1574.573
 172  1647.428
 173  1941.47
 174  1636.501
 175  1915.077
 176  1794.757
 177  1952.703
 178  1959.663
 179  1887.043
 180  2073.326
 181  2119.79
 182  2056.851
 183  2080.344
 184  2090.553
 185  1993.869
 186  2058.031
 187  2066.095
 188  1978.942
 189  1950.562
 190  2227.602
 191  2341.845
 192  1936.221
 193  1612.735
 194  2054.908
 195  2097.83
 196  1855.891
 197  1867.234
 198  1860.688
 199  2121.582
 200  2152.834
 201  2020.643
 202  1903.344
 203  1768.511
 204  2147.031
 205  2225.413
 206  2122.634
 207  2077.961
 208  1612.64
 209  2032.202
 210  2229.002
 211  2055.498
 212  2397.595
 213  2122.513
 214  1915.206
 215  1738.764
 216  1814.533
 217  1748.817
 218  1779.974
 219  1526.62
 220  1892.779
 221  1993.095
 222  1857.166
 223  1958.057
 224  1954.611
 225  1848.911
 226  1783.572
 227  2027.36
 228  2225.079
 229  2364.677
 230  2082.844
 231  2512.035
 232  2493.516
 233  2190.365
 234  2188.082
 235  1729.89
 236  1988.782
 237  2307.142
 238  2475.208
 239  2399.403
 240  2051.03
 241  2137.354
 242  2139.959
 243  1823.168
 244  2081.503
 245  2064.528
 246  2228.105
 247  2070.267
 248  1748.278
 249  1694.901
 250  1986.702
 251  2096.963
 252  2071.399
 253  1962.107
 254  1878.223
 255  2311.688
 256  2180.762
 257  2142.466
 258  1898.058
 259  1994.385
 260  2215.034
 261  2046.728
 262  2030.305
 263  2169.906
 264  2095.636
 265  2038.769
 266  1924.136
 267  1701.081
 268  2013.995
 269  1882.524
 270  1844.534
 271  1852.139
 272  2012.164
 273  2251.017
 274  2249.243
 275  2407.321
 276  2157.411
 277  2024.86
 278  2272.04
 279  1986.254
 280  2166.774
 281  2379.543
 282  1917.54
 283  2010.142
 284  1876.385
 285  1884.176
 286  1803.609
 287  1678.303
 288  1787.172
 289  2260.932
 290  1907.775
 291  1930.293
 292  1649.272
 293  1723.658
 294  1418.825
 295  1302.517
 296  1648.111
 297  1717.66
 298  2017.627
 299  2221.868
 300  1805.848
 301  1747.669
 302  1964.065
 303  2050.683
 304  1748.622
 305  1836.043
 306  1937.927
 307  1972.199
 308  1826.041
 309  1802.765
 310  1635.92
 311  1628.408
 312  1789.552
 313  1759.071
 314  1774.076
 315  1970.649
 316  2006.806
 317  2343.205
 318  1857.168
 319  2080.181
 320  2290.479
 321  2265.647
 322  2184.101
 323  2447.095
 324  2638.483
 325  2820.027
 326  3030.061
 327  3146.584
 328  3370.734
 329  3136.191
 330  2708.416
 331  2349.197
 332  1889.905
 333  1735.052
 334  1984.444
 335  2023.556
 336  1904.591
 337  2190.328
 338  2039.813
 339  2154.132
 340  1943.465
 341  2067.388
 342  2467.438
 343  1856.299
 344  1762.144
 345  2040.288
 346  2188.669
 347  2331.052
 348  2145.534
 349  1540.834
 350  1252.925
 351  1391.969
 352  1587.087
 353  1918.496
 354  1396.652
 355  1523.402
 356  1842.686
 357  1872.867
 358  2161.612
 359  2001.689
 360  1898.721
 361  1971.714
 362  2070.199
 363  2343.997
 364  2058.064
 365  1923.503
 366  1902.877
 367  2134.089
 368  2234.417
 369  2008.792
 370  2012.179
 371  2209.196
 372  2414.061
 373  2464.012
 374  1948.135
 375  1621.997
 376  1595.968
 377  1789.919
 378  1989.351
 379  2049.175
 380  2105.249
 381  2166.02
 382  1853.078
 383  1618.724
 384  1884.906
 385  1901.326
 386  2288.661
 387  2065.882
 388  2157.242
 389  2349.493
 390  2254.646
 391  2243.775
 392  2271.276
 393  2324.388
 394  1993.287
 395  1843.695
 396  1976.789
 397  2226.182
 398  2341.446
 399  2320.517
 400  2030.913
 401  1639.066
 402  1814.631
 403  2078.458
 404  1978.415
 405  2388.46
 406  2370.569
 407  2235.58
 408  2204.244
 409  2218.027
 410  2313.247
 411  2205.459
 412  2130.359
 413  2093
 414  2161.52
 415  1840.462
 416  1483.101
 417  1853.871
 418  1765.369
 419  1854.069
 420  1721.42
 421  1747.212
 422  1862.305
 423  2147.032
 424  2133.356
 425  1781.153
 426  1569.224
 427  1711.2
 428  1830.06
 429  1926.386
 430  1662.525
 431  2210.683
 432  2476.274
 433  2128.083
 434  2002.048
 435  2363.208
 436  2368.547
 437  2211.774
 438  2106.38
 439  2287.032
 440  2179.594
 441  2212.994
 442  2120.648
 443  2162.237
 444  2291.166
 445  2288.063
 446  2085.648
 447  2213.835
 448  2151.48
 449  1987.635
 450  1962.609
 451  2203.299
 452  2248.519
 453  1821.775
 454  1874.362
 455  2117.501
 456  1755.083
 457  1692.14
 458  1601.688
 459  1778.172
 460  1878.911
 461  1983.886
 462  1843.479
 463  2068.456
 464  1682.161
 465  1594.798
 466  1867.096
 467  1837.956
 468  1666.533
 469  1614.167
 470  1666.302
 471  1603.963
 472  1589.93
 473  1949.718
 474  2221.692
 475  1936.58
 476  1494.401
 477  1407.902
 478  1250.096
 479  1616.614
 480  1817.269
 481  1967.931
 482  1886.731
 483  1679.263
 484  1565.49
 485  1930.571
 486  1921.5
 487  1993.026
 488  2040.723
 489  1722.467
 490  1945.964
 491  1917.181
 492  2026.052
 493  2256.057
 494  1839.733
 495  1691.54
 496  1638.237
 497  1650.545
 498  1710.029
 499  2032.885
 500  2033.472
 501  1886.716
 502  1825.219
 503  2168.716
 504  2189.407
 505  1949.475
 506  1839.07
 507  1980.672
 508  2061.123
 509  2038.841
 510  1941.568
 511  1763.46
