# Input file       =  1183370233.240542_cleaned.dat
# Candidate        =  PSR_0332+5434
# Telescope        =  AR
# Epoch_topo       =  57940.414956487752
# Epoch_bary       =  N/A
# T_sample         =  0.002
# Data Folded      =  7340032
# Data Avg         =  0.308561491650055
# Data StdDev      =  6.470245429693   
# Profile Bins     =  512
# Profile Avg      =  4423.33189996257 
# Profile StdDev   =  774.702131400036 
# Reduced chi-sqr  =  1.773
# Prob(Noise)      <  1.88e-24   (~10.1 sigma)
# P_topo (ms)      =  714.485413885988  +/- 1.13e-05
# P'_topo (s/s)    =  -0                +/- 5.98e-12
# P''_topo (s/s^2) =  0                 +/- 2.64e-15
# P_bary (ms)      =  N/A
# P'_bary (s/s)    =  N/A
# P''_bary (s/s^2) =  N/A
# P_orb (s)        =  N/A
# asin(i)/c (s)    =  N/A
# eccentricity     =  N/A
# w (rad)          =  N/A
# T_peri           =  N/A
######################################################
   0  3780.437
   1  4086.801
   2  4702.746
   3  4735.965
   4  3711.309
   5  3421.588
   6  4359.89
   7  4941.039
   8  4762.082
   9  3850.188
  10  3889.169
  11  4926.504
  12  5199.741
  13  4535.74
  14  3522.63
  15  4137.857
  16  5027.201
  17  5202.505
  18  4451.151
  19  3717.579
  20  4195.629
  21  4444.181
  22  4621.739
  23  3782.785
  24  3430.26
  25  4014.191
  26  4603.414
  27  4436.303
  28  3498.107
  29  3374.493
  30  4313.157
  31  4848.634
  32  4580.694
  33  3574.937
  34  3472.209
  35  4141.745
  36  4577.399
  37  3868.334
  38  3163.014
  39  3415.971
  40  4044.77
  41  4441.908
  42  3702.32
  43  3154.508
  44  4038.259
  45  4612.307
  46  4556.125
  47  3133.366
  48  2609.887
  49  3914.2
  50  5266.086
  51  4929.62
  52  3741.984
  53  3919.276
  54  4615.102
  55  4672.071
  56  4232.312
  57  3332.59
  58  3634.711
  59  4876.782
  60  4848.271
  61  4070.81
  62  3027.843
  63  3574.221
  64  4367.809
  65  4291.866
  66  3725.617
  67  3261.712
  68  4072.516
  69  4687.145
  70  4670.562
  71  3978.438
  72  3227.182
  73  3845.569
  74  4217.332
  75  3739.414
  76  2964.378
  77  3229.724
  78  4179.925
  79  4689.12
  80  3930.714
  81  3074.5
  82  3612.406
  83  5054.5
  84  5659.855
  85  4762.353
  86  4075.892
  87  4638.072
  88  5575.194
  89  5364.498
  90  4289.646
  91  3702.752
  92  4588.128
  93  5760.81
  94  5435.218
  95  4196.24
  96  4058.722
  97  4606.235
  98  5260.626
  99  4224.961
 100  3594.963
 101  3984.814
 102  4721.888
 103  4749.077
 104  4133.207
 105  3648.639
 106  4091.893
 107  4986.16
 108  4936.606
 109  3619.278
 110  2945.084
 111  4034.203
 112  4887.011
 113  4482.027
 114  3512.011
 115  3023.062
 116  3847.456
 117  5103.51
 118  5148.387
 119  4074.19
 120  3562.499
 121  4168.483
 122  4872.109
 123  4305.568
 124  2873.003
 125  3052.878
 126  4031.52
 127  4389.597
 128  3502.398
 129  3339.131
 130  4145.03
 131  4404.775
 132  3978.773
 133  3424.097
 134  3161.604
 135  3468.165
 136  4566.325
 137  4659.675
 138  3755.901
 139  3871.044
 140  4930.473
 141  5368.026
 142  4832.649
 143  4106.907
 144  4189.79
 145  5121.307
 146  5167.346
 147  4463.924
 148  3656.459
 149  4417.998
 150  5264.368
 151  5467.235
 152  4900.958
 153  4163.249
 154  4258.383
 155  5276.98
 156  5506.271
 157  4725.102
 158  4182.684
 159  4857.633
 160  5524.528
 161  5408.693
 162  4062.795
 163  3747.45
 164  4606.733
 165  5235.269
 166  4509.993
 167  3364.445
 168  3357.136
 169  4700.897
 170  4990.575
 171  4066.532
 172  3234.892
 173  3794.248
 174  4469.93
 175  4554.125
 176  4096.089
 177  3502.819
 178  3968.23
 179  5139.601
 180  5074.418
 181  4017.389
 182  3598.54
 183  4538.482
 184  5151.085
 185  4737.919
 186  4334.612
 187  4601.751
 188  5497.251
 189  5985.957
 190  5117.381
 191  4665.43
 192  4856.394
 193  5852.538
 194  6307.148
 195  5228.04
 196  4233.452
 197  4894.478
 198  6092.761
 199  5810.104
 200  4891.396
 201  4712.175
 202  5686.45
 203  5940.912
 204  5076.995
 205  4247.996
 206  4062.499
 207  4954.432
 208  5791.451
 209  5290.152
 210  4365.789
 211  4272.103
 212  5134.084
 213  5515.343
 214  4941.765
 215  4559.909
 216  4727.166
 217  5683.531
 218  5831.66
 219  4928.333
 220  4520.263
 221  4801.479
 222  5935.378
 223  5693.522
 224  4884.941
 225  4432.591
 226  4593.754
 227  5588.509
 228  5152.423
 229  3882.334
 230  3996.792
 231  5042.742
 232  5409.529
 233  5070.939
 234  3986.6
 235  3935.16
 236  4702.072
 237  5164.603
 238  4311.53
 239  3551.997
 240  3877.896
 241  4754.516
 242  5106.422
 243  4531.365
 244  3765.108
 245  4121.115
 246  5084.402
 247  4955.926
 248  4012.38
 249  3312.166
 250  3702.762
 251  4417.774
 252  4778.81
 253  3761.453
 254  3957.729
 255  4413.783
 256  4808.041
 257  3948.237
 258  3192.038
 259  3782.964
 260  4997.693
 261  5267.233
 262  4954.588
 263  4091.357
 264  4126.921
 265  4967.939
 266  5021.82
 267  4714.933
 268  4223.674
 269  4631.386
 270  5949.01
 271  5420.876
 272  4558.171
 273  4715.986
 274  5180.023
 275  5469.878
 276  5568.562
 277  4273.875
 278  4628.483
 279  5903.395
 280  6728.855
 281  5312.244
 282  4247.961
 283  4865.825
 284  5989.025
 285  5871.39
 286  5150.092
 287  4474.505
 288  4865.843
 289  5490.556
 290  5839.289
 291  4978.209
 292  4483.128
 293  5034.983
 294  5856.797
 295  5093.18
 296  4159.732
 297  4217.487
 298  5090.219
 299  5854.461
 300  4765.1
 301  3930.104
 302  4074.752
 303  4856.46
 304  5348.589
 305  4309.155
 306  3669.077
 307  3825.702
 308  4821.881
 309  5187.938
 310  4000.941
 311  3730.905
 312  4220.979
 313  4585.506
 314  4462.541
 315  3629.893
 316  3492.985
 317  4733.007
 318  5570.929
 319  4990.219
 320  4222.402
 321  4049.959
 322  4878.778
 323  5540.898
 324  5350.947
 325  5418.823
 326  5640.819
 327  6200.354
 328  6192.285
 329  5279.536
 330  4285.161
 331  4267.468
 332  4791.019
 333  4500.084
 334  3477.996
 335  3338.19
 336  3886.157
 337  4992.854
 338  4865.385
 339  3964.478
 340  3826.004
 341  4361.442
 342  5104.442
 343  4807.506
 344  3866.66
 345  3817.426
 346  4795.643
 347  5070.486
 348  4147.743
 349  4030.625
 350  4445.292
 351  4510.373
 352  5101.791
 353  4523.6
 354  4005.833
 355  4657.989
 356  5645.488
 357  5832.536
 358  4949.041
 359  4620.378
 360  4868.789
 361  5497.404
 362  5364.21
 363  4320.737
 364  4305.101
 365  5075.769
 366  5283.372
 367  4522.289
 368  3642.696
 369  4105.373
 370  4826.135
 371  5053.35
 372  4449.953
 373  3681.643
 374  3720.238
 375  4793.152
 376  4718.828
 377  3624.671
 378  3215.008
 379  4162.341
 380  5653.135
 381  5232.614
 382  4219.314
 383  3820.433
 384  4814.779
 385  5963.486
 386  5246.365
 387  4145.155
 388  4240.439
 389  5346.666
 390  5937.246
 391  5460.108
 392  4671.881
 393  4531.551
 394  5420.396
 395  5871.198
 396  4812.744
 397  3830.742
 398  4632.276
 399  5641.985
 400  5336.473
 401  4292.059
 402  3827.893
 403  4423.4
 404  4984.678
 405  5001.394
 406  4067.624
 407  4068.467
 408  4674.807
 409  5236.701
 410  4775.839
 411  3439.722
 412  3523.136
 413  5094.37
 414  5427.723
 415  4855.399
 416  4177.76
 417  3905.359
 418  4596.134
 419  4440.19
 420  3571.119
 421  2936.817
 422  4235.87
 423  5264.708
 424  4759.733
 425  3544.988
 426  3158.095
 427  3837.636
 428  4520.065
 429  4230.118
 430  3366.883
 431  3437.422
 432  4238.214
 433  4945.365
 434  4275.251
 435  3479.386
 436  3748.51
 437  4612.205
 438  4763.234
 439  3574.951
 440  2456.433
 441  2948.333
 442  3984.906
 443  4109.521
 444  3134.435
 445  2620.631
 446  3283.231
 447  4215.736
 448  4422.095
 449  3344.895
 450  2765.917
 451  3826.467
 452  4549.961
 453  4190.232
 454  3072.05
 455  3510.756
 456  4572.35
 457  4943.653
 458  3681.433
 459  2694.704
 460  3090.638
 461  4225.439
 462  4742.248
 463  4146.708
 464  3118.684
 465  3382.146
 466  4604.946
 467  4197.173
 468  2984.172
 469  3198.366
 470  3773.716
 471  4777.185
 472  4532.111
 473  3518.124
 474  3313.585
 475  3778.068
 476  4392.436
 477  4221.454
 478  3619.218
 479  3962.031
 480  5055.516
 481  5296.017
 482  4032.009
 483  3099.73
 484  3798.403
 485  5059.245
 486  5255.651
 487  4403.982
 488  3411.168
 489  3762.321
 490  4630.24
 491  5026.035
 492  4185.277
 493  3293.714
 494  4352.094
 495  4823.625
 496  4987.629
 497  4059.969
 498  3595.483
 499  4373.272
 500  4829.532
 501  4261.163
 502  3295.804
 503  3336.377
 504  4499.788
 505  4869.318
 506  4056.834
 507  3413.481
 508  3689.836
 509  4285.287
 510  4685.683
 511  4313.499
