# Input file       =  1183884525.141243_cleaned.dat
# Candidate        =  PSR_0332+5434
# Telescope        =  AR
# Epoch_topo       =  57946.367409042163
# Epoch_bary       =  N/A
# T_sample         =  0.002
# Data Folded      =  7340032
# Data Avg         =  0.0183327340188811
# Data StdDev      =  1.0000829480908  
# Profile Bins     =  512
# Profile Avg      =  262.812314058039 
# Profile StdDev   =  119.742968003539 
# Reduced chi-sqr  =  1.358
# Prob(Noise)      <  1.12e-07   (~5.2 sigma)
# P_topo (ms)      =  714.481043112635  +/- 0.000497
# P'_topo (s/s)    =  -0                +/- 2.62e-10
# P''_topo (s/s^2) =  0                 +/- 1.16e-13
# P_bary (ms)      =  N/A
# P'_bary (s/s)    =  N/A
# P''_bary (s/s^2) =  N/A
# P_orb (s)        =  N/A
# asin(i)/c (s)    =  N/A
# eccentricity     =  N/A
# w (rad)          =  N/A
# T_peri           =  N/A
######################################################
   0  341.2822
   1  164.0025
   2  235.6522
   3  238.1633
   4  364.5966
   5  351.7147
   6  370.3163
   7  321.6128
   8  274.5826
   9  210.7733
  10  242.7264
  11  189.2029
  12  195.3492
  13  271.7014
  14  225.5455
  15  180.8294
  16  242.6937
  17  366.8619
  18  259.5267
  19  336.7537
  20  376.168
  21  395.0022
  22  429.9926
  23  302.1791
  24  251.8288
  25  250.8939
  26  171.5989
  27  311.2853
  28  283.2861
  29  340.5214
  30  326.7644
  31  234.8227
  32  124.3647
  33  46.34681
  34  79.50723
  35  158.9809
  36  257.9073
  37  318.7293
  38  242.9644
  39  158.6932
  40  214.5543
  41  238.7231
  42  261.7788
  43  247.0767
  44  253.3068
  45  253.0472
  46  209.3209
  47  88.67403
  48  226.1275
  49  261.8557
  50  237.1172
  51  203.3669
  52  288.309
  53  284.0562
  54  305.6406
  55  231.1709
  56  199.2308
  57  184.1206
  58  118.9548
  59  216.3757
  60  240.1746
  61  277.0198
  62  232.3076
  63  148.175
  64  273.3357
  65  302.6408
  66  125.6143
  67  178.1259
  68  297.0812
  69  306.3066
  70  229.6227
  71  143.2675
  72  189.6478
  73  222.8399
  74  291.494
  75  298.4705
  76  265.8466
  77  300.1237
  78  313.5152
  79  293.1196
  80  286.9492
  81  381.2691
  82  295.3605
  83  307.4625
  84  322.5711
  85  372.2501
  86  409.9903
  87  214.2273
  88  269.8408
  89  266.4145
  90  276.6767
  91  340.722
  92  321.669
  93  200.6278
  94  187.1701
  95  183.6966
  96  264.7796
  97  320.8524
  98  339.7131
  99  302.6151
 100  221.215
 101  288.2213
 102  320.5241
 103  363.5884
 104  316.2469
 105  310.423
 106  416.2457
 107  273.4306
 108  268.9084
 109  340.0225
 110  446.5773
 111  542.6618
 112  477.9453
 113  423.9014
 114  486.2364
 115  321.2126
 116  337.2187
 117  489.6132
 118  441.7438
 119  442.4359
 120  294.8728
 121  318.8017
 122  401.2049
 123  607.5633
 124  756.4534
 125  810.0471
 126  788.3394
 127  878.1766
 128  693.8493
 129  427.3451
 130  236.7268
 131  166.1841
 132  317.1004
 133  393.4709
 134  307.5652
 135  258.948
 136  151.2261
 137  413.7764
 138  438.7195
 139  245.5263
 140  274.5517
 141  262.5609
 142  316.2187
 143  281.5352
 144  236.3111
 145  327.5865
 146  222.4189
 147  155.6714
 148  153.8721
 149  295.5812
 150  263.6516
 151  267.7065
 152  243.913
 153  270.3171
 154  230.9667
 155  98.27697
 156  142.5838
 157  188.7511
 158  306.9638
 159  346.6629
 160  103.1592
 161  82.86032
 162  119.1359
 163  243.9817
 164  292.3461
 165  372.1646
 166  268.8815
 167  119.1264
 168  254.8987
 169  329.848
 170  227.5151
 171  195.575
 172  163.8663
 173  204.0968
 174  227.198
 175  199.441
 176  216.0817
 177  255.6638
 178  249.9768
 179  221.785
 180  203.2748
 181  250.0194
 182  345.7137
 183  286.8725
 184  80.17171
 185  150.1958
 186  314.2632
 187  318.0156
 188  159.0356
 189  113.2147
 190  165.9
 191  218.0413
 192  310.2445
 193  297.5333
 194  279.0183
 195  266.5512
 196  368.0711
 197  309.0982
 198  311.904
 199  302.7221
 200  456.3224
 201  316.1728
 202  227.9056
 203  348.346
 204  356.09
 205  286.3309
 206  254.3066
 207  280.677
 208  369.0647
 209  398.8541
 210  330.5544
 211  307.4809
 212  200.229
 213  145.147
 214  112.6739
 215  178.3948
 216  231.8559
 217  81.6671
 218  -11.1133
 219  143.6677
 220  284.8113
 221  174.0201
 222  146.4506
 223  175.2223
 224  196.5166
 225  205.1267
 226  281.5652
 227  326.0602
 228  274.0213
 229  209.118
 230  126.5585
 231  272.0411
 232  313.6587
 233  281.8043
 234  195.8085
 235  264.6117
 236  330.5963
 237  254.4451
 238  230.1435
 239  353.6309
 240  481.6367
 241  237.4211
 242  218.6052
 243  234.6248
 244  363.5316
 245  322.6357
 246  169.6981
 247  148.7562
 248  235.6652
 249  390.5673
 250  332.5209
 251  188.8819
 252  205.4541
 253  210.5637
 254  230.26
 255  218.1357
 256  366.0305
 257  348.5399
 258  359.7305
 259  308.3799
 260  304.7161
 261  248.6898
 262  139.8347
 263  147.4269
 264  331.1683
 265  237.9579
 266  209.299
 267  324.9881
 268  286.8786
 269  180.2011
 270  227.8869
 271  86.503
 272  174.3345
 273  232.3486
 274  160.1732
 275  264.0183
 276  306.2121
 277  197.4624
 278  241.8909
 279  312.9001
 280  285.9692
 281  146.1051
 282  80.65531
 283  116.5958
 284  204.2586
 285  305.5728
 286  342.7008
 287  328.6515
 288  241.3648
 289  271.4421
 290  250.3863
 291  230.1448
 292  204.2892
 293  223.8601
 294  351.7079
 295  322.246
 296  273.3725
 297  312.5233
 298  420.9773
 299  382.1206
 300  243.7918
 301  346.7792
 302  363.8009
 303  276.118
 304  217.0624
 305  288.6538
 306  342.5043
 307  211.7467
 308  225.636
 309  179.2753
 310  237.6383
 311  277.4665
 312  197.249
 313  301.0619
 314  244.8491
 315  186.6954
 316  193.1362
 317  72.91531
 318  101.5146
 319  280.1765
 320  304.1637
 321  157.6975
 322  260.9194
 323  245.176
 324  189.2409
 325  162.578
 326  73.34052
 327  54.37231
 328  197.8443
 329  259.921
 330  226.3862
 331  289.5372
 332  156.9803
 333  63.34938
 334  169.6118
 335  177.6524
 336  108.7678
 337  138.7052
 338  146.0071
 339  174.1525
 340  185.7124
 341  270.1769
 342  347.1044
 343  301.4824
 344  262.7339
 345  265.9883
 346  280.8984
 347  215.0598
 348  222.2906
 349  235.74
 350  288.4108
 351  228.3433
 352  201.4824
 353  167.3568
 354  188.0076
 355  287.341
 356  173.7322
 357  165.3435
 358  101.5354
 359  7.463243
 360  149.6563
 361  347.5369
 362  251.5388
 363  187.3749
 364  258.6988
 365  308.1398
 366  280.7245
 367  260.4033
 368  191.3343
 369  158.1941
 370  157.8629
 371  196.5382
 372  176.395
 373  56.12233
 374  124.8011
 375  215.0836
 376  135.4852
 377  189.6009
 378  330.5216
 379  267.6459
 380  158.2984
 381  210.4659
 382  356.9143
 383  350.4383
 384  438.4368
 385  478.3846
 386  306.4377
 387  281.24
 388  275.3749
 389  238.6632
 390  217.9209
 391  256.7375
 392  221.3338
 393  244.1177
 394  173.1999
 395  205.1478
 396  167.1917
 397  318.3983
 398  293.5016
 399  132.1713
 400  163.9618
 401  248.0992
 402  290.136
 403  238.03
 404  341.5616
 405  232.0373
 406  276.51
 407  294.9055
 408  284.5571
 409  320.0825
 410  422.4624
 411  348.6297
 412  216.0607
 413  318.5601
 414  351.3511
 415  369.9627
 416  318.8139
 417  276.2252
 418  183.7151
 419  181.3979
 420  238.3345
 421  260.4672
 422  288.0162
 423  296.1493
 424  168.1505
 425  323.2116
 426  267.7548
 427  236.9767
 428  266.1299
 429  271.3013
 430  334.8419
 431  295.6911
 432  245.0918
 433  222.9877
 434  301.5155
 435  424.5601
 436  348.6533
 437  230.51
 438  294.2473
 439  225.0278
 440  296.2848
 441  218.4358
 442  191.3957
 443  337.1519
 444  365.9107
 445  324.2368
 446  403.2908
 447  417.1766
 448  443.6625
 449  385.7165
 450  360.9943
 451  284.3205
 452  154.2746
 453  322.3998
 454  360.9877
 455  283.7532
 456  447.5767
 457  438.7604
 458  358.5313
 459  378.2319
 460  318.3058
 461  242.1058
 462  115.5135
 463  174.9433
 464  247.7934
 465  286.5989
 466  302.0244
 467  217.0245
 468  311.7578
 469  361.3946
 470  318.1791
 471  252.5641
 472  309.1451
 473  297.6751
 474  281.3107
 475  301.3973
 476  264.2697
 477  182.3106
 478  288.9956
 479  166.9902
 480  134.8777
 481  130.215
 482  287.8921
 483  235.7637
 484  260.4679
 485  205.0206
 486  142.7182
 487  264.3497
 488  204.7686
 489  123.5911
 490  126.0085
 491  31.18737
 492  166.3315
 493  199.6816
 494  172.545
 495  209.0191
 496  265.4504
 497  130.4149
 498  215.1926
 499  311.3635
 500  309.8736
 501  378.8941
 502  290.6241
 503  285.4021
 504  240.9937
 505  334.7931
 506  229.7816
 507  116.2461
 508  187.9231
 509  318.0123
 510  350.12
 511  289.3349
