# Input file       =  1183611107.093294_cleaned.dat
# Candidate        =  PSR_0332+5434
# Telescope        =  AR
# Epoch_topo       =  57943.202848302011
# Epoch_bary       =  N/A
# T_sample         =  0.002
# Data Folded      =  7340032
# Data Avg         =  0.172191337524315
# Data StdDev      =  3.74479716402893 
# Profile Bins     =  256
# Profile Avg      =  4940.4169760971  
# Profile StdDev   =  634.099328409632 
# Reduced chi-sqr  =  1.483
# Prob(Noise)      <  8.42e-07   (~4.8 sigma)
# P_topo (ms)      =  714.48295038016   +/- 0.00032
# P'_topo (s/s)    =  -0                +/- 1.69e-10
# P''_topo (s/s^2) =  0                 +/- 7.45e-14
# P_bary (ms)      =  N/A
# P'_bary (s/s)    =  N/A
# P''_bary (s/s^2) =  N/A
# P_orb (s)        =  N/A
# asin(i)/c (s)    =  N/A
# eccentricity     =  N/A
# w (rad)          =  N/A
# T_peri           =  N/A
######################################################
   0  5328.647
   1  5704.305
   2  4830.178
   3  5304.586
   4  5527.176
   5  5864.036
   6  5355.408
   7  5450.839
   8  5935.367
   9  5747.931
  10  5851.159
  11  5485.836
  12  5102.277
  13  5143.806
  14  4974.528
  15  4879.867
  16  5076.477
  17  5272.13
  18  5286.58
  19  5274.431
  20  5391.052
  21  5670.236
  22  6124.259
  23  6171.066
  24  6027.442
  25  5872.475
  26  5841.97
  27  5109
  28  5341.043
  29  4670.301
  30  5071.657
  31  4901.909
  32  5205.147
  33  4745.551
  34  4370.894
  35  4271.862
  36  4537.041
  37  5287.306
  38  4561.862
  39  4349.351
  40  4447.625
  41  5302.286
  42  4697.415
  43  4876.923
  44  5528.048
  45  5524.228
  46  4855.195
  47  5458.212
  48  5911.69
  49  5991.828
  50  5159.499
  51  5028.174
  52  5280.477
  53  4965.938
  54  4746.443
  55  4511.241
  56  4484.197
  57  4921.882
  58  5133.241
  59  5209.31
  60  5004.315
  61  4661.373
  62  4437.355
  63  4836.395
  64  4806.104
  65  4973.283
  66  5570.185
  67  6074.047
  68  5816.572
  69  5944.83
  70  5889.625
  71  5506.808
  72  5105.983
  73  4581.147
  74  5443.168
  75  4285.373
  76  4351.852
  77  4186.347
  78  5150.571
  79  3961.539
  80  3730.899
  81  3554.7
  82  3721.32
  83  3944.06
  84  4859.815
  85  4515.396
  86  4875.316
  87  4642.674
  88  4896.802
  89  5206.929
  90  5599.112
  91  5597.975
  92  5231.285
  93  4818.064
  94  4304.475
  95  4638.477
  96  4933.44
  97  4428.235
  98  4219.468
  99  3579.492
 100  3998.323
 101  3619.334
 102  3693.826
 103  3869.342
 104  3803.513
 105  3855.564
 106  4322.44
 107  4207.307
 108  4307.848
 109  5219.332
 110  5157.219
 111  4978.293
 112  4751.651
 113  5230.402
 114  4595.167
 115  4675.634
 116  4398.728
 117  5006.458
 118  4669.307
 119  4519.465
 120  4001.564
 121  4939.589
 122  4616.093
 123  4041.603
 124  4175.262
 125  4459.727
 126  4119.717
 127  3819.115
 128  3290.799
 129  4066.384
 130  4372.242
 131  4345.859
 132  4386.582
 133  4324.857
 134  4297.768
 135  4959.435
 136  4241.195
 137  4032.585
 138  4121.534
 139  4329.318
 140  4060.249
 141  4332.698
 142  4687.261
 143  4456.444
 144  4310.798
 145  4321.868
 146  4196.103
 147  4129.048
 148  4899.17
 149  5004.465
 150  4872.438
 151  5632.168
 152  6021.709
 153  6039.29
 154  5466.524
 155  5123.725
 156  5055.925
 157  4383.214
 158  4408.26
 159  5060.466
 160  5339.038
 161  5829.87
 162  7730.035
 163  8542.366
 164  6640.431
 165  4715.282
 166  4629.554
 167  4681.227
 168  5379.12
 169  4948.246
 170  4470.608
 171  5549.605
 172  5726.059
 173  5776.212
 174  5439.525
 175  4935.394
 176  4875.566
 177  5172.49
 178  5222.869
 179  4772.233
 180  4475.955
 181  5032.21
 182  4838.25
 183  5184.797
 184  4938.471
 185  4928.03
 186  5210.916
 187  5316.51
 188  4790.988
 189  5484.559
 190  5560.131
 191  5236.507
 192  5626.71
 193  6286.311
 194  6442.689
 195  5589.09
 196  6106.299
 197  5617.282
 198  5382.962
 199  5755.991
 200  5673.907
 201  4971.992
 202  4667.013
 203  4632.975
 204  5494.143
 205  4614.223
 206  4961.742
 207  4502.937
 208  4443.166
 209  4356.848
 210  4048.75
 211  4260.746
 212  4195.538
 213  4964.279
 214  4418.203
 215  4372.602
 216  4611.599
 217  4617.697
 218  4872.871
 219  4814.373
 220  5368.634
 221  5145.81
 222  4768.456
 223  4753
 224  5179.569
 225  4630.684
 226  4255.431
 227  4983.809
 228  4765.262
 229  4846.648
 230  4916.728
 231  4557.02
 232  4134.879
 233  4100.856
 234  5340.506
 235  5296.12
 236  5427.543
 237  5530.75
 238  6144.884
 239  5461.487
 240  5525.112
 241  5082.655
 242  5173.469
 243  5384.541
 244  5091.21
 245  5018.329
 246  4309.656
 247  4549.634
 248  4812.89
 249  4349.746
 250  4406.228
 251  4262.579
 252  4548.125
 253  5257.576
 254  5336.604
 255  5236.477
