# Input file       =  1183884525.141243-PSRB0329-2ms-sampling-dd.dat
# Candidate        =  PSR_0332+5434
# Telescope        =  AR
# Epoch_topo       =  57946.367409042163
# Epoch_bary       =  N/A
# T_sample         =  0.002
# Data Folded      =  7340032
# Data Avg         =  4.37886187109773e-10
# Data StdDev      =  6.26699812760164 
# Profile Bins     =  512
# Profile Avg      =  0.0865789609618262
# Profile StdDev   =  750.366714785253 
# Reduced chi-sqr  =  0.678
# Prob(Noise)      <  1   (~0.0 sigma)
# P_topo (ms)      =  714.481043112635  +/- 0.000285
# P'_topo (s/s)    =  -0                +/- 1.5e-10
# P''_topo (s/s^2) =  0                 +/- 6.64e-14
# P_bary (ms)      =  N/A
# P'_bary (s/s)    =  N/A
# P''_bary (s/s^2) =  N/A
# P_orb (s)        =  N/A
# asin(i)/c (s)    =  N/A
# eccentricity     =  N/A
# w (rad)          =  N/A
# T_peri           =  N/A
######################################################
   0  -103.1075
   1  -430.0165
   2  -309.9445
   3  -198.8554
   4  65.57072
   5  129.9324
   6  402.3658
   7  191.1825
   8  -28.57373
   9  -193.8028
  10  -65.46664
  11  -233.633
  12  -239.3246
  13  7.901863
  14  254.7599
  15  -51.01208
  16  -213.5571
  17  219.123
  18  -350.5576
  19  -315.7751
  20  -246.3943
  21  145.8143
  22  347.1707
  23  -200.4747
  24  -446.1646
  25  -338.1887
  26  -213.7573
  27  -199.1909
  28  -345.5132
  29  -25.83787
  30  -153.0345
  31  -606.5998
  32  -985.9239
  33  -985.4305
  34  -893.7803
  35  -794.4403
  36  -326.3753
  37  -20.17154
  38  -35.60237
  39  -212.9453
  40  -250.1716
  41  97.89134
  42  -76.86433
  43  -33.25251
  44  221.5815
  45  167.7239
  46  125.8554
  47  10.62859
  48  380.6099
  49  376.5189
  50  290.4821
  51  182.4741
  52  78.98455
  53  -35.66634
  54  79.9441
  55  -98.21479
  56  -68.22491
  57  -271.4456
  58  -441.3139
  59  -150.1174
  60  -317.0549
  61  -234.8701
  62  -209.5246
  63  -138.4829
  64  149.6333
  65  -112.3388
  66  -632.0038
  67  -350.3401
  68  -65.41202
  69  -136.4469
  70  -58.18457
  71  26.19497
  72  -111.4243
  73  -100.1954
  74  -94.33337
  75  -87.53464
  76  -49.3563
  77  181.524
  78  224.9204
  79  181.7098
  80  135.9005
  81  375.5163
  82  263.6922
  83  447.3017
  84  314.7766
  85  205.6845
  86  64.82809
  87  -262.0002
  88  381.5154
  89  407.0319
  90  470.0181
  91  618.5845
  92  484.7288
  93  -228.7684
  94  -468.5175
  95  -292.9582
  96  33.33246
  97  235.9094
  98  161.2754
  99  107.7539
 100  -84.65301
 101  -83.14944
 102  -99.35571
 103  94.06966
 104  67.12867
 105  55.32452
 106  366.0973
 107  -61.41032
 108  -52.34388
 109  73.12123
 110  486.3526
 111  619.1182
 112  710.5132
 113  670.8094
 114  835.8513
 115  380.2845
 116  99.30277
 117  441.7505
 118  126.2604
 119  142.8546
 120  223.1728
 121  392.2119
 122  668.9842
 123  688.345
 124  1446.827
 125  1519.621
 126  1255.675
 127  1382.227
 128  1197.741
 129  999.8641
 130  372.7715
 131  251.7185
 132  817.6733
 133  638.5297
 134  143.3495
 135  -144.096
 136  -477.2618
 137  236.8151
 138  290.6512
 139  -24.04134
 140  149.9379
 141  38.61396
 142  31.58139
 143  -305.0121
 144  -205.4022
 145  173.4789
 146  -269.6018
 147  -347.3205
 148  -510.1284
 149  -154.8774
 150  -57.43446
 151  -219.8915
 152  -304.8062
 153  -365.6563
 154  -204.4452
 155  -689.4021
 156  -361.8363
 157  -161.764
 158  54.38768
 159  109.6921
 160  -644.8113
 161  -640.6834
 162  -608.2626
 163  -496.619
 164  -66.54836
 165  281.3864
 166  243.6016
 167  -566.9973
 168  -520.1317
 169  -446.2335
 170  -719.5937
 171  -492.6625
 172  -421.9151
 173  -20.40679
 174  245.1429
 175  40.83395
 176  -420.1369
 177  -558.6833
 178  -382.2011
 179  -205.4963
 180  -98.40685
 181  174.8474
 182  500.7658
 183  208.1105
 184  -549.3994
 185  -692.0332
 186  -220.4934
 187  -220.3338
 188  -662.5797
 189  -556.6033
 190  -479.5247
 191  -181.7605
 192  -39.15899
 193  -186.4756
 194  -80.88708
 195  -132.7239
 196  150.3342
 197  -9.713342
 198  91.77264
 199  -90.30672
 200  58.22575
 201  -300.3207
 202  -538.5574
 203  -112.5671
 204  -138.7386
 205  -243.9072
 206  -188.5661
 207  -75.9434
 208  107.3317
 209  -233.4253
 210  -331.05
 211  -405.2924
 212  -693.6153
 213  -743.4592
 214  -658.3588
 215  -196.0628
 216  -87.94067
 217  -623.652
 218  -1082.108
 219  -709.574
 220  -486.4762
 221  -600.4258
 222  -797.3224
 223  -508.5756
 224  -257.6676
 225  -455.8268
 226  -345.8934
 227  -220.0533
 228  -66.20502
 229  -264.2008
 230  -301.0322
 231  -139.9843
 232  -39.44823
 233  25.50558
 234  -634.3701
 235  876.5462
 236  1241.036
 237  1026.724
 238  2714.208
 239  2336.701
 240  2236.979
 241  -146.0866
 242  1090.86
 243  1716.707
 244  1887.173
 245  1639.425
 246  519.9232
 247  -331.4916
 248  325.0872
 249  648.5978
 250  309.3888
 251  -301.6635
 252  -491.8541
 253  -634.438
 254  -402.186
 255  -159.3805
 256  434.5492
 257  441.9858
 258  128.2877
 259  -31.91877
 260  -69.84039
 261  -75.21991
 262  -310.9422
 263  -398.9201
 264  79.45654
 265  48.90823
 266  -2.81606
 267  67.27422
 268  90.60311
 269  77.6478
 270  258.7773
 271  -81.79536
 272  399.8473
 273  385.1261
 274  -68.62868
 275  22.1691
 276  -59.73009
 277  -147.8917
 278  -235.859
 279  -166.7742
 280  -149.3964
 281  -366.5973
 282  -287.8509
 283  -514.627
 284  -413.4126
 285  -91.50883
 286  -157.4866
 287  -146.4772
 288  -319.3871
 289  -40.54802
 290  -160.7258
 291  -490.3509
 292  -830.5697
 293  -697.0362
 294  -238.6894
 295  -130.4969
 296  -423.3568
 297  -236.7721
 298  -14.58438
 299  -321.2831
 300  -572.9258
 301  -119.0627
 302  425.5174
 303  -138.5331
 304  -545.2086
 305  -351.7701
 306  95.81441
 307  -49.3489
 308  -67.76537
 309  -177.2114
 310  4.932901
 311  -40.0122
 312  -405.1923
 313  -434.4073
 314  -251.1784
 315  -183.1501
 316  -216.8604
 317  -530.187
 318  -545.4441
 319  72.48164
 320  -96.70234
 321  -506.385
 322  123.8284
 323  265.1721
 324  57.74347
 325  -537.23
 326  -832.0801
 327  -838.9621
 328  -597.0143
 329  -513.6234
 330  -167.029
 331  396.7505
 332  -370.3678
 333  -871.7841
 334  -552.6749
 335  -88.45404
 336  -383.5738
 337  -219.448
 338  -0.9817145
 339  -169.7903
 340  -41.11482
 341  353.3998
 342  766.4304
 343  353.4587
 344  548.8596
 345  179.0794
 346  -32.76837
 347  -409.6111
 348  202.7338
 349  510.8949
 350  264.8958
 351  192.5963
 352  170.5208
 353  81.51348
 354  19.79956
 355  126.299
 356  141.0162
 357  -109.2208
 358  -511.0002
 359  -834.3861
 360  -291.9013
 361  293.3525
 362  -296.1823
 363  -255.7805
 364  144.2501
 365  203.3955
 366  -38.67448
 367  -101.8077
 368  56.18918
 369  -225.1638
 370  -381.2312
 371  -50.98022
 372  141.1207
 373  -237.9004
 374  -19.86873
 375  274.4517
 376  -9.297789
 377  41.15134
 378  -70.61932
 379  -321.1926
 380  -478.7321
 381  -211.3344
 382  408.6404
 383  425.985
 384  665.9921
 385  390.3738
 386  73.38666
 387  -379.6815
 388  -154.5752
 389  -90.68369
 390  44.34861
 391  260.1842
 392  80.30189
 393  356.7013
 394  9.256913
 395  -11.46571
 396  -25.73214
 397  621.3184
 398  654.538
 399  150.0267
 400  179.7645
 401  223.7803
 402  186.1142
 403  -125.6784
 404  184.9911
 405  294.711
 406  672.5411
 407  635.5257
 408  366.5414
 409  546.7687
 410  574.046
 411  285.1445
 412  -174.9114
 413  217.8468
 414  374.6303
 415  304.8438
 416  346.0569
 417  270.5479
 418  1.320686
 419  -47.42491
 420  365.7388
 421  7.122909
 422  97.10484
 423  363.6323
 424  132.6325
 425  831.6002
 426  1247.919
 427  920.3043
 428  33.96304
 429  -324.8645
 430  199.6212
 431  126.2095
 432  100.9511
 433  66.72989
 434  435.8976
 435  781.5888
 436  514.2415
 437  189.2883
 438  156.9472
 439  73.1786
 440  -88.09637
 441  -369.5299
 442  -221.0379
 443  -15.03852
 444  72.65621
 445  -178.3147
 446  231.2631
 447  402.0233
 448  258.4606
 449  67.81563
 450  244.8665
 451  252.6259
 452  -151.3688
 453  66.82086
 454  196.7204
 455  223.7331
 456  611.8092
 457  438.0634
 458  157.0523
 459  285.696
 460  -27.88448
 461  -634.9452
 462  -877.1509
 463  -656.6879
 464  -47.19734
 465  155.8873
 466  358.3578
 467  232.6895
 468  213.8762
 469  273.2508
 470  -119.9519
 471  11.81161
 472  121.316
 473  184.8647
 474  289.8576
 475  283.5439
 476  187.4748
 477  -153.9548
 478  75.04149
 479  -272.6946
 480  -329.5197
 481  -129.3336
 482  246.8745
 483  -15.07792
 484  18.31672
 485  168.6252
 486  -227.7869
 487  74.25178
 488  -129.581
 489  -119.971
 490  -379.5498
 491  -605.2225
 492  -6.080626
 493  -88.13068
 494  -291.3918
 495  -521.1673
 496  -32.29021
 497  -278.8067
 498  -109.6689
 499  38.21174
 500  65.01361
 501  322.7624
 502  -315.8807
 503  -322.4701
 504  -156.1763
 505  -27.58596
 506  -193.9619
 507  -459.8433
 508  -92.42352
 509  367.1166
 510  -50.13787
 511  -48.46195
