# Input file       =  1183682620.103163_cleaned.dat
# Candidate        =  PSR_0332+5434
# Telescope        =  AR
# Epoch_topo       =  57944.030545175498
# Epoch_bary       =  N/A
# T_sample         =  0.002
# Data Folded      =  7208960
# Data Avg         =  0.27581761177862 
# Data StdDev      =  6.03779236303192 
# Profile Bins     =  512
# Profile Avg      =  3883.60015285835 
# Profile StdDev   =  716.43946540984  
# Reduced chi-sqr  =  0.372
# Prob(Noise)      <  1   (~0.0 sigma)
# P_topo (ms)      =  714.482342276546  +/- 0.00144
# P'_topo (s/s)    =  -0                +/- 7.75e-10
# P''_topo (s/s^2) =  0                 +/- 3.48e-13
# P_bary (ms)      =  N/A
# P'_bary (s/s)    =  N/A
# P''_bary (s/s^2) =  N/A
# P_orb (s)        =  N/A
# asin(i)/c (s)    =  N/A
# eccentricity     =  N/A
# w (rad)          =  N/A
# T_peri           =  N/A
######################################################
   0  3427.67
   1  3623.339
   2  3562.346
   3  3482.728
   4  3790.349
   5  3705.173
   6  3970.554
   7  3987.978
   8  3807.278
   9  3482.991
  10  3814.724
  11  3622.554
  12  3665.757
  13  3768.985
  14  4223.12
  15  4351.856
  16  4150.48
  17  4236.912
  18  3637.66
  19  3896.176
  20  4092.699
  21  4012.298
  22  4085.901
  23  3976.797
  24  4216.772
  25  3681.731
  26  3978.381
  27  3943.139
  28  4227.872
  29  3877.158
  30  3661.632
  31  3867.989
  32  3713.277
  33  3763.269
  34  3751.652
  35  4015.628
  36  4027.93
  37  3837.599
  38  3551.876
  39  3622.008
  40  3895.479
  41  3522.073
  42  3901.344
  43  4085.715
  44  4267.672
  45  4123.661
  46  3684.568
  47  4001.912
  48  3678.76
  49  3922.661
  50  4012.579
  51  4059.274
  52  4247.741
  53  4265.065
  54  4100.214
  55  3826.454
  56  3817.721
  57  3917.432
  58  4045.613
  59  3880.428
  60  3546.023
  61  3898.012
  62  4154.745
  63  3686.001
  64  3724.268
  65  4063.373
  66  3645.287
  67  3698.997
  68  3765.729
  69  4275.904
  70  4105.538
  71  3817.52
  72  3902.438
  73  3964.197
  74  3796.709
  75  3682.677
  76  3740.73
  77  4064.32
  78  3784.828
  79  3739.256
  80  4218.492
  81  4214.655
  82  4234.691
  83  3888.858
  84  4077.086
  85  3526.601
  86  3540.893
  87  3702.499
  88  3553.873
  89  3547.405
  90  3421.044
  91  3707.948
  92  3740.338
  93  3896.728
  94  3782.393
  95  4213.996
  96  3718.881
  97  3683.574
  98  3753.333
  99  3792.985
 100  3677.619
 101  3974.049
 102  4137.395
 103  4154.174
 104  3991.234
 105  3779.079
 106  4288.152
 107  3578.977
 108  3349.283
 109  3859.545
 110  4283.901
 111  3870.575
 112  3944.583
 113  4290.644
 114  3847.748
 115  3812.825
 116  3981.282
 117  4110.825
 118  4118.632
 119  4050.133
 120  4207.03
 121  3935.947
 122  3925.882
 123  3895.895
 124  3906.437
 125  3763.924
 126  3675.077
 127  3794.539
 128  4144.715
 129  4390.703
 130  4032.345
 131  4174.555
 132  3955.859
 133  3811.252
 134  3980.194
 135  4385.817
 136  4221.087
 137  3914.401
 138  3948.911
 139  3811.287
 140  4194.42
 141  4314.069
 142  3828.183
 143  4072.209
 144  4365.379
 145  4125.764
 146  4089.71
 147  4083.633
 148  4091.335
 149  4257.94
 150  3566.964
 151  4186.6
 152  4399.869
 153  4530.958
 154  4751.45
 155  4506.697
 156  4209.003
 157  3965.332
 158  4087.524
 159  3609.65
 160  3639.173
 161  3898.064
 162  4306.418
 163  4021.497
 164  3997.717
 165  4216.04
 166  3955.469
 167  3958.045
 168  4136.44
 169  4320.322
 170  4267.804
 171  3862.25
 172  3616.104
 173  3848.23
 174  4033.873
 175  4185.361
 176  4257.007
 177  4335.15
 178  4042.36
 179  4432.272
 180  4329.987
 181  4194.771
 182  3993.18
 183  3897.256
 184  3897.217
 185  3815.35
 186  3620.367
 187  3757.014
 188  4134.646
 189  4030.535
 190  3756.656
 191  3940.333
 192  4233.681
 193  3796.906
 194  3729.385
 195  3806.159
 196  3641.172
 197  3752.363
 198  4189.456
 199  4485.167
 200  4111.571
 201  3833.007
 202  3861.783
 203  3668.416
 204  3191.227
 205  3317.892
 206  3739.017
 207  3696.96
 208  3536.151
 209  4165.393
 210  3816.219
 211  3762.681
 212  3519.663
 213  3692.323
 214  3700.266
 215  3939.086
 216  4008.52
 217  3957.89
 218  4175.599
 219  4083.497
 220  4025.772
 221  3901.373
 222  3546.533
 223  3435.342
 224  3894.156
 225  3764.314
 226  3832.851
 227  4102.283
 228  3662.467
 229  3400.664
 230  3507.474
 231  3758.839
 232  3813.024
 233  3652.855
 234  3909.107
 235  3976.051
 236  4238.401
 237  3943.333
 238  4002.992
 239  3620.768
 240  3656.763
 241  3636.717
 242  4086.093
 243  4387.912
 244  4246.732
 245  4070.642
 246  4007.448
 247  3940.125
 248  3476.239
 249  3821.638
 250  4396.085
 251  4198.864
 252  4172.68
 253  3812.198
 254  4020.803
 255  3409.626
 256  3517.558
 257  3865.853
 258  4084.789
 259  4092.395
 260  3943.111
 261  4062.556
 262  3883.431
 263  3892.642
 264  4125.005
 265  3824.719
 266  3655.683
 267  3569.103
 268  3740.467
 269  3428.073
 270  3011.167
 271  3447.932
 272  3401.657
 273  3856.182
 274  3472.796
 275  3767.814
 276  3697.101
 277  3236.448
 278  3219.316
 279  3552.198
 280  3988.47
 281  4101.41
 282  4208.036
 283  4125.068
 284  3745.904
 285  3782.563
 286  3629.325
 287  3428.364
 288  3315.23
 289  3389.384
 290  3726.785
 291  3839.915
 292  3551.827
 293  3411.293
 294  4031.318
 295  3769.966
 296  3893.573
 297  3867.248
 298  3660.075
 299  3540.989
 300  3886.15
 301  3920.124
 302  3870.36
 303  3826.731
 304  3445.775
 305  4024.413
 306  4159.019
 307  4028.908
 308  4068.874
 309  3811.674
 310  3653.183
 311  3768.051
 312  4021.778
 313  3879.174
 314  3740.503
 315  4000.867
 316  4347.753
 317  4310.959
 318  4128.627
 319  4144.711
 320  3912.215
 321  3955.434
 322  3785.202
 323  4534.507
 324  5041.841
 325  5393.146
 326  5573.557
 327  5889.413
 328  5464.689
 329  4737.665
 330  4059.409
 331  3535.621
 332  3573.848
 333  3663.043
 334  3958.814
 335  4231.747
 336  4030.24
 337  4045.128
 338  4399.975
 339  3892.131
 340  4106.385
 341  3828.634
 342  4126.974
 343  4146.872
 344  3700.073
 345  3735.611
 346  3777.498
 347  4151.757
 348  4090.765
 349  4334.722
 350  3992.168
 351  3757.397
 352  3891.337
 353  3807.263
 354  3602.59
 355  3816.009
 356  4190.334
 357  4138.553
 358  4289.235
 359  3868.471
 360  4522.857
 361  4428.464
 362  3910.407
 363  3841.923
 364  3904.129
 365  3981.864
 366  4058.007
 367  4203.029
 368  4140.741
 369  3889.528
 370  3613.922
 371  3615.513
 372  3935.162
 373  3664.397
 374  3727.401
 375  4134.011
 376  3962.701
 377  3969.395
 378  4241.162
 379  4032.276
 380  3898.603
 381  3548.288
 382  3948.983
 383  3783.105
 384  3686.237
 385  3641.118
 386  3480.017
 387  3792.312
 388  4034.111
 389  3928.559
 390  3844.6
 391  3706.351
 392  3476.498
 393  3706.397
 394  3513.368
 395  3392.694
 396  3754.854
 397  3779.41
 398  3494.767
 399  3885.119
 400  3868.452
 401  3670.501
 402  3524.386
 403  3791.389
 404  3727.509
 405  3810.019
 406  3465.854
 407  3825.766
 408  3935.218
 409  3730.742
 410  3468.63
 411  3220.657
 412  3768.833
 413  3568.774
 414  4119.351
 415  3486.81
 416  3293.233
 417  3243.5
 418  3362.277
 419  3267.019
 420  3691.055
 421  3700.259
 422  3747.763
 423  4371.505
 424  3806.491
 425  3845.975
 426  3959.92
 427  4341.839
 428  3797.197
 429  4065.153
 430  4139.417
 431  3971.117
 432  4154.536
 433  4211.728
 434  4242.401
 435  3822.238
 436  3755.76
 437  3661.172
 438  3827.209
 439  3973.976
 440  4222.961
 441  4211.968
 442  4114.331
 443  3972.615
 444  4099.434
 445  3980.685
 446  3438.644
 447  3696.317
 448  3763.31
 449  3822.081
 450  3751.141
 451  3416.018
 452  3781.373
 453  4578.059
 454  3858.229
 455  3861.78
 456  4185.957
 457  4057.387
 458  3716.803
 459  3645.839
 460  3650.513
 461  3597.092
 462  3759.019
 463  3792.759
 464  3858.109
 465  3177.072
 466  3393
 467  3397.884
 468  3363.96
 469  3553.293
 470  3529.587
 471  3700.396
 472  3507.71
 473  3513.167
 474  4155.148
 475  3809.713
 476  3628.211
 477  3818.748
 478  3519.569
 479  3612.643
 480  3427.284
 481  3641.475
 482  3666.21
 483  3653.533
 484  3630.067
 485  3657.882
 486  3765.668
 487  3490.717
 488  3795.047
 489  3688.543
 490  4089.097
 491  3967.341
 492  4278.962
 493  3645.303
 494  3482.594
 495  3704.024
 496  3664.151
 497  3780.61
 498  3726.296
 499  3785.32
 500  3666.7
 501  3550.681
 502  3400.571
 503  3251.992
 504  3483.401
 505  3990.739
 506  3763.321
 507  4013.79
 508  4040.544
 509  3581.932
 510  3804.123
 511  3778.129
