# Input file       =  1183540492.120483-PSRB0329-2ms-sampling-dd.dat
# Candidate        =  PSR_0332+5434
# Telescope        =  AR
# Epoch_topo       =  57942.385545375961
# Epoch_bary       =  N/A
# T_sample         =  0.002
# Data Folded      =  7340032
# Data Avg         =  1.96012327396654e-10
# Data StdDev      =  7.43576339629727 
# Profile Bins     =  512
# Profile Avg      =  -0.169408059809362
# Profile StdDev   =  890.306529217887 
# Reduced chi-sqr  =  0.588
# Prob(Noise)      <  1   (~0.0 sigma)
# P_topo (ms)      =  714.483896913837  +/- 0.00019
# P'_topo (s/s)    =  -0                +/- 1e-10
# P''_topo (s/s^2) =  0                 +/- 4.43e-14
# P_bary (ms)      =  N/A
# P'_bary (s/s)    =  N/A
# P''_bary (s/s^2) =  N/A
# P_orb (s)        =  N/A
# asin(i)/c (s)    =  N/A
# eccentricity     =  N/A
# w (rad)          =  N/A
# T_peri           =  N/A
######################################################
   0  858.139
   1  924.1843
   2  771.1583
   3  557.2773
   4  -106.6973
   5  94.01904
   6  172.6574
   7  80.04932
   8  138.2614
   9  513.2022
  10  716.4216
  11  221.0128
  12  -27.28312
  13  -244.5914
  14  -140.9722
  15  -154.1907
  16  -491.0901
  17  -166.7181
  18  -142.0503
  19  -337.8814
  20  -158.015
  21  -315.9776
  22  25.39506
  23  60.43667
  24  247.3701
  25  127.9602
  26  38.57043
  27  25.90017
  28  -197.6309
  29  -220.1115
  30  -81.2409
  31  -218.7399
  32  405.1999
  33  114.1731
  34  438.7289
  35  709.3135
  36  244.4256
  37  66.62239
  38  -411.7406
  39  -522.324
  40  -259.363
  41  162.1639
  42  -197.8146
  43  -121.3347
  44  343.9437
  45  326.5591
  46  -30.1017
  47  -151.7721
  48  -258.1779
  49  -256.073
  50  262.7245
  51  579.9062
  52  188.251
  53  36.86784
  54  -179.6812
  55  -62.74726
  56  123.2509
  57  348.6549
  58  151.9517
  59  238.8283
  60  519.3675
  61  563.9175
  62  276.2931
  63  465.7557
  64  514.6771
  65  601.4739
  66  958.8763
  67  467.5175
  68  202.7786
  69  -404.3891
  70  -658.8392
  71  -623.9026
  72  -271.135
  73  -141.4316
  74  -281.2671
  75  -77.41362
  76  -80.46002
  77  -11.05467
  78  -696.832
  79  -434.8551
  80  -260.4215
  81  -62.86016
  82  379.1766
  83  236.2057
  84  298.1766
  85  -91.39088
  86  -455.3547
  87  -838.8189
  88  -337.0878
  89  308.5981
  90  240.2788
  91  420.7005
  92  447.4269
  93  717.4138
  94  694.6003
  95  981.5364
  96  818.2728
  97  232.8152
  98  511.7417
  99  1201.107
 100  998.0228
 101  406.3448
 102  704.9898
 103  221.2322
 104  -140.6043
 105  -111.6602
 106  59.19975
 107  -304.8444
 108  -139.111
 109  506.5865
 110  428.4403
 111  -266.5305
 112  -575.3451
 113  -695.7824
 114  -622.1177
 115  -50.9999
 116  219.8015
 117  288.3282
 118  386.3441
 119  372.6081
 120  -51.59327
 121  -483.9669
 122  -204.8585
 123  -54.39782
 124  -93.92986
 125  -88.71617
 126  -48.13126
 127  -342.8623
 128  -355.6245
 129  86.01366
 130  760.3904
 131  841.4069
 132  713.6308
 133  934.1465
 134  672.5911
 135  601.8068
 136  -60.44866
 137  -425.2255
 138  -78.64085
 139  216.8313
 140  -37.26252
 141  143.5611
 142  -325.2396
 143  -582.9086
 144  -1178.166
 145  -1205.582
 146  -901.696
 147  -170.0346
 148  -38.52969
 149  11.63534
 150  -228.9126
 151  -588.7233
 152  -1005.368
 153  -1027.952
 154  -974.489
 155  -840.1772
 156  -1210.305
 157  -1184.083
 158  -715.5975
 159  -654.2392
 160  -717.7204
 161  -398.0267
 162  -644.0042
 163  -303.2751
 164  -136.8749
 165  -206.2461
 166  -12.457
 167  -526.4451
 168  -164.5952
 169  -134.7479
 170  -192.8629
 171  -590.2372
 172  -522.0997
 173  -520.0736
 174  -430.7701
 175  -133.9454
 176  -315.4773
 177  -397.2758
 178  -750.8818
 179  -979.4557
 180  -749.6443
 181  -106.6947
 182  -11.99799
 183  -71.72359
 184  -338.1497
 185  -391.1399
 186  -838.5349
 187  -791.4322
 188  -399.7495
 189  -85.71451
 190  -4.66418
 191  119.1507
 192  -90.8702
 193  -238.4709
 194  -207.9425
 195  -165.0177
 196  -126.028
 197  -217.1073
 198  -189.0394
 199  43.00394
 200  544.1476
 201  301.1193
 202  143.1445
 203  -367.6144
 204  -245.05
 205  367.4613
 206  393.6416
 207  297.0011
 208  225.9359
 209  147.4438
 210  -266.0957
 211  -296.7927
 212  -202.1465
 213  -31.40943
 214  -53.70835
 215  146.6543
 216  17.44111
 217  202.8696
 218  -314.3078
 219  -617.1429
 220  -340.8415
 221  -539.6534
 222  -143.7442
 223  -212.0356
 224  -39.2586
 225  -170.0721
 226  216.127
 227  50.37909
 228  -383.4168
 229  -72.65015
 230  272.7056
 231  204.4673
 232  -12.21782
 233  245.9121
 234  350.6415
 235  126.5288
 236  73.35954
 237  -75.09892
 238  -351.1859
 239  -342.6818
 240  -33.07781
 241  402.9035
 242  536.2487
 243  -44.83361
 244  -61.02877
 245  -19.51793
 246  -212.3207
 247  -147.1973
 248  224.1859
 249  506.8446
 250  92.19222
 251  -15.37738
 252  -259.2807
 253  -427.2805
 254  -474.734
 255  -643.2495
 256  292.3432
 257  283.0405
 258  -148.0382
 259  -486.0008
 260  -902.4661
 261  -711.4902
 262  -257.0551
 263  426.112
 264  534.4627
 265  211.5891
 266  104.6929
 267  73.69913
 268  253.9558
 269  232.9209
 270  143.6667
 271  385.9969
 272  -393.9198
 273  -1238.796
 274  -973.0326
 275  -416.3796
 276  -582.2041
 277  -362.7915
 278  64.97149
 279  -64.48044
 280  -486.6345
 281  -600.8854
 282  -926.7894
 283  -392.076
 284  -290.2003
 285  168.6585
 286  255.3603
 287  127.754
 288  -298.5165
 289  -820.3829
 290  -325.0645
 291  -273.4505
 292  -256.4077
 293  -204.9854
 294  -499.56
 295  -371.541
 296  -323.5439
 297  -203.0134
 298  59.43292
 299  112.5345
 300  -169.9534
 301  -116.0014
 302  -111.9979
 303  -271.1908
 304  11.35722
 305  411.6234
 306  262.3521
 307  81.86278
 308  357.0861
 309  76.83177
 310  492.0501
 311  545.1767
 312  808.8547
 313  733.2858
 314  308.4985
 315  395.8625
 316  503.3557
 317  625.9086
 318  547.4107
 319  812.0704
 320  606.6486
 321  522.6071
 322  141.2758
 323  -96.3937
 324  222.595
 325  489.5964
 326  652.7526
 327  213.0549
 328  124.2281
 329  33.07154
 330  101.8571
 331  379.9998
 332  412.2292
 333  399.1061
 334  25.13622
 335  -78.27622
 336  -435.6614
 337  -561.9901
 338  -201.799
 339  274.1584
 340  429.2381
 341  116.7607
 342  -82.9016
 343  -11.36769
 344  284.3484
 345  346.6204
 346  -135.4949
 347  -258.998
 348  169.8111
 349  819.9888
 350  690.8472
 351  759.5641
 352  445.1345
 353  402.3309
 354  -25.91809
 355  -100.6918
 356  155.0587
 357  547.702
 358  743.7509
 359  262.6353
 360  187.0894
 361  -176.3176
 362  -141.5349
 363  -209.6852
 364  -468.33
 365  -408.2583
 366  -255.2194
 367  -275.1692
 368  -332.3207
 369  -523.6008
 370  -255.6668
 371  -82.03732
 372  116.3341
 373  113.8038
 374  13.28091
 375  -532.6954
 376  -842.0018
 377  -426.9045
 378  -115.6112
 379  -321.4485
 380  14.40718
 381  184.022
 382  165.4203
 383  -398.3997
 384  -165.6649
 385  46.99793
 386  28.12665
 387  -379.0741
 388  -439.6207
 389  -138.5556
 390  -426.1878
 391  -31.76882
 392  178.928
 393  95.22132
 394  -586.214
 395  -865.9896
 396  -1083.778
 397  -970.8459
 398  -948.6398
 399  -181.0703
 400  -196.7689
 401  -711.3737
 402  -853.8533
 403  -855.4844
 404  -407.9642
 405  0.1395376
 406  315.7127
 407  923.4156
 408  501.9208
 409  -8.914795
 410  -195.3454
 411  -427.2905
 412  -163.2012
 413  247.5313
 414  306.1084
 415  314.3063
 416  200.809
 417  -463.3435
 418  -565.4247
 419  -474.303
 420  -340.9088
 421  -403.882
 422  -318.9168
 423  233.9888
 424  304.1061
 425  391.7278
 426  299.4314
 427  179.3222
 428  295.6614
 429  421.3669
 430  79.19688
 431  -121.0026
 432  271.2286
 433  315.3837
 434  27.19497
 435  143.7498
 436  310.4871
 437  -37.75972
 438  44.65103
 439  325.9977
 440  843.0504
 441  725.7338
 442  1127.958
 443  1496.222
 444  1437.162
 445  1627.016
 446  2103.595
 447  2607.008
 448  2652.043
 449  1946.734
 450  1037.171
 451  951.9094
 452  693.4971
 453  293.6682
 454  18.20895
 455  284.4925
 456  352.6234
 457  507.8253
 458  420.9882
 459  -172.6268
 460  -611.8987
 461  -631.8593
 462  -116.9829
 463  278.5197
 464  219.8963
 465  48.77586
 466  -435.9166
 467  -789.2432
 468  -1053.776
 469  -930.1196
 470  -369.0059
 471  166.2285
 472  -117.8897
 473  239.9995
 474  236.1877
 475  -135.8824
 476  -202.271
 477  -165.4656
 478  -75.27974
 479  168.6829
 480  266.2877
 481  274.1088
 482  -86.20711
 483  -443.8234
 484  -371.6072
 485  -211.135
 486  -88.18937
 487  35.06954
 488  147.8073
 489  23.54473
 490  393.6151
 491  49.41281
 492  -84.96514
 493  -16.11559
 494  159.9148
 495  -252.7978
 496  -424.3448
 497  -272.8429
 498  -316.0886
 499  -471.4401
 500  -482.4805
 501  -511.438
 502  -422.667
 503  -522.8555
 504  -197.4491
 505  251.7386
 506  438.3925
 507  502.7157
 508  267.2458
 509  609.869
 510  966.5972
 511  514.3419
