# Input file       =  1183626022.165991_cleaned.dat
# Candidate        =  PSR_0332+5434
# Telescope        =  AR
# Epoch_topo       =  57943.375476458226
# Epoch_bary       =  N/A
# T_sample         =  0.002
# Data Folded      =  7340032
# Data Avg         =  0.0344718388852378
# Data StdDev      =  1.00007174190095 
# Profile Bins     =  512
# Profile Avg      =  494.237789913268 
# Profile StdDev   =  119.741626252403 
# Reduced chi-sqr  =  1.393
# Prob(Noise)      <  8.89e-09   (~5.6 sigma)
# P_topo (ms)      =  714.483159783427  +/- 0.000369
# P'_topo (s/s)    =  -0                +/- 1.95e-10
# P''_topo (s/s^2) =  0                 +/- 8.6e-14
# P_bary (ms)      =  N/A
# P'_bary (s/s)    =  N/A
# P''_bary (s/s^2) =  N/A
# P_orb (s)        =  N/A
# asin(i)/c (s)    =  N/A
# eccentricity     =  N/A
# w (rad)          =  N/A
# T_peri           =  N/A
######################################################
   0  692.2374
   1  586.1432
   2  444.534
   3  480.8667
   4  484.7061
   5  446.0598
   6  579.6907
   7  559.8918
   8  401.408
   9  364.9343
  10  550.7587
  11  574.267
  12  549.2974
  13  532.1768
  14  413.2639
  15  324.389
  16  436.1902
  17  392.1182
  18  356.695
  19  396.181
  20  385.6153
  21  510.2265
  22  470.6056
  23  403.745
  24  394.7802
  25  436.0291
  26  553.819
  27  505.6958
  28  475.3893
  29  513.961
  30  388.3718
  31  478.6411
  32  516.2924
  33  541.9498
  34  482.0611
  35  583.2832
  36  478.7743
  37  394.954
  38  426.9639
  39  547.4886
  40  594.3256
  41  611.8292
  42  654.1173
  43  578.0889
  44  570.087
  45  571.7682
  46  408.932
  47  478.4901
  48  509.8284
  49  528.4238
  50  577.6765
  51  560.7758
  52  529.8108
  53  568.7049
  54  464.0285
  55  453.7804
  56  426.7523
  57  449.8463
  58  474.7088
  59  512.3136
  60  560.902
  61  451.6348
  62  502.7567
  63  517.9067
  64  487.1778
  65  492.5521
  66  494.5879
  67  547.7034
  68  528.0343
  69  534.3517
  70  538.3489
  71  557.8916
  72  426.9245
  73  472.2455
  74  574.6461
  75  608.9221
  76  471.3265
  77  476.7568
  78  484.8075
  79  467.0208
  80  503.4497
  81  550.5216
  82  464.1336
  83  431.6995
  84  453.8288
  85  515.6534
  86  586.9145
  87  603.5496
  88  546.3516
  89  559.4509
  90  500.5201
  91  543.519
  92  497.9597
  93  448.5985
  94  578.3499
  95  606.0612
  96  470.2141
  97  369.0129
  98  385.5707
  99  459.6127
 100  540.2979
 101  558.7266
 102  522.0557
 103  587.6018
 104  482.1848
 105  521.7656
 106  534.6029
 107  534.4147
 108  533.9604
 109  576.1829
 110  498.1823
 111  507.4065
 112  473.641
 113  594.1394
 114  652.3708
 115  594.3726
 116  465.7188
 117  344.494
 118  304.6912
 119  393.6869
 120  535.1917
 121  643.7114
 122  577.4307
 123  503.5946
 124  489.7533
 125  451.3747
 126  399.3368
 127  472.2853
 128  456.4713
 129  453.7518
 130  454.3494
 131  413.8426
 132  465.2743
 133  426.0725
 134  389.0334
 135  452.5018
 136  519.3549
 137  412.5515
 138  499.5409
 139  407.9699
 140  444.3395
 141  550.2066
 142  532.6217
 143  545.8514
 144  481.3073
 145  478.7723
 146  386.5438
 147  414.6963
 148  329.5222
 149  457.9208
 150  424.3135
 151  378.2968
 152  443.0672
 153  579.4368
 154  481.9859
 155  486.2226
 156  510.8472
 157  426.3557
 158  404.2267
 159  559.6431
 160  613.3713
 161  488.7071
 162  431.4657
 163  332.6611
 164  373.4744
 165  418.6554
 166  494.0943
 167  483.4647
 168  468.5885
 169  442.7637
 170  485.0293
 171  441.8629
 172  326.8837
 173  247.1458
 174  459.72
 175  340.3633
 176  302.8951
 177  263.0918
 178  391.3322
 179  386.1847
 180  352.6284
 181  364.0375
 182  439.6133
 183  429.389
 184  306.2293
 185  413.2069
 186  496.0934
 187  449.2139
 188  507.6475
 189  501.2191
 190  442.2369
 191  463.6924
 192  428.6479
 193  480.144
 194  540.9117
 195  570.1221
 196  539.7307
 197  422.2723
 198  314.8441
 199  347.5639
 200  453.9196
 201  457.1606
 202  473.9901
 203  483.9527
 204  400.9567
 205  424.3454
 206  474.0341
 207  512.8851
 208  496.6777
 209  462.9072
 210  512.0631
 211  526.8333
 212  577.98
 213  530.4216
 214  534.2997
 215  516.8176
 216  369.3419
 217  468.0667
 218  620.9584
 219  538.4474
 220  531.0036
 221  565.3113
 222  387.8258
 223  364.1646
 224  318.8458
 225  454.6489
 226  330.5647
 227  175.0148
 228  284.2315
 229  324.3484
 230  422.39
 231  438.0346
 232  408.7206
 233  470.6032
 234  408.4565
 235  358.0043
 236  393.7484
 237  444.1573
 238  551.9276
 239  537.11
 240  544.1644
 241  472.7979
 242  409.1995
 243  453.5421
 244  410.944
 245  532.463
 246  528.3232
 247  556.3568
 248  568.5529
 249  513.0095
 250  480.1782
 251  573.907
 252  602.8262
 253  530.4113
 254  440.8234
 255  603.8179
 256  487.1353
 257  505.1325
 258  494.5135
 259  499.7845
 260  444.4579
 261  354.1762
 262  412.9459
 263  400.0226
 264  487.3381
 265  494.9581
 266  499.6698
 267  354.7888
 268  373.5649
 269  422.8285
 270  416.241
 271  472.8697
 272  543.6601
 273  469.946
 274  416.0841
 275  431.5013
 276  525.9056
 277  511.8715
 278  458.4783
 279  538.5355
 280  456.4673
 281  426.862
 282  515.965
 283  519.6639
 284  463.6533
 285  458.9367
 286  611.8376
 287  551.7621
 288  421.7848
 289  368.9649
 290  453.9818
 291  524.7881
 292  424.3021
 293  555.0554
 294  622.7555
 295  475.061
 296  443.3167
 297  386.1414
 298  424.5708
 299  409.2248
 300  333.6786
 301  342.3385
 302  446.762
 303  492.2892
 304  530.0374
 305  485.7636
 306  519.2496
 307  562.0874
 308  440.8389
 309  479.8412
 310  537.2523
 311  502.5379
 312  464.36
 313  499.5904
 314  470.5368
 315  396.4056
 316  414.9159
 317  420.6951
 318  515.9296
 319  497.3071
 320  382.3895
 321  485.0613
 322  428.0864
 323  443.5783
 324  401.3648
 325  441.6558
 326  460.7647
 327  497.2101
 328  421.804
 329  381.5877
 330  405.8121
 331  305.9246
 332  289.8119
 333  401.9261
 334  402.5092
 335  425.4774
 336  476.4673
 337  513.8138
 338  583.9691
 339  625.6074
 340  551.1745
 341  538.3539
 342  412.3795
 343  393.9269
 344  436.6564
 345  532.7372
 346  567.1831
 347  511.4592
 348  510.5254
 349  494.149
 350  485.0953
 351  430.9181
 352  579.5532
 353  526.872
 354  509.4645
 355  473.3421
 356  434.8087
 357  433.8108
 358  495.1592
 359  543.1819
 360  484.339
 361  544.2067
 362  638.2838
 363  650.6309
 364  520.42
 365  438.3321
 366  436.5421
 367  380.785
 368  404.1328
 369  363.4692
 370  428.7923
 371  346.1177
 372  446.9038
 373  404.7387
 374  379.5016
 375  405.8669
 376  416.3275
 377  495.3462
 378  588.6407
 379  581.2965
 380  515.3267
 381  429.7152
 382  589.2947
 383  586.317
 384  512.2625
 385  561.9026
 386  591.6412
 387  564.3696
 388  492.2977
 389  566.4465
 390  598.5348
 391  619.51
 392  609.7701
 393  496.9005
 394  509.3933
 395  527.3966
 396  596.5397
 397  552.0591
 398  467.377
 399  491.2705
 400  514.8513
 401  530.9532
 402  403.1697
 403  407.8463
 404  447.1335
 405  356.1371
 406  425.6423
 407  486.6477
 408  496.7183
 409  508.8395
 410  566.1816
 411  609.5305
 412  613.3901
 413  512.8488
 414  415.6268
 415  519.0341
 416  578.2231
 417  550.4017
 418  571.1906
 419  572.0862
 420  594.492
 421  522.8325
 422  497.7937
 423  540.1852
 424  548.9796
 425  478.0529
 426  372.1432
 427  416.9293
 428  531.4006
 429  479.9716
 430  525.6355
 431  467.2327
 432  527.0488
 433  539.3324
 434  553.1339
 435  540.2658
 436  384.3756
 437  242.4345
 438  330.8471
 439  483.8632
 440  517.2176
 441  426.134
 442  338.9639
 443  358.8169
 444  422.9458
 445  387.4113
 446  441.7572
 447  503.495
 448  519.8865
 449  489.156
 450  537.1385
 451  632.8344
 452  381.1707
 453  449.7683
 454  518.2656
 455  430.3959
 456  402.3481
 457  496.8077
 458  564.1715
 459  627.3832
 460  710.1802
 461  675.1247
 462  618.6005
 463  580.1973
 464  553.2454
 465  551.6644
 466  566.8705
 467  629.9106
 468  619.299
 469  677.8389
 470  680.4182
 471  598.4794
 472  588.3925
 473  531.3095
 474  492.696
 475  547.7843
 476  494.125
 477  643.2964
 478  645.7936
 479  655.7046
 480  608.9014
 481  518.89
 482  638.2664
 483  718.7715
 484  735.6409
 485  709.5952
 486  836.8669
 487  912.5187
 488  998.0768
 489  1168.249
 490  1196.487
 491  1021.307
 492  702.8622
 493  568.1562
 494  389.6711
 495  485.3497
 496  558.7048
 497  517.9603
 498  570.3204
 499  531.1781
 500  463.8613
 501  508.7396
 502  499.2986
 503  665.8689
 504  706.1868
 505  535.1794
 506  524.1167
 507  525.8479
 508  662.3286
 509  566.3372
 510  461.6551
 511  581.6915
