# Input file       =  1183109348.111727-PSRB0329-2ms-sampling-dd.dat
# Candidate        =  PSR_0332+5434
# Telescope        =  AR
# Epoch_topo       =  57937.395452682023
# Epoch_bary       =  N/A
# T_sample         =  0.002
# Data Folded      =  7340032
# Data Avg         =  -1.40376358842393e-08
# Data StdDev      =  190.715284263035 
# Profile Bins     =  512
# Profile Avg      =  0.489913758805489
# Profile StdDev   =  22834.9200682712 
# Reduced chi-sqr  =  1.507
# Prob(Noise)      <  8.27e-13   (~7.1 sigma)
# P_topo (ms)      =  714.487671185239  +/- 0.000864
# P'_topo (s/s)    =  -0                +/- 4.56e-10
# P''_topo (s/s^2) =  0                 +/- 2.01e-13
# P_bary (ms)      =  N/A
# P'_bary (s/s)    =  N/A
# P''_bary (s/s^2) =  N/A
# P_orb (s)        =  N/A
# asin(i)/c (s)    =  N/A
# eccentricity     =  N/A
# w (rad)          =  N/A
# T_peri           =  N/A
######################################################
   0  33486.2
   1  36542.98
   2  37053.83
   3  40557.31
   4  43675.7
   5  46193.56
   6  47307.38
   7  50579.27
   8  54897.95
   9  54750.99
  10  55677.62
  11  56649.34
  12  53411.65
  13  52884.93
  14  53202.79
  15  54141.81
  16  54374.36
  17  53030.61
  18  46334.16
  19  43653.5
  20  43722.9
  21  39918.7
  22  33283.23
  23  30691.32
  24  30613.83
  25  24817.45
  26  24940.32
  27  25245.97
  28  24707.77
  29  22597.58
  30  21703.06
  31  21318.94
  32  23075.83
  33  24647.15
  34  25372.84
  35  26847.56
  36  27077.34
  37  27503.16
  38  28653.53
  39  31370.09
  40  34988.79
  41  34783.42
  42  34894
  43  36895.91
  44  38033.51
  45  35070.84
  46  32895.69
  47  33119.83
  48  32302.12
  49  31319.14
  50  26146.81
  51  25138.87
  52  22660.43
  53  17529.04
  54  16269.33
  55  15745.18
  56  13517.91
  57  8316.093
  58  7343.25
  59  5815.246
  60  5650.738
  61  6705.783
  62  8875.002
  63  11067.05
  64  11044.12
  65  13202.13
  66  14398.83
  67  12879.75
  68  14621.46
  69  14321.05
  70  14626.78
  71  15677.47
  72  15639.73
  73  13270.85
  74  17417.93
  75  20566.38
  76  37773.62
  77  31038.09
  78  25601.97
  79  23323.66
  80  19475.85
  81  14341.39
  82  11843.97
  83  10340.69
  84  8309.565
  85  5877.708
  86  5083.391
  87  2848.284
  88  2245.046
  89  -543.3975
  90  -4234.192
  91  -3210.583
  92  -3674.602
  93  -4174.097
  94  -5079.069
  95  -8470.348
  96  -8714.831
  97  -8465.651
  98  -6035.262
  99  -6882.496
 100  -7871.604
 101  -8150.97
 102  -9173.512
 103  -9125.352
 104  -8363.658
 105  -7566.008
 106  -7832.38
 107  -8018.023
 108  -7727.655
 109  -6519.407
 110  -5142.981
 111  -2699.611
 112  -2073.031
 113  -2534.14
 114  -579.7913
 115  151.1722
 116  -16.89659
 117  -733.2484
 118  -1190.603
 119  -1203.091
 120  -1790.702
 121  -2524.605
 122  248.4763
 123  1894.132
 124  2092.419
 125  1722.253
 126  3752.889
 127  6039.906
 128  8364.109
 129  10610.79
 130  12485.58
 131  15239.05
 132  16701
 133  17792.13
 134  17171.65
 135  16154.99
 136  14806.27
 137  12415.71
 138  10922.83
 139  10082.1
 140  7015.417
 141  3534.213
 142  570.4124
 143  -2097.908
 144  -4296.217
 145  -7170.742
 146  -8292.116
 147  -6387.407
 148  -3679.594
 149  -3075.448
 150  -2913.691
 151  -2631.56
 152  -3034.775
 153  -3154.26
 154  -3394.309
 155  -3882.815
 156  -3718.372
 157  -3560.903
 158  -4073.459
 159  -4584.614
 160  -11782.32
 161  -14366.01
 162  -14696.73
 163  -13688.57
 164  -13654.21
 165  -14564.62
 166  -16828.52
 167  -17101.16
 168  -15232.58
 169  -15645.21
 170  -15076.55
 171  -13939.82
 172  -19748.28
 173  -21361.17
 174  -23346
 175  -22704.45
 176  -24292.04
 177  -23633.51
 178  -22210.34
 179  -23099.56
 180  -22719.48
 181  -20191.78
 182  -21431.63
 183  -21124.18
 184  -19960.35
 185  -20577.65
 186  -20051.73
 187  -20096.37
 188  -20831.19
 189  -18289.57
 190  -15243.9
 191  -13770.58
 192  -14428.38
 193  -16108.29
 194  -20008.96
 195  -25242
 196  -24587.49
 197  -26860.06
 198  -22484.84
 199  -15757.2
 200  -9671.527
 201  -12118.01
 202  -13569.85
 203  -13021.11
 204  -13112.86
 205  -12029.18
 206  -11513.91
 207  -13579.17
 208  -13526.9
 209  -13319.98
 210  -14145.89
 211  -15209.8
 212  -15163.81
 213  -15586.07
 214  -17452.33
 215  -18253.12
 216  -18701.56
 217  -21332.3
 218  -22060.46
 219  -22152.63
 220  -22918.14
 221  -23356.48
 222  -24107.21
 223  -24152.13
 224  -23440.9
 225  -23429.49
 226  -23408.25
 227  -21472.23
 228  -19862.53
 229  -19027.43
 230  -15009.72
 231  -11358.2
 232  -8712.313
 233  -5177.678
 234  -7022.155
 235  -5183.022
 236  -1951.525
 237  -2166.407
 238  -492.6722
 239  1821.685
 240  -18298.25
 241  -23718.79
 242  -27052.53
 243  -21070.47
 244  -25463.19
 245  -24603.77
 246  -23394.28
 247  -30874.35
 248  -31915.66
 249  -31281.71
 250  -31767.91
 251  -30014.11
 252  -29557.32
 253  -30190.36
 254  -30050.1
 255  -29012.46
 256  -28289.2
 257  -27483.56
 258  -27573.19
 259  -28874.38
 260  -30457.64
 261  -31256.81
 262  -31669.54
 263  -32247.27
 264  -31219.85
 265  -31151.9
 266  -31373.62
 267  -31075.86
 268  -31141.72
 269  -32128.06
 270  -31847.67
 271  -30511.44
 272  -28079.55
 273  -27858.05
 274  -28537.63
 275  -29254.1
 276  -29250.56
 277  -28458.83
 278  -29032.71
 279  -29023.32
 280  -28748.77
 281  -28502.54
 282  -28065.25
 283  -28943.05
 284  -29842.18
 285  -30467.45
 286  -29533.6
 287  -29436.28
 288  -29659.5
 289  -28982.15
 290  -28124.11
 291  -27787.2
 292  -26886.93
 293  -26141.67
 294  -25960.62
 295  -26326.95
 296  -26376.81
 297  -26378.57
 298  -26938.09
 299  -24228.36
 300  -20589.88
 301  -16147.68
 302  -18757.7
 303  -18437.3
 304  -18425.74
 305  -17094.25
 306  -16196.74
 307  -14113.6
 308  -15052.41
 309  -14640.15
 310  -15192.74
 311  -16055.37
 312  -17693.29
 313  -19913.26
 314  -21589.09
 315  -24026.99
 316  -25715.72
 317  -25689.77
 318  -23519.89
 319  -17099.72
 320  -20067.53
 321  -21345.16
 322  -21370.43
 323  -20124.22
 324  -19099.59
 325  -18469.64
 326  -19610.88
 327  -18407.77
 328  -18792.12
 329  -17703.9
 330  -16702.03
 331  -15573.12
 332  -11919.96
 333  -8657.944
 334  -7314.332
 335  -4350.246
 336  -2381.188
 337  -421.3961
 338  2056.146
 339  528.7853
 340  5115.844
 341  13967.98
 342  23267.65
 343  23685.55
 344  18826.21
 345  15633.29
 346  12141.92
 347  8014.969
 348  5195.854
 349  -746.5916
 350  -4603.405
 351  -7636.782
 352  -9987.387
 353  -12626.82
 354  -13846.61
 355  -15752.97
 356  -16403.77
 357  -16518
 358  -16210.04
 359  -14714.31
 360  -14489.76
 361  -13306.06
 362  -12382.17
 363  -12920.68
 364  -13713.19
 365  -14296.82
 366  -16384.72
 367  -16217.94
 368  -17156.02
 369  -16728.14
 370  -16250.01
 371  -15710.13
 372  -14783.24
 373  -14215.87
 374  -13293.02
 375  -7780.537
 376  -3098.74
 377  1376.78
 378  2157.853
 379  4917.64
 380  6626.908
 381  8071.898
 382  11555.67
 383  13300.21
 384  13495.33
 385  12776.86
 386  11340.06
 387  9126.035
 388  10603.22
 389  8673.661
 390  7291.118
 391  6161.674
 392  5863.119
 393  3071.645
 394  1366.638
 395  109.7181
 396  -512.0009
 397  -32.3839
 398  92.13239
 399  -271.8458
 400  -781.1592
 401  -1532.523
 402  -3361.399
 403  -2628.123
 404  -747.1168
 405  1339.978
 406  1942.152
 407  1579.687
 408  300.6929
 409  138.9408
 410  1850.561
 411  4365.209
 412  5353.979
 413  5711.946
 414  5391.923
 415  8381.743
 416  11069.83
 417  12904.67
 418  14910.28
 419  17132.86
 420  18240.96
 421  15694.94
 422  19229.2
 423  19958.46
 424  19634.87
 425  18271.34
 426  17010.62
 427  16451.7
 428  13967.35
 429  11621.2
 430  9033.632
 431  5270.26
 432  2539.711
 433  191.712
 434  159.3927
 435  -8.794559
 436  794.9858
 437  -204.7084
 438  2094.378
 439  4537.728
 440  13333.18
 441  15883.52
 442  18186.87
 443  24631.83
 444  25448.86
 445  26478.52
 446  27943.06
 447  28280.68
 448  26188.01
 449  27698.25
 450  25508.54
 451  21951.06
 452  18315.69
 453  15135.06
 454  14219.79
 455  12275.79
 456  8863.685
 457  5564.186
 458  2144.727
 459  -1199.15
 460  -3490.661
 461  -2210.58
 462  -2295.952
 463  -1968.656
 464  -1947.423
 465  -1263.52
 466  368.9959
 467  2702.8
 468  5722.593
 469  8709.435
 470  13594.41
 471  14275.47
 472  15428.28
 473  16896.51
 474  22257.58
 475  23427.52
 476  25208.45
 477  31582.48
 478  23326.48
 479  16393.18
 480  11611.04
 481  15520.23
 482  16626.48
 483  17781.69
 484  9958.564
 485  11395.94
 486  14290.03
 487  13840.96
 488  13377.65
 489  12263.56
 490  11162.76
 491  10042.56
 492  10624.42
 493  11933.18
 494  10846.04
 495  11346.92
 496  12711.09
 497  16184.28
 498  18276.5
 499  17199.34
 500  17611.16
 501  18859.33
 502  19802.98
 503  18585.19
 504  20037.01
 505  22270.54
 506  23450.37
 507  29094.94
 508  28784
 509  27631.56
 510  28485.24
 511  30913.52
