# Input file       =  1183697231.101892_cleaned.dat
# Candidate        =  PSR_0332+5434
# Telescope        =  AR
# Epoch_topo       =  57944.199653957083
# Epoch_bary       =  N/A
# T_sample         =  0.002
# Data Folded      =  7340032
# Data Avg         =  0.227561423570608
# Data StdDev      =  3.9500194888237  
# Profile Bins     =  256
# Profile Avg      =  6517.51450820236 
# Profile StdDev   =  668.849231442304 
# Reduced chi-sqr  =  1.330
# Prob(Noise)      <  0.00032   (~3.4 sigma)
# P_topo (ms)      =  714.482232641325  +/- 0.000916
# P'_topo (s/s)    =  -0                +/- 4.83e-10
# P''_topo (s/s^2) =  0                 +/- 2.13e-13
# P_bary (ms)      =  N/A
# P'_bary (s/s)    =  N/A
# P''_bary (s/s^2) =  N/A
# P_orb (s)        =  N/A
# asin(i)/c (s)    =  N/A
# eccentricity     =  N/A
# w (rad)          =  N/A
# T_peri           =  N/A
######################################################
   0  6699.273
   1  6035.647
   2  5571.087
   3  5751.303
   4  5831.243
   5  5669.817
   6  5872.966
   7  6466.828
   8  5974.661
   9  6474.882
  10  5524.297
  11  5742.773
  12  6366.483
  13  6061.235
  14  6103.88
  15  6085.681
  16  5678.027
  17  5934.648
  18  5965.361
  19  5539.633
  20  4924.603
  21  5514.018
  22  5143
  23  5368.648
  24  6013.322
  25  6035.618
  26  6058.473
  27  5981.381
  28  5304.252
  29  6058.872
  30  6101.669
  31  5788.156
  32  5586.836
  33  6027.378
  34  6501.539
  35  6801.413
  36  6114.038
  37  5952.894
  38  5756.103
  39  5609.8
  40  6393.161
  41  5979.402
  42  6086.414
  43  6004.085
  44  6257.939
  45  6238.443
  46  6246.976
  47  6254.162
  48  6287.661
  49  5803.642
  50  5771.825
  51  6705.994
  52  6562.584
  53  6897.292
  54  6739.392
  55  6249.116
  56  6323.132
  57  6965.177
  58  7210.794
  59  6366.267
  60  6807.684
  61  6685.537
  62  6713.871
  63  6406.221
  64  6131.588
  65  6077.021
  66  6342.913
  67  6319.383
  68  6539.878
  69  7209.146
  70  6320.141
  71  6557.639
  72  6532.881
  73  6560.563
  74  5863.777
  75  6343.35
  76  6227.008
  77  6242.696
  78  6312.857
  79  6318.594
  80  6569.363
  81  5731.387
  82  5020.224
  83  5653.71
  84  5794.616
  85  5543.525
  86  5608.242
  87  5411.776
  88  6086.083
  89  5948.566
  90  6238.936
  91  5949.968
  92  5998.411
  93  5992.561
  94  6624.8
  95  6214.706
  96  6249.697
  97  6751.239
  98  6731.546
  99  6331.686
 100  6028.432
 101  6992.272
 102  6733.53
 103  6602.416
 104  6622.145
 105  7078.601
 106  7156.494
 107  6598.898
 108  6791.823
 109  6658.463
 110  6847.743
 111  6854.551
 112  7378.352
 113  7817.807
 114  7239.666
 115  7058.59
 116  8144.944
 117  7916.823
 118  7424.652
 119  7190.266
 120  7693.074
 121  7520.657
 122  7890.733
 123  7183.969
 124  7318.134
 125  7197.92
 126  7309.108
 127  7460.604
 128  7898.395
 129  7805.428
 130  6998.319
 131  7107.055
 132  7113.71
 133  6555.284
 134  6542.989
 135  6565.261
 136  6393.915
 137  6731.512
 138  7042.234
 139  7183.609
 140  7063.062
 141  6261.588
 142  6843.614
 143  6200.508
 144  5888.739
 145  7029.331
 146  6506.507
 147  6686.445
 148  7244.091
 149  7445.317
 150  7409.749
 151  7093.856
 152  7272.928
 153  7741.763
 154  7284.355
 155  7088.602
 156  7784.355
 157  7662.035
 158  7622.592
 159  7346.642
 160  6999.174
 161  7994.348
 162  9360.928
 163  9941.033
 164  8623.292
 165  6820.266
 166  6778.963
 167  6908.885
 168  6785.507
 169  6428.037
 170  6798.481
 171  6707.763
 172  5866.216
 173  5988.172
 174  5834.627
 175  6222.053
 176  5818.449
 177  5775.847
 178  6296.562
 179  6243.02
 180  6036.202
 181  5919.476
 182  5743.439
 183  6238.387
 184  5848.549
 185  6354.609
 186  5882.361
 187  6147.208
 188  6041.37
 189  6376.238
 190  5879.575
 191  6285.022
 192  6480.634
 193  6612.777
 194  7009.602
 195  6954.617
 196  7282.924
 197  7735.324
 198  7398.342
 199  6653.697
 200  6671.006
 201  7006.229
 202  6931.842
 203  7324.195
 204  7246.562
 205  7028.681
 206  6277.794
 207  6187.299
 208  5938.372
 209  6061.311
 210  5986.024
 211  6510.844
 212  6258.923
 213  5836.161
 214  6303.659
 215  6589.128
 216  6284.571
 217  6681.33
 218  5950.362
 219  6334.363
 220  6081.32
 221  6640.323
 222  6446.062
 223  6367.824
 224  6448.028
 225  6603.677
 226  6938.318
 227  6468.054
 228  6268.345
 229  6427.726
 230  6340.314
 231  6310.946
 232  6599.754
 233  6611.702
 234  7503.357
 235  6813.749
 236  6667.409
 237  6753.961
 238  6453.777
 239  6590.964
 240  5260.554
 241  6143.522
 242  6269.041
 243  6070.359
 244  6932.055
 245  6731.852
 246  6937.186
 247  6584.435
 248  6416.265
 249  6599.119
 250  6498.829
 251  5969.737
 252  6422.72
 253  6617.609
 254  6502.198
 255  6288.542
