# Input file       =  1183596519.103687-PSRB0329-2ms-sampling-dd.dat
# Candidate        =  PSR_0332+5434
# Telescope        =  AR
# Epoch_topo       =  57943.034005829708
# Epoch_bary       =  N/A
# T_sample         =  0.002
# Data Folded      =  7208960
# Data Avg         =  3.62350961738756e-11
# Data StdDev      =  42.0490543951376 
# Profile Bins     =  512
# Profile Avg      =  0.385993098516945
# Profile StdDev   =  4989.50613742436 
# Reduced chi-sqr  =  1.008
# Prob(Noise)      <  0.443   (~0.1 sigma)
# P_topo (ms)      =  714.483060250186  +/- 0.0177
# P'_topo (s/s)    =  -0                +/- 1.92e-08
# P''_topo (s/s^2) =  0                 +/- 8.55e-12
# P_bary (ms)      =  N/A
# P'_bary (s/s)    =  N/A
# P''_bary (s/s^2) =  N/A
# P_orb (s)        =  N/A
# asin(i)/c (s)    =  N/A
# eccentricity     =  N/A
# w (rad)          =  N/A
# T_peri           =  N/A
######################################################
   0  -467.1321
   1  -477.0033
   2  -925.7287
   3  -578.6689
   4  -1079.214
   5  -797.4583
   6  -188.7493
   7  -158.8794
   8  -103.1629
   9  -681.1791
  10  -235.1486
  11  -693.8338
  12  -515.9496
  13  -417.0996
  14  -427.416
  15  -504.9655
  16  -328.5921
  17  -28.21181
  18  -495.4198
  19  -451.684
  20  -671.2671
  21  -650.0933
  22  -302.1193
  23  -343.5167
  24  -308.9202
  25  -193.4547
  26  -673.2087
  27  -893.1849
  28  -354.0899
  29  -691.2032
  30  -711.4728
  31  133.7128
  32  -555.3562
  33  -29.03981
  34  15.28368
  35  -1220.518
  36  63.66263
  37  -358.0379
  38  -1465.719
  39  930.6576
  40  644.2519
  41  -2170.074
  42  2200.512
  43  -446.7274
  44  -3041.471
  45  4866.732
  46  -4368.707
  47  10489.95
  48  75175.41
  49  27129.15
  50  7356.563
  51  -6100.503
  52  3249.131
  53  685.1658
  54  -2537.632
  55  2070.245
  56  -230.1367
  57  -1074.824
  58  1682.086
  59  -576.0306
  60  -239.5846
  61  1217.126
  62  -299.94
  63  -110.8171
  64  547.7263
  65  -296.9755
  66  303.4812
  67  600.8963
  68  -427.4825
  69  -391.0761
  70  -166.4559
  71  -392.735
  72  390.9529
  73  296.9994
  74  -439.3984
  75  226.469
  76  -133.7422
  77  -94.96584
  78  312.9606
  79  244.6112
  80  432.9507
  81  119.4798
  82  -69.85414
  83  -166.1318
  84  202.8073
  85  129.6779
  86  237.0348
  87  44.99832
  88  -22.62264
  89  83.39391
  90  -28.08126
  91  200.631
  92  -32.9696
  93  -630.6496
  94  -634.6502
  95  -423.9505
  96  9.709382
  97  -131.5015
  98  115.8077
  99  380.2511
 100  284.9023
 101  5.451123
 102  12.63489
 103  -435.1443
 104  -794.7827
 105  -7.456836
 106  -102.858
 107  -180.437
 108  -111.5445
 109  -203.9993
 110  -656.2721
 111  -669.6588
 112  -127.4214
 113  -34.68426
 114  355.224
 115  315.0392
 116  168.8787
 117  -150.1327
 118  -501.2035
 119  -745.8311
 120  -249.4787
 121  200.2508
 122  296.2653
 123  435.5852
 124  451.7714
 125  -54.41552
 126  67.51509
 127  -35.9639
 128  -436.5883
 129  -90.17458
 130  -30.49757
 131  337.4211
 132  338.6126
 133  101.8084
 134  -65.74791
 135  -410.5634
 136  -906.5982
 137  -923.4115
 138  -116.1528
 139  454.3125
 140  377.2902
 141  193.903
 142  -76.03188
 143  -7.007051
 144  50.99012
 145  88.2664
 146  345.8931
 147  327.4841
 148  -29.2961
 149  77.17844
 150  242.8208
 151  355.4985
 152  -63.82145
 153  135.6431
 154  143.0973
 155  187.6043
 156  197.8397
 157  174.554
 158  64.71702
 159  -172.3844
 160  -72.06789
 161  -42.3447
 162  -242.4434
 163  -127.9331
 164  166.8423
 165  247.7675
 166  -109.8447
 167  -722.8971
 168  -627.3863
 169  -595.7136
 170  -91.65508
 171  417.7103
 172  617.8693
 173  138.4611
 174  13.15184
 175  -174.5713
 176  -391.9458
 177  -396.1042
 178  -102.7704
 179  319.7777
 180  128.2671
 181  255.4686
 182  -262.5143
 183  -89.59776
 184  -459.0785
 185  -147.2517
 186  -240.9103
 187  -90.35623
 188  -113.3833
 189  -257.0319
 190  -96.73257
 191  -371.2264
 192  -405.1302
 193  -161.8602
 194  477.1283
 195  -200.682
 196  -137.7288
 197  -130.8829
 198  330.278
 199  167.0786
 200  -220.3216
 201  -304.4799
 202  -766.4242
 203  -642.7964
 204  -367.0338
 205  359.7791
 206  56.28961
 207  212.2415
 208  133.3095
 209  334.9347
 210  -405.9955
 211  -484.603
 212  -95.55208
 213  -194.067
 214  135.8636
 215  146.5338
 216  40.19778
 217  -372.3481
 218  -374.2743
 219  -457.448
 220  -336.5945
 221  -76.33072
 222  213.3788
 223  218.3161
 224  -211.3736
 225  -370.1198
 226  -684.5019
 227  -143.5077
 228  26.57187
 229  -114.5455
 230  -175.4855
 231  -495.4489
 232  -900.7536
 233  -898.4005
 234  -530.6041
 235  -110.8937
 236  -553.3221
 237  -418.5892
 238  -201.3038
 239  -355.8166
 240  -650.2845
 241  -779.4989
 242  -568.3677
 243  -949.6701
 244  -697.412
 245  -479.4129
 246  -361.6184
 247  -273.4342
 248  -315.7052
 249  -428.5452
 250  -910.0287
 251  -1209.443
 252  -678.9069
 253  -223.9276
 254  -189.5524
 255  -411.7878
 256  -520.3532
 257  -652.8376
 258  -1139.787
 259  -372.5814
 260  -371.8811
 261  -605.4322
 262  -852.687
 263  -687.4598
 264  -770.2708
 265  -921.0294
 266  -485.9237
 267  -708.1642
 268  -528.1075
 269  -1015.243
 270  -741.5728
 271  -899.8264
 272  -956.389
 273  -1106.822
 274  -915.7773
 275  -340.8343
 276  -468.2086
 277  -871.5582
 278  -896.3178
 279  -503.8166
 280  -197.5866
 281  62.37915
 282  224.6798
 283  -357.6418
 284  -1123.24
 285  -862.6058
 286  -160.0874
 287  -107.1691
 288  250.5224
 289  136.9859
 290  -124.7036
 291  -1239.739
 292  -950.2
 293  -233.9724
 294  336.0725
 295  78.85413
 296  -370.6083
 297  -569.5129
 298  -735.6255
 299  -1330.979
 300  -761.4885
 301  -545.5339
 302  -689.1508
 303  -517.7987
 304  -612.3286
 305  -851.6113
 306  -1281.13
 307  -888.5483
 308  -587.3475
 309  -167.7669
 310  -313.9032
 311  -486.4956
 312  -481.3691
 313  -788.3092
 314  -637.2696
 315  -268.0074
 316  -335.2123
 317  -477.9475
 318  -528.1923
 319  -235.0739
 320  -42.89019
 321  -251.8782
 322  -307.8414
 323  -357.2253
 324  -537.5194
 325  -706.2776
 326  -533.8739
 327  -345.442
 328  82.40085
 329  -459.4291
 330  -530.6141
 331  -644.7326
 332  -1329.906
 333  -685.6349
 334  -499.3632
 335  -315.0914
 336  -621.3425
 337  -98.74025
 338  128.078
 339  -447.7106
 340  -906.4931
 341  -492.4596
 342  -298.2972
 343  85.39014
 344  339.1902
 345  -53.27218
 346  -30.34989
 347  -529.9689
 348  -817.4227
 349  -687.2927
 350  -442.8506
 351  -89.08177
 352  -7.311052
 353  156.2235
 354  -236.2521
 355  -276.6418
 356  -527.4593
 357  -570.0641
 358  -147.967
 359  264.4693
 360  223.6348
 361  -16.50455
 362  256.6813
 363  -51.73311
 364  -503.06
 365  -723.31
 366  -489.5371
 367  -33.19968
 368  -45.27463
 369  80.38867
 370  111.3809
 371  -139.8902
 372  -594.0768
 373  -645.9286
 374  -553.4245
 375  -625.0531
 376  -122.3549
 377  -278.8286
 378  66.43079
 379  70.31674
 380  -382.2234
 381  -346.6934
 382  -716.9428
 383  -508.4195
 384  -386.0425
 385  266.339
 386  503.7757
 387  43.38707
 388  -110.8925
 389  -198.5741
 390  -505.9129
 391  -406.7138
 392  -125.3792
 393  -66.71002
 394  49.96292
 395  256.4745
 396  51.98944
 397  -128.3883
 398  -742.9459
 399  -812.8974
 400  -450.7886
 401  -563.593
 402  -224.6489
 403  -164.5369
 404  59.5482
 405  -538.754
 406  -1191.407
 407  -455.313
 408  -145.3403
 409  55.59803
 410  261.2747
 411  217.529
 412  -741.4235
 413  -732.7195
 414  -912.6741
 415  -985.4758
 416  -390.4072
 417  -330.3968
 418  492.8336
 419  145.9897
 420  189.0581
 421  264.958
 422  -21.13263
 423  -160.8531
 424  291.6058
 425  735.5099
 426  1473.282
 427  2155.829
 428  1616.897
 429  1833.418
 430  1331.981
 431  599.1392
 432  169.9364
 433  318.9863
 434  580.8804
 435  114.3972
 436  -158.8976
 437  32.7613
 438  -470.3279
 439  -435.3971
 440  -372.0171
 441  -104.9321
 442  -202.8166
 443  93.65983
 444  215.2181
 445  473.4997
 446  201.9409
 447  -443.9654
 448  -134.0361
 449  -754.102
 450  -1038.878
 451  -617.6279
 452  162.001
 453  10.54287
 454  -539.3627
 455  -807.0389
 456  -1514.676
 457  -914.8176
 458  -521.0029
 459  245.4844
 460  67.38396
 461  183.9315
 462  27.25452
 463  -258.817
 464  -288.2955
 465  -602.2685
 466  -607.3067
 467  -80.43983
 468  6.109975
 469  207.1936
 470  -108.3241
 471  -531.4526
 472  -991.3999
 473  -797.801
 474  -472.3766
 475  -549.0771
 476  -127.2048
 477  64.83637
 478  -305.3931
 479  -1009.095
 480  -926.7031
 481  -377.4234
 482  -561.444
 483  -326.2074
 484  -479.9448
 485  -73.58094
 486  -591.6254
 487  -340.69
 488  -506.7959
 489  -635.1017
 490  -461.1704
 491  -285.8264
 492  -202.4371
 493  -136.7498
 494  -78.52175
 495  -198.556
 496  39.9906
 497  -176.5312
 498  41.21979
 499  186.4204
 500  143.8531
 501  -26.94436
 502  -196.6631
 503  638.2848
 504  625.3464
 505  19.78314
 506  -248.5005
 507  -423.1243
 508  -432.8754
 509  -635.7633
 510  -377.5637
 511  -251.3594
