# Input file       =  1183941209.125544_cleaned.dat
# Candidate        =  PSR_0332+5434
# Telescope        =  AR
# Epoch_topo       =  57947.023473675275
# Epoch_bary       =  N/A
# T_sample         =  0.002
# Data Folded      =  7143424
# Data Avg         =  0.0272112577403163
# Data StdDev      =  1.00010554677184 
# Profile Bins     =  512
# Profile Avg      =  379.535903919082 
# Profile StdDev   =  118.131051517154 
# Reduced chi-sqr  =  1.283
# Prob(Noise)      <  1.44e-05   (~4.2 sigma)
# P_topo (ms)      =  714.480243758989  +/- 0.000301
# P'_topo (s/s)    =  -0                +/- 1.63e-10
# P''_topo (s/s^2) =  0                 +/- 7.41e-14
# P_bary (ms)      =  N/A
# P'_bary (s/s)    =  N/A
# P''_bary (s/s^2) =  N/A
# P_orb (s)        =  N/A
# asin(i)/c (s)    =  N/A
# eccentricity     =  N/A
# w (rad)          =  N/A
# T_peri           =  N/A
######################################################
   0  272.7633
   1  373.4142
   2  385.8303
   3  276.1465
   4  355.9882
   5  385.4315
   6  410.0118
   7  292.8148
   8  264.9012
   9  425.202
  10  431.672
  11  341.5466
  12  362.302
  13  380.4135
  14  292.9314
  15  425.4655
  16  468.6767
  17  347.0142
  18  299.1833
  19  352.9092
  20  433.6366
  21  456.3047
  22  486.0287
  23  434.3961
  24  401.673
  25  270.0448
  26  402.9481
  27  505.9693
  28  446.6469
  29  323.0005
  30  309.1149
  31  384.2513
  32  247.3116
  33  339.0401
  34  413.9563
  35  413.9311
  36  275.1138
  37  250.3754
  38  184.7264
  39  214.7775
  40  362.3372
  41  452.2888
  42  485.3298
  43  381.2244
  44  253.6786
  45  369.9729
  46  468.9395
  47  380.8004
  48  454.4432
  49  535.0112
  50  465.915
  51  373.2852
  52  389.8642
  53  512.9198
  54  361.6602
  55  379.745
  56  376.0184
  57  396.9882
  58  439.5097
  59  442.6351
  60  369.752
  61  367.7066
  62  345.7806
  63  373.9209
  64  412.2943
  65  383.6437
  66  392.2297
  67  299.0711
  68  311.3661
  69  339.7729
  70  389.4817
  71  363.8264
  72  417.7612
  73  366.9885
  74  380.1191
  75  399.8632
  76  279.6924
  77  344.1988
  78  348.1093
  79  338.9847
  80  407.8153
  81  311.8816
  82  324.4688
  83  289.9938
  84  344.3549
  85  450.3315
  86  424.0145
  87  411.4323
  88  371.241
  89  447.9553
  90  424.4482
  91  418.0672
  92  328.2151
  93  236.1287
  94  417.1915
  95  348.5674
  96  341.0694
  97  356.1368
  98  324.0242
  99  366.5278
 100  298.7698
 101  261.0733
 102  295.3085
 103  372.2705
 104  274.2203
 105  255.9468
 106  281.4787
 107  318.9306
 108  450.8145
 109  476.9227
 110  356.4911
 111  372.8605
 112  389.6542
 113  484.3452
 114  285.1632
 115  294.0669
 116  402.285
 117  451.0456
 118  364.9803
 119  399.3185
 120  377.0037
 121  409.4402
 122  483.3284
 123  354.571
 124  398.1292
 125  263.1678
 126  378.2522
 127  443.9732
 128  382.8993
 129  319.8042
 130  265.0358
 131  305.4867
 132  418.2203
 133  522.1002
 134  485.8503
 135  406.4289
 136  442.6344
 137  415.1216
 138  411.5267
 139  345.6829
 140  393.5345
 141  329.3633
 142  397.9225
 143  493.1093
 144  475.5974
 145  425.3322
 146  554.6989
 147  532.9102
 148  484.4632
 149  372.047
 150  270.5167
 151  363.2859
 152  516.9557
 153  482.451
 154  481.0048
 155  438.257
 156  494.162
 157  536.1619
 158  595.2731
 159  587.658
 160  461.0662
 161  501.2662
 162  386.9758
 163  379.7247
 164  400.5993
 165  332.9439
 166  400.4708
 167  409.832
 168  512.9569
 169  530.379
 170  417.2492
 171  452.7957
 172  418.2098
 173  464.8526
 174  489.18
 175  583.5978
 176  785.5248
 177  977.9928
 178  1109.836
 179  1010.264
 180  879.9066
 181  628.5443
 182  601.7663
 183  517.5776
 184  420.1911
 185  344.5286
 186  349.4803
 187  408.0199
 188  347.9996
 189  405.8727
 190  381.013
 191  427.4992
 192  496.7212
 193  476.3458
 194  437.5637
 195  439.2028
 196  343.0742
 197  342.7709
 198  360.4466
 199  297.0628
 200  312.2468
 201  342.1635
 202  367.3268
 203  375.5131
 204  344.3723
 205  395.1064
 206  362.6562
 207  345.259
 208  434.1012
 209  481.2267
 210  377.8041
 211  317.8243
 212  481.7538
 213  514.7646
 214  336.2635
 215  354.7747
 216  556.6155
 217  554.0114
 218  502.2027
 219  452.66
 220  344.3926
 221  302.2277
 222  399.3814
 223  407.6554
 224  374.2717
 225  444.4943
 226  406.7452
 227  266.1137
 228  343.3084
 229  391.9803
 230  443.7536
 231  455.4352
 232  345.7044
 233  430.8613
 234  424.7805
 235  343.6938
 236  304.3603
 237  299.8174
 238  233.0855
 239  212.6666
 240  273.1864
 241  383.8723
 242  375.0439
 243  323.1653
 244  357.532
 245  381.0639
 246  425.0389
 247  373.7544
 248  357.2449
 249  328.9144
 250  400.7589
 251  392.9045
 252  314.3922
 253  329.5518
 254  355.1969
 255  485.7185
 256  496.9902
 257  455.2025
 258  387.2643
 259  408.6111
 260  450.8878
 261  398.7679
 262  380.1244
 263  381.3556
 264  430.0321
 265  473.2917
 266  498.8864
 267  392.2279
 268  398.8413
 269  291.8002
 270  270.1868
 271  286.6042
 272  286.7349
 273  352.2065
 274  361.2718
 275  271.195
 276  359.28
 277  444.5462
 278  376.4111
 279  336.483
 280  323.8684
 281  369.3969
 282  359.3705
 283  294.165
 284  376.485
 285  468.6107
 286  451.5406
 287  513.4042
 288  514.4178
 289  449.3227
 290  461.5924
 291  411.1521
 292  356.8464
 293  333.0383
 294  266.7126
 295  320.1061
 296  354.3251
 297  381.2981
 298  416.2075
 299  374.1652
 300  416.6292
 301  410.3868
 302  405.0967
 303  369.5282
 304  362.5816
 305  366.5889
 306  360.1888
 307  365.468
 308  304.2086
 309  411.9934
 310  375.618
 311  379.0123
 312  358.2714
 313  293.5887
 314  443.2513
 315  441.6474
 316  369.1386
 317  381.5336
 318  348.3935
 319  326.1058
 320  253.2103
 321  292.2639
 322  324.9718
 323  213.7005
 324  297.2092
 325  295.4604
 326  228.1352
 327  210.7965
 328  156.7923
 329  251.4045
 330  331.1421
 331  342.442
 332  330.2141
 333  373.1596
 334  375.3005
 335  434.0162
 336  516.808
 337  505.8053
 338  422.6703
 339  354.902
 340  292.3076
 341  362.2643
 342  430.5549
 343  247.375
 344  224.6647
 345  390.0063
 346  483.5105
 347  481.7927
 348  367.662
 349  313.1992
 350  395.6831
 351  365.301
 352  405.1286
 353  470.3622
 354  433.5642
 355  394.7898
 356  259.7842
 357  189.4352
 358  288.0304
 359  399.0318
 360  413.9208
 361  387.7167
 362  469.2565
 363  463.4277
 364  307.3976
 365  343.3521
 366  429.2232
 367  403.5707
 368  360.3631
 369  409.3733
 370  456.6537
 371  466.9891
 372  356.4407
 373  257.2102
 374  232.1438
 375  447.3189
 376  417.1877
 377  264.8684
 378  370.7796
 379  365.5937
 380  380.3392
 381  436.1656
 382  524.3851
 383  537.0881
 384  388.9316
 385  236.1537
 386  219.9296
 387  383.5052
 388  476.5695
 389  408.3331
 390  333.9267
 391  385.0097
 392  355.9775
 393  252.8621
 394  323.7611
 395  407.5189
 396  487.274
 397  424.9933
 398  280.4455
 399  284.2371
 400  397.2306
 401  402.9233
 402  328.9989
 403  270.8804
 404  294.6603
 405  340.1265
 406  367.3431
 407  470.0544
 408  406.3342
 409  257.0645
 410  176.7118
 411  228.0395
 412  310.7328
 413  417.4753
 414  369.8447
 415  347.3469
 416  304.0251
 417  344.3444
 418  392.3082
 419  398.2037
 420  348.8844
 421  275.9273
 422  240.3165
 423  285.0081
 424  357.3864
 425  365.5625
 426  470.2924
 427  481.4606
 428  478.495
 429  419.0673
 430  435.8705
 431  457.2831
 432  405.4079
 433  368.4969
 434  386.6302
 435  429.5176
 436  412.1664
 437  467.8083
 438  395.1882
 439  278.3001
 440  359.831
 441  370.9289
 442  321.3089
 443  401.551
 444  393.5998
 445  430.7274
 446  317.9794
 447  281.192
 448  379.3579
 449  461.8492
 450  498.2586
 451  429.5137
 452  375.875
 453  429.9651
 454  392.5123
 455  362.814
 456  370.1197
 457  192.09
 458  246.1657
 459  389.629
 460  408.2708
 461  321.6766
 462  232.9479
 463  316.4108
 464  307.6548
 465  443.0658
 466  334.0759
 467  183.4933
 468  191.4748
 469  320.655
 470  371.0397
 471  291.3485
 472  317.398
 473  321.3011
 474  242.407
 475  295.5406
 476  414.6852
 477  362.8998
 478  423.4334
 479  460.7601
 480  292.5936
 481  305.2113
 482  331.0938
 483  308.1983
 484  324.0546
 485  258.0688
 486  319.8102
 487  376.5397
 488  340.2496
 489  324.6547
 490  256.9467
 491  324.7901
 492  331.4601
 493  202.2473
 494  312.2764
 495  387.7634
 496  350.267
 497  304.3236
 498  251.1105
 499  269.0918
 500  360.5983
 501  337.5913
 502  406.4541
 503  267.129
 504  264.6162
 505  327.2411
 506  413.431
 507  377.7173
 508  277.0125
 509  193.0112
 510  227.6635
 511  319.9457
