# Input file       =  1183970685.111763_cleaned.dat
# Candidate        =  PSR_0332+5434
# Telescope        =  AR
# Epoch_topo       =  57947.364630923184
# Epoch_bary       =  N/A
# T_sample         =  0.002
# Data Folded      =  7340032
# Data Avg         =  0.270114978760831
# Data StdDev      =  5.15808668716018 
# Profile Bins     =  512
# Profile Avg      =  3872.52167715442 
# Profile StdDev   =  617.593380948263 
# Reduced chi-sqr  =  0.556
# Prob(Noise)      <  1   (~0.0 sigma)
# P_topo (ms)      =  714.480358208515  +/- 0.000492
# P'_topo (s/s)    =  -0                +/- 2.59e-10
# P''_topo (s/s^2) =  0                 +/- 1.15e-13
# P_bary (ms)      =  N/A
# P'_bary (s/s)    =  N/A
# P''_bary (s/s^2) =  N/A
# P_orb (s)        =  N/A
# asin(i)/c (s)    =  N/A
# eccentricity     =  N/A
# w (rad)          =  N/A
# T_peri           =  N/A
######################################################
   0  3372.286
   1  3848.984
   2  3736.805
   3  3830.982
   4  3730.158
   5  3757.599
   6  3813.011
   7  3773.898
   8  3810.443
   9  3941.68
  10  3958.436
  11  3900.298
  12  3888.263
  13  4071.828
  14  4274.85
  15  3946.256
  16  4192.947
  17  4085.172
  18  4039.806
  19  4222.052
  20  3653.752
  21  3535.29
  22  3863.033
  23  3803.639
  24  3846.999
  25  4186.641
  26  4581.611
  27  4016.73
  28  3690.097
  29  3385.754
  30  3423.792
  31  3754.89
  32  4029.318
  33  3891.744
  34  3692.029
  35  4061.037
  36  4118.177
  37  3758.155
  38  3835.499
  39  3934.508
  40  4148.095
  41  4283.53
  42  4028.811
  43  4003.997
  44  3924.225
  45  4022.258
  46  4017.765
  47  4130.318
  48  4537.829
  49  4355.525
  50  4156.154
  51  4214.52
  52  4050.993
  53  3813.057
  54  3767.492
  55  3757.471
  56  3843.908
  57  4088.755
  58  4078.648
  59  4444.993
  60  4275.328
  61  4334.872
  62  4206.945
  63  4260.048
  64  4174.03
  65  4248.107
  66  4245.619
  67  4121.759
  68  4297.542
  69  4019.112
  70  3983.779
  71  3889.245
  72  3928.905
  73  3972.315
  74  3825.846
  75  3918.888
  76  4348.166
  77  4434.272
  78  4327.223
  79  4076.27
  80  4183.603
  81  4006.503
  82  3618.864
  83  3361.458
  84  3469.997
  85  3754.881
  86  3738.872
  87  3421.817
  88  3482.774
  89  3764.628
  90  3879.011
  91  3592.093
  92  3330.359
  93  3628.65
  94  3746.891
  95  4203.268
  96  4272.293
  97  3775.508
  98  4212.019
  99  4562.727
 100  4777.641
 101  4897.286
 102  5566.257
 103  6008.006
 104  5470.117
 105  4988.815
 106  4896.2
 107  4396.954
 108  3889.346
 109  3928.506
 110  3958.004
 111  3798.278
 112  3774.349
 113  3982.133
 114  3777.956
 115  3491.421
 116  3647.092
 117  3459.012
 118  3728.369
 119  3868.327
 120  3333.359
 121  3212.907
 122  3451.607
 123  3399.97
 124  3460.745
 125  3477.187
 126  3427.014
 127  3685.918
 128  3526.176
 129  3681.004
 130  3456.713
 131  3642.388
 132  4199.48
 133  4016.624
 134  4022.229
 135  4067.122
 136  3831.494
 137  3675.3
 138  3773.894
 139  3738.623
 140  4059.356
 141  4460.071
 142  4433.86
 143  4187.972
 144  3972.999
 145  3476.223
 146  3667.856
 147  3993.469
 148  4100.843
 149  3735.81
 150  3322.065
 151  3815.653
 152  4053.23
 153  4221.292
 154  3719.331
 155  3545.409
 156  3508.671
 157  3434.754
 158  3805.856
 159  4013.115
 160  3990.469
 161  3835.629
 162  3719.798
 163  3214.057
 164  3524.292
 165  3868.427
 166  3974.101
 167  4209.871
 168  4119.187
 169  3695.128
 170  4058.135
 171  4018.258
 172  4010.932
 173  3879.901
 174  3979.971
 175  4011.06
 176  3633.305
 177  3892.462
 178  4148.185
 179  3891.791
 180  3715.755
 181  3643.62
 182  3533.407
 183  3658.555
 184  3960.313
 185  3666.848
 186  3411.011
 187  2978.01
 188  3344.952
 189  3731.07
 190  3640.84
 191  3914.685
 192  3630.498
 193  3584.535
 194  3693.77
 195  4012.843
 196  4060.305
 197  3715.48
 198  3906.333
 199  4094.121
 200  3931.698
 201  4091.121
 202  4097.64
 203  4099.505
 204  3860.699
 205  3972.417
 206  4122.703
 207  3985.807
 208  4078.019
 209  3973.766
 210  3870.741
 211  3988.085
 212  3993.486
 213  4054.064
 214  4269.995
 215  4363.004
 216  4209.958
 217  4262.513
 218  4044.45
 219  4286.695
 220  4361.069
 221  4251.848
 222  3945.714
 223  4162.284
 224  3974.814
 225  3698.816
 226  3678.476
 227  3945.894
 228  4398.209
 229  3976.719
 230  3701.506
 231  3738.759
 232  3948.426
 233  4040.906
 234  3996.813
 235  3909.22
 236  3799.378
 237  3772.338
 238  3772.116
 239  3830.23
 240  3882.652
 241  3618.079
 242  3751.159
 243  3625.315
 244  3728.775
 245  3777.084
 246  3743.206
 247  3956.037
 248  3983.49
 249  3767.609
 250  3695.454
 251  3937
 252  4011.837
 253  3983.475
 254  3536.084
 255  3941.388
 256  3829.783
 257  3820.342
 258  3792.159
 259  3650.646
 260  3870.876
 261  3950.35
 262  4357.187
 263  4107.101
 264  3951.052
 265  3789.732
 266  3924.095
 267  3842.351
 268  3702.713
 269  3640.597
 270  3721.065
 271  3341.175
 272  3585.387
 273  3557.16
 274  3482.444
 275  3957.201
 276  3755.948
 277  3658.511
 278  3155.719
 279  3364.378
 280  3675.98
 281  4057.858
 282  3932.976
 283  3685.521
 284  3811.002
 285  3943.323
 286  4191.978
 287  4015.691
 288  3905.679
 289  3686.686
 290  4159.675
 291  3895.543
 292  3571.833
 293  3436.376
 294  3898.954
 295  4133.511
 296  4003.085
 297  3925.246
 298  4045.527
 299  4020.208
 300  3927.435
 301  3868.483
 302  3530.903
 303  3727.799
 304  3983.056
 305  3828.614
 306  4210.337
 307  3945.389
 308  3784.692
 309  3692.075
 310  3892.739
 311  4146.345
 312  3944.817
 313  3709.177
 314  4070.57
 315  4119.104
 316  3782.414
 317  3610.617
 318  4119.909
 319  4387.866
 320  3968.624
 321  3773.409
 322  3403.737
 323  3603.288
 324  3845.079
 325  3951.389
 326  3376.506
 327  3329.665
 328  3405.412
 329  3371.948
 330  3570.421
 331  3685.109
 332  3521.501
 333  3284.669
 334  3216.538
 335  3506.092
 336  3551.315
 337  3401.421
 338  3835.607
 339  4143.707
 340  3664.749
 341  3074.746
 342  2732.805
 343  3013.202
 344  3490.204
 345  3881.565
 346  4089.272
 347  3983.069
 348  3994.061
 349  3861.587
 350  3519.858
 351  3517.249
 352  4086.451
 353  4622.654
 354  4346.764
 355  4197.705
 356  4209.418
 357  3900.368
 358  4126.504
 359  4341.844
 360  3889.231
 361  3533.918
 362  3890.118
 363  4058.147
 364  3754.972
 365  4071.603
 366  4286.597
 367  4010.088
 368  3555.672
 369  3680.196
 370  3696.262
 371  3834.953
 372  3680.743
 373  3898.05
 374  3765.999
 375  3780.545
 376  3652.441
 377  3793.153
 378  3829.915
 379  3685.855
 380  3837.312
 381  4505.709
 382  3940.374
 383  3193.957
 384  3600.43
 385  3893.044
 386  3617.208
 387  3634.589
 388  3834.502
 389  4044.684
 390  3887.011
 391  4188.55
 392  4136.927
 393  4042.841
 394  3899.493
 395  3838.77
 396  3590.326
 397  3440.262
 398  3266.395
 399  3518.027
 400  3712.532
 401  3664.841
 402  3671.526
 403  3812.448
 404  3964.814
 405  4208.636
 406  3701.938
 407  3922.123
 408  3997.521
 409  3876.484
 410  3765.505
 411  3949.74
 412  4099.833
 413  3810.338
 414  3923.477
 415  3805.666
 416  3397.586
 417  3486.418
 418  3635.395
 419  4076.9
 420  4142.843
 421  3858.177
 422  3570.508
 423  3108.861
 424  3531.396
 425  3428.566
 426  3463.312
 427  3349.911
 428  3641.073
 429  3911.436
 430  3616.597
 431  3563.164
 432  3724.736
 433  3838.351
 434  3986.372
 435  3768.739
 436  3627.355
 437  3781.25
 438  3379.26
 439  3597.097
 440  4008.731
 441  3986.645
 442  4389.716
 443  3781.97
 444  3689.847
 445  4137.112
 446  4217.195
 447  4161.988
 448  4280.559
 449  3811.87
 450  3592.453
 451  3896.34
 452  4106.398
 453  4041.206
 454  4084.685
 455  3920.325
 456  4186.77
 457  3859.053
 458  3741.064
 459  3731.4
 460  4090.041
 461  3717.982
 462  3815.883
 463  3785.177
 464  4021.76
 465  3936.183
 466  3984.67
 467  4324.011
 468  4479.791
 469  4176.888
 470  4165.83
 471  3987.229
 472  4157.451
 473  4478.79
 474  4565.141
 475  4393.987
 476  4300.526
 477  4327.461
 478  4286.644
 479  4403.396
 480  4133.231
 481  4185.807
 482  3712.504
 483  3259.58
 484  3230.59
 485  3686.504
 486  3893.019
 487  3713.409
 488  3537.958
 489  3617.716
 490  3232.212
 491  3281.778
 492  3729.092
 493  3928.517
 494  3741.858
 495  4129.929
 496  3887.088
 497  4010.816
 498  3811.361
 499  3760.302
 500  3668.597
 501  3782.432
 502  3843.007
 503  3434.667
 504  3686.855
 505  3998.652
 506  3880.119
 507  3511.033
 508  3370.069
 509  3426.449
 510  3339.214
 511  3461.09
