# Input file       =  1183079651.114455_cleaned.dat
# Candidate        =  PSR_0332+5434
# Telescope        =  AR
# Epoch_topo       =  57937.051737435824
# Epoch_bary       =  N/A
# T_sample         =  0.002
# Data Folded      =  7405568
# Data Avg         =  0.0297603970019698
# Data StdDev      =  1.00007415172094 
# Profile Bins     =  512
# Profile Avg      =  430.469523641159 
# Profile StdDev   =  120.275288985366 
# Reduced chi-sqr  =  1.183
# Prob(Noise)      <  0.00271   (~2.8 sigma)
# P_topo (ms)      =  714.487583669934  +/- 0.000113
# P'_topo (s/s)    =  -0                +/- 5.89e-11
# P''_topo (s/s^2) =  0                 +/- 2.58e-14
# P_bary (ms)      =  N/A
# P'_bary (s/s)    =  N/A
# P''_bary (s/s^2) =  N/A
# P_orb (s)        =  N/A
# asin(i)/c (s)    =  N/A
# eccentricity     =  N/A
# w (rad)          =  N/A
# T_peri           =  N/A
######################################################
   0  1049.229
   1  1060.607
   2  867.1209
   3  742.3109
   4  564.6105
   5  309.9618
   6  342.9359
   7  355.4584
   8  367.5642
   9  392.2461
  10  413.7079
  11  397.4385
  12  362.9793
  13  309.0289
  14  359.0671
  15  558.235
  16  526.429
  17  514.7219
  18  384.9502
  19  371.5211
  20  385.8159
  21  442.0943
  22  416.8201
  23  480.0439
  24  487.9482
  25  417.2943
  26  458.2938
  27  537.328
  28  496.395
  29  375.1349
  30  309.5294
  31  449.858
  32  388.6053
  33  442.9685
  34  503.2911
  35  479.3943
  36  384.4458
  37  479.7186
  38  504.9581
  39  375.8022
  40  312.8398
  41  277.9625
  42  360.8782
  43  474.631
  44  477.5875
  45  474.6155
  46  500.3704
  47  546.0923
  48  444.8402
  49  451.7192
  50  437.9239
  51  452.4722
  52  544.47
  53  492.0753
  54  436.252
  55  374.8753
  56  415.9939
  57  363.2643
  58  403.1398
  59  420.9174
  60  478.2477
  61  321.3784
  62  399.2158
  63  469.8298
  64  410.213
  65  325.5486
  66  346.9902
  67  395.7974
  68  330.3438
  69  419.3757
  70  364.6786
  71  375.4008
  72  341.3742
  73  337.7203
  74  359.9131
  75  310.3853
  76  322.3666
  77  375.5524
  78  330.1368
  79  310.8042
  80  284.4651
  81  343.385
  82  336.5068
  83  381.9837
  84  464.0229
  85  434.8821
  86  496.7982
  87  539.9462
  88  498.0697
  89  381.5915
  90  377.1791
  91  310.7198
  92  396.7278
  93  448.0826
  94  287.8991
  95  339.968
  96  379.4823
  97  410.4345
  98  363.5553
  99  365.7213
 100  341.9842
 101  402.4919
 102  461.0943
 103  339.2539
 104  376.0432
 105  424.1623
 106  444.9055
 107  369.7701
 108  437.7958
 109  492.416
 110  440.5879
 111  442.8919
 112  446.8095
 113  321.3674
 114  452.9143
 115  476.9273
 116  480.9349
 117  534.6955
 118  474.6087
 119  412.1817
 120  422.6743
 121  451.8082
 122  398.9134
 123  442.5804
 124  488.2662
 125  463.9836
 126  446.8493
 127  549.4395
 128  423.5016
 129  491.7495
 130  448.9634
 131  309.3833
 132  446.3007
 133  534.6425
 134  513.3199
 135  334.3877
 136  415.7321
 137  460.0854
 138  338.0457
 139  183.9917
 140  266.7529
 141  443.2128
 142  466.2838
 143  453.4626
 144  417.6846
 145  410.9585
 146  301.6679
 147  359.7339
 148  380.9956
 149  446.4969
 150  460.5883
 151  455.3789
 152  329.0618
 153  309.1375
 154  329.5624
 155  340.772
 156  319.3345
 157  355.6581
 158  416.5867
 159  447.9718
 160  471.3198
 161  352.2467
 162  370.2051
 163  318.145
 164  307.5156
 165  457.6679
 166  569.8489
 167  511.7557
 168  538.9965
 169  477.2394
 170  464.5808
 171  453.438
 172  450.0439
 173  435.2382
 174  345.8777
 175  374.0327
 176  444.9991
 177  371.9477
 178  390.0235
 179  403.2184
 180  340.1381
 181  342.6646
 182  271.7857
 183  221.6848
 184  358.8409
 185  522.5519
 186  434.8076
 187  329.1627
 188  438.3102
 189  472.2906
 190  363.8786
 191  477.7981
 192  621.4364
 193  493.6379
 194  459.2446
 195  449.9463
 196  445.413
 197  425.7867
 198  508.6324
 199  419.0163
 200  428.7022
 201  481.3996
 202  483.0559
 203  535.7919
 204  372.0319
 205  358.0502
 206  419.1519
 207  468.656
 208  525.4781
 209  509.9626
 210  424.6845
 211  337.673
 212  213.8019
 213  310.0685
 214  564.4933
 215  472.0902
 216  402.8763
 217  535.3237
 218  527.0871
 219  351.3471
 220  323.1995
 221  393.5627
 222  426.8064
 223  434.5893
 224  455.1998
 225  426.0616
 226  461.5945
 227  425.5998
 228  339.0071
 229  433.0526
 230  364.7222
 231  408.5459
 232  385.9725
 233  405.7941
 234  436.3687
 235  320.5475
 236  317.1411
 237  281.3979
 238  229.7382
 239  268.4314
 240  298.1373
 241  382.9851
 242  479.9536
 243  497.0699
 244  421.0036
 245  446.648
 246  463.9342
 247  420.7353
 248  388.2087
 249  394.3954
 250  470.1435
 251  468.6684
 252  402.3905
 253  443.7039
 254  425.9496
 255  322.4205
 256  336.5094
 257  337.5567
 258  535.3277
 259  527.9107
 260  573.7482
 261  401.9425
 262  409.1252
 263  374.8878
 264  460.5991
 265  545.4819
 266  504.5975
 267  476.409
 268  462.0673
 269  601.2166
 270  486.3488
 271  397.9591
 272  498.632
 273  558.7355
 274  496.3448
 275  507.9999
 276  529.495
 277  494.1746
 278  488.9497
 279  374.1463
 280  335.3016
 281  405.5524
 282  398.1645
 283  364.2462
 284  487.8558
 285  366.0785
 286  334.5895
 287  283.7325
 288  373.0194
 289  472.9389
 290  415.1148
 291  336.0181
 292  457.4936
 293  420.1541
 294  432.9066
 295  309.8556
 296  302.6079
 297  417.6955
 298  438.2379
 299  405.4886
 300  439.9455
 301  468.4744
 302  433.3165
 303  413.8167
 304  321.2609
 305  399.3983
 306  416.3647
 307  417.6747
 308  459.5078
 309  435.2005
 310  425.3137
 311  372.7797
 312  275.802
 313  300.8492
 314  346.5563
 315  438.9532
 316  395.0414
 317  465.9321
 318  543.1516
 319  373.1378
 320  336.7881
 321  381.4343
 322  429.9719
 323  360.5889
 324  408.1024
 325  419.4523
 326  425.0225
 327  499.0665
 328  445.9269
 329  330.5161
 330  339.9749
 331  390.6232
 332  495.2654
 333  545.1278
 334  482.7189
 335  473.8543
 336  453.7474
 337  413.9114
 338  419.2075
 339  437.1506
 340  522.6705
 341  583.1224
 342  645.9655
 343  525.1193
 344  410.9926
 345  383.549
 346  532.1194
 347  448.8695
 348  363.0105
 349  423.9354
 350  450.3216
 351  498.8997
 352  468.8386
 353  468.4482
 354  386.586
 355  351.783
 356  401.1352
 357  469.9146
 358  329.0727
 359  375.1513
 360  414.7425
 361  417.0373
 362  489.3764
 363  487.9731
 364  568.9653
 365  621.2764
 366  467.2518
 367  369.2789
 368  466.4342
 369  437.4594
 370  548.5551
 371  371.9449
 372  421.9814
 373  498.506
 374  494.931
 375  434.1783
 376  435.7657
 377  421.5353
 378  470.8755
 379  363.4279
 380  355.6686
 381  517.2004
 382  534.1449
 383  382.3452
 384  505.6292
 385  505.5182
 386  508.7644
 387  525.6345
 388  576.5746
 389  433.3845
 390  488.9587
 391  518.3607
 392  447.6766
 393  376.9453
 394  410.4389
 395  386.1324
 396  471.9404
 397  452.6982
 398  394.7485
 399  377.9258
 400  490.0135
 401  458.4035
 402  530.3301
 403  425.1238
 404  369.8806
 405  458.4344
 406  398.769
 407  544.7393
 408  482.2758
 409  382.7566
 410  375.2221
 411  368.188
 412  333.4487
 413  372.663
 414  501.6855
 415  530.0668
 416  464.3572
 417  358.0705
 418  340.2352
 419  265.4627
 420  296.3094
 421  404.9717
 422  455.8707
 423  543.3792
 424  531.5053
 425  401.0927
 426  335.6153
 427  462.9124
 428  443.7242
 429  411.3053
 430  412.722
 431  503.4451
 432  438.7297
 433  499.8734
 434  377.9725
 435  370.2154
 436  316.5608
 437  367.0059
 438  384.248
 439  350.551
 440  306.2507
 441  341.4958
 442  385.7445
 443  397.7428
 444  340.5655
 445  324.7412
 446  325.3552
 447  441.6285
 448  470.7689
 449  357.362
 450  283.272
 451  417.9321
 452  467.0575
 453  468.2518
 454  472.46
 455  352.4849
 456  423.4292
 457  488.281
 458  480.5241
 459  535.0148
 460  423.6464
 461  412.0625
 462  464.9081
 463  454.1225
 464  464.7155
 465  396.6851
 466  507.1907
 467  479.4397
 468  476.4494
 469  425.3016
 470  360.0029
 471  434.0833
 472  504.594
 473  437.2549
 474  294.3703
 475  364.3258
 476  338.8365
 477  383.9904
 478  393.4723
 479  432.5522
 480  435.0348
 481  573.5651
 482  573.038
 483  581.4698
 484  513.6718
 485  437.542
 486  348.0997
 487  422.9782
 488  433.3183
 489  504.3034
 490  506.1339
 491  512.6959
 492  427.8616
 493  457.7186
 494  485.7066
 495  508.5722
 496  394.8431
 497  509.2289
 498  466.9818
 499  399.2868
 500  472.7422
 501  369.9301
 502  350.3928
 503  340.654
 504  450.3412
 505  414.155
 506  470.6416
 507  533.8614
 508  603.1558
 509  763.6723
 510  1000.949
 511  1035.504
