# Input file       =  1183970685.111763_cleaned.dat
# Candidate        =  PSR_0332+5434
# Telescope        =  AR
# Epoch_topo       =  57947.364630923184
# Epoch_bary       =  N/A
# T_sample         =  0.002
# Data Folded      =  7340032
# Data Avg         =  0.270114978760831
# Data StdDev      =  5.15808668716018 
# Profile Bins     =  512
# Profile Avg      =  3872.52167716742 
# Profile StdDev   =  617.593380948263 
# Reduced chi-sqr  =  0.557
# Prob(Noise)      <  1   (~0.0 sigma)
# P_topo (ms)      =  714.480358181839  +/- 0.000491
# P'_topo (s/s)    =  -0                +/- 2.59e-10
# P''_topo (s/s^2) =  0                 +/- 1.14e-13
# P_bary (ms)      =  N/A
# P'_bary (s/s)    =  N/A
# P''_bary (s/s^2) =  N/A
# P_orb (s)        =  N/A
# asin(i)/c (s)    =  N/A
# eccentricity     =  N/A
# w (rad)          =  N/A
# T_peri           =  N/A
######################################################
   0  3620.3
   1  4151.146
   2  3958.801
   3  3698.043
   4  3344.78
   5  3750.985
   6  4183.447
   7  3979.581
   8  3976.912
   9  3975.68
  10  4087.681
  11  3911.293
  12  3927.451
  13  3611.196
  14  3602.196
  15  3988.494
  16  3818.421
  17  4148.004
  18  4025.767
  19  3846.999
  20  3668.404
  21  3849.62
  22  4047.089
  23  4093.89
  24  3687.229
  25  3993.085
  26  4151.538
  27  3858.987
  28  3598.335
  29  3945.385
  30  4436.226
  31  4053.446
  32  3816.416
  33  3459.194
  34  3538.292
  35  3801.935
  36  4007.121
  37  3479.924
  38  3314.769
  39  3378.445
  40  3422.37
  41  3471.232
  42  3698.377
  43  3566.74
  44  3322.311
  45  3212.419
  46  3440.886
  47  3587.622
  48  3402.208
  49  3668.703
  50  4154.776
  51  3777.363
  52  3251.32
  53  2750.248
  54  2893.703
  55  3395.587
  56  3777.226
  57  4070.444
  58  4038.393
  59  3938.786
  60  4011.979
  61  3528.304
  62  3521.125
  63  3810.94
  64  4612.349
  65  4449.089
  66  4189.801
  67  4247.317
  68  3944.69
  69  4038.887
  70  4341.525
  71  4058.482
  72  3557.391
  73  3747.198
  74  4070.358
  75  3806.599
  76  3964.583
  77  4293.919
  78  4106.755
  79  3673.501
  80  3610.498
  81  3687.244
  82  3796.352
  83  3672.993
  84  3863.832
  85  3804.198
  86  3802.229
  87  3630.05
  88  3801.649
  89  3837.679
  90  3741.017
  91  3711.56
  92  4371.246
  93  4214.656
  94  3258.343
  95  3458.828
  96  3881.297
  97  3677.498
  98  3605.947
  99  3766.75
 100  4064.656
 101  3910.458
 102  4087.911
 103  4182.348
 104  4053.778
 105  3939.016
 106  3862.819
 107  3622.614
 108  3521.3
 109  3265.708
 110  3442.154
 111  3702.696
 112  3618.254
 113  3698.012
 114  3781.027
 115  3883.713
 116  4243.716
 117  3822.925
 118  3796.191
 119  4015.714
 120  3896.931
 121  3801.926
 122  3863.165
 123  4135.067
 124  3845.233
 125  3868.827
 126  3896.643
 127  3502.788
 128  3403.636
 129  3617.679
 130  3920.992
 131  4189.675
 132  3940.259
 133  3701.468
 134  3152.162
 135  3416.192
 136  3454.63
 137  3478.116
 138  3367.997
 139  3520.064
 140  3842.952
 141  3729.465
 142  3536.537
 143  3749.964
 144  3766.347
 145  3989.085
 146  3805.957
 147  3648.438
 148  3775.206
 149  3500.087
 150  3410.402
 151  4006.599
 152  3926.934
 153  4351.396
 154  3998.75
 155  3599.26
 156  4051.06
 157  4195.957
 158  4179.947
 159  4291.211
 160  3952.219
 161  3582.835
 162  3783.586
 163  4109.05
 164  4036.167
 165  4104.914
 166  3961.801
 167  4073.407
 168  3993.369
 169  3758.814
 170  3673.315
 171  4048.174
 172  3831.954
 173  3743.714
 174  3815.195
 175  3955.489
 176  4004.73
 177  3920.66
 178  4226.824
 179  4499.564
 180  4243.984
 181  4147.851
 182  4024.463
 183  4082.603
 184  4427.16
 185  4547.854
 186  4473.458
 187  4299.292
 188  4326.713
 189  4263.536
 190  4416.034
 191  4171.071
 192  4224.801
 193  3865.377
 194  3321.53
 195  3196.482
 196  3535.013
 197  3868.636
 198  3816.334
 199  3521.578
 200  3690.478
 201  3249.828
 202  3279.094
 203  3534.272
 204  4011.498
 205  3666.779
 206  4152.323
 207  3926.404
 208  3972.938
 209  3836.683
 210  3767.517
 211  3730.43
 212  3692.392
 213  3918.105
 214  3462.04
 215  3617.68
 216  3944.172
 217  3988.161
 218  3563.791
 219  3341.552
 220  3438.501
 221  3363.633
 222  3407.91
 223  3433.583
 224  3665.299
 225  3870.553
 226  3704.244
 227  3838.561
 228  3698.817
 229  3827.349
 230  3783.674
 231  3791.595
 232  3891.822
 233  3975.781
 234  3904.951
 235  3892.739
 236  3962.625
 237  4316.273
 238  4009.772
 239  4115.007
 240  4151.77
 241  4012.153
 242  4206.687
 243  3842.373
 244  3456.415
 245  3811.94
 246  3828.357
 247  3799.03
 248  4094.781
 249  4535.521
 250  4204.16
 251  3727.784
 252  3490.513
 253  3343.599
 254  3669.22
 255  3973.84
 256  3960.851
 257  3689.591
 258  3934.369
 259  4203.52
 260  3797.343
 261  3860.187
 262  3841.033
 263  4159.469
 264  4236.296
 265  4085.769
 266  4015.642
 267  3934.708
 268  3994.163
 269  4050.081
 270  4041.373
 271  4472.628
 272  4430.222
 273  4199.613
 274  4166.255
 275  4119.191
 276  3843.089
 277  3800.255
 278  3740.002
 279  3809.372
 280  4054.792
 281  4065.09
 282  4406.51
 283  4262.087
 284  4351.86
 285  4213.437
 286  4283.041
 287  4150.819
 288  4267.614
 289  4226.553
 290  4158.868
 291  4241.246
 292  4135.996
 293  3946.241
 294  3949.497
 295  3852.348
 296  4006.911
 297  3833.257
 298  3923.18
 299  4172.638
 300  4509.414
 301  4311.899
 302  4158.454
 303  4146.463
 304  4104.082
 305  3708.09
 306  3365.119
 307  3441.535
 308  3653.551
 309  3814.236
 310  3460.754
 311  3451.01
 312  3681.568
 313  3930.402
 314  3686.681
 315  3326.995
 316  3543.346
 317  3691.284
 318  4092.391
 319  4338.471
 320  3859.25
 321  4050.817
 322  4487.922
 323  4764.195
 324  4761.023
 325  5393.84
 326  5974.289
 327  5684.707
 328  5067.737
 329  4915.899
 330  4585.088
 331  3916.127
 332  3915.721
 333  4009.647
 334  3815.387
 335  3791.079
 336  3892.248
 337  3904.372
 338  3493.55
 339  3633.979
 340  3498.154
 341  3658.902
 342  3864.077
 343  3492.888
 344  3166.441
 345  3407.532
 346  3442.143
 347  3422.141
 348  3515.875
 349  3379.407
 350  3683.39
 351  3520.227
 352  3664.572
 353  3528.807
 354  3477.01
 355  4149.715
 356  4066.385
 357  4038.398
 358  4057.351
 359  3913.005
 360  3685.749
 361  3720.714
 362  3757.006
 363  3905.723
 364  4408.901
 365  4472.582
 366  4249.539
 367  4098.736
 368  3525.987
 369  3620.83
 370  3874.898
 371  4103.937
 372  3887.609
 373  3340.966
 374  3643.847
 375  4046.168
 376  4181.043
 377  3913.553
 378  3508.99
 379  3565.097
 380  3362.74
 381  3781.901
 382  3926.868
 383  4093.53
 384  3780.317
 385  3813.081
 386  3319.586
 387  3386.551
 388  3851.53
 389  3863.317
 390  4203.849
 391  4198.031
 392  3753.45
 393  3964.95
 394  4046.992
 395  4008.217
 396  3904.913
 397  3919.673
 398  4061.685
 399  3735.488
 400  3790.59
 401  4086.898
 402  4013.787
 403  3680.342
 404  3741.729
 405  3477.426
 406  3639.858
 407  3871.047
 408  3818.932
 409  3452.875
 410  3071.269
 411  3217.22
 412  3683.404
 413  3594.811
 414  3904.478
 415  3684.286
 416  3591.453
 417  3677.342
 418  3907.691
 419  4086.204
 420  3827.541
 421  3754.28
 422  4149.516
 423  3889.301
 424  4121.605
 425  4060.882
 426  4135.088
 427  3902.392
 428  3911.756
 429  4123.94
 430  4003.188
 431  4071.391
 432  4012.922
 433  3847.443
 434  3966.562
 435  4005.673
 436  4031.892
 437  4212.94
 438  4368.509
 439  4217.557
 440  4289.367
 441  4017.833
 442  4260.921
 443  4320.263
 444  4370.525
 445  3945.669
 446  4156.753
 447  4020.174
 448  3769.63
 449  3655.358
 450  3814.83
 451  4374.834
 452  4133.693
 453  3684.144
 454  3737.391
 455  3878.394
 456  4031.198
 457  4005.375
 458  3902.707
 459  3843.755
 460  3799.708
 461  3812.83
 462  3714.064
 463  3987.34
 464  3624.79
 465  3711.362
 466  3678.627
 467  3651.11
 468  3822.92
 469  3700.992
 470  3896.074
 471  4051.317
 472  3786.115
 473  3714.036
 474  3831.162
 475  4031.298
 476  4032.187
 477  3596.834
 478  3842.431
 479  3908.706
 480  3778.415
 481  3832.372
 482  3655.844
 483  3817.688
 484  3917.739
 485  4239.247
 486  4206.715
 487  3993.214
 488  3845.19
 489  3869.44
 490  3869.424
 491  3752.156
 492  3580.964
 493  3811.608
 494  3380.557
 495  3501.656
 496  3601.304
 497  3454.951
 498  3860.329
 499  3830.156
 500  3702.02
 501  3261.063
 502  3263.719
 503  3603.576
 504  3954.798
 505  4031.443
 506  3703.69
 507  3789.95
 508  3888.9
 509  4173.506
 510  4003.474
 511  4012.251
