# Input file       =  1183712136.101140-PSRB0329-2ms-sampling-dd.dat
# Candidate        =  PSR_0332+5434
# Telescope        =  AR
# Epoch_topo       =  57944.372165522451
# Epoch_bary       =  N/A
# T_sample         =  0.002
# Data Folded      =  7340032
# Data Avg         =  6.72540808438411e-10
# Data StdDev      =  21.3642750501724 
# Profile Bins     =  512
# Profile Avg      =  -0.473778026978397
# Profile StdDev   =  2558.00952174553 
# Reduced chi-sqr  =  1.056
# Prob(Noise)      <  0.182   (~0.9 sigma)
# P_topo (ms)      =  714.482443221433  +/- 0.000217
# P'_topo (s/s)    =  -0                +/- 1.15e-10
# P''_topo (s/s^2) =  0                 +/- 5.06e-14
# P_bary (ms)      =  N/A
# P'_bary (s/s)    =  N/A
# P''_bary (s/s^2) =  N/A
# P_orb (s)        =  N/A
# asin(i)/c (s)    =  N/A
# eccentricity     =  N/A
# w (rad)          =  N/A
# T_peri           =  N/A
######################################################
   0  -407.2475
   1  -661.2443
   2  -161.18
   3  -176.9914
   4  -370.6006
   5  -610.9595
   6  -1058.65
   7  -1379.931
   8  -1354.361
   9  -1733.213
  10  -1715.718
  11  -1225.081
  12  -1479.814
  13  -1403.02
  14  -1612.29
  15  -1500.974
  16  -1317.074
  17  -1695.54
  18  -1744.442
  19  -1863.994
  20  -1040.639
  21  -824.4467
  22  -909.1223
  23  -1170.301
  24  -671.2588
  25  -934.3463
  26  -1137.921
  27  -957.6688
  28  -620.7501
  29  -577.5896
  30  -740.5382
  31  -331.2296
  32  -327.3576
  33  -828.671
  34  -1013.162
  35  -959.472
  36  -1025.907
  37  -1584.706
  38  -1569.851
  39  -1852.282
  40  -1907.488
  41  -1401.007
  42  -1538.164
  43  -1715.796
  44  -2102.947
  45  -2358.865
  46  -2239.609
  47  -2062.577
  48  -1758.022
  49  -1305.575
  50  -987.2594
  51  -1228.044
  52  -1497.834
  53  -1769.062
  54  -1863.124
  55  -1740.862
  56  -1947.532
  57  -1952.54
  58  -1653.938
  59  -1573.672
  60  -1883.96
  61  -1977.653
  62  -2054.292
  63  -2192.12
  64  -1553.429
  65  -1214.122
  66  -1590.031
  67  -1461.66
  68  -1692.729
  69  -1386.372
  70  -1047.189
  71  -1166.633
  72  -1237.836
  73  -1476.48
  74  -1538.095
  75  -1580.055
  76  -1558.003
  77  -1591.25
  78  -1625.883
  79  -1498.801
  80  -1554.668
  81  -1741.41
  82  -1775.471
  83  -1322.062
  84  -1693.678
  85  -1192.201
  86  867.3349
  87  1960.009
  88  3713.192
  89  5191.529
  90  3681.087
  91  1861.237
  92  -743.1036
  93  3190.051
  94  6460.088
  95  8956.87
  96  8437.647
  97  6341.957
  98  2220.499
  99  -785.9086
 100  -1413.467
 101  -1302.181
 102  -1225.16
 103  -1295.031
 104  -1031.215
 105  -1024.531
 106  -496.4612
 107  -495.3718
 108  -792.8519
 109  -1383.576
 110  -1720.624
 111  -1919.615
 112  -1198.95
 113  -1051.165
 114  -1003.502
 115  -210.5927
 116  -1.548666
 117  668.7814
 118  -254.8327
 119  -720.9317
 120  -302.5827
 121  1374.356
 122  2828.13
 123  2837.867
 124  2931.417
 125  802.5849
 126  134.6973
 127  -283.3095
 128  -658.1257
 129  -695.9365
 130  435.5929
 131  1482.925
 132  2198.094
 133  2474.328
 134  1469.611
 135  779.2217
 136  867.9539
 137  3700.933
 138  4131.332
 139  4043.847
 140  2955.257
 141  1774.903
 142  1335.949
 143  776.6167
 144  594.462
 145  -281.9841
 146  -516.1182
 147  -398.0582
 148  -805.7688
 149  -504.3304
 150  447.4486
 151  1036.069
 152  869.1284
 153  1145.665
 154  7.296376
 155  -243.4618
 156  291.3654
 157  1754.787
 158  2771.404
 159  3381.532
 160  3386.419
 161  1090.138
 162  518.3586
 163  -171.2212
 164  -391.6777
 165  -281.7991
 166  618.2029
 167  635.8474
 168  710.5129
 169  628.8964
 170  -191.3176
 171  -180.2629
 172  -563.6558
 173  -675.7811
 174  -616.1068
 175  -58.98204
 176  -198.6396
 177  -733.1588
 178  -1038.511
 179  -856.707
 180  -706.4481
 181  -983.955
 182  -1115.573
 183  -873.3394
 184  -1088.701
 185  -1136.311
 186  -1287.283
 187  -1342.602
 188  -1349.973
 189  -1589.801
 190  -1624.501
 191  -1991.935
 192  -1568.262
 193  -948.2915
 194  -838.9822
 195  -1448.197
 196  -1475.93
 197  -1323.055
 198  -413.1914
 199  1.407933
 200  261.9313
 201  345.4714
 202  -286.2158
 203  211.1816
 204  -24.69208
 205  1097.013
 206  2175.448
 207  2836.866
 208  3377.801
 209  1275.963
 210  576.0769
 211  -609.8091
 212  -191.0727
 213  0.6289512
 214  -288.567
 215  -365.1999
 216  -572.4226
 217  -66.69439
 218  -191.8852
 219  -396.1483
 220  559.0389
 221  199.3813
 222  39.69583
 223  -360.7617
 224  -797.6288
 225  -877.2514
 226  -747.1862
 227  -252.7615
 228  30.26881
 229  -778.941
 230  -1180.14
 231  -1078.097
 232  -4.899204
 233  386.3697
 234  607.1716
 235  412.7724
 236  36.42723
 237  -613.0918
 238  -777.2991
 239  -983.1135
 240  -946.1174
 241  -930.4245
 242  -555.6658
 243  -84.92477
 244  -267.1085
 245  -479.1332
 246  -446.8763
 247  -686.4924
 248  -1239.537
 249  -1269.92
 250  -967.8666
 251  -617.7151
 252  -1161.513
 253  -1175.882
 254  -1153.459
 255  -627.5328
 256  -92.4721
 257  1120.285
 258  1573.014
 259  2046.851
 260  1176.216
 261  550.4276
 262  719.46
 263  2644.595
 264  4834.775
 265  5367.553
 266  5599.074
 267  1897.838
 268  559.3508
 269  -112.418
 270  -441.7737
 271  -514.5615
 272  -729.7017
 273  -940.4022
 274  -1234.975
 275  -1481.219
 276  -1184.962
 277  -1244.879
 278  -1002.051
 279  -861.7142
 280  -1004.879
 281  -929.0168
 282  -777.741
 283  -909.1209
 284  -999.7138
 285  -1034.916
 286  -814.4073
 287  -375.7513
 288  -531.4048
 289  -583.9504
 290  -301.1307
 291  -460.632
 292  -771.306
 293  -426.2642
 294  -152.318
 295  -590.1093
 296  -1096.679
 297  -1080.914
 298  -807.9532
 299  -1156.38
 300  -1289.105
 301  -1419.704
 302  -1068.989
 303  -937.7875
 304  -1027.364
 305  -1183.055
 306  -1192.341
 307  -1247.057
 308  -580.1872
 309  -429.3481
 310  -493.843
 311  -264.0914
 312  -194.4007
 313  -482.7942
 314  -731.3021
 315  -872.7808
 316  -946.1312
 317  -773.1473
 318  -448.9719
 319  -322.9826
 320  974.3116
 321  1776.084
 322  2332.271
 323  3091.876
 324  2307.443
 325  1308.525
 326  -686.9278
 327  3346.548
 328  5336.164
 329  6699.064
 330  6282.235
 331  3779.141
 332  1503.172
 333  -495.7801
 334  -284.974
 335  300.0335
 336  161.3578
 337  254.7063
 338  130.6932
 339  -392.1802
 340  -550.8546
 341  -589.3668
 342  -369.1863
 343  -101.9356
 344  -143.4138
 345  -457.8978
 346  -313.0144
 347  -271.7621
 348  -356.4732
 349  172.9713
 350  1361.547
 351  1783.521
 352  1567.352
 353  1218.826
 354  774.4728
 355  1810.487
 356  5057.836
 357  6548.803
 358  6695.102
 359  6552.965
 360  1459.887
 361  1457.332
 362  1931.441
 363  5265.263
 364  5537.501
 365  5211.192
 366  3526.73
 367  21.96282
 368  -515.986
 369  -208.213
 370  -328.2885
 371  -371.1795
 372  -540.5455
 373  -876.676
 374  -944.0605
 375  -1171.936
 376  -1578.994
 377  -1041.246
 378  -1268.931
 379  -1502.001
 380  -1497.956
 381  -1612.249
 382  -1833.945
 383  -2425.918
 384  -1758.948
 385  -1123.934
 386  -1489.755
 387  -1868.338
 388  -1878.801
 389  -1587.541
 390  -1442.28
 391  -1532.958
 392  -1870.403
 393  -1950.251
 394  -1550.486
 395  -1233.344
 396  -1204.443
 397  -1719.401
 398  -1532.577
 399  -1724.08
 400  -1961.868
 401  -1505.031
 402  -1199.242
 403  -671.227
 404  -585.2225
 405  -1160.865
 406  -1045.744
 407  -1093.981
 408  -811.6739
 409  -420.8246
 410  -266.4826
 411  -498.1023
 412  -876.1893
 413  -805.7472
 414  -743.9387
 415  -933.6138
 416  -740.8531
 417  -911.5774
 418  -1273.487
 419  -993.9542
 420  -1391.221
 421  -1623.59
 422  -1543.229
 423  -869.6563
 424  -793.4372
 425  -914.6543
 426  -740.8561
 427  -546.2261
 428  -845.8336
 429  -1210.207
 430  -1049.469
 431  -771.7246
 432  -176.1097
 433  565.1709
 434  617.2501
 435  329.6715
 436  -212.7702
 437  -1100.105
 438  -1007.102
 439  -1084.972
 440  150.8053
 441  561.2037
 442  271.6614
 443  -987.7143
 444  -1593.74
 445  -2088.992
 446  -2055.722
 447  -1850.682
 448  -1698.174
 449  -1800.07
 450  -1732.968
 451  -1551.071
 452  -1846.575
 453  -1610.61
 454  -1424.563
 455  -1257.831
 456  -991.0439
 457  -873.099
 458  -1310.477
 459  -1461.827
 460  -841.6786
 461  -493.711
 462  -212.2245
 463  698.5067
 464  1645.173
 465  3043.024
 466  3543.292
 467  2692.815
 468  384.2586
 469  1462.735
 470  3842.228
 471  6312.786
 472  8074.092
 473  6859.077
 474  5159.059
 475  524.4902
 476  3.195156
 477  -276.8301
 478  -251.0096
 479  -640.1808
 480  -300.6995
 481  262.4327
 482  1054.71
 483  1885.388
 484  1712.731
 485  1646.446
 486  404.5363
 487  1364.342
 488  2067.666
 489  4207.674
 490  4840.939
 491  4289.027
 492  2735.951
 493  1790.659
 494  2459.813
 495  2058.398
 496  978.5849
 497  911.6805
 498  2634.099
 499  3697.152
 500  4255.196
 501  4217.454
 502  1582.696
 503  387.2184
 504  -947.0652
 505  -810.8102
 506  -687.1578
 507  -562.6144
 508  -317.2591
 509  135.8402
 510  66.50585
 511  -217.0505
