# Input file       =  1183869605.095054-PSRB0329-2ms-sampling-dd.dat
# Candidate        =  PSR_0332+5434
# Telescope        =  AR
# Epoch_topo       =  57946.194723322384
# Epoch_bary       =  N/A
# T_sample         =  0.002
# Data Folded      =  7340032
# Data Avg         =  2.69660124179191e-10
# Data StdDev      =  10.0499061323909 
# Profile Bins     =  512
# Profile Avg      =  1.14815509623494 
# Profile StdDev   =  1203.30577653265 
# Reduced chi-sqr  =  1.032
# Prob(Noise)      <  0.299   (~0.5 sigma)
# P_topo (ms)      =  714.480828348616  +/- 0.000112
# P'_topo (s/s)    =  -0                +/- 5.9e-11
# P''_topo (s/s^2) =  0                 +/- 2.6e-14
# P_bary (ms)      =  N/A
# P'_bary (s/s)    =  N/A
# P''_bary (s/s^2) =  N/A
# P_orb (s)        =  N/A
# asin(i)/c (s)    =  N/A
# eccentricity     =  N/A
# w (rad)          =  N/A
# T_peri           =  N/A
######################################################
   0  -546.6293
   1  -464.6949
   2  -14.35874
   3  -312.4153
   4  -1045.726
   5  -1024.304
   6  -1300.604
   7  -1598.924
   8  -1195.847
   9  -411.8248
  10  -924.6785
  11  -427.5557
  12  -481.3244
  13  -1154.559
  14  -273.8231
  15  -248.5181
  16  -661.6351
  17  -704.686
  18  -660.9268
  19  -962.2819
  20  58.33984
  21  -506.1489
  22  -767.7697
  23  -1155.793
  24  -1186.668
  25  -1034.137
  26  235.3256
  27  529.0056
  28  -67.18182
  29  -815.4565
  30  -1441.241
  31  -1532.201
  32  -1141.188
  33  -622.7751
  34  -1331.05
  35  -1213.457
  36  -1278.678
  37  -1314.165
  38  -969.3616
  39  -797.5574
  40  -1441.149
  41  -1691.722
  42  -1961.121
  43  -830.8915
  44  115.8012
  45  -290.9147
  46  -752.1197
  47  -1282.106
  48  -602.9082
  49  -249.3272
  50  -433.265
  51  -129.5477
  52  -1419.93
  53  -2276.824
  54  -1580.685
  55  -0.7436765
  56  195.3701
  57  356.709
  58  -236.0375
  59  -693.7168
  60  -310.4405
  61  827.7385
  62  1230.977
  63  826.5217
  64  203.5074
  65  -604.6774
  66  -926.9102
  67  411.3211
  68  794.642
  69  1068.163
  70  260.7373
  71  -873.7131
  72  -860.9125
  73  -889.1219
  74  -638.8105
  75  -631.7139
  76  -778.6964
  77  -575.6628
  78  -684.5562
  79  -163.2608
  80  -376.0657
  81  -614.7565
  82  -1043.95
  83  -1376.93
  84  -995.8531
  85  -102.8587
  86  244.487
  87  -241.5997
  88  -385.6328
  89  -367.4857
  90  190.1706
  91  312.573
  92  146.0356
  93  -399.4789
  94  53.20686
  95  -628.6853
  96  -770.8307
  97  -646.7881
  98  -1003.965
  99  -892.5187
 100  -700.4617
 101  -417.1852
 102  -174.1193
 103  793.9597
 104  715.7397
 105  -148.4869
 106  37.36512
 107  736.1585
 108  127.2956
 109  444.1351
 110  847.4709
 111  741.7329
 112  357.4824
 113  456.2963
 114  286.0373
 115  296.0264
 116  294.1673
 117  55.52395
 118  -221.1029
 119  120.8172
 120  -218.7518
 121  -423.8973
 122  752.6149
 123  640.9979
 124  255.5662
 125  817.077
 126  275.4668
 127  -127.1333
 128  204.5062
 129  828.4974
 130  1031.969
 131  1055.153
 132  607.0677
 133  23.27949
 134  143.2635
 135  904.0908
 136  1066.378
 137  1561.667
 138  230.408
 139  -663.3636
 140  -646.6062
 141  476.8923
 142  1462.399
 143  1856.812
 144  1497.106
 145  -82.87897
 146  -560.3906
 147  -222.7536
 148  568.7648
 149  909.363
 150  1342.494
 151  184.9489
 152  -90.80852
 153  -320.989
 154  159.2153
 155  176.9406
 156  287.0891
 157  6.118821
 158  218.6673
 159  401.2819
 160  337.4197
 161  722.8164
 162  902.8808
 163  502.6839
 164  671.7379
 165  1313.227
 166  1208.721
 167  1881.702
 168  1961.181
 169  1443.878
 170  1118.792
 171  1244.954
 172  1166.811
 173  1454.549
 174  1611.629
 175  1316.591
 176  1525.976
 177  1225.607
 178  987.1224
 179  628.172
 180  638.2293
 181  261.748
 182  531.0897
 183  1070.495
 184  1087.305
 185  976.3345
 186  1688.967
 187  465.8089
 188  651.582
 189  1053.921
 190  483.4108
 191  531.0355
 192  395.843
 193  432.6436
 194  275.0385
 195  872.6683
 196  846.0444
 197  1302.374
 198  1338.96
 199  1297.812
 200  1663.321
 201  1588.897
 202  1514.976
 203  1755.451
 204  1556.483
 205  1093.321
 206  1069.44
 207  901.3983
 208  1175.977
 209  1558.44
 210  1444.446
 211  704.247
 212  893.1191
 213  649.8217
 214  191.2461
 215  963.5607
 216  1181.781
 217  1156.871
 218  1227.46
 219  1342.958
 220  958.0757
 221  255.4664
 222  335.5756
 223  450.4144
 224  1242.459
 225  1940.755
 226  1689.74
 227  759.4939
 228  566.5032
 229  -742.9068
 230  -217.3238
 231  594.6369
 232  922.046
 233  905.2045
 234  184.7473
 235  11.64305
 236  28.33424
 237  338.6417
 238  818.0509
 239  531.8992
 240  -353.7563
 241  -779.3605
 242  -40.9508
 243  645.1346
 244  717.9151
 245  176.5473
 246  139.0492
 247  194.5449
 248  393.1088
 249  646.709
 250  657.0634
 251  1484.811
 252  1389.41
 253  854.5048
 254  1063.311
 255  1152.47
 256  509.7126
 257  359.302
 258  748.6849
 259  1394.862
 260  907.2654
 261  466.4544
 262  -257.3276
 263  -634.2842
 264  201.2567
 265  676.6348
 266  485.4485
 267  38.31998
 268  92.28876
 269  483.7892
 270  1080.781
 271  1394.451
 272  846.75
 273  232.4249
 274  -191.3185
 275  -543.8163
 276  195.219
 277  407.3129
 278  761.6975
 279  -73.30721
 280  -356.9832
 281  -448.5739
 282  310.727
 283  26.17895
 284  -323.0484
 285  -417.4624
 286  -552.6456
 287  336.0445
 288  523.4097
 289  1307.894
 290  745.3857
 291  -562.6281
 292  77.71429
 293  785.0064
 294  1658.873
 295  1946.408
 296  1105.937
 297  79.53909
 298  -322.5207
 299  -86.1701
 300  -159.7444
 301  380.5736
 302  -17.99097
 303  -1213.707
 304  -675.0024
 305  -271.1671
 306  1308.059
 307  2316.3
 308  2268.451
 309  1397.996
 310  1104.198
 311  779.7323
 312  1408.519
 313  1423.902
 314  1032.122
 315  708.812
 316  748.1848
 317  602.008
 318  423.8525
 319  444.6913
 320  235.1503
 321  -132.2543
 322  15.81614
 323  629.5429
 324  255.909
 325  345.8024
 326  -874.4281
 327  -988.8209
 328  -139.6223
 329  -91.92213
 330  521.4198
 331  799.5839
 332  583.2993
 333  257.6772
 334  -21.31762
 335  -18.79179
 336  401.5081
 337  448.0296
 338  873.6321
 339  1100.481
 340  1531.033
 341  963.5104
 342  1298.94
 343  1659.709
 344  591.2933
 345  303.5245
 346  -4.521667
 347  -938.4014
 348  -253.1904
 349  118.8102
 350  687.5311
 351  1230.685
 352  712.0443
 353  -244.2616
 354  -453.9111
 355  -19.44411
 356  578.3168
 357  1397.944
 358  931.1682
 359  621.1813
 360  172.2548
 361  535.9627
 362  395.8414
 363  808.4652
 364  383.6949
 365  -214.0102
 366  558.5238
 367  405.8158
 368  186.2262
 369  138.8331
 370  -218.4022
 371  -775.1296
 372  -654.9241
 373  -381.0201
 374  -62.4757
 375  -234.9174
 376  -948.4547
 377  -718.1287
 378  -459.0318
 379  42.82853
 380  425.4183
 381  -26.01169
 382  -533.5493
 383  -669.979
 384  -440.1027
 385  977.7743
 386  1188.103
 387  869.8043
 388  459.5026
 389  497.8264
 390  541.8659
 391  763.4722
 392  882.7243
 393  961.5762
 394  681.2823
 395  140.0087
 396  92.19321
 397  394.5067
 398  110.0844
 399  80.11054
 400  -166.1793
 401  -640.1613
 402  -370.5026
 403  -511.7926
 404  -528.2622
 405  -914.4244
 406  -1756.307
 407  -1290.739
 408  -911.4643
 409  -1278.91
 410  -740.3482
 411  -1084.741
 412  -989.5735
 413  -808.3508
 414  -688.9534
 415  -548.4466
 416  -573.0364
 417  -618.6538
 418  -757.8322
 419  -1200.094
 420  -1043.294
 421  -713.823
 422  -1112.404
 423  -1120.053
 424  -1669.633
 425  -1752.789
 426  -658.1639
 427  -537.7182
 428  -811.6894
 429  -1396.05
 430  -1284.434
 431  -1075.57
 432  -501.4653
 433  4.231024
 434  -468.2856
 435  -1095.11
 436  -1649.134
 437  -1640.673
 438  -783.502
 439  217.1715
 440  -1097.036
 441  -1225.057
 442  -1458.442
 443  -993.3424
 444  -499.4926
 445  -428.3932
 446  -735.2751
 447  -1334.535
 448  -1423.474
 449  -742.5049
 450  -353.9628
 451  -71.56749
 452  -545.5282
 453  -1315.304
 454  -890.7409
 455  -156.7614
 456  -35.0374
 457  -76.11575
 458  -362.3647
 459  -1086.498
 460  -872.7667
 461  -919.8174
 462  -337.5109
 463  -343.2637
 464  -562.944
 465  -633.528
 466  -722.5741
 467  -646.8088
 468  -320.6481
 469  -558.4805
 470  -751.3481
 471  -2089.671
 472  -1591.59
 473  -1501.121
 474  -762.6044
 475  -803.0058
 476  -1708.089
 477  -2103.359
 478  -2095.231
 479  -1477.75
 480  -754.8555
 481  -367.7786
 482  -1200.679
 483  -1318.833
 484  -1342.169
 485  -742.4485
 486  -369.9388
 487  260.3455
 488  -374.4537
 489  -1720.827
 490  -1414.213
 491  -1255.432
 492  -1088.701
 493  -790.0493
 494  -886.9044
 495  -1620.469
 496  -1370.642
 497  -1580.366
 498  -1418.316
 499  -1564.367
 500  -1474.669
 501  -1814.147
 502  -570.668
 503  -274.8049
 504  584.8126
 505  472.9361
 506  -262.5789
 507  -665.53
 508  -454.0018
 509  -400.2176
 510  -264.8749
 511  16.78298
