# Input file       =  1183768721.108474_cleaned.dat
# Candidate        =  PSR_0332+5434
# Telescope        =  AR
# Epoch_topo       =  57945.027084588823
# Epoch_bary       =  N/A
# T_sample         =  0.002
# Data Folded      =  7208960
# Data Avg         =  0.30675249535654 
# Data StdDev      =  6.37957543168881 
# Profile Bins     =  512
# Profile Avg      =  4319.08625737633 
# Profile StdDev   =  756.995162636851 
# Reduced chi-sqr  =  0.460
# Prob(Noise)      <  1   (~0.0 sigma)
# P_topo (ms)      =  714.481634437662  +/- 5.7e-05
# P'_topo (s/s)    =  -0                +/- 3.06e-11
# P''_topo (s/s^2) =  0                 +/- 1.38e-14
# P_bary (ms)      =  N/A
# P'_bary (s/s)    =  N/A
# P''_bary (s/s^2) =  N/A
# P_orb (s)        =  N/A
# asin(i)/c (s)    =  N/A
# eccentricity     =  N/A
# w (rad)          =  N/A
# T_peri           =  N/A
######################################################
   0  4136.879
   1  4375.359
   2  4534.229
   3  4502.683
   4  4334.702
   5  3681.65
   6  3825.464
   7  3778.856
   8  4270.941
   9  4144.837
  10  4135.966
  11  4417.706
  12  4268.111
  13  4194.311
  14  4262.971
  15  4143.75
  16  4004.459
  17  4338.637
  18  4231.592
  19  4209.033
  20  3858.559
  21  3590.165
  22  3681.551
  23  4159.698
  24  4160.154
  25  4500.438
  26  4732.647
  27  4427.454
  28  5010.658
  29  4694.56
  30  4555.043
  31  4127.508
  32  4060.292
  33  3792.047
  34  4699.674
  35  4918.557
  36  4613.631
  37  4453.303
  38  4413.715
  39  4305.389
  40  4578.256
  41  4436.373
  42  4338.26
  43  4788.822
  44  4691.739
  45  4841.19
  46  4443.453
  47  4311.495
  48  4247.563
  49  4199.743
  50  4204.285
  51  4081.067
  52  4226.834
  53  4219.807
  54  3884.966
  55  3847.135
  56  4030.858
  57  4157.572
  58  4260.545
  59  4421.946
  60  4821.557
  61  4672.818
  62  4344.022
  63  3702.022
  64  4090.534
  65  4148.827
  66  3998.275
  67  4053.98
  68  4140.382
  69  3833.131
  70  4102.814
  71  4289.601
  72  4066.989
  73  3967.772
  74  3971.565
  75  4366.487
  76  4577.647
  77  4629.93
  78  4279.044
  79  4294.227
  80  3933.988
  81  3745.349
  82  3949.076
  83  4047.239
  84  4409.274
  85  4376.095
  86  4313.19
  87  4148.365
  88  4193.391
  89  4252.352
  90  4685.969
  91  4445.223
  92  4243.522
  93  4434.083
  94  4660.755
  95  4918.161
  96  4477.71
  97  4423.821
  98  4877.331
  99  4674.619
 100  4388.68
 101  4659.985
 102  4625.868
 103  4501.823
 104  3840.112
 105  3792.024
 106  4334.714
 107  4277.059
 108  4624.254
 109  4768.725
 110  4821.977
 111  4536.634
 112  4302.174
 113  4048.584
 114  3810.692
 115  3866.907
 116  4300.432
 117  4995.72
 118  4916.145
 119  5062.127
 120  4772.518
 121  4392.637
 122  3795.011
 123  3669.378
 124  4175.812
 125  4401.133
 126  4549.877
 127  4823.121
 128  4643.048
 129  4111.929
 130  4163.646
 131  4237.918
 132  4053.475
 133  4133.81
 134  4658.932
 135  4608.71
 136  4250.924
 137  4207.368
 138  4463.552
 139  4419.825
 140  4508.198
 141  4622.776
 142  4507.284
 143  4326.837
 144  4430.907
 145  4626.676
 146  4261.716
 147  4333.447
 148  3960.988
 149  4130.103
 150  4688.206
 151  4895.036
 152  4638.323
 153  4307.897
 154  4097.546
 155  4174.09
 156  4228.029
 157  4565.042
 158  4434.567
 159  4647.741
 160  4737.587
 161  4394.858
 162  3797.538
 163  4041.838
 164  4653.32
 165  4533.124
 166  4623.136
 167  4701.049
 168  4450.973
 169  4133.472
 170  4325.859
 171  4113.175
 172  4218.279
 173  4542.925
 174  4732.548
 175  4758.134
 176  4540.461
 177  4224.915
 178  3957.23
 179  3932.859
 180  4095.965
 181  4203.499
 182  4490.25
 183  4510.603
 184  4831.335
 185  4818.671
 186  4236.812
 187  3506.342
 188  3430.373
 189  3933.359
 190  4311.708
 191  4152.014
 192  4816.583
 193  5376.259
 194  4893.14
 195  3909.121
 196  3539.036
 197  3422.807
 198  3473.383
 199  4153.611
 200  4726.904
 201  4860.125
 202  4537.535
 203  4234.214
 204  3884.225
 205  3816.331
 206  3672.625
 207  4343.869
 208  4742.812
 209  4763.72
 210  4583.742
 211  4526.504
 212  4312.688
 213  3721.444
 214  3795.59
 215  4167.632
 216  4468.89
 217  4712.727
 218  4630.448
 219  4423.842
 220  4356.762
 221  4664.962
 222  4928.435
 223  4945.906
 224  4653.124
 225  4883.131
 226  4930.562
 227  4907.015
 228  4365.217
 229  4281.957
 230  4318.084
 231  4184.764
 232  4269.142
 233  4366.425
 234  4580.04
 235  4214.504
 236  4202.086
 237  4587.898
 238  4162.228
 239  4090.91
 240  4032.279
 241  4172.733
 242  4174.139
 243  4332.296
 244  4460.515
 245  4359.512
 246  4419.282
 247  4562.532
 248  4455.234
 249  4590.438
 250  4651.375
 251  4601.354
 252  4346.613
 253  3939.976
 254  3991.796
 255  4339.485
 256  4606.756
 257  4836.844
 258  4639.017
 259  5060.922
 260  4798.663
 261  3904.084
 262  3616.889
 263  3789.494
 264  4117.707
 265  4185.246
 266  4786.486
 267  5006.059
 268  4579.291
 269  4284.298
 270  4169.129
 271  3651.715
 272  3714.374
 273  3787.845
 274  4289.756
 275  5279.128
 276  4945.313
 277  4746.167
 278  4338.566
 279  4012.31
 280  3221.389
 281  3327.064
 282  4009.751
 283  4349.434
 284  4610.328
 285  4252.426
 286  4106.663
 287  3730.159
 288  3784.791
 289  4279.006
 290  4818.146
 291  4778.579
 292  4598.531
 293  4968.031
 294  4286.638
 295  3719.87
 296  4283.373
 297  4113.192
 298  4235.132
 299  4652.143
 300  4691.491
 301  4669.604
 302  4257.373
 303  4187.534
 304  4190.468
 305  3999.261
 306  4003.188
 307  4346.213
 308  4865.013
 309  4569.512
 310  4230.637
 311  4161.45
 312  3895.314
 313  3817.137
 314  4067.366
 315  4147.278
 316  3828.735
 317  3964.772
 318  4256.33
 319  4240.226
 320  4440.923
 321  4496.458
 322  4609.151
 323  4961.953
 324  5372.229
 325  6278.951
 326  6246.805
 327  5820.138
 328  5439.885
 329  4556.708
 330  4005.7
 331  4155.509
 332  4449.836
 333  4557.342
 334  4289.076
 335  3982.97
 336  3805.649
 337  4031.604
 338  4219.451
 339  4468.323
 340  4789.826
 341  4873.63
 342  4578.119
 343  4327.335
 344  3851.605
 345  3697.038
 346  3867.826
 347  3896.727
 348  4285.18
 349  4695.464
 350  4512.113
 351  3955.266
 352  3408.4
 353  3965.989
 354  3833.374
 355  4117.275
 356  4344.62
 357  4361.005
 358  4576.293
 359  4509.065
 360  4178.574
 361  3649.678
 362  3787.487
 363  3963.768
 364  3963.765
 365  4025.346
 366  4137.29
 367  3859.323
 368  3675.619
 369  3745.283
 370  4218.055
 371  4070.307
 372  4049.485
 373  4816.136
 374  4878.673
 375  4896.322
 376  4329.616
 377  4096.09
 378  4003.361
 379  4057.34
 380  4277.977
 381  4540.141
 382  4427.249
 383  4344.05
 384  4434.936
 385  4609.164
 386  4311.65
 387  4327.038
 388  4285.219
 389  4101.041
 390  4140.16
 391  4193.683
 392  4567.619
 393  4405.711
 394  3999.144
 395  4240.603
 396  4332.08
 397  4448.021
 398  4345.524
 399  4699.762
 400  4477.616
 401  4487.474
 402  4368.532
 403  4234.954
 404  4278.711
 405  4261.202
 406  4183.029
 407  4439.423
 408  4556.303
 409  4007.139
 410  4083.281
 411  4387.238
 412  4231.144
 413  4095.995
 414  4357.675
 415  4629.521
 416  4593.995
 417  3941.822
 418  3942.933
 419  4107.077
 420  4022.433
 421  4294.565
 422  4584.776
 423  4333
 424  4257.184
 425  4350.053
 426  3819.557
 427  3495.094
 428  3869.844
 429  4370.022
 430  4378.325
 431  4641.264
 432  4946.564
 433  4478.876
 434  3994.133
 435  4275.708
 436  4377.689
 437  4465.592
 438  4258.594
 439  4495.806
 440  4885.21
 441  4572.788
 442  4155.072
 443  4182.314
 444  4351.924
 445  3964.258
 446  3533.333
 447  3698.36
 448  4063.331
 449  3897.855
 450  4028.769
 451  4261.493
 452  3921.713
 453  3835.093
 454  4191.517
 455  4643.05
 456  4342.381
 457  4864.442
 458  4533.572
 459  4447.184
 460  3747.374
 461  3863.131
 462  4017.882
 463  4617.062
 464  4495.242
 465  4344.423
 466  4441.943
 467  4224.041
 468  4385.462
 469  4082.116
 470  4621.823
 471  4479.629
 472  4369.154
 473  4700.364
 474  4622.658
 475  4506.76
 476  4200.358
 477  4511.061
 478  4476.238
 479  4272.981
 480  4088.808
 481  4748.379
 482  4469.741
 483  3885.376
 484  4146.653
 485  4151.503
 486  4110.747
 487  4522.929
 488  4277.671
 489  4357.27
 490  4862.336
 491  4695.222
 492  4594.833
 493  4284.998
 494  4106.254
 495  4194.801
 496  4150.871
 497  4214.048
 498  4657.359
 499  4267.917
 500  4230.346
 501  3812.541
 502  4317.559
 503  4488.95
 504  3974.384
 505  4359.664
 506  4614.174
 507  4701.625
 508  4123.972
 509  3989.089
 510  3981.452
 511  4056.863
