# Input file       =  1183682620.103163_cleaned.dat
# Candidate        =  PSR_0332+5434
# Telescope        =  AR
# Epoch_topo       =  57944.030545175498
# Epoch_bary       =  N/A
# T_sample         =  0.002
# Data Folded      =  7208960
# Data Avg         =  0.0315873931019875
# Data StdDev      =  1.00005735642185 
# Profile Bins     =  512
# Profile Avg      =  444.791723307089 
# Profile StdDev   =  118.665981659274 
# Reduced chi-sqr  =  1.249
# Prob(Noise)      <  0.000101   (~3.7 sigma)
# P_topo (ms)      =  714.482342287134  +/- 0.000389
# P'_topo (s/s)    =  -0                +/- 2.09e-10
# P''_topo (s/s^2) =  0                 +/- 9.39e-14
# P_bary (ms)      =  N/A
# P'_bary (s/s)    =  N/A
# P''_bary (s/s^2) =  N/A
# P_orb (s)        =  N/A
# asin(i)/c (s)    =  N/A
# eccentricity     =  N/A
# w (rad)          =  N/A
# T_peri           =  N/A
######################################################
   0  289.8389
   1  376.7193
   2  489.8133
   3  399.5265
   4  324.5739
   5  290.2911
   6  367.7979
   7  529.5048
   8  423.709
   9  445.2788
  10  466.6256
  11  366.9735
  12  334.4596
  13  328.8495
  14  306.2448
  15  310.1949
  16  293.5442
  17  363.1353
  18  310.9243
  19  362.4542
  20  354.386
  21  378.5092
  22  331.4393
  23  465.4283
  24  472.3633
  25  505.286
  26  316.791
  27  334.5593
  28  414.6659
  29  370.1813
  30  458.372
  31  390.7026
  32  406.8002
  33  404.3553
  34  389.0446
  35  347.2415
  36  362.8775
  37  408.7056
  38  502.4726
  39  428.4007
  40  508.8267
  41  484.3893
  42  399.8513
  43  463.5951
  44  421.8299
  45  346.9457
  46  421.7542
  47  354.9395
  48  327.0445
  49  463.4944
  50  444.4357
  51  418.4574
  52  393.3818
  53  393.4244
  54  416.7948
  55  434.0057
  56  339.6722
  57  392.5317
  58  343.1671
  59  492.4198
  60  567.235
  61  511.2562
  62  496.1505
  63  354.8332
  64  409.7184
  65  436.7377
  66  478.0701
  67  452.491
  68  387.4345
  69  510.7686
  70  395.6971
  71  437.1389
  72  388.8071
  73  412.6745
  74  275.2322
  75  417.6272
  76  535.4768
  77  441.0533
  78  468.266
  79  408.8636
  80  428.8451
  81  465.774
  82  484.4891
  83  486.5076
  84  475.7354
  85  526.669
  86  435.6343
  87  493.5417
  88  485.2498
  89  485.1723
  90  551.3272
  91  496.4032
  92  467.5565
  93  421.2761
  94  413.5752
  95  394.9599
  96  391.5388
  97  579.3064
  98  603.8613
  99  556.6243
 100  494.6614
 101  450.5023
 102  485.9289
 103  446.936
 104  419.16
 105  395.4057
 106  503.6004
 107  502.0126
 108  435.566
 109  416.7897
 110  434.5017
 111  345.6077
 112  454.9693
 113  471.4348
 114  546.6351
 115  554.3495
 116  491.018
 117  410.9579
 118  488.8502
 119  477.247
 120  490.1097
 121  493.2768
 122  528.6591
 123  460.3734
 124  514.929
 125  540.3695
 126  478.8466
 127  434.2849
 128  356.1971
 129  450.4137
 130  375.8587
 131  370.4787
 132  419.5786
 133  418.1797
 134  373.8319
 135  349.3375
 136  401.6833
 137  388.781
 138  433.6825
 139  410.2114
 140  551.1199
 141  421.8596
 142  440.6103
 143  469.4257
 144  449.1858
 145  410.6726
 146  460.3988
 147  478.4207
 148  438.4755
 149  473.0411
 150  459.9496
 151  590.4965
 152  360.8459
 153  288.285
 154  388.8409
 155  522.7561
 156  424.371
 157  419.0232
 158  503.3001
 159  334.433
 160  418.075
 161  477.5995
 162  530.5339
 163  578.1817
 164  543.3959
 165  582.3865
 166  448.9181
 167  406.3334
 168  406.0536
 169  433.3921
 170  335.1196
 171  289.4971
 172  374.5592
 173  511.7913
 174  500.9394
 175  426.9143
 176  481.5657
 177  455.4971
 178  418.4967
 179  493.3388
 180  579.4315
 181  498.6364
 182  421.6108
 183  384.1923
 184  382.7883
 185  457.6758
 186  570.479
 187  411.4227
 188  399.9962
 189  538.7271
 190  541.9703
 191  529.8245
 192  454.8681
 193  588.7835
 194  609.9341
 195  454.6629
 196  587.9189
 197  608.7598
 198  658.8749
 199  695.523
 200  580.594
 201  414.6558
 202  505.1492
 203  486.0977
 204  466.1195
 205  450.2005
 206  436.5059
 207  533.4262
 208  419.0825
 209  492.7708
 210  581.3093
 211  436.9881
 212  448.0522
 213  576.2693
 214  580.3696
 215  573.5985
 216  425.6965
 217  411.5125
 218  399.1674
 219  484.6776
 220  538.3206
 221  478.5292
 222  493.3061
 223  415.8732
 224  541.5717
 225  510.1867
 226  530.4161
 227  532.4509
 228  490.8539
 229  409.2153
 230  398.6481
 231  377.9037
 232  417.1905
 233  521.5749
 234  548.0989
 235  410.725
 236  433.6651
 237  511.63
 238  390.8873
 239  422.9168
 240  457.9182
 241  433.5719
 242  413.234
 243  460.0137
 244  536.9203
 245  420.3403
 246  310.8542
 247  393.5612
 248  425.2478
 249  378.8645
 250  369.7575
 251  420.8612
 252  362.3624
 253  326.0558
 254  464.1013
 255  389.4798
 256  429.372
 257  347.5892
 258  405.9546
 259  451.824
 260  552.366
 261  460.3785
 262  423.4604
 263  586.7197
 264  546.0793
 265  474.296
 266  473.9566
 267  364.2913
 268  326.2355
 269  402.6617
 270  407.2074
 271  494.2842
 272  511.9015
 273  397.4739
 274  340.3078
 275  340.0058
 276  400.3766
 277  410.7663
 278  364.7261
 279  442.3291
 280  519.9755
 281  510.7821
 282  556.0316
 283  484.5465
 284  328.1159
 285  395.782
 286  387.6958
 287  408.7121
 288  440.7432
 289  468.0403
 290  465.2298
 291  389.3384
 292  408.4546
 293  336.0955
 294  457.6583
 295  515.9512
 296  449.2065
 297  429.5065
 298  380.5845
 299  496.9748
 300  306.1696
 301  426.3546
 302  553.2429
 303  479.7913
 304  500.3618
 305  361.1011
 306  430.8844
 307  425.709
 308  416.6283
 309  481.1596
 310  435.3745
 311  386.8081
 312  433.0742
 313  411.8833
 314  285.3614
 315  268.9717
 316  302.1945
 317  226.0795
 318  404.1359
 319  316.7451
 320  328.3836
 321  329.616
 322  339.6262
 323  317.2769
 324  386.5632
 325  425.1049
 326  446.8427
 327  476.5206
 328  411.6895
 329  364.5817
 330  375.2405
 331  392.3041
 332  401.8929
 333  433.0312
 334  401.0593
 335  431.8881
 336  393.686
 337  379.7923
 338  311.0835
 339  425.8531
 340  399.3177
 341  418.1394
 342  411.153
 343  320.4545
 344  353.6763
 345  444.9996
 346  443.243
 347  443.0786
 348  435.7172
 349  355.7112
 350  443.369
 351  459.9787
 352  493.0094
 353  434.5833
 354  349.3025
 355  311.7742
 356  397.7356
 357  440.6797
 358  433.563
 359  460.5142
 360  458.9179
 361  433.9347
 362  395.2516
 363  509.5263
 364  577.0564
 365  546.0333
 366  559.1007
 367  595.0732
 368  713.0674
 369  832.7213
 370  1012.612
 371  1108.21
 372  1155.078
 373  992.3608
 374  733.8268
 375  561.5636
 376  427.0776
 377  400.3691
 378  456.029
 379  455.2344
 380  542.08
 381  581.8965
 382  577.4626
 383  627.2601
 384  564.089
 385  533.6953
 386  470.4884
 387  509.963
 388  531.5627
 389  458.494
 390  396.989
 391  427.9163
 392  487.2118
 393  535.1841
 394  467.7173
 395  393.7375
 396  369.1515
 397  461.6296
 398  461.9511
 399  458.2243
 400  465.8923
 401  456.4499
 402  459.0966
 403  491.0656
 404  398.9708
 405  602.2405
 406  575.1293
 407  492.8713
 408  463.5198
 409  449.5306
 410  417.2728
 411  423.9225
 412  480.7762
 413  443.4036
 414  359.7673
 415  397.3756
 416  465.1394
 417  509.4518
 418  430.3498
 419  418.9981
 420  491.6382
 421  511.1683
 422  446.8021
 423  537.2729
 424  475.4626
 425  410.6899
 426  329.3644
 427  399.3233
 428  376.2999
 429  407.674
 430  407.6382
 431  340.4372
 432  337.9279
 433  427.7411
 434  470.0217
 435  383.4666
 436  377.2874
 437  332.9613
 438  367.6518
 439  345.0316
 440  304.662
 441  454.2584
 442  421.8103
 443  356.8864
 444  395.1349
 445  443.7654
 446  333.3307
 447  323.545
 448  466.3048
 449  470.6858
 450  450.4792
 451  423.5348
 452  472.7587
 453  452.7177
 454  356.3905
 455  382.5477
 456  287.3195
 457  302.5744
 458  400.2486
 459  513.3967
 460  358.2467
 461  348.2445
 462  341.2274
 463  379.9031
 464  327.9814
 465  366.5749
 466  393.9901
 467  443.8291
 468  572.6609
 469  419.2798
 470  418.5958
 471  455.5819
 472  551.2603
 473  470.5714
 474  528.4656
 475  585.7475
 476  578.3078
 477  547.3505
 478  473.5772
 479  475.8743
 480  392.2361
 481  431.2953
 482  509.9874
 483  506.4641
 484  506.0254
 485  551.442
 486  469.8185
 487  484.8392
 488  425.2404
 489  423.5133
 490  384.2006
 491  307.3611
 492  429.359
 493  466.0416
 494  495.7718
 495  418.6049
 496  320.283
 497  374.9429
 498  579.5868
 499  422.475
 500  471.5413
 501  541.5841
 502  467.8712
 503  477.0006
 504  391.9304
 505  276.4269
 506  286.6759
 507  380.1269
 508  383.6624
 509  383.3594
 510  203.551
 511  263.3044
