# Input file       =  1183109348.111727_cleaned.dat
# Candidate        =  PSR_0332+5434
# Telescope        =  AR
# Epoch_topo       =  57937.395452682023
# Epoch_bary       =  N/A
# T_sample         =  0.002
# Data Folded      =  7340032
# Data Avg         =  1.89557312043221 
# Data StdDev      =  33.7349054759552 
# Profile Bins     =  256
# Profile Avg      =  54350.1697926479 
# Profile StdDev   =  5712.26690506551 
# Reduced chi-sqr  =  1.775
# Prob(Noise)      <  3.29e-13   (~7.2 sigma)
# P_topo (ms)      =  714.487671045927  +/- 0.000202
# P'_topo (s/s)    =  -0                +/- 1.07e-10
# P''_topo (s/s^2) =  0                 +/- 4.72e-14
# P_bary (ms)      =  N/A
# P'_bary (s/s)    =  N/A
# P''_bary (s/s^2) =  N/A
# P_orb (s)        =  N/A
# asin(i)/c (s)    =  N/A
# eccentricity     =  N/A
# w (rad)          =  N/A
# T_peri           =  N/A
######################################################
   0  59997.33
   1  63886.37
   2  63983.16
   3  61547.08
   4  60952.76
   5  60298.46
   6  61241.47
   7  59767.84
   8  59159.33
   9  58976.05
  10  56942.81
  11  57309.15
  12  58895.44
  13  61339.12
  14  65998.73
  15  66835.14
  16  63507.75
  17  65563.49
  18  63811.79
  19  59809.61
  20  58913.2
  21  56838.3
  22  57278.21
  23  58269.2
  24  55228.09
  25  53662.49
  26  54861.55
  27  53649.75
  28  52438.93
  29  52550.16
  30  55457.78
  31  60264.07
  32  64368.96
  33  64908.1
  34  70997.89
  35  66772.66
  36  64216.76
  37  65713.66
  38  63177.29
  39  60477.87
  40  57615.78
  41  57557.04
  42  55891.17
  43  54741.65
  44  54146.45
  45  53095.64
  46  52717.43
  47  53409.23
  48  48341.48
  49  51501.88
  50  54300.97
  51  56781.67
  52  55819.21
  53  58937.82
  54  58647.07
  55  54946.27
  56  54706.32
  57  61926.69
  58  60925.07
  59  59785.54
  60  58584.74
  61  57341.73
  62  54999.76
  63  53646.93
  64  53305.73
  65  55620.14
  66  56294.55
  67  58017.52
  68  59085.4
  69  57452.44
  70  54093.43
  71  53124.12
  72  55119.51
  73  55740.96
  74  55740.01
  75  57152.79
  76  57409.2
  77  58154.98
  78  58167.24
  79  60497.77
  80  60568.69
  81  56531.33
  82  55759.79
  83  53867.33
  84  50783.34
  85  45342.62
  86  48411.54
  87  52237.4
  88  47604.98
  89  46730.89
  90  47826.99
  91  48559.48
  92  53588.31
  93  53677.09
  94  59021.51
  95  61156.74
  96  61831.03
  97  62032.58
  98  65133.28
  99  64724.86
 100  63182.04
 101  66103.71
 102  63841.17
 103  57980.45
 104  55172.46
 105  52145.41
 106  50550.3
 107  48223.33
 108  50007.27
 109  47756.59
 110  45858.53
 111  44343.15
 112  44467.95
 113  43291.61
 114  46771.13
 115  50076.93
 116  49905.88
 117  49581.48
 118  48174.2
 119  46056.71
 120  46317
 121  44313.02
 122  47212.81
 123  46434.4
 124  41965.82
 125  40719.77
 126  41688.29
 127  42203.15
 128  40419.49
 129  41586.57
 130  41316.14
 131  40521.05
 132  40321.71
 133  41113.24
 134  39869.57
 135  42408.91
 136  44077.08
 137  46089.21
 138  53295.18
 139  52135.08
 140  52871.89
 141  56273
 142  60202.14
 143  56318.01
 144  55539.86
 145  53047.62
 146  50706.15
 147  47889.89
 148  48094.46
 149  50605.51
 150  49578.25
 151  47986.1
 152  47504.4
 153  49963.1
 154  53720.31
 155  48622.07
 156  51943.83
 157  49962.34
 158  50842.14
 159  57143.57
 160  57375.09
 161  53279.46
 162  54133.66
 163  56023.08
 164  55522.23
 165  58227.89
 166  60664.04
 167  60415.88
 168  56536.88
 169  49974.22
 170  46153.25
 171  47253.6
 172  45149.94
 173  46187
 174  48991.75
 175  49903.5
 176  51767.7
 177  54635.82
 178  51827.57
 179  53112.26
 180  57297.77
 181  57282.52
 182  55177.8
 183  51983.8
 184  54685.53
 185  57686.49
 186  55520.7
 187  55561.36
 188  54329.47
 189  54374.55
 190  48307.86
 191  46095.8
 192  49384.75
 193  49459.54
 194  42337.39
 195  41419.04
 196  47453.56
 197  45765.14
 198  45937.27
 199  50953.45
 200  57211.65
 201  58210.14
 202  57049.42
 203  55006.53
 204  53797.34
 205  55639.84
 206  57733.62
 207  60505.83
 208  60068.42
 209  57643.95
 210  54320.27
 211  50269.29
 212  47404.73
 213  46862.32
 214  49113.72
 215  45896.5
 216  45223.8
 217  43635.11
 218  44498.05
 219  47526.08
 220  47627.19
 221  50028.92
 222  51859.15
 223  51542.09
 224  53544.39
 225  52419.88
 226  56533.16
 227  61318.58
 228  63073.76
 229  64143.76
 230  61123.07
 231  58234.2
 232  51446.56
 233  51805.72
 234  54030.7
 235  52784.96
 236  55469.57
 237  53617.71
 238  57187.68
 239  60020.23
 240  55963.49
 241  55693.52
 242  51957.1
 243  52388.44
 244  55100.74
 245  57153.96
 246  57581.73
 247  60341.45
 248  64662.14
 249  66949.08
 250  72778.65
 251  68869.22
 252  67573.62
 253  67607.52
 254  62743.59
 255  65789.34
