# Input file       =  1183510533.099951_cleaned.dat
# Candidate        =  PSR_0332+5434
# Telescope        =  AR
# Epoch_topo       =  57942.038797453140
# Epoch_bary       =  N/A
# T_sample         =  0.002
# Data Folded      =  7405568
# Data Avg         =  0.0247748301343228
# Data StdDev      =  1.00003082643901 
# Profile Bins     =  512
# Profile Avg      =  358.345441073369 
# Profile StdDev   =  120.270078410935 
# Reduced chi-sqr  =  1.457
# Prob(Noise)      <  5.85e-11   (~6.4 sigma)
# P_topo (ms)      =  714.483785215324  +/- 0.000215
# P'_topo (s/s)    =  -0                +/- 1.12e-10
# P''_topo (s/s^2) =  0                 +/- 4.92e-14
# P_bary (ms)      =  N/A
# P'_bary (s/s)    =  N/A
# P''_bary (s/s^2) =  N/A
# P_orb (s)        =  N/A
# asin(i)/c (s)    =  N/A
# eccentricity     =  N/A
# w (rad)          =  N/A
# T_peri           =  N/A
######################################################
   0  1224.995
   1  1113.124
   2  929.8023
   3  542.2153
   4  373.5107
   5  433.2553
   6  404.5928
   7  427.218
   8  414.3708
   9  255.644
  10  125.0191
  11  253.8934
  12  301.3658
  13  305.3256
  14  337.7262
  15  449.3252
  16  509.896
  17  319.1953
  18  280.1831
  19  298.9789
  20  252.8367
  21  232.9133
  22  296.8032
  23  438.1456
  24  305.4044
  25  256.6837
  26  237.0471
  27  382.8204
  28  288.5466
  29  242.0793
  30  251.1648
  31  210.1439
  32  245.961
  33  290.9295
  34  360.6664
  35  255.5072
  36  278.6805
  37  335.7533
  38  248.1483
  39  319.0156
  40  348.1319
  41  356.895
  42  257.2439
  43  326.1689
  44  384.8986
  45  445.2864
  46  350.3915
  47  356.403
  48  457.3513
  49  401.1069
  50  377.9327
  51  359.6606
  52  330.4894
  53  318.0621
  54  400.5979
  55  345.7852
  56  360.2531
  57  348.6527
  58  307.4987
  59  225.969
  60  326.5536
  61  382.8439
  62  361.7136
  63  353.251
  64  422.0568
  65  347.081
  66  279.7357
  67  300.8309
  68  355.0188
  69  377.503
  70  349.9625
  71  337.7079
  72  298.9407
  73  337.0365
  74  410.4319
  75  374.2552
  76  354.6025
  77  397.7178
  78  332.2611
  79  382.4247
  80  430.8609
  81  395.1577
  82  366.1711
  83  363.1078
  84  283.3388
  85  402.1891
  86  413.477
  87  499.5316
  88  325.235
  89  406.7562
  90  558.2975
  91  450.6741
  92  331.3216
  93  349.2311
  94  394.5206
  95  501.4313
  96  540.7767
  97  373.762
  98  297.1973
  99  312.3476
 100  331.3882
 101  282.2603
 102  383.0929
 103  311.0712
 104  284.4152
 105  236.84
 106  292.3089
 107  230.1667
 108  308.92
 109  326.9527
 110  314.0157
 111  328.231
 112  329.3739
 113  298.8535
 114  301.1086
 115  423.9275
 116  337.9941
 117  330.1188
 118  323.2856
 119  428.3987
 120  322.3586
 121  227.2718
 122  306.6998
 123  388.8518
 124  190.8799
 125  217.0698
 126  178.7214
 127  250.9452
 128  192.8004
 129  195.0784
 130  271.0042
 131  255.3746
 132  306.859
 133  345.1865
 134  177.4176
 135  193.0391
 136  329.1694
 137  384.1425
 138  343.9507
 139  347.1565
 140  281.6016
 141  224.9743
 142  280.9873
 143  325.5576
 144  263.3227
 145  329.8538
 146  435.8322
 147  358.0687
 148  284.5776
 149  280.6597
 150  378.5111
 151  362.9213
 152  232.4057
 153  135.8976
 154  274.0017
 155  247.7856
 156  400.5696
 157  392.8029
 158  410.6322
 159  385.1164
 160  223.1789
 161  318.3157
 162  317.5174
 163  466.203
 164  440.1197
 165  397.2695
 166  430.3354
 167  472.4171
 168  398.4576
 169  484.7903
 170  489.3262
 171  456.5829
 172  426.5396
 173  395.0242
 174  479.6111
 175  420.797
 176  421.9246
 177  340.6034
 178  367.0875
 179  353.2464
 180  358.3888
 181  431.0953
 182  407.1226
 183  390.8573
 184  424.7948
 185  471.2215
 186  344.233
 187  304.8939
 188  258.0475
 189  351.0489
 190  344.8037
 191  262.8418
 192  336.1129
 193  312.3839
 194  270.4445
 195  314.7284
 196  331.8526
 197  297.3987
 198  275.5504
 199  332.5233
 200  321.0508
 201  232.6372
 202  361.3772
 203  445.0303
 204  333.686
 205  284.0514
 206  305.5893
 207  302.5182
 208  331.7136
 209  363.9363
 210  410.563
 211  409.226
 212  385.2398
 213  326.3026
 214  200.6809
 215  225.97
 216  314.4589
 217  348.996
 218  351.2505
 219  327.084
 220  432.2079
 221  497.7737
 222  358.0649
 223  261.4232
 224  269.7839
 225  284.6251
 226  284.3365
 227  263.0555
 228  362.9789
 229  449.2965
 230  409.7014
 231  251.5368
 232  261.8689
 233  258.4615
 234  427.7524
 235  405.0878
 236  425.7222
 237  374.5203
 238  361.7776
 239  373.8053
 240  221.4039
 241  366.0858
 242  379.7811
 243  341.8588
 244  411.1865
 245  302.6016
 246  284.47
 247  413.2227
 248  472.9107
 249  461.5906
 250  387.4886
 251  474.6249
 252  450.3246
 253  318.9566
 254  351.116
 255  387.1938
 256  348.3379
 257  345.0116
 258  406.7494
 259  470.1099
 260  417.6059
 261  337.5157
 262  366.3703
 263  490.0928
 264  418.3578
 265  325.2515
 266  276.8738
 267  379.7312
 268  160.4019
 269  242.3667
 270  337.9319
 271  345.0828
 272  166.3879
 273  229.4026
 274  237.4772
 275  259.5753
 276  282.1842
 277  307.5655
 278  360.1194
 279  316.8088
 280  303.732
 281  163.7169
 282  145.4462
 283  235.9214
 284  294.4271
 285  234.9084
 286  214.8513
 287  228.3905
 288  394.0736
 289  288.3189
 290  267.9856
 291  326.4804
 292  398.5187
 293  386.4131
 294  353.0801
 295  438.527
 296  358.922
 297  321.9714
 298  332.7518
 299  358.3621
 300  491.5743
 301  419.0446
 302  400.5248
 303  398.7149
 304  379.2722
 305  399.4798
 306  302.9384
 307  340.9109
 308  377.0652
 309  339.2445
 310  371.4782
 311  342.5263
 312  445.3108
 313  562.1279
 314  459.4126
 315  426.766
 316  402.7602
 317  439.8618
 318  439.4131
 319  321.9791
 320  362.3427
 321  404.1254
 322  419.0451
 323  421.9166
 324  415.2034
 325  389.0224
 326  310.1175
 327  386.8591
 328  409.9935
 329  428.4058
 330  456.4229
 331  321.7915
 332  374.0219
 333  363.6912
 334  413.546
 335  435.4445
 336  371.8915
 337  326.1893
 338  413.45
 339  460.3784
 340  448.5658
 341  332.669
 342  341.1482
 343  356.7993
 344  310.9986
 345  382.2763
 346  377.1111
 347  356.9858
 348  358.6603
 349  256.6226
 350  308.9554
 351  391.9113
 352  223.3458
 353  218.6973
 354  370.6614
 355  416.5714
 356  352.4125
 357  332.5149
 358  383.2455
 359  377.1559
 360  184.4548
 361  269.1156
 362  331.5827
 363  287.8763
 364  373.7769
 365  301.0759
 366  351.1212
 367  244.2639
 368  243.9113
 369  321.9529
 370  357.0143
 371  328.3491
 372  530.0734
 373  459.528
 374  380.0223
 375  408.2099
 376  450.0711
 377  460.6475
 378  342.136
 379  261.194
 380  315.5483
 381  317.9885
 382  319.6446
 383  328.6469
 384  355.795
 385  362.9294
 386  409.7882
 387  387.0524
 388  445.6208
 389  391.9976
 390  395.7716
 391  490.3978
 392  527.9736
 393  385.8165
 394  510.4494
 395  479.1358
 396  419.0733
 397  295.079
 398  347.043
 399  454.7428
 400  383.4076
 401  412.9393
 402  385.5059
 403  390.8485
 404  381.7184
 405  333.4972
 406  275.4533
 407  383.506
 408  380.5315
 409  379.0187
 410  440.9937
 411  410.0247
 412  504.3687
 413  459.2795
 414  377.3414
 415  268.9737
 416  400.527
 417  363.9113
 418  314.1304
 419  321.9023
 420  325.3112
 421  312.1223
 422  373.4949
 423  399.1954
 424  326.8808
 425  294.5675
 426  350.5864
 427  422.9714
 428  375.203
 429  451.7274
 430  418.1234
 431  408.9202
 432  386.8452
 433  361.6148
 434  425.0822
 435  366.2837
 436  269.1918
 437  224.4288
 438  189.5485
 439  365.6519
 440  299.8768
 441  340.6218
 442  410.1677
 443  185.787
 444  330.713
 445  369.3378
 446  262.0555
 447  232.8422
 448  285.796
 449  369.5479
 450  407.0998
 451  421.6237
 452  384.7953
 453  382.0014
 454  264.4732
 455  279.9802
 456  321.7621
 457  347.5058
 458  449.7987
 459  436.1142
 460  337.1075
 461  282.8563
 462  338.242
 463  290.1917
 464  347.96
 465  346.4233
 466  325.9099
 467  312.685
 468  318.8408
 469  249.1759
 470  305.8895
 471  292.7792
 472  373.1576
 473  458.0003
 474  477.3521
 475  266.8922
 476  213.8395
 477  408.8326
 478  469.8308
 479  415.1186
 480  313.2492
 481  326.957
 482  297.5875
 483  302.0506
 484  284.0533
 485  547.4785
 486  486.7809
 487  391.2683
 488  322.0792
 489  280.4775
 490  293.9499
 491  316.2364
 492  436.8574
 493  486.4118
 494  373.4383
 495  392.9717
 496  376.8478
 497  299.4773
 498  336.5815
 499  291.8671
 500  259.1131
 501  375.0429
 502  484.5947
 503  419.129
 504  461.5131
 505  470.0207
 506  518.6191
 507  485.7345
 508  457.6967
 509  755.4744
 510  923.8252
 511  1116.902
