# Input file       =  1183195541.119305_cleaned.dat
# Candidate        =  PSR_0332+5434
# Telescope        =  AR
# Epoch_topo       =  57938.393056936402
# Epoch_bary       =  N/A
# T_sample         =  0.002
# Data Folded      =  7340032
# Data Avg         =  0.276642446925897
# Data StdDev      =  6.55828718214449 
# Profile Bins     =  512
# Profile Avg      =  3965.98355107657 
# Profile StdDev   =  785.243637748985 
# Reduced chi-sqr  =  0.926
# Prob(Noise)      <  0.885   (~0.0 sigma)
# P_topo (ms)      =  714.486895550596  +/- 0.000133
# P'_topo (s/s)    =  -0                +/- 7.04e-11
# P''_topo (s/s^2) =  0                 +/- 3.11e-14
# P_bary (ms)      =  N/A
# P'_bary (s/s)    =  N/A
# P''_bary (s/s^2) =  N/A
# P_orb (s)        =  N/A
# asin(i)/c (s)    =  N/A
# eccentricity     =  N/A
# w (rad)          =  N/A
# T_peri           =  N/A
######################################################
   0  4286.064
   1  4661.402
   2  4292.172
   3  3902.835
   4  4513.391
   5  4307.083
   6  4194.293
   7  4109.931
   8  4177.423
   9  4050.298
  10  4233.452
  11  4200.474
  12  3789.059
  13  4168.266
  14  4375.876
  15  4615.623
  16  4129.232
  17  3944.703
  18  4036.164
  19  4166.206
  20  4232.208
  21  4026.451
  22  3883.981
  23  4017.361
  24  4017.085
  25  4146.503
  26  4337.302
  27  4218.663
  28  3766.608
  29  3424.233
  30  3298.075
  31  3383.068
  32  3290.236
  33  3398.831
  34  3534.667
  35  3749.09
  36  3372.564
  37  3518.049
  38  3939.926
  39  3510.302
  40  3511.865
  41  3726.709
  42  3438.176
  43  3996.51
  44  3869.149
  45  3988.294
  46  3558.108
  47  3460.187
  48  3629.618
  49  4088.948
  50  4062.571
  51  3509.236
  52  3760.908
  53  4226.643
  54  4285.784
  55  4053.886
  56  3775.835
  57  4195.006
  58  4348.284
  59  4035.484
  60  3992.951
  61  4338.466
  62  4152.695
  63  4391.08
  64  4389.048
  65  4024.344
  66  3976.452
  67  4095.134
  68  4104.372
  69  3848.297
  70  3871.021
  71  3798.058
  72  3493.15
  73  3348.884
  74  3346.886
  75  3169.567
  76  3031.621
  77  3306.267
  78  2837.641
  79  2537.568
  80  2705.214
  81  3093.701
  82  3091.61
  83  3088.87
  84  3047.53
  85  3084.189
  86  2835.714
  87  3133.431
  88  3557.419
  89  3612.479
  90  3908.449
  91  3535.298
  92  3921.213
  93  4245.995
  94  3844.204
  95  3903.668
  96  4321.705
  97  4553.463
  98  4532.959
  99  3912.851
 100  3532.501
 101  4385.082
 102  4516.052
 103  4117.4
 104  3919.198
 105  3667.328
 106  4155.245
 107  4173.796
 108  3617.805
 109  3599.594
 110  3742.948
 111  4056.254
 112  4053.391
 113  3824.931
 114  3980.142
 115  3839.95
 116  3658.502
 117  3548.542
 118  3210.612
 119  3067.409
 120  3180.259
 121  3552.432
 122  3639.507
 123  3472.96
 124  3074.685
 125  3339.043
 126  3388.2
 127  3124.315
 128  3679.991
 129  3875.347
 130  3753.205
 131  3637.904
 132  3414.434
 133  2777.496
 134  2714.504
 135  3451.702
 136  3903.878
 137  3528.509
 138  3320.22
 139  3768.533
 140  4063.964
 141  3738.962
 142  3918.901
 143  3571.246
 144  3571.065
 145  3600.075
 146  3791.252
 147  3827.042
 148  3962.077
 149  4451.615
 150  3909.173
 151  3937.886
 152  3663.104
 153  3674.411
 154  3920.737
 155  3492.555
 156  3464.106
 157  3514.537
 158  3903.1
 159  4287.039
 160  4123.721
 161  3494.512
 162  3309.879
 163  3535.221
 164  3964.918
 165  3607.043
 166  3370.589
 167  3751.844
 168  4301.263
 169  4640.605
 170  4479.522
 171  4412.279
 172  4544.862
 173  4609.274
 174  5107.621
 175  5357.447
 176  5513.927
 177  5801.528
 178  5984.362
 179  5992.794
 180  6097.589
 181  5061.618
 182  4598.999
 183  4812.156
 184  4643.174
 185  4039.188
 186  3978.596
 187  4825.454
 188  5128.737
 189  4646.153
 190  4947.048
 191  4448.567
 192  4252.446
 193  4000.437
 194  4382.799
 195  4743.428
 196  5141.569
 197  4702.242
 198  4398.757
 199  4123.055
 200  4197.404
 201  4463.002
 202  4772.015
 203  4842.603
 204  4697.955
 205  4535.376
 206  4727.497
 207  4277.584
 208  4036.729
 209  4173.994
 210  3924.312
 211  4427.463
 212  4522.284
 213  3935.713
 214  3674.458
 215  4063.959
 216  4645.124
 217  4680.904
 218  4662.268
 219  4437.296
 220  4629.414
 221  4461.299
 222  4822.441
 223  4531.936
 224  4419.151
 225  4522.589
 226  4640.17
 227  4472.025
 228  4645.72
 229  4365.433
 230  4673.628
 231  4819.345
 232  5020.178
 233  4832.282
 234  4586.83
 235  4716.465
 236  4392.694
 237  4303.055
 238  4321.73
 239  4427.062
 240  4535.721
 241  4063.561
 242  4105.687
 243  3917.462
 244  3984.287
 245  4312.386
 246  4397.054
 247  4170.199
 248  3758.529
 249  4222.978
 250  4502.163
 251  4113.487
 252  4441.737
 253  4627.398
 254  4457.211
 255  4665.463
 256  4654.572
 257  4103.196
 258  4517.846
 259  4172.874
 260  4254.709
 261  4219.776
 262  4139.788
 263  4017.983
 264  4389.137
 265  4384.026
 266  4432.495
 267  4824.34
 268  4981.746
 269  4995.819
 270  4828.142
 271  4596.63
 272  4527.967
 273  5009.253
 274  5231.542
 275  5204.489
 276  4777.703
 277  4604.767
 278  4592.374
 279  4738.217
 280  4330.312
 281  3930.756
 282  4239.806
 283  4644.218
 284  4923.253
 285  4744.667
 286  4371.73
 287  4015.501
 288  4367.717
 289  4240.83
 290  4107.255
 291  4275.432
 292  4354.045
 293  4574.418
 294  4561.118
 295  4033.151
 296  4005.946
 297  4335.229
 298  4286.685
 299  3927.11
 300  3669.441
 301  3955.04
 302  4634.721
 303  4663.957
 304  4650.787
 305  4421.99
 306  4186.816
 307  4454.059
 308  4782.998
 309  4310.46
 310  4802.399
 311  4998.009
 312  4735.039
 313  4548.149
 314  4594.569
 315  4549.587
 316  4866.859
 317  4950.543
 318  4957.178
 319  5015.667
 320  4759.711
 321  4672.964
 322  4671.609
 323  4481.548
 324  4068.89
 325  3776.47
 326  3669.318
 327  3708.592
 328  3443.662
 329  3578.125
 330  3570.577
 331  3453.81
 332  3731.543
 333  3185.985
 334  3333.148
 335  3535.352
 336  3877.934
 337  3791.889
 338  3475.052
 339  3272.316
 340  3373.278
 341  3447.188
 342  3157.526
 343  3207.734
 344  3163.396
 345  3678.993
 346  4115.466
 347  3881.384
 348  3715.427
 349  3673.794
 350  3613.052
 351  3955.18
 352  3674.362
 353  3693.155
 354  3935.418
 355  3827.578
 356  3933.567
 357  3832.848
 358  3927.244
 359  4325.293
 360  4247.756
 361  3901.965
 362  3323.5
 363  3506.127
 364  3731.605
 365  3593.446
 366  3767.955
 367  3743.315
 368  4065.56
 369  4389.152
 370  4224.663
 371  3865.354
 372  3304.457
 373  3389.572
 374  3392.894
 375  3651.854
 376  3563.192
 377  3305.86
 378  3645.142
 379  3751.662
 380  3551.673
 381  3260.087
 382  3222.413
 383  3409.086
 384  3324.531
 385  3125.998
 386  3024.026
 387  3201.611
 388  3376.784
 389  3688.276
 390  3652.065
 391  3622.102
 392  3390.704
 393  3780.044
 394  3804.078
 395  3545.476
 396  3575.096
 397  3543.533
 398  3680.633
 399  3600.436
 400  3548.536
 401  3174.503
 402  3523.691
 403  3505.42
 404  3465.291
 405  3404.499
 406  3593.849
 407  3540.875
 408  3696.975
 409  3319.995
 410  3412.553
 411  3429.824
 412  3850.214
 413  3764.085
 414  3633.323
 415  3324.778
 416  2917.63
 417  3177.746
 418  3313.713
 419  2883.757
 420  3025.142
 421  3465.652
 422  3642.9
 423  3910.797
 424  3276.845
 425  3641.465
 426  3859.034
 427  3638.605
 428  3696.277
 429  3666.067
 430  3839.492
 431  4176.917
 432  3839.792
 433  3409.743
 434  3486.416
 435  3088.548
 436  2955.729
 437  3621.159
 438  3728.862
 439  3412.523
 440  3544.463
 441  3764.851
 442  3812.899
 443  3572.965
 444  3747.938
 445  3677.43
 446  3682.905
 447  3738.402
 448  3930.157
 449  4000.565
 450  3895.736
 451  3886.741
 452  3528.708
 453  3148.877
 454  3256.712
 455  3643.758
 456  3332.663
 457  3382.074
 458  3263.523
 459  3632.591
 460  3553.33
 461  3457.531
 462  2955.372
 463  2904.189
 464  3663.986
 465  4108.105
 466  4211.187
 467  3774.625
 468  3538.646
 469  3474.319
 470  3458.666
 471  3518.698
 472  3342.413
 473  4078.386
 474  4309.771
 475  4322.375
 476  4001.114
 477  3617.6
 478  3963.509
 479  4187.203
 480  4114.142
 481  4051.864
 482  4363.346
 483  4533.929
 484  4568.854
 485  4654.01
 486  4941.653
 487  4418.064
 488  4092.636
 489  3904.19
 490  4063.065
 491  3630.214
 492  3510.753
 493  3707.014
 494  3825.342
 495  4004.756
 496  3555.771
 497  3323.479
 498  3332.402
 499  3525.517
 500  3865.766
 501  3518.352
 502  3525.565
 503  3746.138
 504  3767.897
 505  3720.359
 506  4095.319
 507  3595.241
 508  3961.803
 509  4648.256
 510  4294.923
 511  4121.434
