# Input file       =  1183424315.08945_cleaned.dat
# Candidate        =  PSR_0332+5434
# Telescope        =  AR
# Epoch_topo       =  57941.040903813075
# Epoch_bary       =  N/A
# T_sample         =  0.002
# Data Folded      =  7405568
# Data Avg         =  0.0242120883261575
# Data StdDev      =  1.0000930166223  
# Profile Bins     =  512
# Profile Avg      =  350.406920776718 
# Profile StdDev   =  120.277557798592 
# Reduced chi-sqr  =  1.126
# Prob(Noise)      <  0.0257   (~1.9 sigma)
# P_topo (ms)      =  714.484526378389  +/- 0.00023
# P'_topo (s/s)    =  -0                +/- 1.2e-10
# P''_topo (s/s^2) =  0                 +/- 5.25e-14
# P_bary (ms)      =  N/A
# P'_bary (s/s)    =  N/A
# P''_bary (s/s^2) =  N/A
# P_orb (s)        =  N/A
# asin(i)/c (s)    =  N/A
# eccentricity     =  N/A
# w (rad)          =  N/A
# T_peri           =  N/A
######################################################
   0  418.4095
   1  440.6795
   2  284.8293
   3  253.4236
   4  261.4338
   5  355.9286
   6  328.7281
   7  315.5701
   8  269.4311
   9  249.8106
  10  260.2309
  11  203.23
  12  358.8672
  13  424.8975
  14  449.5328
  15  393.1588
  16  375.9539
  17  432.1536
  18  281.6989
  19  307.553
  20  403.4584
  21  435.5748
  22  331.6243
  23  307.5185
  24  280.0966
  25  317.4949
  26  343.8336
  27  266.9893
  28  309.9332
  29  274.626
  30  169.0837
  31  196.1826
  32  153.9477
  33  303.5453
  34  272.2564
  35  257.1607
  36  225.8919
  37  283.7669
  38  239.2639
  39  241.01
  40  263.738
  41  448.5581
  42  409.7983
  43  238.3627
  44  276.3708
  45  306.9533
  46  365.7584
  47  355.0599
  48  424.7832
  49  458.061
  50  401.4239
  51  391.9456
  52  376.9738
  53  389.3587
  54  287.5894
  55  302.6007
  56  357.6053
  57  350.5943
  58  261.5332
  59  275.7428
  60  294.7931
  61  221.107
  62  299.3342
  63  407.9271
  64  393.0101
  65  316.1352
  66  316.1387
  67  376.3875
  68  324.783
  69  322.4585
  70  316.6239
  71  341.9127
  72  357.8078
  73  270.1439
  74  326.2145
  75  381.2654
  76  270.2142
  77  249.7165
  78  202.2705
  79  295.5052
  80  310.9252
  81  317.8544
  82  180.5711
  83  229.601
  84  284.5251
  85  298.4884
  86  294.2349
  87  253.9584
  88  336.209
  89  222.8274
  90  199.5719
  91  275.7082
  92  227.6303
  93  343.7786
  94  308.2488
  95  375.295
  96  481.6189
  97  321.3686
  98  270.615
  99  298.1998
 100  292.8473
 101  382.0229
 102  456.7222
 103  416.5227
 104  467.7187
 105  451.5562
 106  430.5915
 107  515.7275
 108  435.9578
 109  382.5088
 110  292.9547
 111  369.8916
 112  367.2251
 113  323.7779
 114  344.7215
 115  432.5227
 116  384.4258
 117  447.5724
 118  447.3888
 119  433.6293
 120  409.1342
 121  290.6718
 122  258.4429
 123  333.5426
 124  306.7401
 125  348.342
 126  363.9241
 127  251.6118
 128  245.0424
 129  313.9415
 130  324.293
 131  399.6626
 132  205.7665
 133  212.0066
 134  258.1501
 135  366.6686
 136  337.3653
 137  226.9545
 138  247.5897
 139  302.984
 140  231.7636
 141  214.1347
 142  295.2718
 143  303.6881
 144  347.8676
 145  390.8373
 146  397.5471
 147  275.3523
 148  302.6942
 149  227.6786
 150  348.3074
 151  343.8778
 152  280.5558
 153  289.13
 154  271.5758
 155  204.5307
 156  170.8804
 157  237.8956
 158  274.8695
 159  155.9626
 160  265.1673
 161  391.955
 162  414.3769
 163  429.2343
 164  469.1215
 165  392.5669
 166  408.1701
 167  374.5182
 168  296.9749
 169  332.1602
 170  342.3743
 171  341.7964
 172  359.3023
 173  321.3824
 174  336.081
 175  357.2328
 176  380.0337
 177  298.8326
 178  318.1009
 179  379.7449
 180  350.9433
 181  405.2968
 182  461.6099
 183  388.3133
 184  347.5395
 185  359.1155
 186  411
 187  307.1807
 188  403.4006
 189  436.2963
 190  448.7482
 191  440.2149
 192  399.5248
 193  459.5448
 194  497.8303
 195  387.66
 196  279.2351
 197  427.0016
 198  460.8145
 199  535.0228
 200  431.9899
 201  423.1412
 202  445.4413
 203  501.9752
 204  501.4034
 205  429.5187
 206  263.9439
 207  267.3471
 208  252.487
 209  247.305
 210  265.1556
 211  380.5445
 212  438.6893
 213  386.8669
 214  321.5095
 215  293.4518
 216  255.5685
 217  316.6219
 218  338.3583
 219  279.4855
 220  282.56
 221  317.8358
 222  312.856
 223  213.9919
 224  235.3649
 225  281.524
 226  271.3133
 227  275.9365
 228  296.1931
 229  341.7956
 230  290.296
 231  217.1251
 232  284.7882
 233  372.5159
 234  208.9427
 235  336.8054
 236  434.0949
 237  391.547
 238  246.9265
 239  310.2255
 240  334.5985
 241  267.1251
 242  353.2164
 243  452.7172
 244  399.7172
 245  247.9866
 246  348.2581
 247  419.1913
 248  334.1263
 249  401.8703
 250  337.729
 251  368.2023
 252  327.1751
 253  292.6073
 254  309.1314
 255  254.1965
 256  318.2966
 257  572.8793
 258  454.9422
 259  508.5663
 260  649.2797
 261  891.9821
 262  854.1032
 263  812.8758
 264  864.5827
 265  759.6556
 266  510.0076
 267  349.6194
 268  403.895
 269  369.862
 270  196.6615
 271  297.446
 272  359.4288
 273  377.1945
 274  396.0745
 275  229.8174
 276  262.4026
 277  334.3108
 278  329.6541
 279  430.8039
 280  449.7886
 281  261.8861
 282  226.5216
 283  225.0857
 284  341.101
 285  367.243
 286  265.8668
 287  276.9099
 288  252.5648
 289  303.0448
 290  371.0825
 291  251.2151
 292  299.1438
 293  254.9803
 294  261.1072
 295  301.2154
 296  249.7004
 297  350.8117
 298  350.3501
 299  299.812
 300  353.3259
 301  378.2312
 302  379.7339
 303  285.7892
 304  299.9426
 305  269.4554
 306  292.1476
 307  427.6099
 308  354.5495
 309  419.2955
 310  483.3677
 311  529.4551
 312  363.3881
 313  322.1403
 314  380.9355
 315  507.8612
 316  414.066
 317  335.8153
 318  363.9174
 319  419.1397
 320  275.746
 321  256.3674
 322  273.5245
 323  293.4558
 324  329.0216
 325  375.8128
 326  351.3524
 327  307.9924
 328  487.4739
 329  464.1079
 330  446.7011
 331  511.2964
 332  480.9043
 333  413.7332
 334  312.8444
 335  352.5694
 336  360.5177
 337  333.0245
 338  421.8631
 339  396.6951
 340  508.4984
 341  476.7708
 342  397.5995
 343  416.9431
 344  303.2787
 345  228.7482
 346  352.3503
 347  308.1915
 348  316.0593
 349  356.6901
 350  344.0074
 351  387.3521
 352  428.3227
 353  393.1238
 354  382.9802
 355  306.7779
 356  286.1433
 357  340.7474
 358  369.6638
 359  375.8341
 360  421.2422
 361  492.0352
 362  455.7245
 363  245.9796
 364  256.2469
 365  382.1292
 366  315.6547
 367  337.8813
 368  420.3129
 369  486.2834
 370  292.0072
 371  165.043
 372  175.8549
 373  319.9744
 374  287.2921
 375  266.7496
 376  275.0468
 377  199.2526
 378  182.5835
 379  228.7541
 380  291.8442
 381  322.3385
 382  253.3203
 383  309.2129
 384  352.0597
 385  381.5095
 386  362.8406
 387  253.1947
 388  361.0941
 389  415.7898
 390  282.6199
 391  278.109
 392  328.8397
 393  227.0783
 394  236.2926
 395  340.828
 396  307.3744
 397  406.0198
 398  437.1588
 399  372.688
 400  369.2741
 401  292.666
 402  338.2704
 403  404.5761
 404  392.1367
 405  400.7842
 406  394.2848
 407  395.4348
 408  479.2705
 409  471.7203
 410  347.4715
 411  336.446
 412  359.9253
 413  351.2428
 414  456.8267
 415  446.465
 416  444.2127
 417  433.8095
 418  496.6637
 419  396.0433
 420  350.8638
 421  351.1696
 422  450.1867
 423  463.99
 424  351.8007
 425  434.9905
 426  486.9259
 427  562.9879
 428  638.1927
 429  521.535
 430  337.8814
 431  328.7851
 432  371.358
 433  351.4086
 434  496.5925
 435  433.0733
 436  339.4465
 437  420.085
 438  366.0397
 439  289.0161
 440  315.1208
 441  377.7152
 442  337.3248
 443  389.318
 444  321.1377
 445  237.6282
 446  311.4683
 447  425.0869
 448  416.4623
 449  303.0281
 450  227.0047
 451  188.8439
 452  290.2155
 453  332.076
 454  346.0558
 455  458.6338
 456  355.9403
 457  276.1377
 458  216.8667
 459  325.4332
 460  335.6384
 461  323.6868
 462  366.706
 463  357.9487
 464  344.5728
 465  310.1219
 466  292.1453
 467  343.2632
 468  448.6653
 469  428.9427
 470  353.4477
 471  401.739
 472  337.6457
 473  343.1493
 474  398.7992
 475  350.2891
 476  401.5454
 477  426.7173
 478  427.7626
 479  370.8896
 480  430.5181
 481  311.3069
 482  397.4141
 483  414.6771
 484  391.822
 485  373.3805
 486  302.2933
 487  375.815
 488  456.6869
 489  361.9789
 490  354.6683
 491  360.2417
 492  280.057
 493  337.0868
 494  347.9333
 495  375.8001
 496  477.9705
 497  481.9108
 498  391.3109
 499  330.512
 500  387.8158
 501  371.8882
 502  358.5012
 503  449.082
 504  408.318
 505  247.1005
 506  237.6024
 507  340.2095
 508  386.4486
 509  430.4419
 510  404.8541
 511  331.5616
