# Input file       =  1184472772.105566_cleaned.dat
# Candidate        =  PSR_0332+5434
# Telescope        =  AR
# Epoch_topo       =  57953.175822981088
# Epoch_bary       =  N/A
# T_sample         =  0.002
# Data Folded      =  7340032
# Data Avg         =  0.0369622330524194
# Data StdDev      =  0.999873312175687
# Profile Bins     =  512
# Profile Avg      =  529.761037189813 
# Profile StdDev   =  119.717867658889 
# Reduced chi-sqr  =  1.639
# Prob(Noise)      <  3.15e-18   (~8.6 sigma)
# P_topo (ms)      =  714.476244383717  +/- 0.000353
# P'_topo (s/s)    =  -0                +/- 1.87e-10
# P''_topo (s/s^2) =  0                 +/- 8.23e-14
# P_bary (ms)      =  N/A
# P'_bary (s/s)    =  N/A
# P''_bary (s/s^2) =  N/A
# P_orb (s)        =  N/A
# asin(i)/c (s)    =  N/A
# eccentricity     =  N/A
# w (rad)          =  N/A
# T_peri           =  N/A
######################################################
   0  1362.675
   1  1253.394
   2  968.6063
   3  740.2009
   4  656.676
   5  660.4195
   6  615.2889
   7  577.5062
   8  528.1657
   9  551.7053
  10  519.4725
  11  590.2429
  12  697.241
  13  787.7531
  14  766.9169
  15  599.2631
  16  587.4898
  17  578.4236
  18  518.2134
  19  499.9507
  20  510.5598
  21  471.6112
  22  565.2943
  23  579.5785
  24  629.4513
  25  582.0536
  26  407.4438
  27  428.8078
  28  441.4105
  29  574.0049
  30  565.3695
  31  461.3683
  32  428.4375
  33  524.0177
  34  504.6377
  35  453.203
  36  458.3622
  37  591.9655
  38  528.8853
  39  430.0633
  40  511.2324
  41  517.9517
  42  633.2814
  43  646.085
  44  664.1177
  45  584.8366
  46  590.3278
  47  619.6694
  48  545.159
  49  393.6802
  50  598.8113
  51  558.7055
  52  471.637
  53  563.218
  54  552.8339
  55  546.0089
  56  504.9391
  57  524.3154
  58  715.7101
  59  587.6685
  60  471.277
  61  488.3319
  62  562.6116
  63  505.3887
  64  558.0613
  65  613.2179
  66  613.6259
  67  654.2015
  68  705.0397
  69  625.4754
  70  685.645
  71  778.5035
  72  672.624
  73  530.1635
  74  649.124
  75  733.813
  76  625.8174
  77  610.412
  78  597.1159
  79  653.7407
  80  645.1723
  81  503.8293
  82  602.5562
  83  677.2006
  84  626.769
  85  577.5219
  86  552.3901
  87  626.5076
  88  589.711
  89  623.0345
  90  648.8
  91  581.9106
  92  560.4386
  93  578.6107
  94  671.3326
  95  718.6502
  96  556.7364
  97  547.238
  98  603.826
  99  610.0125
 100  532.0626
 101  535.3575
 102  575.0927
 103  569.3736
 104  522.6057
 105  538.8199
 106  569.8371
 107  566.6355
 108  573.1874
 109  552.768
 110  556.6881
 111  634.7082
 112  677.6442
 113  743.7755
 114  637.0676
 115  588.0665
 116  604.3598
 117  536.4633
 118  530.6618
 119  542.8232
 120  528.1445
 121  596.7614
 122  616.3892
 123  602.6902
 124  554.4756
 125  566.1554
 126  512.4598
 127  439.5536
 128  450.6867
 129  572.021
 130  610.3376
 131  470.1426
 132  445.3813
 133  453.0638
 134  484.7509
 135  546.4345
 136  521.7031
 137  485.532
 138  494.5711
 139  495.393
 140  468.705
 141  485.252
 142  513.8135
 143  578.4553
 144  572.7269
 145  566.7943
 146  604.8128
 147  530.9759
 148  556.0227
 149  615.7437
 150  503.6852
 151  531.6252
 152  554.9613
 153  595.3849
 154  515.0768
 155  488.948
 156  460.9246
 157  460.4015
 158  450.562
 159  445.438
 160  567.94
 161  569.8103
 162  503.4565
 163  503.7575
 164  395.9479
 165  361.1792
 166  443.8728
 167  439.1157
 168  426.0833
 169  478.953
 170  461.2567
 171  523.9142
 172  439.3479
 173  388.9491
 174  385.1748
 175  403.2494
 176  491.6266
 177  493.1089
 178  531.8984
 179  524.6836
 180  390.9588
 181  408.4456
 182  441.2943
 183  435.3415
 184  506.0009
 185  563.3467
 186  465.6043
 187  486.5416
 188  482.4116
 189  413.9324
 190  319.6308
 191  353.6706
 192  505.3168
 193  516.8614
 194  382.7787
 195  406.9015
 196  499.5739
 197  541.3431
 198  581.7383
 199  361.8062
 200  390.7783
 201  388.7237
 202  544.5114
 203  571.0592
 204  573.5959
 205  699.6334
 206  566.6949
 207  428.858
 208  483.8405
 209  498.3716
 210  417.5704
 211  544.7391
 212  582.4203
 213  431.7202
 214  412.4376
 215  448.473
 216  508.8947
 217  513.8176
 218  531.7267
 219  554.3192
 220  469.3521
 221  538.066
 222  587.6792
 223  548.7595
 224  431.8731
 225  444.9513
 226  536.7393
 227  588.6287
 228  606.5939
 229  707.8969
 230  736.0585
 231  641.2899
 232  627.5588
 233  605.3419
 234  410.5149
 235  441.1436
 236  596.9245
 237  569.6365
 238  608.9207
 239  586.5447
 240  544.265
 241  459.2832
 242  403.364
 243  533.4896
 244  516.8303
 245  574.1635
 246  555.9922
 247  409.0028
 248  444.9507
 249  450.4726
 250  473.2438
 251  544.8512
 252  453.1046
 253  452.7896
 254  488.5514
 255  468.6949
 256  406.9215
 257  471.0454
 258  457.7521
 259  440.4033
 260  467.3623
 261  475.5636
 262  340.6125
 263  293.3589
 264  441.4215
 265  449.2703
 266  387.8351
 267  464.5811
 268  471.6177
 269  469.7101
 270  440.5717
 271  456.4241
 272  562.4956
 273  591.3661
 274  730.9031
 275  649.8874
 276  591.6924
 277  457.9579
 278  530.4905
 279  535.284
 280  602.2957
 281  600.3023
 282  487.3201
 283  507.2451
 284  503.7513
 285  482.8004
 286  579.3024
 287  592.2798
 288  586.0477
 289  579.141
 290  599.4429
 291  511.3715
 292  545.5388
 293  623.6481
 294  566.8466
 295  401.6406
 296  491.4341
 297  601.5764
 298  469.3133
 299  584.9907
 300  534.1077
 301  557.1575
 302  578.9543
 303  577.8658
 304  535.2396
 305  469.2863
 306  442.6913
 307  478.2845
 308  597.0314
 309  499.4439
 310  416.4875
 311  411.1997
 312  484.6696
 313  503.4822
 314  549.215
 315  552.4362
 316  454.7432
 317  458.9376
 318  468.7692
 319  446.9426
 320  402.8875
 321  463.8439
 322  526.4147
 323  418.6097
 324  412.7782
 325  357.8729
 326  431.4469
 327  462.5981
 328  377.0022
 329  460.6318
 330  479.3406
 331  449.2623
 332  465.3552
 333  515.2667
 334  504.3335
 335  421.0347
 336  436.7769
 337  447.9286
 338  443.5828
 339  525.9496
 340  535.1248
 341  506.2559
 342  479.704
 343  473.4826
 344  488.9911
 345  528.7137
 346  524.2817
 347  470.6395
 348  363.863
 349  499.9855
 350  538.0052
 351  471.3339
 352  422.8807
 353  439.8041
 354  483.2364
 355  434.2356
 356  413.8705
 357  471.308
 358  487.638
 359  435.6903
 360  486.1664
 361  458.324
 362  536.1462
 363  660.8526
 364  576.3051
 365  511.9375
 366  446.7846
 367  487.9655
 368  537.0717
 369  481.7976
 370  515.3026
 371  537.5488
 372  566.7858
 373  519.8577
 374  477.6102
 375  521.0353
 376  521.364
 377  495.2323
 378  403.8076
 379  473.4596
 380  530.0607
 381  525.1893
 382  400.0325
 383  454.5372
 384  510.4138
 385  497.1368
 386  526.9099
 387  610.6608
 388  595.0185
 389  618.5137
 390  490.2408
 391  462.1972
 392  401.0705
 393  438.8982
 394  527.425
 395  467.6709
 396  385.4524
 397  288.2073
 398  356.317
 399  360.1958
 400  318.4604
 401  359.2742
 402  489.011
 403  431.5888
 404  353.6986
 405  357.4664
 406  330.3269
 407  287.4161
 408  407.0917
 409  446.7754
 410  540.3945
 411  360.8658
 412  425.9131
 413  447.4912
 414  425.8311
 415  509.4808
 416  573.4304
 417  575.8195
 418  600.9832
 419  553.5648
 420  501.7884
 421  464.2094
 422  256.997
 423  485.9141
 424  471.0793
 425  437.0767
 426  455.6469
 427  447.9525
 428  430.7915
 429  353.2732
 430  451.1146
 431  572.566
 432  533.2669
 433  458.9771
 434  482.9163
 435  502.1112
 436  546.0553
 437  628.585
 438  658.7081
 439  633.2065
 440  545.8459
 441  530.837
 442  571.1367
 443  589.2786
 444  554.2171
 445  497.1436
 446  638.4841
 447  681.9603
 448  615.7463
 449  519.5256
 450  481.9161
 451  497.492
 452  498.4317
 453  447.7173
 454  504.3865
 455  520.155
 456  532.2892
 457  545.7585
 458  511.96
 459  548.4882
 460  541.0209
 461  576.3574
 462  546.2931
 463  541.0774
 464  543.1
 465  432.9048
 466  558.9134
 467  615.4146
 468  611.2789
 469  555.7206
 470  642.3312
 471  638.7977
 472  518.118
 473  468.7869
 474  463.6443
 475  548.3046
 476  547.43
 477  519.3779
 478  564.0712
 479  563.6912
 480  521.6208
 481  555.8978
 482  552.7178
 483  507.289
 484  537.2975
 485  498.6384
 486  481.3557
 487  469.6093
 488  531.1454
 489  621.8486
 490  602.4843
 491  610.929
 492  584.0901
 493  544.4247
 494  539.9245
 495  597.2878
 496  589.152
 497  539.2012
 498  501.2536
 499  497.8002
 500  564.2307
 501  581.6073
 502  559.7397
 503  542.7169
 504  657.7592
 505  713.1483
 506  723.1682
 507  743.5665
 508  682.4518
 509  1003.968
 510  1207.068
 511  1282.26
