# Input file       =  1184888937.102792_cleaned.dat
# Candidate        =  PSR_0332+5434
# Telescope        =  AR
# Epoch_topo       =  57957.992547486021
# Epoch_bary       =  N/A
# T_sample         =  0.002
# Data Folded      =  7143424
# Data Avg         =  0.143915173999213
# Data StdDev      =  4.98386329952405 
# Profile Bins     =  512
# Profile Avg      =  2007.89412457681 
# Profile StdDev   =  588.686878190909 
# Reduced chi-sqr  =  0.600
# Prob(Noise)      <  1   (~0.0 sigma)
# P_topo (ms)      =  714.473414513338  +/- 0.000208
# P'_topo (s/s)    =  -0                +/- 1.13e-10
# P''_topo (s/s^2) =  0                 +/- 5.13e-14
# P_bary (ms)      =  N/A
# P'_bary (s/s)    =  N/A
# P''_bary (s/s^2) =  N/A
# P_orb (s)        =  N/A
# asin(i)/c (s)    =  N/A
# eccentricity     =  N/A
# w (rad)          =  N/A
# T_peri           =  N/A
######################################################
   0  1835.414
   1  1844.393
   2  1958.026
   3  2201.92
   4  2162.722
   5  1889.277
   6  1909.052
   7  1499.415
   8  1458.243
   9  1591.716
  10  2018.067
  11  2195.714
  12  2278.373
  13  2073.573
  14  1648.862
  15  1346.334
  16  1537.076
  17  1693.932
  18  2045.122
  19  1993.219
  20  1798.933
  21  2351.442
  22  2308.464
  23  2001.643
  24  2074.451
  25  2100.512
  26  2159.587
  27  2129.086
  28  2082.279
  29  2052.794
  30  2065.227
  31  2110.69
  32  1929.955
  33  1751.712
  34  1618.155
  35  1700.415
  36  2025.287
  37  2272.484
  38  1924.053
  39  2342.474
  40  2000.193
  41  1838.534
  42  1642.311
  43  1927.139
  44  1629.857
  45  1516.061
  46  1999.321
  47  2044.608
  48  2309.813
  49  1899.838
  50  2240.362
  51  2005.606
  52  1629.074
  53  1719.657
  54  1929.234
  55  1953.967
  56  2153.722
  57  2511.103
  58  2333.214
  59  1966.502
  60  1359.887
  61  1969.915
  62  2199.267
  63  2116.82
  64  2215.834
  65  2010.388
  66  2072.562
  67  1905.058
  68  1703.609
  69  1855.454
  70  1858.99
  71  1676.416
  72  1824.366
  73  1859.217
  74  1779.456
  75  2109.73
  76  2054.162
  77  1827.906
  78  1671.541
  79  1739.569
  80  1917.081
  81  2029.31
  82  1828.728
  83  2064.668
  84  2276.178
  85  1941.677
  86  1809.482
  87  2082.259
  88  2546.51
  89  2056.923
  90  1624.46
  91  1851.561
  92  2320.286
  93  2196.504
  94  1926.66
  95  1618.692
  96  1942.14
  97  1871.343
  98  2008.341
  99  2269.421
 100  2376.6
 101  2263.165
 102  2244.534
 103  2233.082
 104  1403.652
 105  1859.129
 106  2462.302
 107  2055.631
 108  2137.106
 109  2030.92
 110  2007.211
 111  1917.326
 112  2139.589
 113  2344.733
 114  1871.463
 115  1785.011
 116  1642.61
 117  1827.546
 118  2028.653
 119  2103.306
 120  2272.928
 121  2098.77
 122  2110.269
 123  2328.461
 124  2194.833
 125  1808.284
 126  1777.693
 127  1882.875
 128  2189.164
 129  2147.7
 130  2476.768
 131  2223.5
 132  2084.819
 133  1949.874
 134  1871.744
 135  1699.17
 136  1908.547
 137  2236.762
 138  2007.15
 139  1934.026
 140  1969.762
 141  2268.069
 142  2366.329
 143  1921.895
 144  1505.777
 145  1847.724
 146  1894.256
 147  1902.234
 148  2013.173
 149  1987.757
 150  2105.82
 151  2250.032
 152  1934.608
 153  2362.699
 154  2659.659
 155  2516.439
 156  2337.094
 157  2318.445
 158  2296.46
 159  1949.167
 160  1748.969
 161  2001.566
 162  2133.645
 163  2293.544
 164  1763.511
 165  2129.476
 166  2508.286
 167  2237.822
 168  2274.855
 169  1966.045
 170  1598.161
 171  1545.956
 172  1845.682
 173  1818.164
 174  1762.965
 175  2352.034
 176  1950.73
 177  1775.523
 178  1829.635
 179  1941.978
 180  1968.977
 181  2010.434
 182  2354.885
 183  1988.894
 184  2188.467
 185  1918.008
 186  1781.071
 187  1908.626
 188  2045.034
 189  2029.915
 190  2363.865
 191  1758.253
 192  1773.058
 193  2175.739
 194  2006.561
 195  1783.415
 196  1912.507
 197  2215.693
 198  2069.617
 199  1855.516
 200  1803.512
 201  1742.986
 202  1960.608
 203  2078.538
 204  1937.625
 205  2115.479
 206  2316.455
 207  1833.522
 208  1858.281
 209  1954.963
 210  1951.133
 211  1936.196
 212  2267.846
 213  2126.168
 214  2066.181
 215  1847.563
 216  1473.444
 217  1736.854
 218  1824.822
 219  2223.463
 220  2581.534
 221  2194.23
 222  1774.799
 223  1568.346
 224  1732.426
 225  1667.58
 226  1746.363
 227  1791.621
 228  1735.413
 229  1874.833
 230  2012.929
 231  1958.235
 232  1697.511
 233  1565.477
 234  1392.889
 235  1569.437
 236  1196.285
 237  1173.267
 238  2416.958
 239  2689.122
 240  2006.396
 241  1733.487
 242  1426.317
 243  1186.311
 244  1843.671
 245  2224.098
 246  2183.562
 247  2607.897
 248  2170.271
 249  1653.616
 250  1908.15
 251  2023.758
 252  1619.413
 253  1376.64
 254  1460.454
 255  1678.261
 256  2000.163
 257  2138.248
 258  2014.02
 259  1838.512
 260  1590.5
 261  1867.809
 262  2078.983
 263  2183.552
 264  2304.234
 265  1861.915
 266  1382.929
 267  1523.93
 268  1442.402
 269  1797.325
 270  2175.094
 271  2191.739
 272  2299.947
 273  2073.383
 274  1943.293
 275  1754.433
 276  1627.865
 277  1824.391
 278  2003.786
 279  2467.571
 280  2648.292
 281  2149.095
 282  1824.566
 283  2076.422
 284  1843.407
 285  1642.985
 286  2004.456
 287  2063.447
 288  1563.666
 289  1468.247
 290  1803.2
 291  1598.474
 292  1923.122
 293  1756.318
 294  1678.907
 295  2258.522
 296  1753.193
 297  1609.094
 298  1410.641
 299  1521.416
 300  1709.906
 301  1829.891
 302  1941.26
 303  1957.871
 304  2203.955
 305  2023.923
 306  1316.396
 307  1475.63
 308  1755.675
 309  2235.632
 310  2170.128
 311  1916.422
 312  1934.844
 313  2026.215
 314  2053.006
 315  2056.562
 316  2221.465
 317  2513.921
 318  2024.334
 319  2191.802
 320  2502.614
 321  2606.436
 322  3335.525
 323  3692.669
 324  3727.587
 325  3714.324
 326  3889.424
 327  3960.807
 328  3047.977
 329  2458.426
 330  2190.254
 331  2153.179
 332  2201.68
 333  1661.033
 334  1674.372
 335  2103.102
 336  2140.827
 337  2638.513
 338  1837.202
 339  1890.577
 340  1880.363
 341  1806.939
 342  1881.092
 343  1831.324
 344  2134.727
 345  2266.112
 346  2192.618
 347  2264.672
 348  2704.399
 349  2414.719
 350  2049.247
 351  1727.875
 352  1841.538
 353  2118.466
 354  2232.334
 355  2042.21
 356  2311.7
 357  2499.032
 358  1784.764
 359  2158.815
 360  2496.328
 361  2465.872
 362  2372.101
 363  2087.923
 364  1954.003
 365  1599.87
 366  1660.678
 367  2337.626
 368  2340.595
 369  2076.062
 370  1976.458
 371  2213.96
 372  1831.3
 373  1693.604
 374  1766.66
 375  2160.361
 376  2420.794
 377  2124.095
 378  2141.819
 379  2311.92
 380  2286.756
 381  2186.44
 382  1909.487
 383  2149.516
 384  2018.562
 385  1824.419
 386  2326.408
 387  2204.132
 388  1948.944
 389  2051.937
 390  1751.462
 391  1794.222
 392  1976.459
 393  2133.094
 394  2014.205
 395  2009.588
 396  2373.747
 397  2543.604
 398  2392.364
 399  2003.804
 400  1689.071
 401  1820.33
 402  1540.356
 403  1926.656
 404  2262.965
 405  2058.997
 406  2027.776
 407  2193.607
 408  2022.696
 409  1800.591
 410  2219.345
 411  2287.505
 412  2096.525
 413  2229.335
 414  2387.478
 415  2016.768
 416  2052.216
 417  1990.165
 418  2172.603
 419  2443.483
 420  2085.411
 421  2388.494
 422  2195.652
 423  1977.54
 424  1865.131
 425  1529.153
 426  1794.275
 427  2019.527
 428  2469.796
 429  2091.239
 430  1858.63
 431  2213.765
 432  2123.66
 433  2069.156
 434  2166.396
 435  2146.976
 436  1873.332
 437  2066.934
 438  2235.343
 439  1977.549
 440  2182.362
 441  2352.954
 442  2138.45
 443  2087.537
 444  2052.753
 445  2096.746
 446  2022.296
 447  1821.269
 448  2047.157
 449  2158.839
 450  2060.362
 451  2321.52
 452  2177.134
 453  2332.178
 454  2032.407
 455  1807.09
 456  1519.478
 457  1804.396
 458  2047.552
 459  1895.671
 460  2013.922
 461  2066.799
 462  1707.995
 463  1565.304
 464  1880.703
 465  1687.495
 466  1800.139
 467  1740.014
 468  1607.467
 469  1858.513
 470  1515.972
 471  1807.704
 472  2079.645
 473  2317.429
 474  1908.81
 475  1777.101
 476  1633.941
 477  2081.145
 478  2217.47
 479  2270.647
 480  1966.969
 481  1959.629
 482  1821.444
 483  1811.012
 484  1941.944
 485  1958.551
 486  2059.595
 487  1521.217
 488  1839.975
 489  1741.183
 490  1876.923
 491  1863.962
 492  1648.796
 493  2105.526
 494  2206.995
 495  2356.976
 496  2387.224
 497  2343.441
 498  1859.009
 499  1420.476
 500  1469.017
 501  1506.97
 502  2119.398
 503  2240.702
 504  2356.357
 505  1979.203
 506  1742.546
 507  1571.773
 508  1891.587
 509  1970.674
 510  2033.906
 511  1891.872
