# Input file       =  1184143011.101692_cleaned.dat
# Candidate        =  PSR_0332+5434
# Telescope        =  AR
# Epoch_topo       =  57949.359144695511
# Epoch_bary       =  N/A
# T_sample         =  0.002
# Data Folded      =  7340032
# Data Avg         =  0.0349499351615279
# Data StdDev      =  1.00004222955648 
# Profile Bins     =  512
# Profile Avg      =  501.082267543927 
# Profile StdDev   =  119.738092649788 
# Reduced chi-sqr  =  1.015
# Prob(Noise)      <  0.395   (~0.3 sigma)
# P_topo (ms)      =  714.479018996767  +/- 0.000377
# P'_topo (s/s)    =  -0                +/- 1.99e-10
# P''_topo (s/s^2) =  0                 +/- 8.78e-14
# P_bary (ms)      =  N/A
# P'_bary (s/s)    =  N/A
# P''_bary (s/s^2) =  N/A
# P_orb (s)        =  N/A
# asin(i)/c (s)    =  N/A
# eccentricity     =  N/A
# w (rad)          =  N/A
# T_peri           =  N/A
######################################################
   0  497.3035
   1  549.3296
   2  441.3019
   3  428.6076
   4  468.3618
   5  443.0816
   6  475.48
   7  446.6812
   8  443.8065
   9  391.6441
  10  397.1021
  11  482.2618
  12  483.3607
  13  419.7531
  14  449.2601
  15  502.6826
  16  507.8438
  17  446.0854
  18  465.439
  19  437.5962
  20  385.1445
  21  411.8014
  22  458.1353
  23  444.0889
  24  428.1958
  25  459.6494
  26  486.5029
  27  493.6023
  28  476.6501
  29  429.3109
  30  430.7698
  31  456.465
  32  482.301
  33  519.745
  34  516.4648
  35  446.5371
  36  366.6355
  37  469.5982
  38  471.3434
  39  426.158
  40  356.1635
  41  503.1105
  42  475.9374
  43  493.6485
  44  567.6252
  45  459.3196
  46  590.5471
  47  553.4883
  48  512.3873
  49  474.4829
  50  409.0421
  51  445.9882
  52  437.1882
  53  573.7891
  54  502.475
  55  492.101
  56  425.7111
  57  415.04
  58  451.9584
  59  566.0738
  60  574.0325
  61  502.0978
  62  496.6331
  63  482.3783
  64  412.7888
  65  415.5474
  66  508.4638
  67  489.3741
  68  459.3153
  69  440.0961
  70  442.4161
  71  502.1384
  72  587.791
  73  523.0011
  74  469.9865
  75  510.2939
  76  476.6076
  77  497.4497
  78  547.835
  79  450.6649
  80  440.3049
  81  498.3713
  82  536.0305
  83  541.0209
  84  422.3267
  85  398.8372
  86  367.1059
  87  425.0936
  88  410.0245
  89  408.678
  90  421.5674
  91  391.0035
  92  441.0785
  93  428.0663
  94  454.4037
  95  419.1374
  96  434.587
  97  457.4621
  98  383.6278
  99  503.2772
 100  507.3908
 101  429.8723
 102  520.2579
 103  401.3081
 104  610.0551
 105  560.2812
 106  517.479
 107  544.4615
 108  557.0618
 109  545.675
 110  544.332
 111  583.624
 112  535.1436
 113  532.9246
 114  586.89
 115  648.9032
 116  696.0013
 117  587.0632
 118  536.1401
 119  540.4194
 120  510.6182
 121  594.9767
 122  483.6454
 123  476.2911
 124  407.8219
 125  421.2367
 126  451.1105
 127  456.1544
 128  512.5093
 129  537.1316
 130  476.0634
 131  500.2021
 132  494.8312
 133  413.7221
 134  428.0706
 135  553.4675
 136  461.2342
 137  499.8203
 138  450.0347
 139  476.5128
 140  503.3436
 141  466.6129
 142  428.9045
 143  481.7619
 144  384.2117
 145  431.8073
 146  598.6376
 147  497.9373
 148  351.3818
 149  441.2012
 150  542.8237
 151  706.4705
 152  875.3295
 153  907.3515
 154  1043.88
 155  1177.471
 156  1051.265
 157  886.0964
 158  707.3448
 159  611.3738
 160  543.4702
 161  485.2316
 162  424.7098
 163  540.2502
 164  541.7487
 165  569.4677
 166  591.7849
 167  542.8833
 168  544.029
 169  602.9111
 170  570.3035
 171  509.1322
 172  486.1016
 173  579.1536
 174  499.9663
 175  439.7871
 176  506.8689
 177  495.2757
 178  484.0317
 179  368.492
 180  403.4054
 181  484.9086
 182  488.2448
 183  582.1606
 184  587.7599
 185  462.4022
 186  500.8693
 187  460.9214
 188  580.9232
 189  609.8257
 190  597.9283
 191  500.5417
 192  391.6069
 193  481.642
 194  576.8257
 195  467.4241
 196  408.8628
 197  427.7648
 198  429.3586
 199  504.9736
 200  384.0735
 201  490.1723
 202  461.0338
 203  494.188
 204  480.9789
 205  488.0242
 206  520.0734
 207  564.2395
 208  557.1759
 209  481.9769
 210  444.8199
 211  479.8043
 212  517.6412
 213  546.5549
 214  606.8591
 215  575.6374
 216  459.723
 217  539.6847
 218  579.9479
 219  547.0579
 220  417.142
 221  534.9281
 222  471.4183
 223  597.9251
 224  576.2004
 225  498.9667
 226  449.6071
 227  356.565
 228  454.8576
 229  476.2263
 230  560.3637
 231  483.8895
 232  465.117
 233  485.8631
 234  458.2976
 235  411.1602
 236  510.7647
 237  585.1324
 238  622.8838
 239  492.8572
 240  380.3486
 241  440.3622
 242  425.3176
 243  464.5028
 244  437.7104
 245  523.0519
 246  471.4763
 247  394.3436
 248  518.5416
 249  531.663
 250  424.3374
 251  617.8936
 252  588.8317
 253  503.3352
 254  438.5018
 255  460.5957
 256  368.8771
 257  345.9029
 258  420.5367
 259  532.1833
 260  568.8868
 261  576.1259
 262  432.1734
 263  381.0121
 264  503.2767
 265  527.0403
 266  484.4377
 267  581.5689
 268  557.2839
 269  558.3348
 270  557.9632
 271  564.3053
 272  583.0361
 273  603.9449
 274  693.3919
 275  611.2335
 276  534.3577
 277  528.9936
 278  536.9199
 279  588.9258
 280  515.0957
 281  494.8749
 282  510.8029
 283  471.8119
 284  559.202
 285  539.3488
 286  442.5745
 287  366.4041
 288  345.6343
 289  463.1348
 290  559.7397
 291  506.0824
 292  525.4748
 293  509.2256
 294  436.0566
 295  459.6126
 296  378.9157
 297  443.2645
 298  488.4492
 299  423.5147
 300  400.1639
 301  402.5801
 302  451.0681
 303  440.7524
 304  397.822
 305  411.3366
 306  488.3692
 307  489.2556
 308  474.3282
 309  482.2953
 310  486.7662
 311  489.6561
 312  517.1334
 313  488.5583
 314  507.5179
 315  525.3126
 316  540.9977
 317  590.1012
 318  684.1058
 319  680.8303
 320  526.1368
 321  528.5191
 322  512.3627
 323  490.926
 324  444.7762
 325  458.1675
 326  603.6204
 327  602.1926
 328  591.6596
 329  500.5258
 330  459.0207
 331  514.173
 332  590.1746
 333  544.7686
 334  440.512
 335  598.6707
 336  640.1968
 337  524.7181
 338  527.8915
 339  474.2543
 340  469.1328
 341  486.5742
 342  458.2087
 343  553.0319
 344  597.8007
 345  555.9484
 346  436.4041
 347  541.6402
 348  550.6589
 349  414.5019
 350  334.429
 351  510.0432
 352  582.0421
 353  608.635
 354  625.5845
 355  601.1127
 356  698.3312
 357  674.8766
 358  481.6256
 359  567.5606
 360  515.1251
 361  470.7845
 362  568.6852
 363  483.3921
 364  531.9692
 365  485.7756
 366  469.8838
 367  456.1492
 368  572.6201
 369  474.6223
 370  455.6192
 371  450.0769
 372  548.1172
 373  555.6528
 374  622.7229
 375  585.0593
 376  564.3757
 377  548.8974
 378  552.7656
 379  588.3203
 380  605.3065
 381  490.1834
 382  426.6473
 383  474.3741
 384  443.8836
 385  446.558
 386  518.2767
 387  467.5043
 388  447.7947
 389  449.4637
 390  465.1417
 391  472.9933
 392  623.3167
 393  588.2784
 394  553.2367
 395  596.0701
 396  642.9369
 397  528.6392
 398  469.0358
 399  553.9656
 400  497.4534
 401  567.6439
 402  626.7213
 403  604.2426
 404  613.1683
 405  424.0619
 406  420.4476
 407  442.0328
 408  479.1228
 409  570.515
 410  486.4435
 411  347.9961
 412  387.467
 413  429.0274
 414  502.5868
 415  515.0437
 416  571.4283
 417  596.5759
 418  528.275
 419  484.3141
 420  583.2499
 421  526.374
 422  574.2703
 423  600.0054
 424  489.1523
 425  400.5701
 426  441.4458
 427  487.9933
 428  499.5203
 429  540.8219
 430  581.7998
 431  613.8907
 432  542.003
 433  536.8138
 434  449.621
 435  475.0325
 436  489.3977
 437  566.8394
 438  467.9512
 439  480.7364
 440  551.6971
 441  457.9649
 442  456.6717
 443  586.3091
 444  543.4373
 445  437.3542
 446  505.7943
 447  549.5641
 448  509.7181
 449  525.7713
 450  623.606
 451  503.812
 452  435.3058
 453  453.4271
 454  450.2223
 455  444.6542
 456  525.5855
 457  499.8716
 458  419.5737
 459  507.5011
 460  599.688
 461  467.5948
 462  391.5512
 463  426.0889
 464  485.3022
 465  535.3746
 466  557.3871
 467  499.2867
 468  595.2982
 469  464.7963
 470  425.02
 471  417.6877
 472  483.867
 473  450.41
 474  383.7465
 475  459.3448
 476  542.0773
 477  509.3955
 478  545.8685
 479  408.085
 480  414.3042
 481  468.669
 482  421.0398
 483  408.925
 484  447.0787
 485  495.7614
 486  406.5654
 487  438.989
 488  377.8614
 489  476.1768
 490  528.5704
 491  533.2913
 492  475.6312
 493  433.5721
 494  446.3875
 495  486.0005
 496  444.5907
 497  458.5366
 498  408.6518
 499  318.7607
 500  424.6284
 501  404.1686
 502  446.3226
 503  499.23
 504  407.4578
 505  347.5566
 506  492.3687
 507  371.5574
 508  393.3294
 509  462.8646
 510  477.5446
 511  521.8351
