# Input file       =  1184199632.104209_cleaned.dat
# Candidate        =  PSR_0332+5434
# Telescope        =  AR
# Epoch_topo       =  57950.014480372789
# Epoch_bary       =  N/A
# T_sample         =  0.002
# Data Folded      =  7143424
# Data Avg         =  0.0244660218418796
# Data StdDev      =  1.0000133317667  
# Profile Bins     =  512
# Profile Avg      =  341.346275922423 
# Profile StdDev   =  118.120159211279 
# Reduced chi-sqr  =  1.409
# Prob(Noise)      <  2.7e-09   (~5.8 sigma)
# P_topo (ms)      =  714.478241653618  +/- 0.000292
# P'_topo (s/s)    =  -0                +/- 1.58e-10
# P''_topo (s/s^2) =  0                 +/- 7.17e-14
# P_bary (ms)      =  N/A
# P'_bary (s/s)    =  N/A
# P''_bary (s/s^2) =  N/A
# P_orb (s)        =  N/A
# asin(i)/c (s)    =  N/A
# eccentricity     =  N/A
# w (rad)          =  N/A
# T_peri           =  N/A
######################################################
   0  320.7929
   1  368.7163
   2  391.69
   3  275.6541
   4  262.4947
   5  262.2603
   6  270.7596
   7  420.0686
   8  462.6983
   9  375.1992
  10  396.1006
  11  433.5168
  12  393.727
  13  289.1682
  14  370.0991
  15  402.825
  16  355.1431
  17  345.6385
  18  366.6088
  19  346.0107
  20  354.8509
  21  335.2498
  22  488.1842
  23  435.1454
  24  386.32
  25  339.927
  26  368.5576
  27  414.2583
  28  368.5219
  29  317.7741
  30  449.1493
  31  386.4825
  32  391.4139
  33  312.8203
  34  253.5891
  35  192.2488
  36  244.9242
  37  352.5936
  38  204.8729
  39  190.6268
  40  192.741
  41  224.8504
  42  207.1137
  43  300.0095
  44  394.0199
  45  410.4015
  46  344.7248
  47  330.6924
  48  246.8989
  49  275.3395
  50  206.2624
  51  177.6602
  52  250.6347
  53  254.4574
  54  383.3362
  55  399.1594
  56  368.7289
  57  396.4638
  58  325.1339
  59  275.7275
  60  300.0792
  61  193.5013
  62  308.0863
  63  301.8061
  64  265.1639
  65  214.0933
  66  191.4855
  67  196.8838
  68  301.8714
  69  322.2634
  70  248.7627
  71  330.9926
  72  406.8904
  73  424.8129
  74  238.4188
  75  222.8842
  76  306.2668
  77  408.7393
  78  499.644
  79  343.759
  80  370.9775
  81  384.1676
  82  414.164
  83  465.6758
  84  453.072
  85  401.4025
  86  263.7318
  87  386.849
  88  433.3565
  89  479.4323
  90  389.9298
  91  405.5488
  92  299.6505
  93  454.7513
  94  391.8575
  95  342.211
  96  322.2435
  97  313.9617
  98  398.848
  99  379.2461
 100  379.8576
 101  356.8748
 102  319.2288
 103  372.8154
 104  335.8591
 105  387.1499
 106  220.4417
 107  185.5108
 108  344.7335
 109  246.4568
 110  304.8489
 111  323.822
 112  328.3718
 113  356.2282
 114  353.9301
 115  306.2473
 116  288.8382
 117  198.7023
 118  187.4639
 119  246.1236
 120  424.6989
 121  377.3323
 122  368.1065
 123  331.2806
 124  311.4843
 125  321.2976
 126  217.4611
 127  189.6749
 128  386.7749
 129  452.2657
 130  379.3642
 131  174.5877
 132  145.1678
 133  242.4464
 134  389.9208
 135  316.8276
 136  288.5657
 137  279.7993
 138  223.7368
 139  247.6064
 140  324.7395
 141  272.48
 142  222.8466
 143  287.2313
 144  329.2754
 145  321.0556
 146  173.0374
 147  112.5301
 148  230.1017
 149  435.6916
 150  447.2898
 151  454.1187
 152  350.7577
 153  345.799
 154  415.6876
 155  423.4631
 156  518.5801
 157  438.4477
 158  350.2295
 159  412.4993
 160  452.707
 161  463.9487
 162  519.4753
 163  409.2992
 164  394.0759
 165  483.274
 166  678.2672
 167  794.8288
 168  894.0587
 169  966.9828
 170  1045.235
 171  972.3352
 172  868.5546
 173  773.7811
 174  575.4194
 175  470.278
 176  379.5565
 177  255.8077
 178  270.231
 179  313.6824
 180  327.0086
 181  348.728
 182  271.7213
 183  450.0026
 184  431.8311
 185  319.9498
 186  321.9147
 187  405.3047
 188  437.6484
 189  341.9422
 190  185.3236
 191  312.4904
 192  389.5704
 193  356.8474
 194  266.2571
 195  340.149
 196  238.8029
 197  329.1516
 198  263.8023
 199  284.975
 200  267.5792
 201  393.8546
 202  331.1309
 203  348.9267
 204  388.2483
 205  465.0347
 206  339.9249
 207  257.5027
 208  340.4804
 209  229.517
 210  253.2204
 211  203.6817
 212  303.2659
 213  265.4299
 214  277.0459
 215  377.7404
 216  376.4329
 217  328.5317
 218  321.7975
 219  351.8548
 220  284.2913
 221  344.5483
 222  387.5352
 223  407.261
 224  416.1168
 225  350.2099
 226  303.6685
 227  346.9943
 228  392.981
 229  398.389
 230  442.7503
 231  436.8953
 232  503.2753
 233  482.343
 234  458.1605
 235  387.7273
 236  384.8334
 237  449.4425
 238  344.8412
 239  358.2865
 240  492.5004
 241  446.9354
 242  446.3108
 243  328.4957
 244  283.8623
 245  214.6512
 246  261.9856
 247  308.2435
 248  370.0671
 249  337.8141
 250  363.5865
 251  316.3132
 252  295.5846
 253  331.006
 254  327.204
 255  391.4988
 256  366.9426
 257  254.0925
 258  247.8684
 259  447.2024
 260  410.6237
 261  327.3229
 262  276.11
 263  246.7905
 264  195.6896
 265  326.434
 266  334.2903
 267  312.9291
 268  367.8904
 269  454.4783
 270  411.3685
 271  397.8692
 272  423.2578
 273  387.5757
 274  350.3851
 275  329.6318
 276  320.661
 277  224.7602
 278  250.1892
 279  270.5151
 280  252.5382
 281  254.7417
 282  339.7158
 283  466.9421
 284  436.3833
 285  313.8114
 286  299.1454
 287  321.1514
 288  263.2709
 289  286.0436
 290  290.2078
 291  248.1659
 292  274.0632
 293  216.6191
 294  313.2483
 295  312.8468
 296  337.2638
 297  392.641
 298  318.5448
 299  275.0296
 300  275.3535
 301  386.4563
 302  338.2944
 303  497.7469
 304  482.9324
 305  406.9863
 306  318.8444
 307  329.0896
 308  386.8393
 309  292.2655
 310  386.8096
 311  403.8107
 312  318.5867
 313  329.8379
 314  355.6949
 315  365.8103
 316  390.5352
 317  377.5142
 318  366.3764
 319  502.3814
 320  360.1513
 321  244.491
 322  259.9014
 323  346.0648
 324  327.1553
 325  315.2323
 326  394.6556
 327  459.4229
 328  323.6154
 329  321.1293
 330  289.6821
 331  311.4554
 332  243.7722
 333  248.5507
 334  336.4767
 335  376.7436
 336  271.2896
 337  354.9184
 338  387.3719
 339  232.1961
 340  288.9253
 341  289.0438
 342  292.5561
 343  344.436
 344  294.773
 345  201.4252
 346  248.6354
 347  429.4184
 348  392.2178
 349  362.9936
 350  273.2589
 351  215.424
 352  347.2441
 353  301.2435
 354  306.215
 355  279.5423
 356  300.9751
 357  241.0069
 358  291.2048
 359  293.5659
 360  259.0696
 361  237.0742
 362  307.3068
 363  341.7653
 364  191.5045
 365  301.0605
 366  343.6714
 367  422.2145
 368  417.9536
 369  421.9974
 370  373.1621
 371  330.9211
 372  349.9121
 373  294.4431
 374  299.37
 375  323.6153
 376  359.2004
 377  359.4958
 378  351.5327
 379  266.1821
 380  342.4398
 381  363.5639
 382  435.189
 383  403.3835
 384  498.8216
 385  445.2699
 386  435.7172
 387  487.6668
 388  417.9727
 389  388.6096
 390  337.5122
 391  302.9293
 392  314.8621
 393  288.2848
 394  273.9803
 395  251.0267
 396  218.1535
 397  279.5868
 398  317.4163
 399  374.2682
 400  353.7007
 401  321.1283
 402  268.2511
 403  309.6634
 404  367.0512
 405  338.0154
 406  302.0123
 407  323.8649
 408  296.3158
 409  344.2415
 410  387.5186
 411  232.1331
 412  209.413
 413  307.472
 414  383.6996
 415  370.2914
 416  408.1799
 417  393.6355
 418  364.6956
 419  352.3969
 420  297.8701
 421  297.0975
 422  306.9554
 423  326.4494
 424  294.3476
 425  325.1677
 426  321.3642
 427  276.179
 428  204.1759
 429  291.171
 430  395.1406
 431  411.9586
 432  342.2003
 433  378.0071
 434  315.6705
 435  163.7042
 436  170.6541
 437  226.887
 438  168.6861
 439  354.4308
 440  367.6304
 441  388.6424
 442  336.2073
 443  318.0161
 444  381.9002
 445  324.5619
 446  377.8901
 447  293.3615
 448  349.872
 449  387.1677
 450  428.2543
 451  401.017
 452  353.2647
 453  254.8251
 454  198.573
 455  303.6587
 456  321.7885
 457  374.9077
 458  406.4169
 459  403.9267
 460  208.3307
 461  362.6814
 462  394.3836
 463  445.9886
 464  389.9965
 465  363.3915
 466  392.5502
 467  316.6091
 468  282.4901
 469  266.4798
 470  395.6651
 471  285.687
 472  243.6007
 473  203.1804
 474  271.1444
 475  396.7133
 476  402.8574
 477  326.6048
 478  327.7734
 479  390.9962
 480  300.2287
 481  208.8784
 482  244.1186
 483  335.8499
 484  387.9974
 485  274.4738
 486  260.2184
 487  230.8139
 488  192.0241
 489  79.58738
 490  234.368
 491  264.7887
 492  321.3936
 493  278.1633
 494  305.1928
 495  254.7425
 496  326.1732
 497  383.5055
 498  364.8391
 499  337.5834
 500  316.5144
 501  383.4733
 502  373.7541
 503  434.6068
 504  480.3884
 505  392.3882
 506  420.9813
 507  319.6944
 508  239.3653
 509  292.2603
 510  303.4794
 511  261.4199
