# Input file       =  1184214230.099528_cleaned.dat
# Candidate        =  PSR_0332+5434
# Telescope        =  AR
# Epoch_topo       =  57950.183438651948
# Epoch_bary       =  N/A
# T_sample         =  0.002
# Data Folded      =  7340032
# Data Avg         =  0.141287477403239
# Data StdDev      =  3.90873007530487 
# Profile Bins     =  512
# Profile Avg      =  2025.0955992158  
# Profile StdDev   =  468.004120293438 
# Reduced chi-sqr  =  0.889
# Prob(Noise)      <  0.966   (~0.0 sigma)
# P_topo (ms)      =  714.478143422701  +/- 0.000285
# P'_topo (s/s)    =  -0                +/- 1.51e-10
# P''_topo (s/s^2) =  0                 +/- 6.65e-14
# P_bary (ms)      =  N/A
# P'_bary (s/s)    =  N/A
# P''_bary (s/s^2) =  N/A
# P_orb (s)        =  N/A
# asin(i)/c (s)    =  N/A
# eccentricity     =  N/A
# w (rad)          =  N/A
# T_peri           =  N/A
######################################################
   0  2053.468
   1  2202.77
   2  2332.542
   3  2235.251
   4  1950.665
   5  2397.151
   6  2423.426
   7  2334.466
   8  2134.158
   9  2230.088
  10  2149.232
  11  1814.292
  12  1591.051
  13  1906.226
  14  2234.331
  15  2102.7
  16  1859.362
  17  1932.903
  18  1948.55
  19  1756.181
  20  2016.564
  21  1942.2
  22  1761.047
  23  1743.762
  24  1864.957
  25  2015.341
  26  2197.051
  27  2186.931
  28  1958.744
  29  1940.991
  30  2154.768
  31  2358.82
  32  2313.671
  33  2414.295
  34  2222.921
  35  2073.141
  36  2100.17
  37  2003.162
  38  2101.141
  39  2291.707
  40  2364.154
  41  2475.118
  42  2282.501
  43  2484.905
  44  2383.722
  45  2285.859
  46  2341.94
  47  2157.589
  48  2236.797
  49  2134.499
  50  2089.58
  51  2150.449
  52  2004.59
  53  1862.397
  54  1951.64
  55  2008.441
  56  2167.347
  57  1940.193
  58  1693.086
  59  1666.305
  60  1809.459
  61  2005.848
  62  2022.805
  63  2263.826
  64  2290.472
  65  2019.17
  66  2047.578
  67  1860.775
  68  2018.372
  69  2278.298
  70  2119.56
  71  2194.086
  72  2120.668
  73  2102.133
  74  2252.399
  75  2396.084
  76  2193.44
  77  2097.083
  78  2065.655
  79  2347.8
  80  2207.535
  81  2251.385
  82  2492.6
  83  2464.283
  84  2438.415
  85  2411.637
  86  2635.564
  87  2407.802
  88  2219.237
  89  2253.482
  90  2423.364
  91  2118.174
  92  1913.74
  93  1989.794
  94  1922.261
  95  1907.844
  96  2173.426
  97  2213.977
  98  2115.831
  99  2273.836
 100  2265.671
 101  1824.055
 102  1865.258
 103  1771.562
 104  1863.194
 105  2114.867
 106  1850.813
 107  1902.794
 108  1854.366
 109  1686.309
 110  1963.546
 111  1992.644
 112  1840.021
 113  1763.592
 114  1669.498
 115  1810.342
 116  1902.048
 117  1954.354
 118  1787.394
 119  2017.802
 120  2051.728
 121  1860.816
 122  1965.947
 123  1965.567
 124  1717.508
 125  1994.333
 126  2491.526
 127  2642.3
 128  2469.308
 129  2381.602
 130  2364.5
 131  2330.664
 132  2463.777
 133  2645.187
 134  2351.549
 135  2076.31
 136  2230.382
 137  1772.721
 138  1805.923
 139  2331.323
 140  2446.242
 141  2441.324
 142  2610.669
 143  2296.87
 144  2276.972
 145  2204.286
 146  2263.133
 147  2275.741
 148  2270.433
 149  2131.741
 150  2162.964
 151  1771.82
 152  1911.073
 153  1807.519
 154  1803.279
 155  1754.201
 156  1472.714
 157  1410.036
 158  1690.838
 159  1943.393
 160  2056.508
 161  1992.376
 162  1689.122
 163  1891.091
 164  2383.106
 165  2093.611
 166  2030.033
 167  2021.193
 168  2058.383
 169  2195.612
 170  1984.724
 171  1755.217
 172  2271.304
 173  2514
 174  2349.219
 175  2310.721
 176  2039.638
 177  2168.803
 178  2407.34
 179  2365.243
 180  2139.939
 181  2020.811
 182  2085.024
 183  1870.007
 184  1687.133
 185  1795.955
 186  1869.04
 187  1833.381
 188  1723.018
 189  1856.771
 190  1719.434
 191  1799.706
 192  1594.611
 193  1698.007
 194  1749.17
 195  1626.161
 196  1662.095
 197  1906.861
 198  1799.835
 199  2053.776
 200  1894.161
 201  1762.168
 202  1687.786
 203  1833.505
 204  1610.668
 205  1696.139
 206  1851.756
 207  1802.015
 208  1918.425
 209  2007.749
 210  2012.043
 211  2134.452
 212  2127.835
 213  2108.98
 214  2390.201
 215  2014.828
 216  1770.39
 217  1709.769
 218  1857.871
 219  1874.09
 220  1755.719
 221  1677.887
 222  1665.145
 223  1813.625
 224  1754.595
 225  1759.225
 226  1679.309
 227  2005.379
 228  2196.336
 229  1969.716
 230  1847.681
 231  1781.477
 232  1808.253
 233  1828.224
 234  1709.907
 235  1697.858
 236  1568.934
 237  1583.422
 238  1812.695
 239  1996.587
 240  2118.913
 241  1713.651
 242  1531.848
 243  1818.178
 244  2299.953
 245  2148.676
 246  1850.381
 247  1943.549
 248  2261.162
 249  2129.833
 250  1847.521
 251  1746.131
 252  1757.419
 253  1933.453
 254  2049.257
 255  2381.609
 256  2488.868
 257  2251.312
 258  2003.399
 259  2486.032
 260  2477.311
 261  2352.332
 262  2223.791
 263  1937.897
 264  1683.631
 265  1785.123
 266  1894.573
 267  2127.441
 268  1887.315
 269  1788.501
 270  1718.975
 271  1654.385
 272  1716.107
 273  1627.918
 274  1793.218
 275  1947.394
 276  1941.649
 277  1944.036
 278  1785.406
 279  1715.463
 280  1561.237
 281  1859.873
 282  2019.573
 283  1931.618
 284  1695.212
 285  1705.226
 286  1630.778
 287  1718.342
 288  2036.735
 289  2024.144
 290  2105.352
 291  2171.967
 292  2070.082
 293  2335.085
 294  2307.333
 295  2302.407
 296  2364.204
 297  2348.716
 298  2234.383
 299  2302.897
 300  2075.497
 301  2345.438
 302  2268.854
 303  2464.761
 304  2580.06
 305  2188.271
 306  2323.785
 307  2419.408
 308  2398.876
 309  2436.073
 310  2189.24
 311  2029.019
 312  1967.854
 313  2149.851
 314  2242.166
 315  1921.154
 316  1842.618
 317  2004.762
 318  2173.7
 319  2309.538
 320  2650.438
 321  2445.938
 322  2777.661
 323  3183.328
 324  3367.13
 325  3873.902
 326  3790.355
 327  3440.611
 328  2927.605
 329  2619.242
 330  1883.266
 331  1977.671
 332  1892.912
 333  1774.024
 334  1816.831
 335  1973.757
 336  2325.264
 337  2352.24
 338  2412.224
 339  2582.547
 340  2292.022
 341  2183.712
 342  2277.42
 343  2539.288
 344  2397.443
 345  2237.57
 346  2108.285
 347  2150.36
 348  1920.478
 349  1521.417
 350  1495.413
 351  1675.255
 352  1842.714
 353  1821.087
 354  1743.761
 355  1647.623
 356  1721.212
 357  1799.245
 358  1590.394
 359  1666.331
 360  1547.84
 361  1812.445
 362  1803.107
 363  1748.824
 364  1729.506
 365  1489.114
 366  1768.997
 367  1877.053
 368  1902.629
 369  1985.74
 370  1887.429
 371  1604.569
 372  1800.873
 373  2123.59
 374  1776.138
 375  1661.125
 376  1755.649
 377  1832.763
 378  1827.748
 379  2005.982
 380  2180.792
 381  2374.777
 382  2013.744
 383  2355.006
 384  1946.803
 385  2046.769
 386  2490.479
 387  2323.931
 388  2172.916
 389  1960.11
 390  1961.061
 391  1775.212
 392  1794.956
 393  1920.128
 394  1790.165
 395  1643.881
 396  1512.952
 397  1511.24
 398  1368.431
 399  1685.69
 400  1926.2
 401  2123.42
 402  2193.554
 403  2101.806
 404  1830.601
 405  1815.754
 406  1927.971
 407  1863.378
 408  2219.626
 409  2345.707
 410  2160.168
 411  1916.216
 412  1894.251
 413  1689.209
 414  1507.768
 415  1699.309
 416  1608.538
 417  1665.541
 418  1751.455
 419  1955.283
 420  1681.049
 421  1890.627
 422  1931.407
 423  1871.743
 424  1936.584
 425  2081.021
 426  1911.408
 427  2392.41
 428  2526.674
 429  2788.618
 430  2645.218
 431  2102.121
 432  1911.245
 433  2036.737
 434  2206.603
 435  2291.827
 436  2311.989
 437  2428.283
 438  1994.591
 439  1985.939
 440  1932.779
 441  1761.817
 442  1735.997
 443  1997.424
 444  1860.451
 445  1678.638
 446  1688.331
 447  1682.491
 448  1645.968
 449  1763.639
 450  1660.234
 451  1702.966
 452  1776.379
 453  1502.728
 454  1622.366
 455  1682.758
 456  1380.233
 457  1646.406
 458  1654.976
 459  1905.326
 460  1848.121
 461  1747.919
 462  2103.836
 463  2366.209
 464  2352.799
 465  2106.54
 466  2203.594
 467  2173.03
 468  2615.007
 469  2703.332
 470  2425.011
 471  2691.969
 472  2337.487
 473  2381.698
 474  2281.454
 475  2192.577
 476  2242.074
 477  2286.891
 478  2184.808
 479  1917.974
 480  2047.545
 481  1693.093
 482  1671.274
 483  1694.422
 484  1615.066
 485  1259.61
 486  1244.278
 487  1675.509
 488  1453.82
 489  1600.401
 490  1739.511
 491  1660.213
 492  1656.303
 493  1877.403
 494  1700.871
 495  1436.459
 496  1703.395
 497  1808.087
 498  1775.458
 499  2107.722
 500  2091.908
 501  2001.089
 502  1739.624
 503  1872.948
 504  1977.189
 505  1891.657
 506  2173.118
 507  2135.774
 508  2331.077
 509  2112.337
 510  2011.566
 511  2362.156
