# Input file       =  1184544337.111032_cleaned.dat
# Candidate        =  PSR_0332+5434
# Telescope        =  AR
# Epoch_topo       =  57954.004121655460
# Epoch_bary       =  N/A
# T_sample         =  0.002
# Data Folded      =  7208960
# Data Avg         =  0.228534381789028
# Data StdDev      =  6.75736267755848 
# Profile Bins     =  256
# Profile Avg      =  6434.36845882883 
# Profile StdDev   =  1133.94908264289 
# Reduced chi-sqr  =  0.400
# Prob(Noise)      <  1   (~0.0 sigma)
# P_topo (ms)      =  714.475725036758  +/- 7.15e-05
# P'_topo (s/s)    =  -0                +/- 3.84e-11
# P''_topo (s/s^2) =  0                 +/- 1.73e-14
# P_bary (ms)      =  N/A
# P'_bary (s/s)    =  N/A
# P''_bary (s/s^2) =  N/A
# P_orb (s)        =  N/A
# asin(i)/c (s)    =  N/A
# eccentricity     =  N/A
# w (rad)          =  N/A
# T_peri           =  N/A
######################################################
   0  5761.019
   1  5658.164
   2  6491.842
   3  7487.473
   4  5473.618
   5  5917.852
   6  7202.385
   7  6647.37
   8  5722.84
   9  5981.871
  10  7605.67
  11  7110.137
  12  6551.059
  13  6537.455
  14  6509.28
  15  6591.755
  16  6235.259
  17  7217.479
  18  7151.119
  19  6889.245
  20  6492.441
  21  6180.321
  22  7023.067
  23  7067.591
  24  6158.038
  25  7129.276
  26  6894.603
  27  7113.061
  28  5535.092
  29  6143.998
  30  6557.798
  31  7025.159
  32  6068.176
  33  5778.118
  34  6103.43
  35  7194.218
  36  6866.484
  37  6202.278
  38  6427.865
  39  6666.122
  40  6830.192
  41  6090.452
  42  5785.833
  43  6402.736
  44  7240.195
  45  6848.752
  46  6008.638
  47  6215.485
  48  7057.523
  49  5912.964
  50  6009.662
  51  6960.864
  52  7372.788
  53  6267.123
  54  6376.807
  55  6433.257
  56  6649.159
  57  5650.426
  58  6080.179
  59  6170.17
  60  7105.018
  61  6710.099
  62  6494.455
  63  6291.267
  64  7066.613
  65  5891.324
  66  6066.917
  67  6807.292
  68  6426.302
  69  6004.271
  70  6015.891
  71  6047.055
  72  6707.173
  73  6737.312
  74  6325.372
  75  5939.861
  76  6495.967
  77  7177.5
  78  6414.066
  79  5942.286
  80  6028.281
  81  6683.375
  82  5717.448
  83  5894.955
  84  6881.373
  85  6451.513
  86  6395.291
  87  5740.276
  88  6921.258
  89  7506.77
  90  6318.109
  91  5915.479
  92  6669.736
  93  6523.38
  94  6166.958
  95  6234.456
  96  6104.816
  97  6685.756
  98  5811.312
  99  6494.445
 100  5778.495
 101  6503.855
 102  6534.374
 103  5464.245
 104  6087.895
 105  6866.998
 106  6926.28
 107  5873.921
 108  6346.484
 109  7061.866
 110  6381.283
 111  5834.009
 112  6423.805
 113  6031.595
 114  6622.889
 115  6397.786
 116  5932.769
 117  6414.978
 118  5924.076
 119  6017.2
 120  6622.42
 121  6112.954
 122  6274.149
 123  6419.26
 124  6196.541
 125  6573.211
 126  6586.341
 127  5744.436
 128  5390.666
 129  6291.889
 130  7023.038
 131  5765.777
 132  6648.429
 133  6332.808
 134  6372.438
 135  6336.757
 136  6000.439
 137  5600.95
 138  6175.803
 139  5814.459
 140  5594.427
 141  6132.522
 142  7453.721
 143  7204.227
 144  5790.641
 145  5585.919
 146  6328.792
 147  7306.627
 148  5983.113
 149  6303.681
 150  7038.69
 151  6488.058
 152  5738.227
 153  6074.773
 154  6465.027
 155  6336.894
 156  5687.239
 157  5843.455
 158  6741.987
 159  6859.29
 160  6494.134
 161  8296.103
 162  9339.69
 163  10025.29
 164  8211.888
 165  6186.312
 166  6453.872
 167  7754.406
 168  6234.078
 169  6521.438
 170  6756.82
 171  6689.425
 172  5526.927
 173  5841.185
 174  6957.353
 175  5991.937
 176  6509.514
 177  6266.335
 178  7319.958
 179  6389.226
 180  6742.975
 181  5936.565
 182  6076.025
 183  6848.439
 184  7398.627
 185  5928.46
 186  5970.457
 187  6880.867
 188  7564.629
 189  5825.972
 190  5675.726
 191  6839.051
 192  7042.52
 193  5977.216
 194  5836.112
 195  6314.132
 196  7211.821
 197  6241.099
 198  5673.792
 199  5866.687
 200  7642.202
 201  6456.921
 202  6409.669
 203  5926.609
 204  6102.546
 205  6079.535
 206  5741.048
 207  6084.591
 208  6098.49
 209  6490.919
 210  6262.607
 211  6043.62
 212  6408.033
 213  6418.91
 214  5291.785
 215  6021.181
 216  6111.695
 217  7290.097
 218  6559.247
 219  6862.968
 220  6395.246
 221  7065.828
 222  6231.016
 223  5908.753
 224  6261.07
 225  7343.102
 226  6431.564
 227  5883.316
 228  6780.719
 229  7844.524
 230  6132.772
 231  6161.651
 232  6265.257
 233  7253.405
 234  6375.504
 235  5431.807
 236  5742.212
 237  6900.751
 238  6656.917
 239  6071.435
 240  6190.873
 241  6443.752
 242  6439.169
 243  5495.527
 244  6380.421
 245  5748.56
 246  6561.132
 247  5788.99
 248  5824.901
 249  6540.034
 250  8262.057
 251  5891.404
 252  5829.075
 253  6131.805
 254  7000.422
 255  7404.473
