# Input file       =  1184888937.102792_cleaned.dat
# Candidate        =  PSR_0332+5434
# Telescope        =  AR
# Epoch_topo       =  57957.992547486021
# Epoch_bary       =  N/A
# T_sample         =  0.002
# Data Folded      =  7143424
# Data Avg         =  0.0248521278569136
# Data StdDev      =  1.00005849615485 
# Profile Bins     =  512
# Profile Avg      =  346.731868940957 
# Profile StdDev   =  118.125493964875 
# Reduced chi-sqr  =  1.664
# Prob(Noise)      <  2.57e-19   (~8.9 sigma)
# P_topo (ms)      =  714.473414433775  +/- 0.000339
# P'_topo (s/s)    =  -0                +/- 1.84e-10
# P''_topo (s/s^2) =  0                 +/- 8.34e-14
# P_bary (ms)      =  N/A
# P'_bary (s/s)    =  N/A
# P''_bary (s/s^2) =  N/A
# P_orb (s)        =  N/A
# asin(i)/c (s)    =  N/A
# eccentricity     =  N/A
# w (rad)          =  N/A
# T_peri           =  N/A
######################################################
   0  285.3766
   1  337.392
   2  364.4066
   3  385.653
   4  487.8994
   5  520.7499
   6  421.5808
   7  359.4915
   8  436.0331
   9  315.9339
  10  266.5524
  11  484.4333
  12  515.9204
  13  499.7102
  14  411.2339
  15  343.2525
  16  267.1685
  17  350.0707
  18  420.0572
  19  370.3474
  20  263.7299
  21  303.3733
  22  315.2624
  23  369.5914
  24  408.5051
  25  423.4202
  26  338.4223
  27  331.2893
  28  443.3553
  29  453.1816
  30  455.0295
  31  391.1639
  32  363.3744
  33  409.4884
  34  354.4745
  35  414.101
  36  457.2542
  37  455.0493
  38  378.7578
  39  441.782
  40  358.5096
  41  286.337
  42  373.1859
  43  406.8922
  44  343.8779
  45  323.8452
  46  442.0344
  47  507.7811
  48  464.7639
  49  297.3039
  50  245.6273
  51  253.2716
  52  246.5789
  53  277.8395
  54  389.1247
  55  322.8965
  56  412.4545
  57  426.1353
  58  366.1935
  59  464.1335
  60  497.8804
  61  408.0722
  62  384.9827
  63  445.0991
  64  393.4787
  65  269.2903
  66  321.5072
  67  408.6821
  68  422.7261
  69  330.3248
  70  295.0175
  71  406.2684
  72  442.3752
  73  335.1643
  74  364.2458
  75  337.4902
  76  262.9775
  77  210.0673
  78  225.1481
  79  155.8698
  80  268.4597
  81  326.0506
  82  316.8415
  83  345.2812
  84  314.1558
  85  321.675
  86  350.3205
  87  395.3781
  88  278.6036
  89  351.0821
  90  363.3842
  91  278.77
  92  244.4644
  93  321.9732
  94  344.1186
  95  365.3683
  96  204.6249
  97  225.5643
  98  345.7862
  99  411.8487
 100  206.2359
 101  259.0788
 102  363.4787
 103  385.2507
 104  388.9223
 105  358.8465
 106  313.8199
 107  340.3668
 108  285.1613
 109  331.6918
 110  286.9553
 111  442.0388
 112  431.9764
 113  348.2372
 114  297.0629
 115  288.481
 116  276.2361
 117  341.8114
 118  373.0804
 119  379.5554
 120  380.2045
 121  208.2318
 122  187.7974
 123  261.7423
 124  321.9923
 125  411.2827
 126  403.4209
 127  303.0402
 128  261.9442
 129  232.143
 130  283.189
 131  207.1922
 132  163.973
 133  214.4126
 134  233.7536
 135  320.8401
 136  279.4065
 137  174.8334
 138  162.8849
 139  187.0681
 140  222.9598
 141  183.7038
 142  52.45939
 143  185.1599
 144  417.9633
 145  369.1546
 146  289.7118
 147  291.5164
 148  221.8551
 149  200.0295
 150  391.9807
 151  417.7835
 152  473.1987
 153  468.8066
 154  304.2174
 155  262.6486
 156  345.6971
 157  337.3352
 158  147.4992
 159  191.7894
 160  258.3518
 161  281.9279
 162  295.7245
 163  266.6379
 164  337.1387
 165  244.5867
 166  253.2454
 167  362.2384
 168  440.7552
 169  411.8046
 170  332.666
 171  205.6977
 172  223.4525
 173  203.6694
 174  179.1619
 175  319.1823
 176  354.3776
 177  259.3581
 178  374.586
 179  320.0983
 180  250.5075
 181  262.6721
 182  252.3962
 183  302.819
 184  377.521
 185  514.8685
 186  501.3268
 187  367.4296
 188  297.45
 189  367.2486
 190  309.7005
 191  324.0483
 192  373.5511
 193  316.9582
 194  214.3821
 195  225.229
 196  180.5925
 197  193.7548
 198  269.7446
 199  213.4959
 200  337.1937
 201  310.4316
 202  222.2378
 203  239.8903
 204  273.4283
 205  274.4674
 206  199.336
 207  248.1002
 208  331.9315
 209  351.1999
 210  400.4418
 211  233.7914
 212  197.3299
 213  288.3903
 214  331.7875
 215  411.919
 216  291.3825
 217  399.0751
 218  361.606
 219  342.5717
 220  334.1056
 221  301.0266
 222  451.6918
 223  554.3191
 224  444.6479
 225  530.0209
 226  523.0755
 227  616.7335
 228  834.8185
 229  974.5388
 230  1055.996
 231  1138.217
 232  1184.657
 233  975.6933
 234  644.8409
 235  421.7318
 236  320.1676
 237  344.0826
 238  402.1075
 239  272.9069
 240  378.6516
 241  393.4656
 242  503.1361
 243  456.1068
 244  338.4667
 245  309.2674
 246  324.2286
 247  385.3164
 248  434.1891
 249  342.9236
 250  354.5997
 251  394.6272
 252  394.4635
 253  465.4306
 254  416.2342
 255  338.6898
 256  322.8371
 257  328.153
 258  323.5034
 259  461.1772
 260  403.0558
 261  423.5619
 262  495.3003
 263  374.2309
 264  286.9662
 265  503.6667
 266  556.2821
 267  392.9746
 268  371.9949
 269  433.0759
 270  340.4581
 271  190.2881
 272  388.8885
 273  546.9666
 274  443.875
 275  350.3331
 276  285.8406
 277  397.8352
 278  275.3211
 279  334.0252
 280  290.4161
 281  431.678
 282  441.9229
 283  283.5066
 284  392.6142
 285  337.7284
 286  422.1044
 287  410.714
 288  336.2959
 289  449.7885
 290  274.992
 291  322.9512
 292  419.1922
 293  342.1939
 294  271.7102
 295  300.4677
 296  184.1905
 297  242.0331
 298  327.9688
 299  421.4662
 300  327.6097
 301  393.9517
 302  455.1171
 303  412.8674
 304  431.4836
 305  364.492
 306  320.3657
 307  218.9722
 308  191.5435
 309  375.4455
 310  388.2676
 311  440.0337
 312  413.2349
 313  463.7285
 314  370.388
 315  319.7603
 316  394.6514
 317  378.333
 318  354.2586
 319  400.6633
 320  379.9633
 321  359.2693
 322  454.1767
 323  377.0782
 324  431.5621
 325  338.5831
 326  379.8137
 327  374.1825
 328  458.4294
 329  378.6565
 330  305.3267
 331  261.5491
 332  283.7369
 333  326.5976
 334  402.3899
 335  392.0696
 336  351.8481
 337  383.2581
 338  333.9955
 339  380.6717
 340  475.8954
 341  391.1898
 342  330.3268
 343  353.2302
 344  426.6746
 345  325.979
 346  406.7346
 347  399.0378
 348  325.4652
 349  353.0199
 350  346.1091
 351  407.7205
 352  361.4254
 353  353.6837
 354  381.56
 355  318.3589
 356  354.3618
 357  434.4613
 358  425.1141
 359  381.996
 360  350.1415
 361  244.9768
 362  270.7044
 363  351.2221
 364  320.5359
 365  290.9465
 366  332.1458
 367  358.6268
 368  202.7811
 369  226.8776
 370  279.1094
 371  300.6566
 372  207.592
 373  195.8404
 374  262.7886
 375  257.2628
 376  176.0123
 377  312.1579
 378  379.0412
 379  302.1002
 380  283.1347
 381  196.1714
 382  217.7698
 383  329.5783
 384  422.0328
 385  356.8265
 386  274.0471
 387  287.7758
 388  354.7283
 389  342.6325
 390  280.0459
 391  208.5192
 392  215.8607
 393  200.1256
 394  302.0297
 395  336.2972
 396  330.6918
 397  257.3565
 398  353.326
 399  357.3934
 400  397.2482
 401  363.0038
 402  398.4249
 403  337.7924
 404  175.5023
 405  226.0988
 406  182.7402
 407  292.8377
 408  380.6189
 409  373.9081
 410  336.4029
 411  258.1339
 412  249.5121
 413  255.0212
 414  398.9158
 415  367.962
 416  350.4891
 417  290.547
 418  247.293
 419  318.6367
 420  337.6443
 421  395.3694
 422  329.6843
 423  262.4217
 424  241.9821
 425  193.064
 426  226.3388
 427  310.2985
 428  325.7419
 429  368.1888
 430  380.3671
 431  294.5812
 432  158.0152
 433  225.0029
 434  238.676
 435  247.1361
 436  340.757
 437  295.9952
 438  430.317
 439  448.1291
 440  394.3257
 441  360.6672
 442  387.1624
 443  362.4358
 444  394.0668
 445  353.3794
 446  345.3008
 447  348.4124
 448  313.1549
 449  307.7534
 450  323.7887
 451  298.1497
 452  296.5936
 453  316.1014
 454  410.4459
 455  410.2236
 456  242.8152
 457  304.5595
 458  341.4255
 459  324.2904
 460  286.6799
 461  265.2446
 462  232.614
 463  328.5166
 464  308.8092
 465  338.3902
 466  299.0974
 467  319.0553
 468  425.9554
 469  363.7631
 470  368.6565
 471  399.9706
 472  288.558
 473  276.6039
 474  389.5192
 475  381.6872
 476  416.6386
 477  373.212
 478  267.2203
 479  448.9184
 480  449.3837
 481  422.9697
 482  323.2868
 483  277.9817
 484  370.9148
 485  293.4507
 486  290.7454
 487  317.119
 488  315.9165
 489  387.3561
 490  332.0942
 491  276.5987
 492  342.7444
 493  373.8914
 494  288.0058
 495  305.772
 496  309.6469
 497  263.0721
 498  334.2491
 499  313.8853
 500  339.8953
 501  417.2453
 502  355.7933
 503  351.4871
 504  396.2663
 505  494.0233
 506  455.5988
 507  357.4643
 508  240.8146
 509  361.9992
 510  486.1334
 511  404.642
