# Input file       =  1184716687.098535_cleaned.dat
# Candidate        =  PSR_0332+5434
# Telescope        =  AR
# Epoch_topo       =  57955.998913177486
# Epoch_bary       =  N/A
# T_sample         =  0.002
# Data Folded      =  7143424
# Data Avg         =  0.138001043917697
# Data StdDev      =  4.59343881277569 
# Profile Bins     =  512
# Profile Avg      =  1925.39941815671 
# Profile StdDev   =  542.570490469133 
# Reduced chi-sqr  =  0.568
# Prob(Noise)      <  1   (~0.0 sigma)
# P_topo (ms)      =  714.474541190445  +/- 6.42e-05
# P'_topo (s/s)    =  -0                +/- 3.48e-11
# P''_topo (s/s^2) =  0                 +/- 1.58e-14
# P_bary (ms)      =  N/A
# P'_bary (s/s)    =  N/A
# P''_bary (s/s^2) =  N/A
# P_orb (s)        =  N/A
# asin(i)/c (s)    =  N/A
# eccentricity     =  N/A
# w (rad)          =  N/A
# T_peri           =  N/A
######################################################
   0  2014.639
   1  2039.292
   2  1585.042
   3  1565.68
   4  2113.711
   5  1912.089
   6  1866.352
   7  1938.563
   8  2153.116
   9  1726.904
  10  1546.087
  11  1952.568
  12  2115.653
  13  1493.83
  14  1665.316
  15  1485.248
  16  1493.714
  17  1857.176
  18  2034.248
  19  2096.937
  20  2075.027
  21  2231.4
  22  1916.565
  23  2008.042
  24  1801.127
  25  1812.942
  26  1859.252
  27  1965.552
  28  2390.535
  29  2012.021
  30  1754.972
  31  1866.471
  32  1813.279
  33  1663.71
  34  1314.44
  35  1704.509
  36  1766.318
  37  1981.071
  38  2035.059
  39  1810.353
  40  1845.033
  41  2120.723
  42  1947.511
  43  2131.378
  44  2316.941
  45  1529.897
  46  1479.656
  47  1791.598
  48  1529.193
  49  1674.457
  50  2216.403
  51  2332.707
  52  2303.199
  53  2099.188
  54  1609.152
  55  1553.564
  56  1669.705
  57  1609.756
  58  1962.312
  59  2331.106
  60  1931.618
  61  2001.579
  62  2047.761
  63  1775.537
  64  1620.915
  65  2024.471
  66  1823.177
  67  1381.701
  68  1392.345
  69  1739.533
  70  2196.4
  71  1899.497
  72  1790.197
  73  2110.866
  74  1975.926
  75  1793.383
  76  2239.787
  77  1851.856
  78  1793.215
  79  1450.833
  80  1656.226
  81  1824.662
  82  1845.199
  83  2396.309
  84  2079.9
  85  1859.962
  86  1606.508
  87  1757.826
  88  1703.849
  89  1560.45
  90  1942.79
  91  2080.059
  92  2159.227
  93  1869.387
  94  1676.932
  95  2183.532
  96  1791.439
  97  1589.044
  98  1774.925
  99  2038.632
 100  1826.452
 101  1481.331
 102  2008.782
 103  2476.616
 104  2028.065
 105  1825.571
 106  2089.155
 107  1998.412
 108  1825.842
 109  1995.816
 110  1727.052
 111  2088.107
 112  1695.184
 113  1782.646
 114  1566.847
 115  1304.61
 116  1488.146
 117  1937.825
 118  2199.642
 119  1994.396
 120  2127.478
 121  1899.685
 122  1184.276
 123  1262.91
 124  1546.124
 125  1706.699
 126  1872.392
 127  2035.207
 128  2196.401
 129  1604.342
 130  1189.829
 131  1342.814
 132  1683.709
 133  1867.504
 134  1949.068
 135  2414.307
 136  2294.97
 137  1779.607
 138  1689.814
 139  1827.611
 140  1789.271
 141  1528.769
 142  1547.601
 143  1719.593
 144  1612.999
 145  1943.875
 146  2011.344
 147  2077.875
 148  1919.707
 149  2014.584
 150  2301.451
 151  1640.827
 152  1811.069
 153  1874.914
 154  1613.912
 155  1569.782
 156  2109.687
 157  2358.419
 158  2147.448
 159  1994.38
 160  1578.921
 161  1966.386
 162  2045.764
 163  1634.588
 164  1525.25
 165  2195.304
 166  1949.721
 167  1740.984
 168  1917.204
 169  2193.792
 170  2002.933
 171  2211.185
 172  2143.665
 173  1845.487
 174  1959.191
 175  1808.607
 176  1681.94
 177  1719.505
 178  2106.709
 179  2204.927
 180  2056.33
 181  1810.607
 182  1864.919
 183  1970.547
 184  2013.779
 185  2127.013
 186  2255.601
 187  2229.638
 188  1985.351
 189  1955.759
 190  1858.842
 191  1870.346
 192  1918.592
 193  1685.743
 194  1494.514
 195  1893.091
 196  1659.842
 197  1449.427
 198  1857.778
 199  1824.911
 200  1987.759
 201  2306.763
 202  2332.527
 203  1927.111
 204  1603.416
 205  1981.155
 206  1924.552
 207  1920.765
 208  1888.701
 209  2003.414
 210  2143.271
 211  2050.651
 212  2103.58
 213  2239.185
 214  1507.625
 215  1803.583
 216  2261.772
 217  1788.263
 218  1509.01
 219  2257.058
 220  2158.215
 221  1942.838
 222  2082.26
 223  1946.161
 224  2019.995
 225  1226.074
 226  1444.891
 227  1672.086
 228  1837.02
 229  1871.182
 230  1923.193
 231  1903.415
 232  1724.552
 233  1415.739
 234  1727.839
 235  2044.305
 236  2172.817
 237  1886.569
 238  2054.75
 239  2175.22
 240  2131.893
 241  1909.439
 242  1907.186
 243  2077.385
 244  1732.759
 245  2230.812
 246  2384.538
 247  1565.506
 248  1586.831
 249  2120.941
 250  2407.64
 251  1854.437
 252  1731.297
 253  1789.98
 254  2012.563
 255  1853.648
 256  2122.569
 257  2250.487
 258  2033.107
 259  1943.268
 260  2217.923
 261  2224.601
 262  1652.861
 263  1456.778
 264  1754.675
 265  1884.796
 266  2122.92
 267  2366.979
 268  2325.968
 269  2018.584
 270  1491.342
 271  1355.798
 272  1754.364
 273  1767.576
 274  1848.131
 275  2249.85
 276  2414.218
 277  2241.578
 278  1553.435
 279  1692.323
 280  1634.346
 281  1587.096
 282  1864.261
 283  2627.449
 284  2592.831
 285  2299.217
 286  2256.545
 287  1891.133
 288  1600.39
 289  1393.05
 290  1615.327
 291  1932.14
 292  1981.692
 293  2249.875
 294  2027.747
 295  1837.371
 296  2103.644
 297  2148.441
 298  2018.694
 299  1823.484
 300  1940.439
 301  2206.303
 302  2321.678
 303  1798.757
 304  2105.805
 305  2273.277
 306  2330.786
 307  1920.391
 308  2163.06
 309  2129.758
 310  2026.571
 311  1870.845
 312  1919.256
 313  1955.784
 314  2047.233
 315  2151.95
 316  2185.891
 317  2193.065
 318  2186.032
 319  2537.197
 320  2573.115
 321  2408.537
 322  2135.112
 323  2582.906
 324  3245.368
 325  3436.845
 326  3661.13
 327  3556.526
 328  2666.919
 329  2085.924
 330  2160.872
 331  2420.917
 332  2351.411
 333  2046.836
 334  2145.791
 335  1859.691
 336  1553.677
 337  1687.918
 338  2061.509
 339  2515.511
 340  2373.517
 341  2206.86
 342  1904.221
 343  1806.766
 344  1702.349
 345  1641.693
 346  1900.208
 347  1820.873
 348  2067.265
 349  2337.705
 350  2208.646
 351  2052.492
 352  2030.684
 353  1990.096
 354  1839.103
 355  1873.977
 356  1914.118
 357  1531.327
 358  1917.515
 359  2080.809
 360  2178.565
 361  1808.382
 362  1356.1
 363  1687.489
 364  1620.915
 365  1756.054
 366  1837.887
 367  2306.439
 368  2348.024
 369  1974.256
 370  1592.313
 371  1842.324
 372  2110.121
 373  2114.302
 374  1833.616
 375  1918.135
 376  1822.778
 377  1808.378
 378  1790.856
 379  2148.299
 380  2022.362
 381  2050.859
 382  2472.642
 383  1905.289
 384  1659.569
 385  2075.496
 386  1966.812
 387  2066.189
 388  2123.533
 389  2051.122
 390  1777.709
 391  1803.865
 392  1944.972
 393  1987.879
 394  2113.125
 395  1865.334
 396  2246.619
 397  1689.979
 398  1450.726
 399  1736.625
 400  2076.494
 401  2343.656
 402  1584.883
 403  1829.193
 404  2191.413
 405  1875.905
 406  1797.604
 407  1814.531
 408  1810.502
 409  1983.2
 410  1891.589
 411  1715.009
 412  1917.147
 413  2151.654
 414  2200.834
 415  2138.398
 416  2147.703
 417  2222.097
 418  2283.533
 419  1823.75
 420  1962.267
 421  2054.257
 422  2033.456
 423  2226.593
 424  1932.43
 425  1881.678
 426  1872.685
 427  1842.805
 428  1292.917
 429  1418.679
 430  1904.664
 431  1841.885
 432  1845.495
 433  1990.009
 434  2064.976
 435  1917.521
 436  1781.677
 437  1647.942
 438  1864.568
 439  1938.161
 440  1556.462
 441  1600.693
 442  1700.433
 443  1831.775
 444  1876.071
 445  1831.796
 446  1873.597
 447  1750.666
 448  2046.506
 449  1926.622
 450  1507.701
 451  1563.816
 452  1707.632
 453  1771.892
 454  1557.253
 455  1552.082
 456  1887.264
 457  2043.065
 458  2061.917
 459  1697.45
 460  1798.646
 461  1854.936
 462  1215.818
 463  1629.618
 464  1839.531
 465  1836.477
 466  1972.868
 467  2035.133
 468  1821.011
 469  1628.781
 470  1890.816
 471  2209.546
 472  2146.916
 473  1984.952
 474  1831.44
 475  1786.992
 476  2019.525
 477  1966.054
 478  1964.47
 479  1953.215
 480  2223.591
 481  2463.201
 482  2354.857
 483  1922.471
 484  1875.045
 485  2140.224
 486  2290.998
 487  2082.61
 488  1865.162
 489  2094.681
 490  1924.193
 491  1368.609
 492  1552.51
 493  1808.387
 494  1857.356
 495  1751.61
 496  2067.831
 497  2389.183
 498  1929.64
 499  2073.42
 500  1946.351
 501  1856.287
 502  1430.969
 503  1468.023
 504  2115.377
 505  1794.072
 506  1288.205
 507  1617.978
 508  2067.63
 509  1611.819
 510  1517.635
 511  2080.441
