# Input file       =  1184573858.104995_cleaned.dat
# Candidate        =  PSR_0332+5434
# Telescope        =  AR
# Epoch_topo       =  57954.345799826333
# Epoch_bary       =  N/A
# T_sample         =  0.002
# Data Folded      =  7340032
# Data Avg         =  0.367392866933577
# Data StdDev      =  5.8090169036759  
# Profile Bins     =  256
# Profile Avg      =  10533.7704525979 
# Profile StdDev   =  983.629701689401 
# Reduced chi-sqr  =  1.559
# Prob(Noise)      <  2.61e-08   (~5.4 sigma)
# P_topo (ms)      =  714.475866522207  +/- 0.000292
# P'_topo (s/s)    =  -0                +/- 1.54e-10
# P''_topo (s/s^2) =  0                 +/- 6.79e-14
# P_bary (ms)      =  N/A
# P'_bary (s/s)    =  N/A
# P''_bary (s/s^2) =  N/A
# P_orb (s)        =  N/A
# asin(i)/c (s)    =  N/A
# eccentricity     =  N/A
# w (rad)          =  N/A
# T_peri           =  N/A
######################################################
   0  11054.95
   1  11229.76
   2  11704.62
   3  11488.77
   4  10477.56
   5  10479.84
   6  11525.57
   7  11182.05
   8  10639.07
   9  12047.64
  10  11226.08
  11  10176.49
  12  10376.49
  13  10473.51
  14  9656.742
  15  10498.13
  16  10744.58
  17  11181.5
  18  10805.17
  19  10015.57
  20  10868.5
  21  10329.26
  22  10022.4
  23  10435.15
  24  10868.58
  25  10979.24
  26  11007.78
  27  11223.79
  28  11672.23
  29  11512.88
  30  11705.57
  31  11019.49
  32  10617.04
  33  10107.77
  34  10972.54
  35  11078.26
  36  10641.73
  37  10909.33
  38  10519.7
  39  10948.96
  40  11248.59
  41  11270.12
  42  11547.2
  43  11571.11
  44  11832.68
  45  11758.94
  46  12076.54
  47  10086.7
  48  10089.69
  49  9967.011
  50  10587.78
  51  9770.875
  52  10227.05
  53  10483.95
  54  9892.974
  55  9259.294
  56  10183.17
  57  10831.04
  58  10758.07
  59  11164.27
  60  11597.92
  61  10185.36
  62  9636.923
  63  9630.177
  64  10004.22
  65  10137.91
  66  11626.46
  67  11291.06
  68  11516.61
  69  11757.46
  70  12604.37
  71  11416.79
  72  11651.75
  73  12407.53
  74  12153.06
  75  11434.23
  76  10887.02
  77  10886.72
  78  10614.53
  79  10672.09
  80  10002.96
  81  9586.075
  82  10529.66
  83  10476.53
  84  11386.13
  85  10949.67
  86  11614.03
  87  11414.86
  88  11987.38
  89  11386.23
  90  10558.34
  91  10630.77
  92  10375.01
  93  11202.04
  94  11097.29
  95  11461.1
  96  11636.04
  97  12584.48
  98  12392.23
  99  11640.79
 100  12501.26
 101  13092.99
 102  12217.87
 103  10835.18
 104  12354.47
 105  10741.3
 106  10746.94
 107  10483.41
 108  10541.51
 109  10480.56
 110  10656.69
 111  11149.77
 112  11345.96
 113  10637.54
 114  10698.01
 115  11763.88
 116  11498.58
 117  11199.97
 118  11045.15
 119  11241.97
 120  10969.55
 121  11810.88
 122  12108.59
 123  11155.48
 124  10850.21
 125  10685.89
 126  10821.55
 127  10536.31
 128  10274.21
 129  10864.48
 130  11346.99
 131  10567.91
 132  10657.34
 133  10802.81
 134  10182.35
 135  9783.094
 136  10435.57
 137  11668.3
 138  11791.36
 139  11154.91
 140  12115.71
 141  12270.38
 142  12014.8
 143  11474.69
 144  12768.38
 145  11479.69
 146  11214.04
 147  10951.2
 148  10410.98
 149  9789.965
 150  8996.79
 151  10661.82
 152  10281.35
 153  10098.38
 154  11601.5
 155  10418.56
 156  10480.89
 157  9689.359
 158  9877.994
 159  10500.19
 160  9290.02
 161  10595.92
 162  13534.24
 163  13996.29
 164  11176.24
 165  10488.51
 166  10018.89
 167  9135.636
 168  9343.442
 169  9026.988
 170  8988.208
 171  9032.281
 172  9543.04
 173  9786.324
 174  9504.068
 175  9554.42
 176  11019.64
 177  11168.26
 178  9597.557
 179  9274.795
 180  10619.18
 181  10497.54
 182  8906.879
 183  9091.688
 184  9643.621
 185  8975.684
 186  8932.134
 187  10041.84
 188  9136.022
 189  9032.244
 190  8699.5
 191  9992.521
 192  8327.065
 193  7920.057
 194  8878.01
 195  8961.166
 196  7706.904
 197  8039.606
 198  9500.486
 199  8785.332
 200  8240.938
 201  9378.255
 202  9704.164
 203  8262.42
 204  7673.452
 205  9283.598
 206  9213.608
 207  8481.636
 208  8104.556
 209  9278.896
 210  8388.697
 211  8541.322
 212  7837.805
 213  8314.389
 214  8951.354
 215  9828.094
 216  9777.427
 217  9460.8
 218  10330.55
 219  10545.37
 220  10721.02
 221  9743.516
 222  10739.1
 223  10840.99
 224  10831.51
 225  10122.94
 226  10217.01
 227  9737.956
 228  8913.467
 229  9439.812
 230  10427.45
 231  10838.33
 232  9679.783
 233  9246.09
 234  9627.935
 235  10809.02
 236  10490.32
 237  9614.15
 238  10340.37
 239  10618.83
 240  10165.46
 241  10887.61
 242  10024.51
 243  10630.49
 244  10779.57
 245  10612.52
 246  11059.17
 247  11994.1
 248  11111.61
 249  10561.1
 250  10483.33
 251  10844.96
 252  11226.86
 253  11011.53
 254  11544.57
 255  10496.14
