# Input file       =  1184041954.091831_cleaned.dat
# Candidate        =  PSR_0332+5434
# Telescope        =  AR
# Epoch_topo       =  57948.189503377675
# Epoch_bary       =  N/A
# T_sample         =  0.002
# Data Folded      =  7340032
# Data Avg         =  0.0363212454315984
# Data StdDev      =  1.00010402674649 
# Profile Bins     =  512
# Profile Avg      =  520.724129367288 
# Profile StdDev   =  119.745491814988 
# Reduced chi-sqr  =  1.442
# Prob(Noise)      <  2.05e-10   (~6.2 sigma)
# P_topo (ms)      =  714.47946502822   +/- 0.000356
# P'_topo (s/s)    =  -0                +/- 1.88e-10
# P''_topo (s/s^2) =  0                 +/- 8.3e-14
# P_bary (ms)      =  N/A
# P'_bary (s/s)    =  N/A
# P''_bary (s/s^2) =  N/A
# P_orb (s)        =  N/A
# asin(i)/c (s)    =  N/A
# eccentricity     =  N/A
# w (rad)          =  N/A
# T_peri           =  N/A
######################################################
   0  447.2041
   1  438.4682
   2  455.856
   3  477.0833
   4  542.3966
   5  599.7809
   6  582.0454
   7  579.4698
   8  592.7857
   9  621.1381
  10  567.9482
  11  516.0583
  12  566.8286
  13  647.9556
  14  631.9014
  15  496.9632
  16  393.6257
  17  414.665
  18  386.7023
  19  478.9614
  20  456.7206
  21  385.3627
  22  312.9848
  23  351.3572
  24  494.1349
  25  429.2449
  26  374.3029
  27  439.5356
  28  469.728
  29  586.6665
  30  490.5906
  31  342.2892
  32  407.6755
  33  452.9046
  34  481.6833
  35  372.3862
  36  394.722
  37  433.4767
  38  537.0325
  39  512.2108
  40  524.6449
  41  422.2026
  42  364.819
  43  437.9827
  44  504.5583
  45  442.9471
  46  455.8294
  47  467.6492
  48  469.6727
  49  523.1985
  50  525.6811
  51  438.2078
  52  547.6844
  53  653.3917
  54  589.6426
  55  482.399
  56  523.1046
  57  502.5292
  58  548.2201
  59  662.9336
  60  595.7437
  61  561.6047
  62  430.2903
  63  411.036
  64  357.8228
  65  378.8794
  66  371.8425
  67  462.2819
  68  501.8923
  69  535.0444
  70  357.6143
  71  361.9052
  72  379.612
  73  336.2016
  74  466.2325
  75  437.5126
  76  384.0339
  77  434.6076
  78  452.3074
  79  439.5071
  80  406.7928
  81  399.2596
  82  502.2689
  83  585.0734
  84  492.0908
  85  408.5398
  86  411.964
  87  428.4434
  88  439.6817
  89  540.1415
  90  410.6967
  91  396.9544
  92  445.9107
  93  410.2066
  94  503.3023
  95  455.2484
  96  488.8
  97  502.4985
  98  445.2844
  99  526.9808
 100  495.0247
 101  495.7397
 102  569.4452
 103  591.9615
 104  559.5055
 105  555.1609
 106  673.6746
 107  779.1041
 108  665.8945
 109  680.8686
 110  525.5836
 111  467.0274
 112  571.579
 113  580.0022
 114  537.2762
 115  419.9111
 116  487.0228
 117  638.3852
 118  557.822
 119  594.4078
 120  491.566
 121  564.633
 122  485.6058
 123  502.4669
 124  596.9127
 125  612.7932
 126  583.5605
 127  736.6639
 128  672.9502
 129  505.1746
 130  541.8513
 131  554.9487
 132  531.5724
 133  514.1923
 134  465.2111
 135  412.0716
 136  402.132
 137  525.8674
 138  507.5297
 139  512.7897
 140  529.7491
 141  529.5916
 142  532.9565
 143  457.8074
 144  519.9744
 145  440.6194
 146  447.5135
 147  468.0232
 148  598.3391
 149  595.9605
 150  537.2128
 151  646.9083
 152  683.1707
 153  575.9922
 154  604.2282
 155  699.6029
 156  540.9525
 157  476.5121
 158  442.4478
 159  490.3954
 160  449.4964
 161  483.0738
 162  588.8508
 163  504.2376
 164  430.8668
 165  505.7493
 166  451.7983
 167  445.6105
 168  424.3392
 169  486.9728
 170  515.6351
 171  504.0186
 172  645.3846
 173  618.1774
 174  524.5464
 175  493.4642
 176  596.8017
 177  484.9256
 178  428.8918
 179  491.5517
 180  551.744
 181  455.2095
 182  468.6921
 183  596.8644
 184  557.7174
 185  520.0078
 186  604.212
 187  551.216
 188  533.7496
 189  560.0703
 190  543.3426
 191  467.0251
 192  435.2908
 193  481.9985
 194  561.4752
 195  539.0968
 196  563.0504
 197  468.9932
 198  542.4924
 199  583.5491
 200  430.523
 201  436.6739
 202  491.892
 203  482.9189
 204  456.1845
 205  458.5754
 206  448.9999
 207  496.9524
 208  454.8685
 209  462.0385
 210  529.1172
 211  629.8276
 212  518.2512
 213  490.3496
 214  401.2714
 215  410.6727
 216  451.0497
 217  391.1959
 218  389.3979
 219  408.5697
 220  522.6964
 221  438.7465
 222  506.963
 223  575.6647
 224  558.2003
 225  548.1727
 226  478.9017
 227  492.4346
 228  575.0494
 229  594.413
 230  597.3014
 231  423.3267
 232  415.7849
 233  507.3795
 234  546.9799
 235  514.1288
 236  586.3071
 237  547.2934
 238  593.9475
 239  621.1518
 240  686.6272
 241  594.1823
 242  512.2424
 243  563.8076
 244  533.157
 245  541.5278
 246  603.695
 247  519.8981
 248  621.8577
 249  584.1779
 250  578.1346
 251  594.7385
 252  602.2073
 253  600.7027
 254  544.4068
 255  497.3781
 256  608.0593
 257  572.1971
 258  523.713
 259  553.0864
 260  568.6401
 261  670.8682
 262  565.744
 263  520.0656
 264  610.1077
 265  555.7359
 266  583.5286
 267  716.8262
 268  686.8087
 269  550.0822
 270  496.3061
 271  477.3773
 272  531.9347
 273  603.1943
 274  522.4536
 275  578.9544
 276  574.0981
 277  626.4186
 278  601.0212
 279  517.6154
 280  446.8715
 281  299.7932
 282  450.9239
 283  436.5342
 284  433.3908
 285  422.8445
 286  486.1639
 287  444.7216
 288  408.7035
 289  462.5011
 290  430.4295
 291  533.0599
 292  591.1445
 293  632.2817
 294  384.0367
 295  418.5728
 296  477.1071
 297  435.8899
 298  395.8433
 299  417.9527
 300  461.6859
 301  550.4021
 302  535.5054
 303  504.2853
 304  504.0421
 305  409.6254
 306  409.8518
 307  495.0899
 308  537.5846
 309  512.221
 310  547.2287
 311  507.8531
 312  437.5338
 313  474.7667
 314  441.4294
 315  584.3922
 316  597.5676
 317  560.1889
 318  572.6336
 319  534.6025
 320  541.5839
 321  539.0311
 322  534.7455
 323  568.5416
 324  555.7404
 325  507.5994
 326  615.0961
 327  556.6516
 328  646.4107
 329  649.0695
 330  510.3343
 331  478.8619
 332  494.6638
 333  517.9613
 334  545.0006
 335  493.7684
 336  639.9409
 337  517.4999
 338  534.1938
 339  455.4255
 340  438.1275
 341  526.8075
 342  462.6083
 343  508.5194
 344  461.6736
 345  551.7972
 346  534.2982
 347  431.12
 348  435.8769
 349  428.903
 350  476.4119
 351  533.0237
 352  558.275
 353  525.224
 354  428.448
 355  422.4271
 356  465.0293
 357  562.4357
 358  564.0981
 359  558.9355
 360  464.9951
 361  559.7931
 362  623.8277
 363  532.2054
 364  569.2006
 365  436.9477
 366  513.4663
 367  532.3469
 368  448.5539
 369  520.6038
 370  530.9145
 371  483.0774
 372  405.5844
 373  505.83
 374  526.9827
 375  507.3723
 376  566.938
 377  476.653
 378  506.3174
 379  534.049
 380  605.0833
 381  615.484
 382  489.8694
 383  590.3447
 384  525.8362
 385  486.1255
 386  457.0438
 387  549.1705
 388  608.4
 389  648.6337
 390  738.2971
 391  794.8918
 392  792.832
 393  1076.213
 394  1191.219
 395  1338.413
 396  1222.497
 397  976.0263
 398  777.5159
 399  672.7556
 400  710.3689
 401  735.5709
 402  701.9482
 403  632.362
 404  519.8367
 405  577.2189
 406  644.3802
 407  580.7171
 408  568.628
 409  595.8515
 410  567.5861
 411  521.1258
 412  481.565
 413  504.4322
 414  533.399
 415  568.0197
 416  582.8086
 417  503.3889
 418  470.713
 419  533.9407
 420  452.3536
 421  390.0915
 422  500.6582
 423  555.2593
 424  519.9129
 425  651.2365
 426  492.6038
 427  330.913
 428  489.5308
 429  668.0616
 430  581.1361
 431  448.2837
 432  522.7897
 433  537.8546
 434  562.29
 435  457.3256
 436  480.3547
 437  483.1535
 438  400.8142
 439  389.8337
 440  453.6089
 441  508.6053
 442  524.0815
 443  493.2115
 444  466.1314
 445  547.0095
 446  613.4642
 447  609.6995
 448  516.5103
 449  539.235
 450  647.7785
 451  465.5508
 452  430.923
 453  448.5645
 454  455.1584
 455  485.8633
 456  510.7517
 457  431.0558
 458  444.2478
 459  368.628
 460  352.0571
 461  458.5301
 462  478.2228
 463  453.0513
 464  519.8748
 465  437.799
 466  413.0482
 467  447.3128
 468  611.0608
 469  488.7697
 470  459.5405
 471  354.5373
 472  394.1334
 473  498.7057
 474  547.5485
 475  461.6235
 476  503.7689
 477  417.0844
 478  332.9029
 479  448.4538
 480  524.3526
 481  494.4868
 482  516.3169
 483  615.4579
 484  722.6434
 485  658.5887
 486  539.7331
 487  572.9529
 488  631.9872
 489  680.8456
 490  631.6005
 491  482.7465
 492  485.8836
 493  491.7049
 494  495.4113
 495  577.0833
 496  428.538
 497  316.2852
 498  402.482
 499  468.2916
 500  660.2667
 501  578.3332
 502  455.3692
 503  488.7884
 504  590.3554
 505  581.7114
 506  529.6805
 507  491.7583
 508  487.5037
 509  433.6083
 510  561.2043
 511  534.5884
