# Input file       =  1184027341.112139-PSRB0329-2ms-sampling-dd.dat
# Candidate        =  PSR_0332+5434
# Telescope        =  AR
# Epoch_topo       =  57948.020371668274
# Epoch_bary       =  N/A
# T_sample         =  0.002
# Data Folded      =  7208960
# Data Avg         =  -5.43919080745418e-11
# Data StdDev      =  5.50685176078559 
# Profile Bins     =  512
# Profile Avg      =  -1.02175254907513
# Profile StdDev   =  653.438491151971 
# Reduced chi-sqr  =  0.593
# Prob(Noise)      <  1   (~0.0 sigma)
# P_topo (ms)      =  714.479565933439  +/- 0.00014
# P'_topo (s/s)    =  -0                +/- 7.54e-11
# P''_topo (s/s^2) =  0                 +/- 3.39e-14
# P_bary (ms)      =  N/A
# P'_bary (s/s)    =  N/A
# P''_bary (s/s^2) =  N/A
# P_orb (s)        =  N/A
# asin(i)/c (s)    =  N/A
# eccentricity     =  N/A
# w (rad)          =  N/A
# T_peri           =  N/A
######################################################
   0  249.7111
   1  146.9528
   2  -18.47177
   3  124.5575
   4  -97.32148
   5  -417.4591
   6  -720.1656
   7  -313.3653
   8  -261.8203
   9  -215.6316
  10  -324.1395
  11  -33.14542
  12  282.3955
  13  -329.3856
  14  -314.2213
  15  -75.50288
  16  133.7884
  17  201.1657
  18  -38.80041
  19  -115.5207
  20  -19.9466
  21  -401.5896
  22  -340.4491
  23  259.0091
  24  289.0903
  25  62.16416
  26  -118.025
  27  -292.2969
  28  -223.3399
  29  -224.8631
  30  50.49909
  31  -196.0948
  32  -49.32603
  33  -390.8658
  34  -650.1887
  35  -442.1169
  36  19.76351
  37  45.71118
  38  38.73188
  39  -147.6536
  40  -174.7925
  41  -153.578
  42  -155.3748
  43  -140.5733
  44  -107.7411
  45  415.972
  46  232.0164
  47  -500.8345
  48  -641.3191
  49  -722.0885
  50  -582.648
  51  -259.5541
  52  42.87823
  53  -103.8675
  54  -407.4188
  55  -621.5818
  56  -243.195
  57  -21.55801
  58  -478.4969
  59  -253.6984
  60  -119.5605
  61  -372.6429
  62  -513.2433
  63  -132.2125
  64  -76.67002
  65  223.0229
  66  52.50473
  67  85.67775
  68  -379.1035
  69  -119.7015
  70  -94.266
  71  -335.2894
  72  -332.9116
  73  -554.1865
  74  -390.3093
  75  -278.9015
  76  -330.629
  77  -105.8711
  78  62.66385
  79  -292.9781
  80  -537.7025
  81  -732.7786
  82  -686.0993
  83  -205.5231
  84  -246.3004
  85  -501.7643
  86  -162.0525
  87  -93.74248
  88  -604.503
  89  -262.724
  90  -28.71601
  91  35.81924
  92  -120.2866
  93  -261.3414
  94  -281.9466
  95  -411.6299
  96  -271.5419
  97  72.39592
  98  -146.1752
  99  -358.0483
 100  -451.4975
 101  -213.0218
 102  -386.9397
 103  -402.396
 104  -352.5011
 105  -76.08377
 106  -27.13371
 107  -105.8106
 108  -418.2999
 109  -756.1435
 110  -135.306
 111  -96.69281
 112  -18.22099
 113  -47.97909
 114  -186.705
 115  -132.538
 116  -23.39954
 117  -14.71132
 118  85.4784
 119  173.9943
 120  0.9031606
 121  -329.9118
 122  -446.5954
 123  77.463
 124  -244.387
 125  -333.022
 126  0.4656631
 127  368.6047
 128  179.0275
 129  52.7785
 130  -40.94371
 131  -302.7723
 132  -65.6371
 133  -8.689682
 134  6.08866
 135  303.449
 136  43.19322
 137  45.20264
 138  -110.3649
 139  -105.4068
 140  35.35426
 141  -109.2114
 142  -249.7064
 143  -76.84996
 144  53.18602
 145  -114.6008
 146  -59.00954
 147  -10.35184
 148  485.1412
 149  388.4497
 150  -86.63142
 151  -195.6779
 152  -118.1585
 153  1.936166
 154  -183.8176
 155  -64.91856
 156  217.4013
 157  -53.6028
 158  -723.8789
 159  -729.7498
 160  -754.2061
 161  -452.3724
 162  -139.7118
 163  455.3968
 164  322.7205
 165  137.7126
 166  75.47491
 167  -183.7444
 168  -584.5709
 169  -664.0108
 170  -244.0231
 171  23.94939
 172  87.36105
 173  24.73016
 174  106.4145
 175  112.9732
 176  -724.4219
 177  -414.3839
 178  4.650796
 179  -151.3343
 180  -198.5154
 181  -155.8051
 182  61.54054
 183  -219.9923
 184  -291.0619
 185  -245.2715
 186  -253.6466
 187  -418.2424
 188  -136.9963
 189  -337.0094
 190  -193.006
 191  -284.1656
 192  -126.8584
 193  -231.7194
 194  -121.2863
 195  439.5153
 196  294.989
 197  251.993
 198  293.4324
 199  528.6949
 200  1116.309
 201  1453.41
 202  1652.17
 203  1637.219
 204  777.7158
 205  208.4046
 206  -329.0437
 207  97.04397
 208  -11.39582
 209  -195.3238
 210  -110.6863
 211  -12.6472
 212  -52.65366
 213  -200.6372
 214  607.0938
 215  711.0563
 216  264.7221
 217  109.2725
 218  -49.67419
 219  -271.2696
 220  -494.9532
 221  -454.2917
 222  -107.9504
 223  -105.2723
 224  -425.5604
 225  -47.47942
 226  330.3364
 227  86.07401
 228  161.4781
 229  -159.6535
 230  13.19103
 231  -73.47365
 232  -291.8817
 233  13.5976
 234  93.00462
 235  -15.03131
 236  -180.3466
 237  -3.256179
 238  -433.6557
 239  -339.9535
 240  -262.0869
 241  -417.4296
 242  -384.1956
 243  -505.5338
 244  -170.6936
 245  -6.145652
 246  372.4727
 247  326.6793
 248  -82.41246
 249  17.64373
 250  -709.8015
 251  -560.9211
 252  -382.3812
 253  -465.9063
 254  -443.7583
 255  -187.8164
 256  144.093
 257  -397.5204
 258  -551.4546
 259  -395.2969
 260  -683.1548
 261  -518.1071
 262  -370.5427
 263  -301.2128
 264  -570.9358
 265  -482.5045
 266  -373.2166
 267  -136.5031
 268  -206.2758
 269  -269.1687
 270  -108.7262
 271  66.94698
 272  99.60491
 273  -249.5332
 274  -406.8957
 275  -390.2149
 276  -68.9292
 277  -51.22429
 278  -343.2059
 279  77.83702
 280  -64.48589
 281  -50.84195
 282  -209.3983
 283  -143.5426
 284  78.24487
 285  -101.0208
 286  -104.4132
 287  -440.2201
 288  -433.5
 289  -390.5305
 290  -416.1063
 291  -315.8763
 292  -38.09706
 293  105.5671
 294  -403.7631
 295  -835.949
 296  -572.5133
 297  -67.60095
 298  425.5191
 299  297.3923
 300  383.4821
 301  -16.16826
 302  -576.4966
 303  -584.759
 304  -174.1222
 305  46.81511
 306  33.8851
 307  199.8089
 308  -96.1078
 309  -101.0106
 310  -101.2481
 311  -223.7841
 312  -70.44786
 313  40.58263
 314  352.584
 315  -51.70837
 316  511.9844
 317  91.4251
 318  115.1756
 319  97.98569
 320  429.6469
 321  493.3666
 322  317.4351
 323  548.5656
 324  344.6953
 325  568.6857
 326  -35.88732
 327  235.7279
 328  419.7192
 329  411.3703
 330  446.0211
 331  349.7039
 332  627.6951
 333  477.629
 334  -237.5325
 335  -347.5652
 336  -592.7083
 337  -163.9692
 338  -118.0588
 339  -8.415913
 340  224.7615
 341  91.60025
 342  -42.84584
 343  303.8185
 344  267.4907
 345  447.8769
 346  469.9064
 347  163.6371
 348  109.5941
 349  -213.0897
 350  -260.6881
 351  -112.4332
 352  248.7114
 353  57.71665
 354  17.32672
 355  266.4954
 356  -333.8951
 357  -0.06901024
 358  280.9225
 359  403.128
 360  89.66811
 361  -37.72913
 362  24.91974
 363  125.4087
 364  462.9164
 365  594.209
 366  547.0991
 367  146.3233
 368  -320.02
 369  -373.2253
 370  -389.5185
 371  -148.056
 372  313.0603
 373  545.397
 374  480.3856
 375  323.4366
 376  380.9904
 377  320.0564
 378  280.7971
 379  819.5409
 380  906.7456
 381  821.1659
 382  721.2471
 383  500.7315
 384  782.5197
 385  736.9109
 386  280.1219
 387  326.198
 388  816.9492
 389  318.5745
 390  419.4679
 391  688.04
 392  574.2897
 393  85.45535
 394  404.161
 395  183.21
 396  257.4801
 397  378.9034
 398  340.0834
 399  999.384
 400  554.7626
 401  275.8121
 402  -35.3967
 403  207.5278
 404  96.15374
 405  197.7799
 406  670.731
 407  233.1075
 408  -39.3174
 409  427.1555
 410  242.522
 411  247.9799
 412  217.3166
 413  314.798
 414  303.8075
 415  199.8095
 416  478.3206
 417  443.3919
 418  134.1764
 419  -336.0262
 420  -268.7051
 421  161.9067
 422  216.282
 423  -24.79785
 424  517.8429
 425  194.4062
 426  169.2614
 427  -295.1354
 428  -65.48479
 429  26.65854
 430  -224.3151
 431  189.2573
 432  -170.1638
 433  329.5776
 434  -61.2843
 435  -328.8808
 436  -266.3044
 437  -514.9486
 438  -385.5839
 439  -340.9973
 440  -234.8055
 441  -144.1682
 442  -148.0244
 443  -388.9945
 444  -454.9429
 445  -86.09984
 446  144.838
 447  656.3181
 448  725.1965
 449  405.8124
 450  152.0081
 451  -184.7731
 452  -170.7479
 453  -3.357866
 454  325.2479
 455  409.3
 456  296.3203
 457  427.6637
 458  155.0757
 459  -112.7472
 460  -298.2529
 461  38.13958
 462  374.3385
 463  421.7291
 464  155.0361
 465  -153.1492
 466  383.0792
 467  458.4997
 468  71.81432
 469  -25.86001
 470  186.4314
 471  -184.0981
 472  -168.4215
 473  170.4045
 474  675.18
 475  919.6498
 476  733.2213
 477  124.9782
 478  -418.0626
 479  82.15022
 480  548.8223
 481  449.3996
 482  444.2841
 483  323.3956
 484  515.5639
 485  -141.3363
 486  -638.1234
 487  69.17313
 488  645.3173
 489  636.7792
 490  284.737
 491  362.2401
 492  283.1835
 493  130.3657
 494  366.7805
 495  920.9227
 496  1026.101
 497  371.333
 498  89.81084
 499  -113.5405
 500  79.3073
 501  61.77155
 502  110.6482
 503  351.3744
 504  -30.68782
 505  309.0103
 506  617.3146
 507  515.2248
 508  -184.8457
 509  -93.685
 510  134.7227
 511  -124.2846
