# Input file       =  1184731253.101969_cleaned.dat
# Candidate        =  PSR_0332+5434
# Telescope        =  AR
# Epoch_topo       =  57956.167501180200
# Epoch_bary       =  N/A
# T_sample         =  0.002
# Data Folded      =  7340032
# Data Avg         =  0.236352305645205
# Data StdDev      =  7.17616389826472 
# Profile Bins     =  512
# Profile Avg      =  3387.32578841353 
# Profile StdDev   =  859.223893076565 
# Reduced chi-sqr  =  1.510
# Prob(Noise)      <  6.39e-13   (~7.1 sigma)
# P_topo (ms)      =  714.474457143904  +/- 0.000231
# P'_topo (s/s)    =  -0                +/- 1.22e-10
# P''_topo (s/s^2) =  0                 +/- 5.39e-14
# P_bary (ms)      =  N/A
# P'_bary (s/s)    =  N/A
# P''_bary (s/s^2) =  N/A
# P_orb (s)        =  N/A
# asin(i)/c (s)    =  N/A
# eccentricity     =  N/A
# w (rad)          =  N/A
# T_peri           =  N/A
######################################################
   0  3257.018
   1  2690.52
   2  3086.954
   3  3575.713
   4  3814.618
   5  3759.302
   6  2898.678
   7  2953.307
   8  2961.467
   9  2980.725
  10  2989.29
  11  3769.542
  12  3327.976
  13  2906.549
  14  2865.403
  15  3306.071
  16  2368.983
  17  2658.761
  18  3099.401
  19  3403.049
  20  3293.196
  21  2892.891
  22  2868.887
  23  2740.332
  24  2261.913
  25  2070.587
  26  2507.039
  27  1982.443
  28  2555.424
  29  3189.667
  30  3040.047
  31  3106.016
  32  2795.958
  33  2055.146
  34  1897.062
  35  1788.551
  36  2394.611
  37  3186.497
  38  3724.625
  39  3499.754
  40  3080.331
  41  3383.113
  42  2720.273
  43  2738.589
  44  3863.962
  45  4329.214
  46  3184.544
  47  2432.149
  48  3372.321
  49  4364.753
  50  4690.503
  51  3867.772
  52  2650.853
  53  2444.466
  54  2672.031
  55  3214.06
  56  3083.976
  57  2946.648
  58  2976.883
  59  2186.47
  60  2346.878
  61  2846.369
  62  2278.502
  63  3134.204
  64  2784.225
  65  3099.453
  66  2867.864
  67  2278.213
  68  2597.815
  69  3239.628
  70  3082.037
  71  2717.24
  72  3082.047
  73  2855.361
  74  2535.209
  75  2713.226
  76  3216.922
  77  3638.361
  78  2888.536
  79  2815.821
  80  2615.382
  81  2209.967
  82  2239.836
  83  1924.428
  84  2329.485
  85  3162.586
  86  2819.896
  87  2616.962
  88  1915.235
  89  1925.399
  90  2550.392
  91  2459.595
  92  3132.672
  93  2297.824
  94  1665.723
  95  1841.777
  96  2460.382
  97  2922.45
  98  2953.1
  99  2902.843
 100  2194.203
 101  1914.301
 102  2357.904
 103  3463.024
 104  3477.52
 105  3358.802
 106  3125.201
 107  3857.906
 108  4125.67
 109  3565.982
 110  3248.423
 111  3164.484
 112  3262.457
 113  2850.753
 114  3313.583
 115  4076.626
 116  3729.384
 117  3503.782
 118  2922.309
 119  2245.526
 120  2570.535
 121  3576.887
 122  3421.348
 123  3443.499
 124  2963.996
 125  2655.071
 126  2767.501
 127  3058.601
 128  3264.509
 129  3173.512
 130  3032.95
 131  2612.649
 132  3293.671
 133  3180.867
 134  2698.572
 135  2346.497
 136  3235.004
 137  3053.877
 138  3028.611
 139  2754.117
 140  2735.779
 141  2505.718
 142  2243.146
 143  2093.835
 144  2580.671
 145  2340.708
 146  2275.05
 147  2154.061
 148  2161.228
 149  1743.115
 150  1978.855
 151  2778.012
 152  2032.684
 153  2124.193
 154  2768.092
 155  2496.069
 156  2464.774
 157  2793.33
 158  2368.354
 159  3499.477
 160  3126.762
 161  2677.956
 162  2144.431
 163  2049.165
 164  2104.552
 165  1800.151
 166  2223.729
 167  2454.55
 168  2295.353
 169  2639.739
 170  3498.08
 171  3199.579
 172  1735.719
 173  1768.506
 174  2119.067
 175  2734.098
 176  2759.857
 177  2877.496
 178  2897.863
 179  3048.397
 180  2542.447
 181  3181.852
 182  2828.428
 183  2848.683
 184  3345.181
 185  3208.655
 186  4080.555
 187  4378.049
 188  4203.927
 189  4311.964
 190  3714.975
 191  3826.682
 192  3895.636
 193  3870.948
 194  3743.171
 195  3831.995
 196  3676.662
 197  2952.652
 198  2968.732
 199  3169.913
 200  4446.224
 201  4554.183
 202  3454.593
 203  3012.139
 204  2537.002
 205  3187.948
 206  3689.826
 207  4087.639
 208  3606.87
 209  3683.595
 210  3793.852
 211  3526.43
 212  4375.657
 213  3811.23
 214  3650.464
 215  2546.253
 216  2548.3
 217  3175.152
 218  3549.958
 219  3228.468
 220  3184.01
 221  2474.036
 222  2483.349
 223  2650.323
 224  3115.585
 225  3198.283
 226  3077.988
 227  2417.156
 228  3002.035
 229  3391.516
 230  3445.339
 231  3437.743
 232  3589.967
 233  3816.798
 234  3614.164
 235  3328.597
 236  3180.89
 237  2975.659
 238  3603.444
 239  3470.295
 240  3385.271
 241  3647.228
 242  3712.276
 243  3473.326
 244  2852.424
 245  2470.814
 246  2970.565
 247  3442.445
 248  3837.324
 249  3847.792
 250  2998.067
 251  2367.498
 252  2326.344
 253  2770.326
 254  3705.114
 255  4062.167
 256  4607.968
 257  4177.008
 258  4122.248
 259  4149.089
 260  3111.25
 261  3078.718
 262  3306.385
 263  3659.21
 264  3838.338
 265  3965.744
 266  3809.868
 267  3907.015
 268  4295.819
 269  3912.003
 270  3001.531
 271  2667.405
 272  2360.626
 273  2358.298
 274  3561.88
 275  3913.509
 276  3443.847
 277  3075.799
 278  2666.253
 279  3053.415
 280  3555.19
 281  3840.768
 282  3487.385
 283  3312.596
 284  3203.776
 285  3609.432
 286  4036.956
 287  5077.731
 288  4993.993
 289  4325.889
 290  4369.478
 291  5183.649
 292  3941.968
 293  3840.416
 294  4748.326
 295  4637.713
 296  4754.488
 297  4899.78
 298  4363.252
 299  3211.096
 300  3232.707
 301  3377.525
 302  3633.876
 303  4199.732
 304  4316.433
 305  3319.026
 306  4044.741
 307  4125.811
 308  4662.043
 309  4814.146
 310  3946.526
 311  3954.209
 312  4620.671
 313  3958.295
 314  5074.502
 315  5413.39
 316  4153.902
 317  3507.349
 318  4383.617
 319  4074.307
 320  3582.438
 321  3640.755
 322  4554.133
 323  5350.017
 324  5851.571
 325  6391.049
 326  6148.184
 327  5456.703
 328  5129.984
 329  4651.289
 330  4964.729
 331  4754.488
 332  3567.597
 333  3933.553
 334  4222.858
 335  3862.562
 336  4508.356
 337  4981.017
 338  4279.554
 339  3545.105
 340  4181.031
 341  4823.483
 342  4694.098
 343  4591.578
 344  3996.153
 345  3296.716
 346  3670.453
 347  5084.567
 348  4311.469
 349  4604.31
 350  3795.594
 351  3515.265
 352  4433.843
 353  4251.668
 354  4695.542
 355  4343.481
 356  3934.51
 357  3282.46
 358  3763.137
 359  4492.84
 360  5153.841
 361  3870.469
 362  3219.313
 363  3602.868
 364  4061.758
 365  3835.479
 366  4302.635
 367  4687.135
 368  4391.768
 369  3691.501
 370  3001.832
 371  3260.408
 372  2965.391
 373  3240.064
 374  3560.651
 375  3078.133
 376  2352.643
 377  2985.148
 378  2939.643
 379  3987.285
 380  4033.919
 381  3326.321
 382  3408.054
 383  2830.861
 384  2839.221
 385  2860.295
 386  3639.578
 387  3300.493
 388  4167.529
 389  4020.874
 390  3216.68
 391  3067.305
 392  2618.698
 393  2729.661
 394  3104.886
 395  3245.795
 396  3302.275
 397  3611.008
 398  3458.469
 399  3413.753
 400  3034.118
 401  3286.79
 402  4037.202
 403  3706.374
 404  3778.192
 405  3616.613
 406  3560.826
 407  3552.389
 408  4339.148
 409  4710.359
 410  3838.703
 411  3451.333
 412  3304.475
 413  3719.892
 414  3798.606
 415  4193.316
 416  4085.65
 417  3832.159
 418  3708.759
 419  3409.122
 420  3250.883
 421  3550.317
 422  3768.587
 423  3460.422
 424  3256.643
 425  3149.888
 426  2795.76
 427  2895.672
 428  3001.959
 429  3211.059
 430  3512.939
 431  2853.185
 432  2806.198
 433  3185.891
 434  3020.287
 435  2933.988
 436  3315.951
 437  2874.84
 438  2401.721
 439  2585.925
 440  3828.284
 441  4212.55
 442  3941.029
 443  3624.018
 444  3011.359
 445  2879.165
 446  4269.229
 447  3636.873
 448  3943.921
 449  4279.02
 450  4173.961
 451  4302.052
 452  3384.809
 453  3220.959
 454  3156.563
 455  2924.759
 456  3515.892
 457  3790.491
 458  3117.348
 459  2881.18
 460  3243.78
 461  3915.884
 462  3511.522
 463  3281.578
 464  2869.346
 465  3780.423
 466  4254.309
 467  3891.307
 468  4422.591
 469  4098.193
 470  3911.045
 471  3554.923
 472  3932.99
 473  3266.561
 474  3791.138
 475  4621.695
 476  4212.4
 477  2115.378
 478  2619.679
 479  2910.078
 480  3835.982
 481  4282.413
 482  3723.901
 483  2852.385
 484  2951.31
 485  3446.564
 486  3754.364
 487  3924.127
 488  4484.589
 489  2850.992
 490  2567.724
 491  3312.197
 492  4218.668
 493  4610.878
 494  3716.013
 495  3318.263
 496  3269.361
 497  3413.122
 498  4215.516
 499  4373.149
 500  4335.301
 501  3984.57
 502  4010.749
 503  3974.749
 504  4325.999
 505  4793.542
 506  4294.827
 507  3674.086
 508  3856.027
 509  3797.925
 510  4208.323
 511  3820.974
