# Input file       =  1184128104.119004-PSRB0329-2ms-sampling-dd.dat
# Candidate        =  PSR_0332+5434
# Telescope        =  AR
# Epoch_topo       =  57949.186610173660
# Epoch_bary       =  N/A
# T_sample         =  0.002
# Data Folded      =  7340032
# Data Avg         =  1.28979741858111e-10
# Data StdDev      =  4.04847053041295 
# Profile Bins     =  512
# Profile Avg      =  0.649906085681302
# Profile StdDev   =  484.7356692882   
# Reduced chi-sqr  =  0.684
# Prob(Noise)      <  1   (~0.0 sigma)
# P_topo (ms)      =  714.478799018348  +/- 0.000221
# P'_topo (s/s)    =  -0                +/- 1.17e-10
# P''_topo (s/s^2) =  0                 +/- 5.14e-14
# P_bary (ms)      =  N/A
# P'_bary (s/s)    =  N/A
# P''_bary (s/s^2) =  N/A
# P_orb (s)        =  N/A
# asin(i)/c (s)    =  N/A
# eccentricity     =  N/A
# w (rad)          =  N/A
# T_peri           =  N/A
######################################################
   0  -416.9637
   1  -295.2256
   2  -183.342
   3  -125.8472
   4  -368.8369
   5  -830.623
   6  -484.98
   7  -350.8008
   8  -174.7565
   9  -39.41616
  10  -115.2986
  11  -94.16595
  12  -250.2032
  13  -342.875
  14  72.49216
  15  124.0249
  16  2.718498
  17  -72.51319
  18  -84.04089
  19  -307.7952
  20  -292.6945
  21  -60.69005
  22  -252.8619
  23  -319.757
  24  -179.0982
  25  245.0482
  26  -58.98065
  27  -207.542
  28  -332.0445
  29  -117.1823
  30  -25.8571
  31  -89.54635
  32  -172.7038
  33  -304.4956
  34  -444.1828
  35  -303.8866
  36  -182.6123
  37  -102.7413
  38  12.27235
  39  -55.78517
  40  -443.1006
  41  -250.3701
  42  -87.66441
  43  113.3802
  44  76.88506
  45  127.9331
  46  191.6312
  47  -106.5266
  48  -111.4549
  49  -268.3112
  50  1.608751
  51  -268.9568
  52  -279.8698
  53  -310.8433
  54  -343.0951
  55  -288.5938
  56  -360.5986
  57  -170.459
  58  -273.874
  59  -260.1002
  60  -348.6913
  61  -246.1304
  62  -250.583
  63  -333.7918
  64  -450.873
  65  -163.8689
  66  -52.61447
  67  -298.8367
  68  -39.07161
  69  147.1533
  70  -207.1153
  71  -167.8594
  72  -93.62866
  73  -245.8566
  74  -460.5134
  75  -404.1769
  76  14.59532
  77  297.0413
  78  351.9781
  79  129.3824
  80  32.25555
  81  59.62648
  82  18.37293
  83  79.9922
  84  103.2101
  85  137.6633
  86  -21.80196
  87  254.5061
  88  130.6527
  89  -257.3651
  90  -129.4885
  91  -127.0422
  92  -117.2221
  93  -85.43588
  94  -152.1892
  95  101.2417
  96  148.6424
  97  18.63191
  98  97.19388
  99  -356.547
 100  -154.1506
 101  -34.28749
 102  -62.00794
 103  -78.98346
 104  -144.3374
 105  97.50667
 106  -106.8744
 107  63.90733
 108  68.10526
 109  -49.22124
 110  -27.26659
 111  -5.891977
 112  101.9037
 113  68.71381
 114  264.7783
 115  352.604
 116  225.4739
 117  -65.99866
 118  -54.92651
 119  146.1386
 120  259.3008
 121  360.043
 122  153.0793
 123  54.19081
 124  -97.94315
 125  -106.4342
 126  -114.7347
 127  -155.9412
 128  220.5524
 129  114.3536
 130  -50.24343
 131  -80.53217
 132  -290.2691
 133  -338.817
 134  -99.30317
 135  -34.72976
 136  116.9885
 137  414.1458
 138  412.0965
 139  -149.7
 140  -253.12
 141  2.268039
 142  45.49799
 143  150.3707
 144  590.8184
 145  424.6118
 146  134.7932
 147  106.5686
 148  91.08215
 149  -20.36229
 150  1.313039
 151  7.883349
 152  197.2102
 153  230.4357
 154  -0.3344335
 155  4.362724
 156  -115.3901
 157  193.9173
 158  19.33838
 159  -151.5728
 160  -287.7809
 161  -372.0089
 162  -215.6552
 163  -129.2174
 164  57.47543
 165  35.07763
 166  25.94288
 167  95.15767
 168  -92.00287
 169  -170.9551
 170  -319.5374
 171  -274.6712
 172  -108.0542
 173  136.809
 174  -138.9576
 175  -158.6466
 176  -345.4207
 177  -377.4311
 178  -181.002
 179  83.94302
 180  -207.1662
 181  -302.5445
 182  -311.3751
 183  -119.247
 184  -215.6949
 185  -246.1095
 186  -81.28694
 187  -93.52655
 188  -176.4016
 189  -15.65701
 190  182.872
 191  -212.1285
 192  -244.8214
 193  -2.390187
 194  -3.481748
 195  -71.501
 196  45.13609
 197  40.12436
 198  -56.91519
 199  21.79277
 200  175.8099
 201  4.684691
 202  118.954
 203  60.26724
 204  -102.7416
 205  236.3515
 206  261.8156
 207  134.2098
 208  -7.56136
 209  -331.9567
 210  -335.8459
 211  -155.9971
 212  -56.83303
 213  -81.36651
 214  -48.2803
 215  228.6939
 216  42.10098
 217  254.7365
 218  397.0912
 219  633.7192
 220  897.3018
 221  1391.166
 222  1697.31
 223  2243.8
 224  1896.346
 225  1151.27
 226  577.964
 227  341.8678
 228  165.5167
 229  175.2889
 230  221.8833
 231  137.5421
 232  -2.522246
 233  403.1929
 234  366.2905
 235  -111.5327
 236  54.89632
 237  209.5752
 238  169.6011
 239  -10.89232
 240  283.4998
 241  174.2852
 242  -39.66806
 243  -82.75064
 244  29.59645
 245  12.95506
 246  69.69046
 247  331.6199
 248  77.86935
 249  -92.97012
 250  17.66148
 251  66.21638
 252  -177.7732
 253  -265.8752
 254  1.439007
 255  47.55066
 256  109.7636
 257  -5.230607
 258  76.88479
 259  8.390074
 260  127.354
 261  -104.7419
 262  -159.7038
 263  -253.8909
 264  -20.57972
 265  149.9757
 266  154.6349
 267  126.9446
 268  -214.1411
 269  -527.5644
 270  -272.5245
 271  -12.45334
 272  101.067
 273  328.3583
 274  74.62142
 275  -18.26285
 276  110.1926
 277  258.1978
 278  23.15542
 279  157.8435
 280  458.18
 281  364.3596
 282  495.8307
 283  534.2936
 284  412.8039
 285  15.32696
 286  135.783
 287  162.1429
 288  31.95346
 289  87.23108
 290  197.4454
 291  303.2902
 292  490.3137
 293  358.1617
 294  25.97894
 295  -248.0849
 296  -158.1256
 297  5.015016
 298  246.1672
 299  221.7431
 300  205.325
 301  114.6296
 302  -224.7694
 303  -286.296
 304  -172.4625
 305  -67.13315
 306  168.1299
 307  408.5931
 308  283.676
 309  168.8687
 310  -61.23861
 311  -172.2784
 312  -2.285515
 313  508.4274
 314  620.0307
 315  133.9025
 316  245.4172
 317  78.62849
 318  2.694639
 319  -104.9869
 320  34.56244
 321  14.72573
 322  398.9731
 323  411.3835
 324  132.7891
 325  -43.32874
 326  -29.27305
 327  322.3986
 328  308.4014
 329  169.2533
 330  193.8076
 331  456.1049
 332  302.6886
 333  31.42921
 334  423.9828
 335  443.2654
 336  345.5179
 337  163.3199
 338  -207.7394
 339  -217.3283
 340  -86.84824
 341  39.60453
 342  120.0933
 343  110.1107
 344  62.8553
 345  -83.77744
 346  -51.20777
 347  -91.44598
 348  -0.04080912
 349  153.1159
 350  183.1853
 351  171.3388
 352  -58.7224
 353  -95.4659
 354  -40.99821
 355  -69.65075
 356  70.0005
 357  133.9291
 358  287.1338
 359  175.8112
 360  96.67139
 361  70.9624
 362  61.36439
 363  247.3835
 364  245.625
 365  248.9965
 366  -72.04357
 367  139.742
 368  418.3954
 369  263.6056
 370  362.6331
 371  -16.9033
 372  -75.83116
 373  138.8229
 374  147.0512
 375  187.0334
 376  -83.11245
 377  -24.43382
 378  -124.8223
 379  -258.9911
 380  -273.3121
 381  198.3467
 382  364.2416
 383  342.4864
 384  235.5843
 385  111.1346
 386  220.0615
 387  50.95188
 388  4.865918
 389  -52.82262
 390  155.2463
 391  176.7724
 392  58.95087
 393  164.9344
 394  233.1225
 395  91.31922
 396  5.116518
 397  233.7234
 398  282.6823
 399  276.0226
 400  81.73035
 401  -136.4302
 402  83.81322
 403  94.73842
 404  74.02328
 405  230.344
 406  150.4793
 407  309.991
 408  272.3562
 409  169.8473
 410  80.97385
 411  -6.229082
 412  30.89843
 413  -47.6918
 414  112.6516
 415  461.603
 416  417.6089
 417  217.72
 418  -31.70869
 419  -138.7704
 420  24.51275
 421  94.66891
 422  12.31906
 423  141.892
 424  199.0523
 425  283.9149
 426  13.5542
 427  194.7655
 428  89.89091
 429  -224.8244
 430  -74.66877
 431  52.4203
 432  74.80269
 433  46.69815
 434  7.268497
 435  249.4171
 436  405.5919
 437  220.6739
 438  -116.7544
 439  -201.1636
 440  -78.95724
 441  -319.7489
 442  -241.4722
 443  23.91645
 444  1.207892
 445  -42.84866
 446  -180.5444
 447  -332.5294
 448  -221.6789
 449  -76.66671
 450  71.1162
 451  -48.09137
 452  -128.3446
 453  -109.7418
 454  -181.292
 455  -339.0252
 456  -79.13583
 457  -421.4381
 458  -399.1065
 459  -351.1895
 460  -6.437515
 461  -165.875
 462  -112.3263
 463  -253.3071
 464  -427.8976
 465  -337.1189
 466  -543.6885
 467  -154.2441
 468  199.0357
 469  75.65167
 470  91.39728
 471  -215.226
 472  -303.831
 473  -352.4483
 474  -573.4166
 475  -623.6425
 476  -239.0691
 477  -425.3458
 478  -541.4895
 479  -487.8409
 480  -579.371
 481  -347.6652
 482  -479.3857
 483  -390.7569
 484  -592.7742
 485  -703.6243
 486  -319.1891
 487  -371.309
 488  -549.7242
 489  -501.1736
 490  -161.0859
 491  179.3189
 492  137.3949
 493  -95.91423
 494  -64.06881
 495  -189.6519
 496  -239.1915
 497  -323.0888
 498  -375.2327
 499  -168.179
 500  -202.2263
 501  -15.24661
 502  192.5891
 503  -180.281
 504  -424.041
 505  -59.59247
 506  -73.90928
 507  -258.126
 508  -337.5375
 509  -247.3073
 510  -441.7104
 511  -311.0362
