# Input file       =  1184817381.103401_cleaned.dat
# Candidate        =  PSR_0332+5434
# Telescope        =  AR
# Epoch_topo       =  57957.164353048625
# Epoch_bary       =  N/A
# T_sample         =  0.002
# Data Folded      =  7340032
# Data Avg         =  0.152328423822058
# Data StdDev      =  3.43290714337742 
# Profile Bins     =  256
# Profile Avg      =  4364.95293725232 
# Profile StdDev   =  581.287588822644 
# Reduced chi-sqr  =  2.134
# Prob(Noise)      <  4.63e-23   (~9.8 sigma)
# P_topo (ms)      =  714.473887830534  +/- 0.000429
# P'_topo (s/s)    =  -0                +/- 2.26e-10
# P''_topo (s/s^2) =  0                 +/- 9.99e-14
# P_bary (ms)      =  N/A
# P'_bary (s/s)    =  N/A
# P''_bary (s/s^2) =  N/A
# P_orb (s)        =  N/A
# asin(i)/c (s)    =  N/A
# eccentricity     =  N/A
# w (rad)          =  N/A
# T_peri           =  N/A
######################################################
   0  5243.611
   1  4823.084
   2  5090.779
   3  5746.5
   4  5343.82
   5  4623.804
   6  4297.121
   7  4999.067
   8  4662.362
   9  4694.125
  10  4769.943
  11  4680.4
  12  5355.36
  13  4400.78
  14  4628.103
  15  4962.022
  16  5084.103
  17  4492.249
  18  5267.284
  19  4161.003
  20  3683.443
  21  4188.702
  22  3762.255
  23  3555.118
  24  3367.411
  25  3562.614
  26  3664.723
  27  3365.321
  28  3760.138
  29  3110.124
  30  3370.878
  31  3402.256
  32  3851.032
  33  3182.093
  34  2979.391
  35  3946.747
  36  3765.596
  37  3060.656
  38  3323.564
  39  3560.246
  40  3255.931
  41  3376.998
  42  3477.869
  43  3565.589
  44  3523.08
  45  3389.149
  46  3012.347
  47  3204.009
  48  3597.232
  49  3696.069
  50  3378.195
  51  3541.133
  52  4014.519
  53  4782.912
  54  3312.137
  55  4017.617
  56  4361.905
  57  4575.24
  58  4134.062
  59  3561.489
  60  4551.736
  61  4035.928
  62  3800.193
  63  3391.038
  64  3525.448
  65  3691.052
  66  4411.566
  67  3331.125
  68  3433.281
  69  4186.966
  70  4024.493
  71  3332.309
  72  3705.035
  73  3624.042
  74  3336.267
  75  2971.136
  76  3578.025
  77  2886.284
  78  3350.93
  79  3018.354
  80  3485.66
  81  3424.21
  82  4167.562
  83  3688.833
  84  3423.475
  85  4115.529
  86  4200.715
  87  4486.376
  88  3765.866
  89  4117.736
  90  4784.396
  91  5026.464
  92  4774.75
  93  4798.616
  94  4094.492
  95  4585.865
  96  4542.751
  97  4619.654
  98  4887.614
  99  4339.258
 100  3554.538
 101  3432.913
 102  4074.818
 103  3218.983
 104  3894.018
 105  3815.054
 106  3446.355
 107  4126.908
 108  4478.869
 109  4154.709
 110  4569.15
 111  5197.815
 112  4742.126
 113  5041.955
 114  5195.615
 115  5179.204
 116  4485.22
 117  4765.142
 118  5150.845
 119  5416.323
 120  4707.816
 121  5290.89
 122  5279.347
 123  5172.604
 124  4358.619
 125  4439.601
 126  4114.289
 127  4584.189
 128  4871.594
 129  4685.934
 130  4351.859
 131  3786.176
 132  4463.988
 133  3758.597
 134  3557.833
 135  3493.2
 136  3686.473
 137  3862.559
 138  4405.706
 139  4564.43
 140  4352.619
 141  4020.125
 142  4199.841
 143  3833.357
 144  4270.902
 145  4358.368
 146  4851.905
 147  5145.061
 148  4566.584
 149  4456.44
 150  4647.356
 151  4872.512
 152  4703.742
 153  4872.977
 154  4903.979
 155  4367.37
 156  4553.057
 157  4374.508
 158  4127.246
 159  4394.279
 160  4540.483
 161  5883.027
 162  7801.251
 163  8301.305
 164  6445.408
 165  4067.006
 166  4684.292
 167  4118.297
 168  4196.26
 169  4353.337
 170  4004.59
 171  3735.183
 172  3947.112
 173  3841.773
 174  3715.188
 175  4396.214
 176  4737.247
 177  4371.792
 178  4021.255
 179  4241.028
 180  4313.323
 181  3950.078
 182  4039.303
 183  3829.194
 184  3530.484
 185  3916.875
 186  4349.874
 187  3983.106
 188  4049.163
 189  4090.767
 190  4271.613
 191  4238.542
 192  4262.85
 193  4732.63
 194  4789.596
 195  4969.207
 196  4789.754
 197  4504.593
 198  5142.011
 199  5072.466
 200  4915.304
 201  4840.918
 202  4904.101
 203  4640.821
 204  4833.963
 205  4617.043
 206  4639.292
 207  4333.781
 208  4472.195
 209  4752.042
 210  4840.15
 211  4469.556
 212  4272.176
 213  4727.217
 214  4637.372
 215  4163.607
 216  4137.563
 217  4431.396
 218  4154.235
 219  4430.223
 220  4556.941
 221  4507.185
 222  4609.652
 223  5263.356
 224  4959.831
 225  5132.456
 226  5878.75
 227  5615.459
 228  5001.039
 229  5064.754
 230  5021.095
 231  5371.525
 232  5288.596
 233  5720.053
 234  5326.943
 235  5670.863
 236  5388.724
 237  5336.201
 238  5318.033
 239  5651.074
 240  4890.076
 241  5153.511
 242  4858.154
 243  4884.583
 244  4631.001
 245  4787.091
 246  4926.604
 247  4637.532
 248  4369.223
 249  4093.484
 250  5149.467
 251  4756.894
 252  3809.375
 253  4287.123
 254  4919.837
 255  4822.204
