# Input file       =  1184888937.102792_cleaned.dat
# Candidate        =  PSR_0332+5434
# Telescope        =  AR
# Epoch_topo       =  57957.992547486021
# Epoch_bary       =  N/A
# T_sample         =  0.002
# Data Folded      =  7143424
# Data Avg         =  0.0248521278569136
# Data StdDev      =  1.00005849615485 
# Profile Bins     =  512
# Profile Avg      =  346.731865023328 
# Profile StdDev   =  118.125493964875 
# Reduced chi-sqr  =  1.665
# Prob(Noise)      <  2.13e-19   (~8.9 sigma)
# P_topo (ms)      =  714.473413633422  +/- 0.000337
# P'_topo (s/s)    =  -0                +/- 1.83e-10
# P''_topo (s/s^2) =  0                 +/- 8.28e-14
# P_bary (ms)      =  N/A
# P'_bary (s/s)    =  N/A
# P''_bary (s/s^2) =  N/A
# P_orb (s)        =  N/A
# asin(i)/c (s)    =  N/A
# eccentricity     =  N/A
# w (rad)          =  N/A
# T_peri           =  N/A
######################################################
   0  1166.689
   1  1151.54
   2  874.7341
   3  571.0071
   4  381.0009
   5  317.3212
   6  368.985
   7  382.1016
   8  268.4072
   9  417.5984
  10  396.2021
  11  541.0783
  12  385.6866
  13  331.4483
  14  305.5344
  15  349.1601
  16  400.0303
  17  413.4143
  18  327.7519
  19  376.1951
  20  390.3922
  21  412.7331
  22  467.891
  23  385.2998
  24  342.933
  25  317.6938
  26  331.8288
  27  349.4934
  28  455.9338
  29  393.5059
  30  445.2664
  31  494.7936
  32  322.2922
  33  339.2069
  34  535.6733
  35  517.8322
  36  375.3086
  37  398.8569
  38  419.0338
  39  291.4019
  40  200.3763
  41  460.3455
  42  538.4296
  43  412.2183
  44  325.5246
  45  314.559
  46  371.5496
  47  279.3369
  48  324.9714
  49  306.5508
  50  474.0896
  51  379.868
  52  309.3938
  53  388.7643
  54  351.6911
  55  441.1754
  56  367.4995
  57  357.8889
  58  421.786
  59  266.5594
  60  355.7547
  61  421.0419
  62  308.9264
  63  281.7755
  64  280.1067
  65  175.9207
  66  271.6814
  67  353.7048
  68  417.1367
  69  310.4034
  70  431.3866
  71  454.2575
  72  403.9792
  73  433.5485
  74  323.5437
  75  318.2332
  76  173.8739
  77  254.5463
  78  376.1376
  79  418.1117
  80  420.7341
  81  432.8186
  82  461.4555
  83  320.3406
  84  357.42
  85  388.5926
  86  378.4708
  87  337.5232
  88  420.737
  89  351.2371
  90  401.1601
  91  440.7661
  92  388.7683
  93  420.9325
  94  330.5748
  95  387.988
  96  386.7772
  97  452.4821
  98  356.8686
  99  286.8144
 100  254.6431
 101  285.0567
 102  356.037
 103  414.4872
 104  378.6213
 105  363.9163
 106  372.954
 107  332.1367
 108  409.2805
 109  465.1189
 110  368.9549
 111  320.4641
 112  387.587
 113  411.2844
 114  321.9622
 115  429.5079
 116  366.6511
 117  332.6102
 118  346.1193
 119  370.3264
 120  402.9339
 121  336.0002
 122  379.6073
 123  358.0624
 124  313.3955
 125  378.5115
 126  449.6093
 127  416.3228
 128  373.6862
 129  324.7534
 130  229.3328
 131  296.5089
 132  371.5546
 133  290.5504
 134  305.8302
 135  332.1425
 136  337.2271
 137  183.6867
 138  250.6519
 139  281.2976
 140  281.7172
 141  198.7253
 142  210.3612
 143  286.2419
 144  208.7164
 145  209.9262
 146  338.3148
 147  377.9192
 148  273.0735
 149  279.1405
 150  171.1305
 151  267.5569
 152  345.8699
 153  430.9651
 154  309.5431
 155  286.4827
 156  295.5829
 157  369.0169
 158  330.3015
 159  246.6659
 160  215.4272
 161  185.593
 162  234.3508
 163  311.092
 164  351.8928
 165  308.6534
 166  269.9377
 167  367.3765
 168  370.225
 169  400.2367
 170  351.2659
 171  411.6546
 172  287.0346
 173  163.7773
 174  225.8018
 175  189.0676
 176  338.7743
 177  385.3571
 178  368.5877
 179  307.1995
 180  267.0833
 181  223.8598
 182  304.1713
 183  387.2654
 184  367.4929
 185  334.3531
 186  276.2297
 187  256.1927
 188  328.3093
 189  361.5385
 190  395.0999
 191  309.1684
 192  246.8776
 193  228.4769
 194  187.3371
 195  255.6665
 196  312.8701
 197  342.1334
 198  373.6742
 199  372.6972
 200  251.2278
 201  147.5456
 202  245.9792
 203  225.8319
 204  286.1839
 205  330.7244
 206  315.9577
 207  465.3686
 208  423.0404
 209  383.3248
 210  370.6231
 211  376.6852
 212  380.6598
 213  382.1664
 214  347.6421
 215  343.903
 216  340.0638
 217  312.097
 218  313.9757
 219  315.0865
 220  297.1792
 221  292.1505
 222  340.2563
 223  434.239
 224  359.4801
 225  233.9005
 226  331.4309
 227  337.4096
 228  307.8531
 229  284.6013
 230  253.8749
 231  253.6234
 232  341.9299
 233  292.3033
 234  352.0689
 235  282.7199
 236  359.1191
 237  417.6883
 238  337.4958
 239  402.0424
 240  373.5324
 241  269.093
 242  303.8688
 243  402.3329
 244  369.8893
 245  437.2712
 246  315.0427
 247  322.5144
 248  457.5117
 249  447.1993
 250  408.7205
 251  279.7921
 252  321.2573
 253  349.9682
 254  284.2409
 255  302.3927
 256  315.7689
 257  326.3641
 258  388.5169
 259  303.4793
 260  287.8481
 261  369.863
 262  336.7891
 263  302.9663
 264  315.3405
 265  293.3637
 266  284.8622
 267  323.0457
 268  321.2725
 269  351.8271
 270  417.1481
 271  337.7332
 272  354.0956
 273  420.0658
 274  506.6559
 275  435.9141
 276  324.9918
 277  238.3411
 278  409.9236
 279  488.3599
 280  366.5509
 281  285.3441
 282  359.3014
 283  349.2448
 284  408.1528
 285  511.3449
 286  509.3286
 287  385.3331
 288  378.7094
 289  431.425
 290  268.7192
 291  330.1256
 292  507.6415
 293  506.9445
 294  480.8784
 295  383.6093
 296  327.4349
 297  273.0891
 298  371.5598
 299  430.185
 300  329.17
 301  269.6274
 302  303.9733
 303  324.6612
 304  393.0028
 305  415.9627
 306  416.1208
 307  306.8912
 308  367.0956
 309  453.5814
 310  457.2375
 311  432.6176
 312  384.3894
 313  366.4764
 314  415.4525
 315  342.6831
 316  454.1981
 317  442.7817
 318  446.9678
 319  368.4002
 320  446.716
 321  319.5325
 322  308.282
 323  398.8878
 324  386.7522
 325  334.9887
 326  338.3182
 327  475.1764
 328  503.2556
 329  442.2535
 330  247.9283
 331  258.0468
 332  247.9086
 333  246.7713
 334  314.3738
 335  374.5527
 336  321.8613
 337  441.8358
 338  392.6568
 339  396.8548
 340  489.9568
 341  480.4514
 342  388.8155
 343  396.6859
 344  449.5264
 345  348.6891
 346  260.349
 347  357.2015
 348  416.061
 349  427.9644
 350  285.7033
 351  328.5659
 352  415.6933
 353  428.293
 354  319.863
 355  374.1696
 356  322.0832
 357  237.8105
 358  209.5426
 359  221.562
 360  164.0558
 361  313.9388
 362  297.2272
 363  327.4226
 364  346.2153
 365  321.2374
 366  320.3554
 367  367.249
 368  364.1553
 369  275.0877
 370  387.681
 371  331.9124
 372  261.7914
 373  253.2407
 374  346.7324
 375  348.0884
 376  338.3448
 377  180.8337
 378  260.0905
 379  392.016
 380  352.8227
 381  186.7927
 382  294.1457
 383  386.7534
 384  378.8127
 385  392.3428
 386  333.4972
 387  329.8681
 388  318.073
 389  297.0906
 390  314.0326
 391  315.9521
 392  474.5889
 393  394.2685
 394  341.4711
 395  277.5188
 396  309.0315
 397  272.7969
 398  363.6319
 399  363.3864
 400  391.5379
 401  352.4308
 402  175.1831
 403  206.1053
 404  280.8699
 405  335.6418
 406  432.3553
 407  367.7904
 408  301.284
 409  242.5006
 410  243.8058
 411  277.5893
 412  176.9084
 413  187.523
 414  200.9809
 415  266.564
 416  313.4783
 417  267.975
 418  147.266
 419  184.5938
 420  194.944
 421  218.5978
 422  160.7662
 423  28.90611
 424  278.5062
 425  419.7338
 426  340.0414
 427  298.8524
 428  271.1591
 429  201.6347
 430  245.1203
 431  422.8641
 432  420.97
 433  499.6638
 434  421.8915
 435  262.7626
 436  279.6533
 437  354.1005
 438  299.1047
 439  134.4163
 440  215.1181
 441  280.2363
 442  276.8654
 443  290.8996
 444  278.1638
 445  327.6495
 446  222.8718
 447  293.4749
 448  397.0217
 449  427.7286
 450  400.0302
 451  291.8208
 452  189.6746
 453  247.5818
 454  173.1304
 455  215.6574
 456  345.6002
 457  327.9829
 458  273.7988
 459  382.4936
 460  284.4674
 461  255.5881
 462  254.5827
 463  268.0374
 464  325.0163
 465  401.6824
 466  541.3528
 467  454.7441
 468  344.9707
 469  312.484
 470  356.9782
 471  301.9166
 472  340.7364
 473  378.2188
 474  270.2925
 475  216.6598
 476  237.8658
 477  155.3141
 478  231.3209
 479  238.6022
 480  238.126
 481  355.3604
 482  280.2195
 483  220.8244
 484  259.6906
 485  274.5034
 486  257.7656
 487  190.4909
 488  274.2439
 489  346.5863
 490  357.0403
 491  390.7392
 492  171.9967
 493  233.9438
 494  299.4052
 495  368.547
 496  379.9123
 497  312.375
 498  399.5659
 499  352.5553
 500  338.152
 501  324.8579
 502  307.6587
 503  517.0974
 504  515.3322
 505  453.1855
 506  557.5071
 507  512.0282
 508  688.0399
 509  879.6023
 510  997.7623
 511  1078.765
