# Input file       =  1184544337.111032-PSRB0329-2ms-sampling-dd.dat
# Candidate        =  PSR_0332+5434
# Telescope        =  AR
# Epoch_topo       =  57954.004121655460
# Epoch_bary       =  N/A
# T_sample         =  0.002
# Data Folded      =  7208960
# Data Avg         =  6.53228020098423e-10
# Data StdDev      =  8.44274679556638 
# Profile Bins     =  512
# Profile Avg      =  -1.13170313745086
# Profile StdDev   =  1001.80937619538 
# Reduced chi-sqr  =  0.364
# Prob(Noise)      <  1   (~0.0 sigma)
# P_topo (ms)      =  714.475725105252  +/- 7.46e-05
# P'_topo (s/s)    =  -0                +/- 4.01e-11
# P''_topo (s/s^2) =  0                 +/- 1.8e-14
# P_bary (ms)      =  N/A
# P'_bary (s/s)    =  N/A
# P''_bary (s/s^2) =  N/A
# P_orb (s)        =  N/A
# asin(i)/c (s)    =  N/A
# eccentricity     =  N/A
# w (rad)          =  N/A
# T_peri           =  N/A
######################################################
   0  -553.5114
   1  -584.5651
   2  -340.2998
   3  -233.1444
   4  266.0107
   5  -78.25201
   6  -134.3335
   7  -178.5428
   8  -409.6283
   9  -373.6
  10  -511.1101
  11  -731.2065
  12  -209.7215
  13  -339.6056
  14  -171.885
  15  -240.1179
  16  -580.5188
  17  -198.9573
  18  41.36569
  19  -432.1349
  20  -739.4412
  21  -154.6327
  22  -371.6551
  23  -713.5103
  24  -620.4648
  25  -647.6505
  26  -266.4914
  27  -391.2654
  28  -143.0665
  29  659.3527
  30  561.3575
  31  -398.9335
  32  -819.667
  33  -391.8548
  34  -334.0752
  35  77.58869
  36  -76.32877
  37  33.38544
  38  238.9864
  39  294.9569
  40  461.2549
  41  128.9783
  42  -501.549
  43  -573.5349
  44  -787.8062
  45  -412.0358
  46  -392.2745
  47  554.7166
  48  564.1934
  49  -33.24326
  50  -257.3831
  51  -235.0469
  52  -369.2442
  53  -351.3555
  54  647.894
  55  255.118
  56  -2.635967
  57  -134.1721
  58  -508.8806
  59  -154.5204
  60  -395.4089
  61  -339.5124
  62  823.5995
  63  601.2233
  64  -35.93449
  65  -63.48923
  66  582.6022
  67  636.2542
  68  -223.3777
  69  -55.59699
  70  -312.1565
  71  69.62918
  72  -149.5449
  73  -37.06705
  74  229.7258
  75  150.7412
  76  484.6001
  77  119.7278
  78  -249.016
  79  -532.7003
  80  109.3183
  81  -35.77688
  82  29.61625
  83  -114.6873
  84  -424.0891
  85  -341.4891
  86  99.38089
  87  -30.41672
  88  -102.3255
  89  -166.8551
  90  -374.3677
  91  -1.546516
  92  441.7164
  93  168.9323
  94  -42.58419
  95  227.7303
  96  155.3246
  97  -649.652
  98  -460.2962
  99  -258.077
 100  176.8563
 101  221.4633
 102  9.558348
 103  51.54029
 104  -101.1024
 105  -342.1545
 106  -511.8531
 107  -163.4576
 108  -463.6948
 109  -233.0354
 110  93.97379
 111  47.59037
 112  377.8347
 113  77.35976
 114  -143.5087
 115  -259.1397
 116  -364.9948
 117  -95.05308
 118  -113.7165
 119  68.13531
 120  -41.43791
 121  -165.1752
 122  30.99995
 123  -708.9756
 124  -351.3772
 125  -653.8723
 126  -773.1188
 127  -753.8295
 128  -38.98712
 129  449.9746
 130  220.6053
 131  377.304
 132  70.88827
 133  -98.34509
 134  -615.5296
 135  -693.6148
 136  -68.80371
 137  124.567
 138  -71.07494
 139  -126.6215
 140  -624.1202
 141  -345.6826
 142  -137.2995
 143  -145.1169
 144  -186.9938
 145  -119.9517
 146  -399.8905
 147  -485.7369
 148  -190.7233
 149  146.7107
 150  -368.0042
 151  -122.4481
 152  -489.2059
 153  -373.6744
 154  -192.965
 155  -522.6409
 156  -557.916
 157  -571.809
 158  -160.693
 159  -675.6483
 160  -583.4551
 161  -103.4524
 162  -105.157
 163  124.7942
 164  -115.6448
 165  -145.8077
 166  -99.08928
 167  -185.0038
 168  -445.6486
 169  232.2167
 170  45.89035
 171  -493.1521
 172  -579.7741
 173  -432.6038
 174  -377.3652
 175  -205.5098
 176  662.7196
 177  282.9378
 178  -399.3045
 179  -637.9589
 180  -844.273
 181  -448.286
 182  -399.729
 183  -375.6659
 184  312.806
 185  -127.5331
 186  131.3961
 187  -13.15676
 188  -328.6871
 189  -352.5998
 190  -80.10741
 191  -200.4699
 192  -603.5079
 193  -160.8091
 194  -201.7244
 195  394.801
 196  127.7357
 197  -256.2847
 198  230.2506
 199  -253.9562
 200  -574.6445
 201  -538.9206
 202  -150.9193
 203  113.8957
 204  73.8279
 205  -456.752
 206  -216.4441
 207  -93.29324
 208  -3.014679
 209  966.1366
 210  704.348
 211  719.45
 212  -68.89358
 213  194.6559
 214  -4.731991
 215  -440.8278
 216  154.6154
 217  155.8998
 218  973.8074
 219  480.0023
 220  839.0643
 221  501.8253
 222  -260.7513
 223  127.2407
 224  -172.9944
 225  275.7965
 226  357.1084
 227  261.5138
 228  334.3344
 229  309.6064
 230  -83.49156
 231  -307.1078
 232  -258.9842
 233  -559.6237
 234  -220.9514
 235  214.1845
 236  427.6282
 237  143.954
 238  -231.5333
 239  141.7488
 240  183.2375
 241  42.73094
 242  17.40771
 243  1102.276
 244  389.9485
 245  71.95813
 246  219.114
 247  -276.4942
 248  -491.8482
 249  -142.1723
 250  484.2485
 251  848.9254
 252  813.54
 253  693.1673
 254  437.3445
 255  -85.68968
 256  -58.31613
 257  335.0404
 258  366.2827
 259  364.9163
 260  1075.851
 261  213.4461
 262  -323.4692
 263  -491.8223
 264  -61.08711
 265  347.3018
 266  92.59239
 267  -126.4698
 268  80.12393
 269  451.0991
 270  -70.25828
 271  432.608
 272  -90.33605
 273  -138.9537
 274  -415.4036
 275  -431.5894
 276  748.6851
 277  432.0089
 278  17.18996
 279  -210.4806
 280  -216.3229
 281  -150.5979
 282  -68.47146
 283  447.0971
 284  -93.31113
 285  49.09515
 286  362.981
 287  532.2739
 288  29.17066
 289  -219.8941
 290  291.8369
 291  323.8634
 292  33.74119
 293  -53.19502
 294  300.0075
 295  210.8412
 296  -350.0425
 297  -152.2071
 298  -403.8993
 299  -48.6019
 300  -71.27455
 301  183.9275
 302  620.2897
 303  26.68683
 304  -622.0927
 305  -302.3032
 306  -66.32771
 307  -343.1679
 308  -134.4957
 309  121.224
 310  805.8608
 311  275.8763
 312  -16.25007
 313  -182.9821
 314  -881.268
 315  -710.7501
 316  -395.9528
 317  296.1459
 318  493.5541
 319  500.4583
 320  37.79491
 321  -99.47725
 322  186.0669
 323  188.2376
 324  282.0978
 325  896.1801
 326  1809.646
 327  1529.086
 328  777.6553
 329  -132.9026
 330  -249.2193
 331  -243.7321
 332  -132.9468
 333  -164.7431
 334  624.2948
 335  682.1308
 336  354.2551
 337  -243.8754
 338  -178.2062
 339  162.7922
 340  -252.1017
 341  32.63403
 342  445.2087
 343  589.8479
 344  -422.1519
 345  -560.3698
 346  -718.7616
 347  -862.9623
 348  -298.6726
 349  -373.3642
 350  242.9966
 351  324.8793
 352  136.5198
 353  -40.78701
 354  -398.1743
 355  -536.1965
 356  -483.2661
 357  27.33075
 358  -26.18475
 359  -53.75544
 360  110.2751
 361  -0.1084133
 362  -290.9628
 363  284.2551
 364  1433.834
 365  1546.19
 366  1374.759
 367  1770.001
 368  1709.379
 369  1155.597
 370  879.7789
 371  28.97055
 372  116.6749
 373  80.95657
 374  107.367
 375  901.4567
 376  683.108
 377  445.6553
 378  -305.3451
 379  -502.3919
 380  61.11919
 381  64.72342
 382  -298.8668
 383  161.7914
 384  794.5977
 385  289.6306
 386  -162.2973
 387  -600.4418
 388  -504.3847
 389  53.22344
 390  233.6692
 391  272.603
 392  295.1161
 393  541.4305
 394  217.9294
 395  -108.0607
 396  -274.6356
 397  339.5712
 398  694.8146
 399  502.9937
 400  768.8668
 401  1070.975
 402  388.8567
 403  -148.7093
 404  -235.3589
 405  156.1943
 406  240.0406
 407  367.2046
 408  904.7134
 409  907.6893
 410  263.5592
 411  -345.9125
 412  -97.68632
 413  116.623
 414  336.8475
 415  501.1383
 416  908.9653
 417  1246.733
 418  672.7021
 419  -26.61761
 420  -142.6684
 421  -339.5024
 422  -221.9927
 423  391.6435
 424  377.2281
 425  511.2915
 426  288.1357
 427  -304.668
 428  -322.9127
 429  -721.5237
 430  -484.1929
 431  -177.9268
 432  -106.4343
 433  311.7777
 434  675.1766
 435  163.3144
 436  -497.5812
 437  -263.1669
 438  -273.8387
 439  -204.678
 440  -175.9811
 441  325.2084
 442  907.0449
 443  38.24421
 444  4.363169
 445  94.53381
 446  409.8142
 447  149.1546
 448  -58.81697
 449  49.9977
 450  -294.429
 451  -6.511002
 452  -79.71794
 453  -151.6298
 454  -153.9026
 455  -240.8097
 456  -218.6992
 457  -424.5229
 458  169.7031
 459  281.5256
 460  28.6679
 461  -266.4407
 462  -344.3413
 463  -605.9609
 464  -513.0165
 465  -29.15783
 466  132.7413
 467  246.0973
 468  -69.45691
 469  -546.0781
 470  -927.6973
 471  -567.667
 472  -581.8414
 473  -472.6601
 474  174.9969
 475  648.4432
 476  216.0144
 477  29.59865
 478  -364.2271
 479  191.4537
 480  540.8567
 481  150.4641
 482  180.7115
 483  468.0486
 484  266.7663
 485  74.73775
 486  -585.9435
 487  -340.4003
 488  -254.432
 489  -339.5873
 490  -60.53796
 491  127.9031
 492  177.6367
 493  -123.8443
 494  -180.7543
 495  -595.5131
 496  -262.7474
 497  254.0959
 498  22.57322
 499  758.5164
 500  766.8167
 501  179.2273
 502  -259.7227
 503  -574.0385
 504  -85.06513
 505  -385.3374
 506  -281.9035
 507  368.0437
 508  307.4913
 509  209.3096
 510  -429.2519
 511  -536.2753
