# Input file       =  1184386621.103557_cleaned.dat
# Candidate        =  PSR_0332+5434
# Telescope        =  AR
# Epoch_topo       =  57952.178704902282
# Epoch_bary       =  N/A
# T_sample         =  0.002
# Data Folded      =  7340032
# Data Avg         =  0.147547092245077
# Data StdDev      =  3.85461140891382 
# Profile Bins     =  256
# Profile Avg      =  4217.22752808665 
# Profile StdDev   =  652.693964081809 
# Reduced chi-sqr  =  1.541
# Prob(Noise)      <  6.11e-08   (~5.3 sigma)
# P_topo (ms)      =  714.476866581654  +/- 0.000408
# P'_topo (s/s)    =  -0                +/- 2.15e-10
# P''_topo (s/s^2) =  0                 +/- 9.5e-14
# P_bary (ms)      =  N/A
# P'_bary (s/s)    =  N/A
# P''_bary (s/s^2) =  N/A
# P_orb (s)        =  N/A
# asin(i)/c (s)    =  N/A
# eccentricity     =  N/A
# w (rad)          =  N/A
# T_peri           =  N/A
######################################################
   0  3830.902
   1  4060.26
   2  4116.146
   3  5256.567
   4  4855.539
   5  4539.074
   6  4222.209
   7  4705.449
   8  4151.525
   9  3603.706
  10  3291.294
  11  3427.48
  12  3825.132
  13  3656.541
  14  3591.591
  15  3250.134
  16  3783.201
  17  3875.923
  18  4179.363
  19  3598.17
  20  4823.583
  21  4043.27
  22  3839.187
  23  4563.603
  24  4738.66
  25  4592.623
  26  4490.154
  27  4346.201
  28  4769.643
  29  4621.97
  30  4379.985
  31  4123.168
  32  3973.205
  33  4244.393
  34  4505.961
  35  4285.059
  36  4243.053
  37  4733.263
  38  4803.611
  39  4884.178
  40  4248.38
  41  4810.868
  42  4671.474
  43  4753.615
  44  4367.58
  45  4609.413
  46  4424.831
  47  4307.32
  48  4954.421
  49  5244.132
  50  4655.391
  51  5005.383
  52  4722.382
  53  4331.224
  54  3284.118
  55  4097.345
  56  4567.289
  57  4244.367
  58  4234.281
  59  4390.445
  60  4518.756
  61  4835.068
  62  5501.939
  63  5249.632
  64  4732.287
  65  4332.554
  66  4269.358
  67  4273.884
  68  3827.696
  69  3800.089
  70  4147.201
  71  4167.985
  72  4411.372
  73  4841.914
  74  4046.086
  75  4167.131
  76  3592.02
  77  4088.981
  78  3832.106
  79  3601.088
  80  3968.971
  81  4082.225
  82  4150.853
  83  3250.895
  84  3517.677
  85  3294.558
  86  3818.604
  87  3835.279
  88  3424.129
  89  4008.847
  90  3892.008
  91  4083.808
  92  3964.706
  93  4288.536
  94  4002.976
  95  4024.062
  96  4503.901
  97  4591.677
  98  4662.294
  99  4640.311
 100  4600.548
 101  4884.893
 102  5233.856
 103  4977.486
 104  4845.399
 105  4760.53
 106  4877.739
 107  5025.328
 108  4633.183
 109  5085.823
 110  4896.631
 111  4954.253
 112  5020.478
 113  4759.801
 114  4880.75
 115  4942.563
 116  4930.176
 117  5115.432
 118  4065.763
 119  3584.079
 120  3191.846
 121  3503.814
 122  3389.577
 123  4440.402
 124  4491.079
 125  4821.248
 126  4863.727
 127  4602.854
 128  4748.228
 129  4696.493
 130  4379.892
 131  4898.937
 132  4634.104
 133  4723.575
 134  4309.436
 135  4340.33
 136  4428.24
 137  4556.315
 138  5153.356
 139  4620.71
 140  4435.107
 141  4513.517
 142  4578.58
 143  4718.853
 144  4276.608
 145  4180.826
 146  4274.735
 147  4954.964
 148  5023.363
 149  4915.913
 150  4773.021
 151  5290.838
 152  4851.625
 153  5827.187
 154  6152.941
 155  5850.069
 156  5426.333
 157  5539.896
 158  4867.676
 159  5104.194
 160  4640.33
 161  5393.955
 162  7747.169
 163  7804.274
 164  5902.489
 165  3975.448
 166  3081.255
 167  2941.62
 168  3241.265
 169  3917.594
 170  4140.866
 171  3663.793
 172  3421.271
 173  3854.332
 174  3655.607
 175  3670.416
 176  3433.011
 177  3661.146
 178  3147.375
 179  3284.007
 180  3981.701
 181  4136.35
 182  3742.379
 183  3550.621
 184  4062.518
 185  4271.773
 186  4602.086
 187  3710.149
 188  4134.417
 189  4221.617
 190  3982.035
 191  3924.763
 192  3614.106
 193  4131.32
 194  3610.011
 195  3860.406
 196  3378.164
 197  3438.233
 198  3739.684
 199  3983.423
 200  3358.705
 201  3760.342
 202  3506.639
 203  3772.543
 204  4070.595
 205  4073.422
 206  3523.73
 207  3736.49
 208  3746.849
 209  3340.271
 210  2810.931
 211  3110.749
 212  2625.603
 213  2468.278
 214  3414.112
 215  3137.104
 216  3096.928
 217  3605.243
 218  3712.999
 219  3570.837
 220  3609.179
 221  3414.892
 222  3459.144
 223  3531.649
 224  3290.745
 225  3729.805
 226  3347.98
 227  3329.083
 228  3688.582
 229  3751.944
 230  4103.65
 231  4182.268
 232  4030.516
 233  4341.503
 234  3725.312
 235  4461.562
 236  4321.685
 237  4387.447
 238  4161.475
 239  4591.271
 240  4756.649
 241  4749.449
 242  3678.343
 243  3640.46
 244  3506.761
 245  3406.155
 246  3381.35
 247  2882.976
 248  3971.25
 249  4000.773
 250  4048.874
 251  3762.227
 252  3826.022
 253  4168.872
 254  4037.787
 255  3819.439
