# Input file       =  1184731253.101969_cleaned.dat
# Candidate        =  PSR_0332+5434
# Telescope        =  AR
# Epoch_topo       =  57956.167501180200
# Epoch_bary       =  N/A
# T_sample         =  0.002
# Data Folded      =  7340032
# Data Avg         =  0.0298849167435483
# Data StdDev      =  1.00002676799039 
# Profile Bins     =  512
# Profile Avg      =  428.221656211968 
# Profile StdDev   =  119.736241389533 
# Reduced chi-sqr  =  1.663
# Prob(Noise)      <  2.9e-19   (~8.9 sigma)
# P_topo (ms)      =  714.474457140744  +/- 0.000339
# P'_topo (s/s)    =  -0                +/- 1.79e-10
# P''_topo (s/s^2) =  0                 +/- 7.89e-14
# P_bary (ms)      =  N/A
# P'_bary (s/s)    =  N/A
# P''_bary (s/s^2) =  N/A
# P_orb (s)        =  N/A
# asin(i)/c (s)    =  N/A
# eccentricity     =  N/A
# w (rad)          =  N/A
# T_peri           =  N/A
######################################################
   0  456.9105
   1  399.6179
   2  306.4148
   3  198.6483
   4  256.1774
   5  281.0202
   6  411.1948
   7  435.157
   8  388.7152
   9  320.8277
  10  352.9174
  11  384.8928
  12  405.1528
  13  515.3493
  14  453.4757
  15  325.6127
  16  405.9253
  17  478.0494
  18  427.3049
  19  410.2379
  20  351.2341
  21  402.9785
  22  316.6419
  23  388.1944
  24  419.222
  25  396.6875
  26  304.4596
  27  268.4972
  28  429.7919
  29  480.7584
  30  325.6361
  31  414.1305
  32  332.4223
  33  488.0692
  34  444.3487
  35  368.1616
  36  392.2499
  37  443.422
  38  366.6977
  39  387.1849
  40  448.8642
  41  398.2398
  42  330.8409
  43  432.8521
  44  387.9957
  45  314.9599
  46  321.5769
  47  323.7886
  48  464.5612
  49  489.6787
  50  475.4679
  51  262.7824
  52  436.9738
  53  490.0612
  54  513.4299
  55  470.4898
  56  557.8507
  57  423.8867
  58  385.6938
  59  538.4717
  60  658.8457
  61  537.9921
  62  499.242
  63  447.7435
  64  470.0731
  65  529.0813
  66  546.6713
  67  601.4486
  68  586.5705
  69  505.6659
  70  547.3414
  71  562.6438
  72  685.6323
  73  590.1945
  74  472.0927
  75  550.7358
  76  502.7255
  77  481.7133
  78  533.8099
  79  557.3676
  80  569.3714
  81  465.9228
  82  405.8807
  83  466.1768
  84  419.4367
  85  354.3226
  86  372.2722
  87  445.2832
  88  333.8251
  89  323.3153
  90  393.7197
  91  508.5193
  92  444.4364
  93  403.9397
  94  387.2772
  95  412.8599
  96  333.4453
  97  244.0584
  98  381.9561
  99  380.9096
 100  373.767
 101  264.0232
 102  369.3419
 103  432.4334
 104  334.6146
 105  338.2962
 106  221.3041
 107  361.1609
 108  489.4561
 109  444.4895
 110  362.3882
 111  338.8846
 112  319.8695
 113  335.9168
 114  354.2365
 115  273.9659
 116  202.5472
 117  322.0406
 118  375.9754
 119  370.9002
 120  392.0622
 121  424.8719
 122  240.7807
 123  246.3129
 124  399.7132
 125  384.9585
 126  358.0575
 127  293.6572
 128  344.485
 129  458.3871
 130  487.4623
 131  393.7964
 132  340.1985
 133  360.8492
 134  400.075
 135  325.0202
 136  289.5741
 137  354.4935
 138  347.628
 139  357.5836
 140  439.7586
 141  364.9427
 142  267.5369
 143  382.9216
 144  397.5014
 145  395.2177
 146  354.9305
 147  372.7926
 148  357.1359
 149  346.679
 150  306.5939
 151  287.6972
 152  307.6663
 153  285.867
 154  266.7897
 155  240.8382
 156  378.4876
 157  422.6967
 158  313.2987
 159  317.4065
 160  332.849
 161  352.0699
 162  264.4645
 163  220.2784
 164  421.2749
 165  491.0718
 166  335.2739
 167  307.0315
 168  414.4105
 169  387.3314
 170  394.7836
 171  393.9398
 172  460.2488
 173  418.8828
 174  279.9763
 175  312.6354
 176  447.7159
 177  394.1103
 178  375.7898
 179  432.8945
 180  310.0609
 181  283.3645
 182  328.0873
 183  502.2526
 184  508.2998
 185  489.3056
 186  575.9022
 187  554.1198
 188  421.4689
 189  292.6637
 190  306.5286
 191  364.9663
 192  401.4124
 193  369.8161
 194  398.8307
 195  445
 196  319.9883
 197  413.9799
 198  502.5596
 199  306.7186
 200  360.0435
 201  355.5816
 202  242.0332
 203  423.6056
 204  366.7573
 205  391.3703
 206  314.6135
 207  387.2901
 208  472.8577
 209  455.1239
 210  460.9803
 211  437.1801
 212  507.8321
 213  463.355
 214  347.2285
 215  358.8407
 216  548.3912
 217  453.8351
 218  352.897
 219  464.3097
 220  495.3257
 221  434.1451
 222  340.4561
 223  381.1272
 224  473.3726
 225  378.2446
 226  347.0812
 227  352.2668
 228  264.6862
 229  219.5433
 230  296.8575
 231  459.0221
 232  334.6993
 233  244.2704
 234  348.3284
 235  442.356
 236  389.0912
 237  352.1488
 238  304.4271
 239  492.8951
 240  395.5262
 241  378.0333
 242  428.3486
 243  354.0793
 244  350.4766
 245  309.9726
 246  252.3889
 247  234.1646
 248  328.2384
 249  393.6712
 250  560.056
 251  486.8904
 252  314.9421
 253  381.7561
 254  405.7521
 255  385.5206
 256  388.8308
 257  356.1536
 258  488.1421
 259  504.0588
 260  423.7583
 261  431.8802
 262  382.3549
 263  450.0745
 264  456.6529
 265  410.3288
 266  565.8561
 267  526.3265
 268  522.561
 269  535.1727
 270  571.7979
 271  497.8886
 272  422.6525
 273  519.6124
 274  508.8318
 275  553.0292
 276  567.2343
 277  534.9526
 278  517.2963
 279  499.0932
 280  604.3875
 281  551.4348
 282  450.7357
 283  510.4513
 284  422.0173
 285  494.8442
 286  522.7402
 287  555.5811
 288  432.1701
 289  438.9969
 290  420.9675
 291  456.5448
 292  586.4719
 293  602.0335
 294  443.7556
 295  386.5655
 296  434.0728
 297  478.2745
 298  418.7761
 299  484.3038
 300  492.4091
 301  493.1837
 302  391.5308
 303  406.3235
 304  544.0801
 305  422.8016
 306  389.842
 307  424.6995
 308  481.5071
 309  398.917
 310  566.0286
 311  542.0125
 312  391.4482
 313  402.1331
 314  498.7653
 315  438.2478
 316  464.0431
 317  431.0724
 318  521.2291
 319  390.5645
 320  463.7735
 321  551.5219
 322  481.2186
 323  400.7748
 324  391.3617
 325  497.0202
 326  487.1187
 327  461.631
 328  484.5347
 329  493.9019
 330  347.3508
 331  356.3393
 332  388.1283
 333  350.4599
 334  482.2772
 335  507.66
 336  564.6177
 337  558.7374
 338  619.0579
 339  563.9169
 340  526.2381
 341  488.7227
 342  446.289
 343  398.7894
 344  485.9844
 345  391.0473
 346  357.1685
 347  532.3374
 348  485.1931
 349  475.9431
 350  486.428
 351  353.9092
 352  299.8053
 353  327.6954
 354  496.8911
 355  426.6917
 356  401.3289
 357  362.4133
 358  387.1015
 359  503.9399
 360  483.2602
 361  429.5073
 362  411.2519
 363  387.5242
 364  403.9081
 365  484.9485
 366  572.9454
 367  591.0027
 368  499.325
 369  438.535
 370  486.4827
 371  517.1222
 372  352.7686
 373  495.7295
 374  613.7488
 375  533.0803
 376  527.8874
 377  594.4933
 378  629.3005
 379  485.4217
 380  479.7685
 381  448.5263
 382  540.4806
 383  503.6111
 384  444.1443
 385  390.7572
 386  438.1085
 387  429.8512
 388  510.4318
 389  488.516
 390  385.1531
 391  429.328
 392  416.9878
 393  391.6602
 394  625.0611
 395  718.227
 396  501.4268
 397  440.5778
 398  549.7402
 399  526.0762
 400  576.4847
 401  644.0862
 402  805.7261
 403  942.0751
 404  1076.353
 405  1214.721
 406  1148.701
 407  1008.053
 408  851.8638
 409  753.1803
 410  591.7468
 411  549.4865
 412  494.281
 413  375.7943
 414  384.2455
 415  439.641
 416  471.8611
 417  449.1139
 418  472.4251
 419  471.1628
 420  501.662
 421  458.9678
 422  417.2515
 423  435.5414
 424  390.7077
 425  359.5584
 426  378.2991
 427  448.2247
 428  362.5283
 429  484.0501
 430  529.2953
 431  486.0367
 432  497.2881
 433  401.1352
 434  477.3583
 435  478.4245
 436  365.17
 437  326.2679
 438  287.9988
 439  289.0535
 440  418.7103
 441  361.778
 442  346.3638
 443  291.551
 444  311.1549
 445  316.3053
 446  366.744
 447  395.7682
 448  362.5054
 449  394.8077
 450  342.6872
 451  364.3531
 452  340.5662
 453  440.8432
 454  349.0747
 455  273.9811
 456  262.2679
 457  308.0672
 458  328.0604
 459  414.9395
 460  465.447
 461  414.4121
 462  368.5656
 463  296.8458
 464  422.8432
 465  454.7535
 466  447.2482
 467  347.7328
 468  392.567
 469  431.1483
 470  443.4374
 471  394.0392
 472  379.4445
 473  358.1895
 474  444.8233
 475  422.2184
 476  387.085
 477  449.6878
 478  451.3539
 479  495.7888
 480  405.5529
 481  329.9321
 482  429.6689
 483  459.0947
 484  475.7234
 485  511.0862
 486  489.6582
 487  447.7537
 488  513.9196
 489  470.2428
 490  508.9626
 491  416.2757
 492  332.3698
 493  403.353
 494  448.4362
 495  465.2304
 496  523.1056
 497  472.7437
 498  440.8693
 499  448.1673
 500  396.1618
 501  407.6942
 502  285.3521
 503  272.6355
 504  348.2503
 505  394.6714
 506  304.6162
 507  333.0601
 508  348.604
 509  306.6738
 510  392.714
 511  394.0659
