# Input file       =  1184300437.121662_cleaned.dat
# Candidate        =  PSR_0332+5434
# Telescope        =  AR
# Epoch_topo       =  57951.181205111825
# Epoch_bary       =  N/A
# T_sample         =  0.002
# Data Folded      =  7340032
# Data Avg         =  0.029990893871871
# Data StdDev      =  1.0001912943917  
# Profile Bins     =  512
# Profile Avg      =  430.440060934306 
# Profile StdDev   =  119.755940635126 
# Reduced chi-sqr  =  1.502
# Prob(Noise)      <  1.31e-12   (~7.0 sigma)
# P_topo (ms)      =  714.477498725447  +/- 0.000203
# P'_topo (s/s)    =  -0                +/- 1.07e-10
# P''_topo (s/s^2) =  0                 +/- 4.73e-14
# P_bary (ms)      =  N/A
# P'_bary (s/s)    =  N/A
# P''_bary (s/s^2) =  N/A
# P_orb (s)        =  N/A
# asin(i)/c (s)    =  N/A
# eccentricity     =  N/A
# w (rad)          =  N/A
# T_peri           =  N/A
######################################################
   0  1211.21
   1  1223.878
   2  917.5532
   3  621.2603
   4  429.611
   5  372.2183
   6  469.3502
   7  407.1035
   8  411.4567
   9  309.9287
  10  356.2673
  11  407.1425
  12  344.4864
  13  362.5592
  14  578.2238
  15  686.1536
  16  581.3925
  17  438.9757
  18  441.0575
  19  514.2501
  20  529.9947
  21  525.7794
  22  482.0797
  23  493.2698
  24  522.432
  25  398.7205
  26  394.9208
  27  396.4216
  28  452.0477
  29  489.4281
  30  531.8943
  31  454.5089
  32  418.9583
  33  455.4792
  34  567.1776
  35  587.2109
  36  505.5649
  37  580.7219
  38  417.0335
  39  454.6765
  40  439.8371
  41  540.5626
  42  527.8282
  43  480.26
  44  506.4834
  45  542.2054
  46  429.8097
  47  270.4897
  48  504.9237
  49  552.0539
  50  488.6623
  51  569.6034
  52  441.7553
  53  347.3196
  54  417.9118
  55  491.6496
  56  477.9236
  57  506.7168
  58  520.4995
  59  400.7918
  60  325.0356
  61  440.5739
  62  427.1183
  63  477.5867
  64  487.335
  65  447.1378
  66  417.2282
  67  437.3043
  68  465.2794
  69  542.48
  70  429.7586
  71  413.7067
  72  527.3281
  73  480.6055
  74  363.1486
  75  273.4857
  76  308.1018
  77  387.4425
  78  380.8786
  79  408.6544
  80  345.3006
  81  417.8853
  82  564.7128
  83  607.8788
  84  503.5839
  85  324.9269
  86  355.7051
  87  358.9049
  88  479.8515
  89  525.3884
  90  645.1846
  91  587.4846
  92  509.8497
  93  342.3515
  94  367.4254
  95  331.1757
  96  355.0446
  97  338.2662
  98  381.0356
  99  408.2397
 100  503.0995
 101  303.8613
 102  401.6071
 103  494.0827
 104  422.4688
 105  263.5711
 106  303.6779
 107  393.047
 108  377.0441
 109  497.1926
 110  450.8802
 111  460.7635
 112  370.9205
 113  394.4293
 114  390.2663
 115  399.9743
 116  398.5942
 117  375.5231
 118  303.0676
 119  302.1875
 120  262.3049
 121  343.5577
 122  418.2325
 123  340.7415
 124  373.2754
 125  382.2859
 126  435.8101
 127  436.2313
 128  332.6391
 129  374.1337
 130  394.7701
 131  424.2804
 132  440.0993
 133  488.4742
 134  383.0621
 135  313.2416
 136  354.9162
 137  341.6275
 138  223.9864
 139  365.8441
 140  245.1594
 141  287.5467
 142  316.1138
 143  339.6449
 144  330.8443
 145  358.6072
 146  329.1229
 147  427.564
 148  360.1011
 149  329.493
 150  313.6381
 151  422.3912
 152  394.4571
 153  367.9354
 154  325.8816
 155  303.0963
 156  365.9993
 157  335.7142
 158  360.2954
 159  435.0781
 160  450.0013
 161  414.1656
 162  326.1141
 163  338.4317
 164  395.4015
 165  339.6688
 166  254.4426
 167  298.0063
 168  298.6086
 169  370.7327
 170  299.2852
 171  208.2283
 172  214.054
 173  243.7568
 174  343.4072
 175  345.3282
 176  293.8599
 177  264.1025
 178  328.0598
 179  270.7708
 180  222.9759
 181  256.8321
 182  362.4287
 183  401.3213
 184  338.1348
 185  454.8933
 186  381.6172
 187  312.7436
 188  236.8776
 189  455.4282
 190  450.605
 191  455.1115
 192  487.9108
 193  520.1098
 194  488.5542
 195  367.0234
 196  440.9077
 197  477.2234
 198  552.5259
 199  426.5012
 200  395.4164
 201  331.0233
 202  290.2922
 203  275.6865
 204  311.7843
 205  443.4412
 206  415.1468
 207  428.0159
 208  366.222
 209  283.4393
 210  429.7835
 211  417.429
 212  396.3754
 213  384.818
 214  345.7338
 215  457.1934
 216  457.2304
 217  408.2104
 218  384.4943
 219  423.8046
 220  504.9309
 221  506.5423
 222  488.3289
 223  494.7057
 224  434.3365
 225  493.7906
 226  441.8741
 227  426.8086
 228  435.7202
 229  399.1823
 230  428.3585
 231  479.7125
 232  392.3449
 233  406.1876
 234  425.0813
 235  362.879
 236  333.9328
 237  324.0686
 238  478.4696
 239  549.0381
 240  553.4971
 241  524.8962
 242  451.2909
 243  472.695
 244  547.2663
 245  437.7764
 246  462.251
 247  579.5339
 248  520.5569
 249  448.6241
 250  407.2512
 251  434.7817
 252  472.0432
 253  582.5678
 254  496.1499
 255  389.3719
 256  367.5711
 257  352.7883
 258  457.2036
 259  487.3987
 260  441.7518
 261  431.8431
 262  458.9449
 263  455.7364
 264  396.9243
 265  364.7917
 266  474.7514
 267  524.0343
 268  474.7368
 269  485.491
 270  438.5077
 271  464.2237
 272  462.8282
 273  465.6996
 274  507.1705
 275  567.4648
 276  413.3338
 277  251.2731
 278  439.3004
 279  493.8911
 280  488.6573
 281  431.8628
 282  546.4908
 283  525.3279
 284  408.2111
 285  388.3197
 286  402.149
 287  485.064
 288  448.3464
 289  338.4279
 290  306.8572
 291  335.8834
 292  318.8272
 293  387.9157
 294  310.8094
 295  278.3484
 296  294.6627
 297  344.5653
 298  381.715
 299  431.6484
 300  492.2148
 301  560.6026
 302  426.2648
 303  352.2493
 304  406.7512
 305  419.1056
 306  265.9639
 307  283.2598
 308  491.8906
 309  421.9946
 310  291.2264
 311  401.0637
 312  433.0763
 313  473.7002
 314  584.307
 315  592.2108
 316  413.745
 317  375.6299
 318  501.6175
 319  570.558
 320  624.9406
 321  673.777
 322  542.5583
 323  400.0842
 324  456.3692
 325  461.4143
 326  360.6724
 327  408.6578
 328  359.438
 329  445.1218
 330  421.9377
 331  408.4586
 332  449.5663
 333  464.5266
 334  429.1491
 335  347.5356
 336  371.0042
 337  359.3276
 338  409.7419
 339  473.1681
 340  491.0679
 341  507.0551
 342  400.7015
 343  385.8147
 344  415.1649
 345  468.4463
 346  495.5261
 347  387.2831
 348  355.566
 349  342.9904
 350  373.8242
 351  449.3489
 352  442.4183
 353  355.615
 354  408.3847
 355  374.7215
 356  329.1222
 357  470.1979
 358  495.7492
 359  515.9045
 360  421.2852
 361  498.4772
 362  511.4407
 363  451.2369
 364  368.8576
 365  421.1182
 366  431.419
 367  400.924
 368  481.9861
 369  510.4023
 370  422.6339
 371  419.5553
 372  454.5715
 373  421.6703
 374  477.6736
 375  508.5755
 376  418.8745
 377  419.4508
 378  360.1594
 379  405.7414
 380  466.8574
 381  382.6532
 382  361.1892
 383  389.766
 384  478.3253
 385  473.2469
 386  504.3246
 387  528.257
 388  543.9493
 389  355.1049
 390  346.1622
 391  432.04
 392  511.9063
 393  439.1578
 394  430.6212
 395  425.002
 396  491.5925
 397  358.2173
 398  365.6088
 399  404.5526
 400  434.7019
 401  379.1032
 402  420.1003
 403  461.0297
 404  455.5753
 405  525.1367
 406  567.0554
 407  592.3318
 408  565.6424
 409  517.7556
 410  389.696
 411  472.5129
 412  526.2518
 413  544.4395
 414  501.7959
 415  455.7825
 416  411.6007
 417  453.9891
 418  497.0482
 419  562.8026
 420  518.535
 421  354.6248
 422  417.8365
 423  423.7941
 424  494.1871
 425  360.7235
 426  359.7881
 427  382.9143
 428  390.8217
 429  331.7706
 430  387.8336
 431  406.6876
 432  345.5191
 433  283.6262
 434  388.8613
 435  353.7542
 436  324.6669
 437  389.7184
 438  350.8677
 439  311.1997
 440  377.8645
 441  422.3376
 442  459.489
 443  472.1414
 444  440.5934
 445  515.5158
 446  585.8891
 447  489.8788
 448  354.8007
 449  308.0555
 450  300.8015
 451  338.1059
 452  389.2092
 453  445.835
 454  340.9068
 455  369.201
 456  459.8808
 457  414.0998
 458  345.8078
 459  365.3309
 460  407.2976
 461  494.174
 462  370.5563
 463  265.035
 464  305.198
 465  252.6249
 466  481.9226
 467  482.5709
 468  489.5441
 469  498.3297
 470  523.016
 471  438.2608
 472  330.7064
 473  397.2852
 474  447.2045
 475  353.0784
 476  274.388
 477  414.8272
 478  359.8774
 479  449.307
 480  437.7602
 481  351.3431
 482  384.7408
 483  419.525
 484  412.2919
 485  475.4691
 486  562.105
 487  585.387
 488  586.4378
 489  574.0884
 490  574.7794
 491  466.1702
 492  498.4126
 493  463.5351
 494  520.3668
 495  518.7713
 496  370.6317
 497  388.6178
 498  578.3268
 499  463.2681
 500  435.599
 501  407.8293
 502  446.7597
 503  467.3144
 504  479.5329
 505  473.5866
 506  327.7664
 507  388.3797
 508  618.9282
 509  816.5939
 510  932.2214
 511  1106.553
