# Input file       =  1184315356.111366_cleaned.dat
# Candidate        =  PSR_0332+5434
# Telescope        =  AR
# Epoch_topo       =  57951.353878603775
# Epoch_bary       =  N/A
# T_sample         =  0.002
# Data Folded      =  7340032
# Data Avg         =  0.282767522227783
# Data StdDev      =  5.40260070974888 
# Profile Bins     =  512
# Profile Avg      =  4053.61706025702 
# Profile StdDev   =  646.869787309506 
# Reduced chi-sqr  =  0.835
# Prob(Noise)      <  0.997   (~0.0 sigma)
# P_topo (ms)      =  714.477723692926  +/- 0.000246
# P'_topo (s/s)    =  -0                +/- 1.3e-10
# P''_topo (s/s^2) =  0                 +/- 5.73e-14
# P_bary (ms)      =  N/A
# P'_bary (s/s)    =  N/A
# P''_bary (s/s^2) =  N/A
# P_orb (s)        =  N/A
# asin(i)/c (s)    =  N/A
# eccentricity     =  N/A
# w (rad)          =  N/A
# T_peri           =  N/A
######################################################
   0  3996.183
   1  3843.831
   2  4433.219
   3  4056.465
   4  4095.422
   5  4318.772
   6  3918.219
   7  3952.088
   8  4137.399
   9  4403.392
  10  4114.787
  11  3800.275
  12  3805.894
  13  3511.768
  14  3348.162
  15  3746.779
  16  4164.248
  17  4195.299
  18  3607.954
  19  3615.125
  20  3374.248
  21  3503.531
  22  3612.918
  23  3986.291
  24  4343.293
  25  4186.115
  26  4354.113
  27  4429.395
  28  3907.157
  29  3813.786
  30  4310.188
  31  4303.53
  32  4215.063
  33  4543.667
  34  4289.115
  35  3995.511
  36  4279.961
  37  4601.947
  38  4751.666
  39  4697.172
  40  4498.509
  41  4023.395
  42  4144.217
  43  4270.53
  44  3532.882
  45  3709.514
  46  3801.023
  47  3588.983
  48  3233.9
  49  3612.371
  50  3263.638
  51  3157.789
  52  3051.784
  53  2865.049
  54  2992.086
  55  3142.741
  56  3591.418
  57  4509.714
  58  4293.55
  59  3614.205
  60  3512.185
  61  3522.495
  62  3566.914
  63  3765.859
  64  4282.276
  65  4173.507
  66  3626.398
  67  4213.231
  68  4652.963
  69  4083.6
  70  4094.271
  71  3927.436
  72  3879.499
  73  4150.018
  74  4010.495
  75  3893.528
  76  4329.869
  77  3717.938
  78  3614.825
  79  3975.403
  80  3644.834
  81  3274.231
  82  3166.331
  83  3902.336
  84  3790.501
  85  3902.304
  86  3933.333
  87  3554.269
  88  3639.99
  89  3949.368
  90  4152.121
  91  4380.967
  92  4229.306
  93  4636.803
  94  4159.176
  95  4080.143
  96  4195.165
  97  4279.779
  98  4463.965
  99  4552.986
 100  4021.239
 101  3790.165
 102  3709.172
 103  3698.647
 104  3518.15
 105  3502.287
 106  3794.698
 107  3746.695
 108  3788.103
 109  3636.436
 110  3477.991
 111  3540.847
 112  3415.996
 113  3696.542
 114  3655.13
 115  3708.939
 116  4087.346
 117  3700.582
 118  3883.291
 119  4048.316
 120  3750.347
 121  3885.676
 122  3860.604
 123  3795.79
 124  4150.773
 125  4375.443
 126  4275.802
 127  3986.515
 128  3865.924
 129  3793.628
 130  3688.062
 131  3649.807
 132  3778.725
 133  4101.643
 134  3979.917
 135  4159.492
 136  3682.476
 137  3962.802
 138  3998.964
 139  3462.5
 140  3262.026
 141  3564.938
 142  3414.875
 143  3347.784
 144  3631.989
 145  3550.844
 146  3304.815
 147  3390.658
 148  3605.435
 149  3230.696
 150  3255.33
 151  3849.022
 152  4431.036
 153  4093.575
 154  4116.745
 155  3771.237
 156  3623.004
 157  3656.33
 158  4035.786
 159  4280.021
 160  3836.652
 161  3611.476
 162  3964.082
 163  4218.236
 164  4128.606
 165  4109.843
 166  4499.796
 167  4490.915
 168  4655.708
 169  5006.687
 170  5093.987
 171  5546.828
 172  6074.348
 173  6114.474
 174  6036.969
 175  5576.574
 176  5273.639
 177  4668.403
 178  4215.639
 179  3707.955
 180  3993.398
 181  4392.811
 182  4178.128
 183  3661.052
 184  3254.87
 185  3468.391
 186  3831.127
 187  3692.081
 188  3577.297
 189  3913.599
 190  4332.886
 191  3880.929
 192  4068.617
 193  4331.318
 194  4098.72
 195  4010.978
 196  3969.715
 197  4660.476
 198  4151.099
 199  3906.581
 200  3819.545
 201  3768.945
 202  3719.036
 203  3805.477
 204  4204.707
 205  4362.662
 206  3931.62
 207  3850.394
 208  3565.129
 209  3864.559
 210  3247.121
 211  3574.449
 212  3610.951
 213  3378.021
 214  4150.994
 215  4349.385
 216  4114.711
 217  4172.59
 218  4431.991
 219  4084.416
 220  3498.312
 221  3851.932
 222  3918.443
 223  4271.432
 224  4421.07
 225  4320.413
 226  4284.001
 227  3721.008
 228  3887.845
 229  4154.885
 230  3855.025
 231  3732.587
 232  3568.198
 233  3742.824
 234  3761.128
 235  3652.757
 236  3583.427
 237  3909.906
 238  4354.044
 239  4161.249
 240  4080.566
 241  4359.281
 242  4390.795
 243  4184.45
 244  3974.337
 245  3806.205
 246  3718.73
 247  4011.159
 248  4509.87
 249  4018.613
 250  4077.579
 251  4472.249
 252  4265.193
 253  4053.333
 254  3886.545
 255  3808.721
 256  4074.867
 257  4148.031
 258  3839.594
 259  3747.198
 260  4111.837
 261  3819.273
 262  3662.242
 263  3804.018
 264  4419.381
 265  4194.265
 266  4282.021
 267  4301.537
 268  4433.66
 269  4376.665
 270  4633.991
 271  4465.112
 272  4164.886
 273  4018.608
 274  4464.253
 275  4848.964
 276  4591.959
 277  4649.606
 278  4654.186
 279  4716.898
 280  5054.865
 281  4967.437
 282  4445.533
 283  4314.279
 284  4219.515
 285  4177.482
 286  4625.864
 287  4608.556
 288  5055.288
 289  4969.381
 290  4527.333
 291  4646.639
 292  4470.185
 293  4617.502
 294  4857.934
 295  4930.035
 296  4573.797
 297  4426.917
 298  4479.021
 299  4272.132
 300  4103.647
 301  3956.375
 302  4412.228
 303  4263.379
 304  4204.951
 305  4339.875
 306  4465.632
 307  4126.625
 308  3794.811
 309  4172.453
 310  4009.785
 311  4054.429
 312  4437.3
 313  4658.17
 314  4268.579
 315  4354.625
 316  4461.638
 317  4319.231
 318  4278.709
 319  4104.847
 320  4018.269
 321  4804.033
 322  4530.223
 323  4349.721
 324  4008.776
 325  3729.986
 326  3764.297
 327  3865.775
 328  3734.168
 329  3819.037
 330  4070.786
 331  4245.147
 332  4119.301
 333  4253.176
 334  4391.662
 335  4304.784
 336  3691.439
 337  3531.25
 338  4232.753
 339  4475.534
 340  4494.185
 341  4498.515
 342  4798.177
 343  4430.851
 344  4099.382
 345  3983.753
 346  3717.837
 347  3737.723
 348  3947.221
 349  3867.137
 350  3538
 351  3728.356
 352  3955.13
 353  4068.089
 354  3992.53
 355  4034.823
 356  3445.113
 357  3446.456
 358  3452.833
 359  3925.972
 360  4072.629
 361  3776.506
 362  3962.404
 363  4138.332
 364  4449.835
 365  4433.535
 366  4351.462
 367  4151.846
 368  4149.81
 369  4552.837
 370  4449.675
 371  4615.993
 372  4511.47
 373  4575.132
 374  4306.844
 375  4158.233
 376  4409.425
 377  4275.112
 378  4471.043
 379  4404.857
 380  4007.242
 381  4239.584
 382  4198.404
 383  4019.021
 384  4360.348
 385  4603.213
 386  4790.486
 387  4930.488
 388  4478.29
 389  4264.716
 390  4214.466
 391  3975.121
 392  3996.58
 393  4033.863
 394  4163.752
 395  4298.508
 396  4087.803
 397  4051.801
 398  3432.848
 399  3445.501
 400  3418.205
 401  3851.562
 402  3856.892
 403  3875.689
 404  3860.616
 405  3562.714
 406  3203.009
 407  3035.064
 408  3612.846
 409  4147.484
 410  4620.755
 411  4483.845
 412  4401.818
 413  4535.67
 414  3946.923
 415  4098.369
 416  3854.854
 417  4330.392
 418  4504.101
 419  4360.189
 420  4816.704
 421  4564.837
 422  4217.263
 423  3942.8
 424  3899.334
 425  3668.687
 426  3333.263
 427  3435.285
 428  3785.242
 429  4387.031
 430  4659.174
 431  3575.554
 432  3320.756
 433  3520.439
 434  3487.7
 435  3588.16
 436  4079.672
 437  4352.036
 438  4522.363
 439  4184.325
 440  3748.551
 441  3932.08
 442  3381.212
 443  3354.183
 444  3616.435
 445  3983.378
 446  3970.234
 447  4058.806
 448  3987.628
 449  3817.548
 450  4239.41
 451  4052.476
 452  3856.875
 453  4500.206
 454  4432.555
 455  4178.351
 456  4398.678
 457  4235.024
 458  3758.104
 459  3749.538
 460  3971.938
 461  4255.153
 462  4530.765
 463  4701.998
 464  3998.993
 465  3800.177
 466  4094
 467  4443.436
 468  4452.646
 469  4189.856
 470  4106.551
 471  3911.953
 472  3857.755
 473  4145.615
 474  4151.681
 475  4509.551
 476  4115.22
 477  4071.2
 478  4179.365
 479  4397.124
 480  4188.714
 481  3782.229
 482  3868.139
 483  3827.51
 484  3550.229
 485  3308.544
 486  3761.591
 487  3993.501
 488  4035.294
 489  4173.455
 490  4596.459
 491  4172.872
 492  3917.122
 493  4372.857
 494  4100.807
 495  3770.413
 496  3879.328
 497  3908.69
 498  3673.871
 499  3775.455
 500  4192.912
 501  3787.483
 502  3928.253
 503  4117.928
 504  3950.231
 505  3845.745
 506  4150.607
 507  4023.975
 508  3700.138
 509  4049.458
 510  3887.359
 511  3898.464
