# Input file       =  1184214230.099528_cleaned.dat
# Candidate        =  PSR_0332+5434
# Telescope        =  AR
# Epoch_topo       =  57950.183438651948
# Epoch_bary       =  N/A
# T_sample         =  0.002
# Data Folded      =  7340032
# Data Avg         =  0.030037056947298
# Data StdDev      =  0.999933410891408
# Profile Bins     =  512
# Profile Avg      =  430.549478680306 
# Profile StdDev   =  119.725063460605 
# Reduced chi-sqr  =  1.217
# Prob(Noise)      <  0.00055   (~3.3 sigma)
# P_topo (ms)      =  714.478143294492  +/- 0.000213
# P'_topo (s/s)    =  -0                +/- 1.12e-10
# P''_topo (s/s^2) =  0                 +/- 4.96e-14
# P_bary (ms)      =  N/A
# P'_bary (s/s)    =  N/A
# P''_bary (s/s^2) =  N/A
# P_orb (s)        =  N/A
# asin(i)/c (s)    =  N/A
# eccentricity     =  N/A
# w (rad)          =  N/A
# T_peri           =  N/A
######################################################
   0  517.4771
   1  312.8188
   2  468.646
   3  417.7725
   4  354.5563
   5  431.9481
   6  489.7349
   7  373.4562
   8  461.5171
   9  549.9579
  10  514.8356
  11  511.6572
  12  461.0182
  13  567.0674
  14  407.7693
  15  373.4889
  16  356.7838
  17  491.7329
  18  504.1627
  19  432.1523
  20  401.0248
  21  426.7252
  22  353.8575
  23  372.6301
  24  469.0229
  25  375.6784
  26  310.7607
  27  363.8351
  28  430.0478
  29  422.7398
  30  381.6673
  31  351.9264
  32  315.363
  33  394.8529
  34  462.2087
  35  442.3197
  36  462.3778
  37  431.1852
  38  417.0303
  39  439.04
  40  341.8881
  41  322.5143
  42  363.3523
  43  350.9268
  44  393.1288
  45  415.4247
  46  437.6989
  47  481.9433
  48  324.541
  49  421.5999
  50  377.9174
  51  374.2655
  52  376.8944
  53  382.2007
  54  429.6726
  55  430.0296
  56  414.9547
  57  355.5381
  58  444.8187
  59  461.3802
  60  445.3435
  61  305.5008
  62  260.2636
  63  281.2098
  64  375.4514
  65  419.3596
  66  426.212
  67  540.1456
  68  466.452
  69  477.4081
  70  467.3624
  71  390.1573
  72  559.2768
  73  503.0228
  74  492.1042
  75  454.5173
  76  423.5078
  77  448.9509
  78  431.6478
  79  385.151
  80  403.1364
  81  346.2835
  82  363.7457
  83  427.8175
  84  384.4547
  85  460.7264
  86  499.0457
  87  545.7874
  88  493.8365
  89  545.91
  90  587.5151
  91  472.0693
  92  463.7396
  93  508.0413
  94  481.0643
  95  390.4189
  96  402.3159
  97  394.8279
  98  358.3982
  99  403.7315
 100  464.8083
 101  405.6806
 102  409.7805
 103  560.6208
 104  409.5264
 105  380.6109
 106  383.3436
 107  350.2591
 108  437.8967
 109  411.0677
 110  335.2186
 111  423.5019
 112  343.5721
 113  375.0465
 114  464.8129
 115  430.8071
 116  410.632
 117  336.9238
 118  363.4203
 119  367.8248
 120  380.3964
 121  360.544
 122  407.2911
 123  403.9051
 124  351.2739
 125  288.5389
 126  370.515
 127  248.8328
 128  296.1592
 129  407.2178
 130  533.0543
 131  511.4643
 132  490.8894
 133  494.5671
 134  437.9689
 135  421.121
 136  509.9793
 137  552.8719
 138  376.2083
 139  404.1981
 140  405.2777
 141  315.2773
 142  503.1498
 143  566.7284
 144  542.5789
 145  570.4918
 146  538.7092
 147  542.8878
 148  562.8221
 149  569.3516
 150  472.7314
 151  546.432
 152  483.8739
 153  537.5758
 154  429.6824
 155  393.1592
 156  455.6522
 157  372.3719
 158  434.3972
 159  352.1462
 160  268.7254
 161  295.433
 162  433.4001
 163  436.6221
 164  451.4805
 165  343.0386
 166  315.3094
 167  498.4399
 168  482.8517
 169  346.6464
 170  409.7869
 171  312.6814
 172  386.4349
 173  378.7154
 174  291.0746
 175  351.6867
 176  555.3731
 177  494.5393
 178  491.6969
 179  393.7811
 180  343.874
 181  469.1508
 182  526.615
 183  486.1636
 184  399.9635
 185  419.6401
 186  461.1681
 187  332.5184
 188  363.3083
 189  428.0018
 190  470.5506
 191  365.6494
 192  408.4518
 193  380.6912
 194  363.2945
 195  344.1505
 196  304.8
 197  317.3325
 198  363.8145
 199  254.2342
 200  353.2931
 201  310.2044
 202  332.0045
 203  447.1172
 204  438.7104
 205  374.6275
 206  354.7087
 207  397.8083
 208  324.2538
 209  393.0533
 210  340.8513
 211  348.7481
 212  434.6354
 213  419.2128
 214  443.6622
 215  458.4415
 216  428.4211
 217  513.6963
 218  535.8649
 219  426.8398
 220  366.5027
 221  323.192
 222  391.5378
 223  401.8673
 224  375.7878
 225  429.4079
 226  445.5299
 227  439.9867
 228  435.666
 229  372.0522
 230  429.9689
 231  532.2408
 232  511.6777
 233  392.6634
 234  382.444
 235  420.4971
 236  471.699
 237  441.5152
 238  403.343
 239  360.5636
 240  331.0625
 241  327.0054
 242  424.9372
 243  508.4734
 244  449.5677
 245  302.3857
 246  312.6727
 247  480.5824
 248  513.9565
 249  367.4358
 250  312.5049
 251  400.1429
 252  443.9474
 253  336.4467
 254  262.4456
 255  296.8585
 256  336.4446
 257  325.2398
 258  405.4219
 259  519.4426
 260  470.4508
 261  356.0468
 262  428.8724
 263  532.4424
 264  448.4447
 265  439.4343
 266  365.4772
 267  284.0062
 268  277.7501
 269  306.4988
 270  418.5323
 271  424.8499
 272  340.269
 273  285.4581
 274  327.4854
 275  318.7951
 276  359.1395
 277  380.7745
 278  491.119
 279  453.5199
 280  475.8858
 281  418.0941
 282  379.4879
 283  282.9146
 284  330.4944
 285  459.93
 286  488.5059
 287  425.7813
 288  410.8898
 289  405.9952
 290  417.4345
 291  476.5305
 292  503.5448
 293  481.2144
 294  519.0018
 295  481.9274
 296  445.9311
 297  555.4775
 298  478.3438
 299  507.5781
 300  497.1521
 301  462.578
 302  452.2928
 303  371.5252
 304  376.4621
 305  454.1481
 306  505.5715
 307  593.5364
 308  538.3707
 309  442.019
 310  538.6166
 311  549.0268
 312  567.7374
 313  525.312
 314  470.9144
 315  438.0706
 316  421.7708
 317  500.5553
 318  490.3027
 319  436.1748
 320  473.1747
 321  472.9012
 322  449.0512
 323  575.9159
 324  585.0632
 325  574.3615
 326  832.298
 327  915.5823
 328  1061.949
 329  1145.283
 330  1044.506
 331  851.4283
 332  692.5237
 333  520.1162
 334  407.6292
 335  401.9012
 336  373.5265
 337  358.2663
 338  367.9955
 339  452.6498
 340  574.6269
 341  521.5551
 342  586.1952
 343  550.377
 344  487.2668
 345  464.6832
 346  533.28
 347  530.5541
 348  481.5286
 349  492.874
 350  490.8091
 351  502.7197
 352  362.525
 353  264.8414
 354  374.202
 355  414.2549
 356  430.905
 357  433.5899
 358  444.7627
 359  490.3986
 360  511.8976
 361  499.7624
 362  494.7208
 363  469.6672
 364  438.7377
 365  477.2403
 366  442.5165
 367  493.8842
 368  416.2218
 369  387.4759
 370  526.1741
 371  557.0543
 372  484.3267
 373  484.3741
 374  437.5651
 375  384.9804
 376  549.1151
 377  528.5072
 378  431.488
 379  457.2209
 380  404.8921
 381  392.7484
 382  407.5336
 383  463.8402
 384  564.3992
 385  429.2053
 386  428.7482
 387  454.6236
 388  330.5742
 389  513.5071
 390  567.1785
 391  499.6635
 392  510.1785
 393  418.3568
 394  408.0034
 395  399.5826
 396  466.7318
 397  501.898
 398  441.2245
 399  408.6893
 400  384.4611
 401  339.3052
 402  347.6399
 403  425.3613
 404  461.3262
 405  503.2093
 406  509.9977
 407  425.2092
 408  336.2599
 409  406.3383
 410  354.406
 411  447.3197
 412  535.8806
 413  517.0084
 414  416.6813
 415  374.3187
 416  367.479
 417  283.9333
 418  345.8701
 419  366.316
 420  375.504
 421  328.4977
 422  430.3866
 423  340.7134
 424  321.4754
 425  429.1558
 426  374.9627
 427  340.3298
 428  425.6539
 429  359.3087
 430  388.6751
 431  483.7483
 432  555.3009
 433  638.5928
 434  488.799
 435  393.6501
 436  414.9795
 437  448.4708
 438  510.2677
 439  471.2383
 440  478.3066
 441  472.2993
 442  421.8536
 443  499.337
 444  463.4537
 445  355.5518
 446  469.9222
 447  484.4232
 448  400.8312
 449  385.8393
 450  370.4617
 451  376.7793
 452  405.2073
 453  396.4568
 454  344.0761
 455  371.8537
 456  350.894
 457  334.6222
 458  401.3776
 459  236.9892
 460  272.2985
 461  341.1136
 462  346.3532
 463  383.0374
 464  355.9834
 465  358.5341
 466  490.2607
 467  579.5124
 468  440.3412
 469  346.6506
 470  311.4684
 471  405.2092
 472  538.3242
 473  470.3441
 474  495.2309
 475  491.6377
 476  390.8158
 477  453.9867
 478  423.9578
 479  441.9243
 480  501.1911
 481  464.6414
 482  381.3048
 483  398.2248
 484  405.6885
 485  304.7965
 486  376.1368
 487  357.8325
 488  352.9867
 489  217.7157
 490  439.5454
 491  415.3551
 492  373.4681
 493  411.6562
 494  426.0415
 495  435.4592
 496  487.3214
 497  460.975
 498  335.9685
 499  300.7539
 500  373.8179
 501  351.4089
 502  479.6723
 503  513.6608
 504  403.1392
 505  381.3182
 506  265.1444
 507  359.9394
 508  311.8719
 509  349.8162
 510  456.3775
 511  444.0457
