# Input file       =  1184386621.103557_cleaned.dat
# Candidate        =  PSR_0332+5434
# Telescope        =  AR
# Epoch_topo       =  57952.178704902282
# Epoch_bary       =  N/A
# T_sample         =  0.002
# Data Folded      =  7340032
# Data Avg         =  0.147547092245077
# Data StdDev      =  3.85461140891382 
# Profile Bins     =  512
# Profile Avg      =  2108.61376404332 
# Profile StdDev   =  461.524328041776 
# Reduced chi-sqr  =  1.166
# Prob(Noise)      <  0.00556   (~2.5 sigma)
# P_topo (ms)      =  714.476866581654  +/- 0.000397
# P'_topo (s/s)    =  -0                +/- 2.09e-10
# P''_topo (s/s^2) =  0                 +/- 9.24e-14
# P_bary (ms)      =  N/A
# P'_bary (s/s)    =  N/A
# P''_bary (s/s^2) =  N/A
# P_orb (s)        =  N/A
# asin(i)/c (s)    =  N/A
# eccentricity     =  N/A
# w (rad)          =  N/A
# T_peri           =  N/A
######################################################
   0  1867.32
   1  1963.581
   2  1907.706
   3  2152.554
   4  2049.95
   5  2066.197
   6  2613.251
   7  2643.316
   8  2538.92
   9  2316.618
  10  2224.071
  11  2315.003
  12  2125.161
  13  2097.048
  14  2421.112
  15  2284.337
  16  2194.058
  17  1957.467
  18  1774.141
  19  1829.565
  20  1551.507
  21  1739.787
  22  1686.011
  23  1741.469
  24  1840.024
  25  1985.109
  26  1826.774
  27  1829.767
  28  2042.179
  29  1549.412
  30  1610.81
  31  1639.324
  32  1778.011
  33  2005.19
  34  1851.513
  35  2024.411
  36  2133.05
  37  2046.313
  38  1826.395
  39  1771.775
  40  2441.836
  41  2381.746
  42  2204.451
  43  1838.819
  44  1814.111
  45  2025.076
  46  2369.096
  47  2194.506
  48  2290.05
  49  2448.611
  50  2361.118
  51  2231.505
  52  2302.615
  53  2187.54
  54  2157.249
  55  2188.952
  56  2437.515
  57  2332.128
  58  2314.094
  59  2307.876
  60  2340.072
  61  2039.912
  62  2090.711
  63  2032.457
  64  1953.116
  65  2020.089
  66  2183.238
  67  2061.155
  68  2196.676
  69  2309.285
  70  2191.787
  71  2093.272
  72  2060.622
  73  2182.431
  74  2381.998
  75  2351.264
  76  2414.355
  77  2389.256
  78  2527.062
  79  2357.116
  80  1996.764
  81  2251.617
  82  2459.703
  83  2351.165
  84  2368.402
  85  2303.072
  86  2387.896
  87  2365.719
  88  2309.536
  89  2058.044
  90  2283.285
  91  2326.127
  92  2273.221
  93  2151.61
  94  2090.15
  95  2217.17
  96  2437.39
  97  2517.031
  98  2757.569
  99  2486.563
 100  2451.561
 101  2203.83
 102  2419.034
 103  2586.348
 104  2409.856
 105  2312.525
 106  2330.621
 107  2000.602
 108  1615.008
 109  1669.11
 110  2032.064
 111  2065.281
 112  2281.472
 113  2285.816
 114  2214.79
 115  2029.577
 116  2151.742
 117  2082.539
 118  2068.326
 119  2322.119
 120  2243.041
 121  2275.715
 122  2480.296
 123  2354.772
 124  2653.722
 125  2848.217
 126  2716.626
 127  2533.006
 128  2436.444
 129  2295.843
 130  2209.77
 131  2122.785
 132  1958.104
 133  2311.254
 134  2298.368
 135  1975.516
 136  1929.349
 137  1898.346
 138  1839.062
 139  1961.027
 140  2120.134
 141  2027.066
 142  2044.393
 143  2123.593
 144  2131.015
 145  2280.356
 146  2437.711
 147  2404.203
 148  2036.599
 149  2009.487
 150  1995.105
 151  2172.026
 152  1877.156
 153  1714.864
 154  1942.773
 155  2146.208
 156  1983.531
 157  1848.575
 158  1902.379
 159  1698.709
 160  1856.042
 161  2112.929
 162  2092.028
 163  1990.197
 164  2203.464
 165  1947.389
 166  1659.038
 167  1591.857
 168  1729.014
 169  1788.663
 170  1616.923
 171  1677.635
 172  1748.686
 173  2069.917
 174  1904
 175  1931.279
 176  1743.896
 177  1680.233
 178  1943.373
 179  2065.474
 180  1853.109
 181  2038.9
 182  2188.929
 183  1894.879
 184  1865.585
 185  2099.121
 186  2164.849
 187  2123.687
 188  1984.157
 189  2018.819
 190  1935.719
 191  2088.342
 192  2232.862
 193  2271.039
 194  2297.802
 195  2293.875
 196  2334.486
 197  2327.808
 198  2297.202
 199  2343.109
 200  2323.325
 201  2277.223
 202  2325.22
 203  2559.672
 204  2650.823
 205  2583.033
 206  2533.482
 207  2444.005
 208  2305.528
 209  2539.872
 210  2517.171
 211  2243.359
 212  2400.745
 213  2476.994
 214  2527.352
 215  2497.977
 216  2250.453
 217  2382.73
 218  2493.97
 219  2591.854
 220  2490.29
 221  2406.341
 222  2480.17
 223  2474.083
 224  2547.145
 225  2473.333
 226  2384.98
 227  2374.821
 228  2323.738
 229  2557.013
 230  2545.214
 231  2397.35
 232  2353.345
 233  2576.832
 234  2578.771
 235  2536.661
 236  2145.613
 237  1920.15
 238  1913.538
 239  1670.541
 240  1688.345
 241  1503.5
 242  1675.541
 243  1828.273
 244  1731.083
 245  1658.494
 246  1998.851
 247  2441.55
 248  2331.568
 249  2159.511
 250  2326.201
 251  2495.047
 252  2543.198
 253  2320.53
 254  2255.866
 255  2346.988
 256  2445.251
 257  2302.977
 258  2404.794
 259  2291.699
 260  2410.331
 261  1969.561
 262  2379.801
 263  2519.137
 264  2178.81
 265  2455.294
 266  2517.81
 267  2205.765
 268  2117.831
 269  2191.605
 270  2116.766
 271  2223.563
 272  2342.452
 273  2085.788
 274  2210.795
 275  2345.52
 276  2676.786
 277  2476.57
 278  2337.201
 279  2283.51
 280  2148.91
 281  2286.197
 282  2210.416
 283  2303.101
 284  2288.676
 285  2289.903
 286  2362.256
 287  2356.596
 288  2115.125
 289  2161.483
 290  2151.124
 291  2029.701
 292  1957.973
 293  2316.763
 294  2482.736
 295  2472.228
 296  2497.627
 297  2525.736
 298  2573.229
 299  2342.684
 300  2291.59
 301  2481.431
 302  2675.089
 303  2615.749
 304  2314
 305  2537.625
 306  2827.93
 307  2999.256
 308  3267.22
 309  2885.721
 310  2822.004
 311  3028.066
 312  2768.669
 313  2657.664
 314  2866.216
 315  2673.68
 316  2519.064
 317  2348.612
 318  2634.038
 319  2470.156
 320  2251.365
 321  2388.966
 322  2511.506
 323  2882.448
 324  3652.755
 325  4094.415
 326  4166.658
 327  3637.616
 328  3123.655
 329  2778.835
 330  2212.428
 331  1763.02
 332  1602.55
 333  1478.704
 334  1501.108
 335  1440.512
 336  1537.297
 337  1703.969
 338  1867.619
 339  2049.975
 340  2062.479
 341  2078.387
 342  1799.053
 343  1864.741
 344  1659.612
 345  1761.659
 346  1932.678
 347  1921.655
 348  1757.095
 349  1898.512
 350  1997.128
 351  1673.288
 352  1783.707
 353  1649.304
 354  1831.524
 355  1829.622
 356  1678.873
 357  1468.502
 358  1496.407
 359  1787.599
 360  1878.712
 361  2102.989
 362  2063.862
 363  2072.488
 364  1884.512
 365  1857.867
 366  1673.845
 367  1876.776
 368  2067.729
 369  1994.788
 370  2144.848
 371  2126.925
 372  2212.547
 373  2389.539
 374  1890.163
 375  1819.986
 376  1932.456
 377  2201.962
 378  2254.723
 379  1966.894
 380  1917.278
 381  2064.757
 382  2098.529
 383  1826.234
 384  1616.691
 385  1997.415
 386  2080.952
 387  2050.368
 388  1797.102
 389  1812.909
 390  1974.454
 391  1885.953
 392  1691.437
 393  1686.726
 394  1787.677
 395  1650.556
 396  1766.451
 397  1973.233
 398  1902.792
 399  2080.631
 400  1678.021
 401  1680.684
 402  1940.697
 403  1819.644
 404  1684.008
 405  1822.631
 406  1852.423
 407  1920.12
 408  1876.19
 409  2194.405
 410  1976.605
 411  2096.817
 412  1782.948
 413  1740.782
 414  1754.557
 415  1981.933
 416  1889.652
 417  1857.197
 418  1798.338
 419  1541.933
 420  1332.706
 421  1478.225
 422  1696.212
 423  1414.537
 424  1445.439
 425  1180.164
 426  1231.954
 427  1236.324
 428  1592.984
 429  1821.128
 430  1701.019
 431  1436.085
 432  1483.242
 433  1613.687
 434  1677.334
 435  1927.909
 436  1835.878
 437  1877.122
 438  1717.124
 439  1853.712
 440  1817.077
 441  1792.102
 442  1640.699
 443  1774.193
 444  1755.779
 445  1703.365
 446  1621.622
 447  1910.027
 448  1681.081
 449  1609.663
 450  1881.139
 451  1848.666
 452  1672.488
 453  1675.492
 454  1636.33
 455  1692.753
 456  1733.798
 457  1954.783
 458  1927.339
 459  1824.604
 460  1874.682
 461  2228.968
 462  2013.357
 463  2168.91
 464  2055.181
 465  1975.335
 466  2281.211
 467  2060.292
 468  1844.964
 469  1880.349
 470  2344.343
 471  2117.219
 472  2023.928
 473  2297.757
 474  2240.634
 475  2146.813
 476  2115.993
 477  2045.482
 478  2233.016
 479  2358.254
 480  2258.22
 481  2498.429
 482  2521.169
 483  2228.28
 484  2064.013
 485  1614.33
 486  1899.621
 487  1740.839
 488  1753.284
 489  1753.477
 490  1715.236
 491  1690.92
 492  1645.444
 493  1735.906
 494  1437.589
 495  1445.387
 496  1792.72
 497  2178.53
 498  1922.47
 499  2078.303
 500  2038.735
 501  2010.139
 502  1783.367
 503  1978.86
 504  1960.019
 505  1866.003
 506  2096.77
 507  2072.102
 508  2004.453
 509  2033.334
 510  1791.284
 511  2028.154
