# Input file       =  1184386621.103557_cleaned.dat
# Candidate        =  PSR_0332+5434
# Telescope        =  AR
# Epoch_topo       =  57952.178704902282
# Epoch_bary       =  N/A
# T_sample         =  0.002
# Data Folded      =  7340032
# Data Avg         =  0.0286178062813864
# Data StdDev      =  1.00028805860452 
# Profile Bins     =  512
# Profile Avg      =  409.587049643702 
# Profile StdDev   =  119.76752650814  
# Reduced chi-sqr  =  1.711
# Prob(Noise)      <  1.66e-21   (~9.5 sigma)
# P_topo (ms)      =  714.476866409967  +/- 0.000258
# P'_topo (s/s)    =  -0                +/- 1.36e-10
# P''_topo (s/s^2) =  0                 +/- 6.01e-14
# P_bary (ms)      =  N/A
# P'_bary (s/s)    =  N/A
# P''_bary (s/s^2) =  N/A
# P_orb (s)        =  N/A
# asin(i)/c (s)    =  N/A
# eccentricity     =  N/A
# w (rad)          =  N/A
# T_peri           =  N/A
######################################################
   0  446.7824
   1  576.0319
   2  418.3749
   3  488.7074
   4  549.8962
   5  478.7424
   6  398.7606
   7  467.9375
   8  458.2594
   9  458.6108
  10  456.5023
  11  401.3185
  12  404.5197
  13  491.231
  14  616.0618
  15  554.5778
  16  453.2487
  17  439.4096
  18  399.968
  19  424.1381
  20  431.4259
  21  444.8621
  22  405.2062
  23  431.2595
  24  468.1457
  25  464.9857
  26  408.9655
  27  438.6401
  28  469.7246
  29  369.2955
  30  312.8451
  31  417.9304
  32  475.3851
  33  439.507
  34  480.6864
  35  510.5364
  36  565.8669
  37  421.5141
  38  397.3215
  39  416.2796
  40  504.6676
  41  506.1832
  42  409.9579
  43  442.5266
  44  548.1341
  45  621.5126
  46  714.7288
  47  615.8089
  48  564.1403
  49  600.9512
  50  545.3231
  51  438.9347
  52  523.3438
  53  489.6628
  54  520.7599
  55  443.5289
  56  515.9422
  57  505.7067
  58  430.4919
  59  547.5059
  60  611.3392
  61  712.8112
  62  984.5731
  63  1145.724
  64  1253.582
  65  1107.189
  66  893.0285
  67  751.4243
  68  527.8698
  69  381.1879
  70  284.17
  71  212.3078
  72  261.2358
  73  247.7687
  74  267.1086
  75  320.6203
  76  345.1892
  77  400.5723
  78  390.6621
  79  378.565
  80  272.8423
  81  341.4709
  82  291.4894
  83  268.32
  84  358.5038
  85  405.0902
  86  333.4026
  87  349.7015
  88  458.8462
  89  297.0046
  90  336.2963
  91  284.7164
  92  351.3767
  93  363.7172
  94  308.4248
  95  203.8193
  96  176.9229
  97  259.179
  98  270.8553
  99  383.3537
 100  404.7652
 101  414.1995
 102  318.3354
 103  315.2334
 104  266.3241
 105  271.7
 106  376.2658
 107  348.559
 108  389.7307
 109  372.8523
 110  327.7068
 111  441.4333
 112  320.698
 113  263.3185
 114  269.1649
 115  355.1401
 116  426.5236
 117  319.668
 118  286.2575
 119  330.2172
 120  357.9295
 121  252.8657
 122  178.2164
 123  323.261
 124  320.218
 125  303.4803
 126  304.5903
 127  302.5012
 128  337.6266
 129  321.2206
 130  234.9333
 131  214.5945
 132  322.2687
 133  296.2382
 134  291.4128
 135  345.6106
 136  338.5017
 137  455.5297
 138  283.4205
 139  291.1519
 140  347.5362
 141  316.8563
 142  266.2597
 143  309.7102
 144  344.0935
 145  323.1628
 146  374.4829
 147  447.6231
 148  368.9349
 149  352.9703
 150  269.4791
 151  228.6962
 152  314.3152
 153  365.1834
 154  409.3552
 155  366.0348
 156  333.3499
 157  263.9875
 158  167.3836
 159  190.2392
 160  314.5996
 161  229.8918
 162  220.8735
 163  144.5306
 164  129.1198
 165  70.45557
 166  196.93
 167  314.6464
 168  323.4803
 169  217.1604
 170  229.4034
 171  274.6534
 172  265.5037
 173  297.9621
 174  335.7894
 175  373.494
 176  291.8108
 177  334.4332
 178  386.3882
 179  398.8866
 180  294.5741
 181  296.9306
 182  373.4438
 183  386.9083
 184  332.8639
 185  410.5119
 186  418.0146
 187  368.6677
 188  408.5839
 189  447.9734
 190  340.2095
 191  392.6935
 192  352.7937
 193  286.6588
 194  326.9638
 195  403.3741
 196  415.2978
 197  359.998
 198  356.5289
 199  475.4193
 200  381.1247
 201  443.9479
 202  443.2174
 203  352.6266
 204  431.7061
 205  389.6738
 206  300.7003
 207  293.8348
 208  510.5074
 209  400.5455
 210  317.0628
 211  409.9764
 212  457.4657
 213  385.9966
 214  416.8848
 215  411.3365
 216  459.4792
 217  480.6926
 218  420.7354
 219  486.1723
 220  588.4769
 221  442.7518
 222  424.356
 223  277.032
 224  376.9292
 225  297.1744
 226  312.2225
 227  297.7238
 228  309.6701
 229  324.506
 230  337.0011
 231  368.5906
 232  247.5725
 233  239.8698
 234  314.8645
 235  491.7774
 236  464.3606
 237  423.6089
 238  406.8435
 239  380.1171
 240  339.9668
 241  329.7522
 242  368.3395
 243  387.761
 244  454.6671
 245  471.9008
 246  349.5556
 247  416.2836
 248  318.5376
 249  421.0324
 250  367.9587
 251  372.1375
 252  355.3447
 253  395.328
 254  390.3823
 255  388.9193
 256  471.0648
 257  565.1304
 258  563.6184
 259  469.0844
 260  457.4728
 261  487.7161
 262  438.2841
 263  451.161
 264  550.7524
 265  525.5829
 266  461.9148
 267  429.2903
 268  319.6711
 269  390.8865
 270  274.6812
 271  371.0099
 272  391.6546
 273  391.4529
 274  397.9528
 275  453.2153
 276  384.1299
 277  346.1864
 278  506.0714
 279  327.3665
 280  290.2393
 281  322.2502
 282  336.4053
 283  382.5589
 284  287.7076
 285  425.7777
 286  486.3532
 287  430.3225
 288  369.4495
 289  292.7024
 290  514.62
 291  506.671
 292  475.7577
 293  371.7284
 294  307.4631
 295  404.8229
 296  549.1516
 297  424.5038
 298  424.4503
 299  501.7487
 300  444.8913
 301  381.8087
 302  408.8778
 303  493.1264
 304  483.4409
 305  492.0815
 306  540.913
 307  486.7761
 308  516.0557
 309  492.5743
 310  528.93
 311  402.3024
 312  426.0467
 313  445.3357
 314  432.4458
 315  483.128
 316  544.1575
 317  429.547
 318  452.3673
 319  500.6091
 320  478.3266
 321  456.3977
 322  305.8733
 323  366.719
 324  455.5302
 325  489.4714
 326  478.0013
 327  460.3277
 328  474.6662
 329  469.4429
 330  341.9711
 331  385.1202
 332  489.5414
 333  472.5574
 334  470.7162
 335  426.0899
 336  489.9992
 337  509.4098
 338  461.4591
 339  359.3254
 340  410.8774
 341  418.0277
 342  433.7926
 343  405.6443
 344  310.5659
 345  383.2486
 346  497.788
 347  506.3572
 348  566.316
 349  464.4633
 350  510.3362
 351  477.7605
 352  493.0446
 353  625.7354
 354  486.956
 355  463.4262
 356  438.7574
 357  360.6705
 358  255.8163
 359  217.6751
 360  401.5982
 361  390.1994
 362  404.9212
 363  413.5995
 364  413.7496
 365  317.8553
 366  387.0973
 367  353.8225
 368  336.4941
 369  399.4134
 370  421.2397
 371  425.2154
 372  517.6821
 373  420.0846
 374  456.7556
 375  561.2103
 376  570.9758
 377  508.9418
 378  461.1032
 379  447.5174
 380  442.5311
 381  428.9311
 382  319.6461
 383  451.3414
 384  518.6873
 385  366.4765
 386  319.327
 387  305.0036
 388  268.1422
 389  275.7287
 390  383.6248
 391  429.3761
 392  404.6358
 393  404.0033
 394  415.7607
 395  432.2899
 396  527.749
 397  537.4376
 398  462.0675
 399  383.5919
 400  394.8133
 401  486.3964
 402  447.5573
 403  319.342
 404  373.9563
 405  435.5556
 406  398.2189
 407  359.925
 408  399.2148
 409  363.0586
 410  386.3682
 411  527.7117
 412  507.7444
 413  459.4688
 414  483.1874
 415  426.5375
 416  346.4852
 417  302.7406
 418  337.1132
 419  375.467
 420  305.1007
 421  336.8112
 422  379.8401
 423  467.3961
 424  451.8833
 425  416.7904
 426  371.0923
 427  255.2903
 428  378.5722
 429  410.9498
 430  332.3398
 431  431.1522
 432  519.5015
 433  420.9714
 434  384.2975
 435  457.659
 436  493.7
 437  483.582
 438  350.3619
 439  344.1236
 440  338.1947
 441  418.883
 442  460.0468
 443  445.0418
 444  448.7684
 445  390.8197
 446  476.1323
 447  458.8113
 448  452.1873
 449  470.5272
 450  452.3262
 451  439.4265
 452  452.5509
 453  549.4468
 454  606.8686
 455  555.1581
 456  536.9971
 457  507.697
 458  441.2743
 459  484.543
 460  435.7438
 461  312.0841
 462  351.3229
 463  443.7068
 464  482.2733
 465  516.3875
 466  418.2791
 467  437.0111
 468  448.4142
 469  473.7316
 470  487.0167
 471  414.7437
 472  419.8606
 473  474.4824
 474  455.4544
 475  432.5618
 476  396.2669
 477  441.5812
 478  397.0421
 479  524.9039
 480  519.8661
 481  494.2941
 482  446.5395
 483  520.2931
 484  541.1931
 485  557.0977
 486  443.3263
 487  344.9384
 488  341.3888
 489  321.2059
 490  317.1019
 491  252.9197
 492  270.3113
 493  374.4728
 494  368.8286
 495  258.077
 496  334.0645
 497  493.2097
 498  447.784
 499  393.9743
 500  446.5037
 501  461.7903
 502  490.701
 503  393.5879
 504  343.6771
 505  412.9066
 506  480.9183
 507  422.5715
 508  479.11
 509  401.7292
 510  462.3641
 511  297.2144
