# Input file       =  1184472772.105566-PSRB0329-2ms-sampling-dd.dat
# Candidate        =  PSR_0332+5434
# Telescope        =  AR
# Epoch_topo       =  57953.175822981088
# Epoch_bary       =  N/A
# T_sample         =  0.002
# Data Folded      =  7340032
# Data Avg         =  -4.41663214355476e-11
# Data StdDev      =  4.32182546359121 
# Profile Bins     =  512
# Profile Avg      =  0.437519093253445
# Profile StdDev   =  517.4652854462   
# Reduced chi-sqr  =  0.602
# Prob(Noise)      <  1   (~0.0 sigma)
# P_topo (ms)      =  714.47624500042   +/- 0.00044
# P'_topo (s/s)    =  -0                +/- 2.32e-10
# P''_topo (s/s^2) =  0                 +/- 1.02e-13
# P_bary (ms)      =  N/A
# P'_bary (s/s)    =  N/A
# P''_bary (s/s^2) =  N/A
# P_orb (s)        =  N/A
# asin(i)/c (s)    =  N/A
# eccentricity     =  N/A
# w (rad)          =  N/A
# T_peri           =  N/A
######################################################
   0  -56.72838
   1  -143.7604
   2  -56.39292
   3  -223.2058
   4  -263.6988
   5  -341.1859
   6  -91.48344
   7  206.857
   8  464.0673
   9  335.0471
  10  -171.7255
  11  -81.3743
  12  -178.9132
  13  -409.0434
  14  -370.0991
  15  -489.1219
  16  -717.5287
  17  -302.5586
  18  -54.15837
  19  96.7419
  20  -249.2038
  21  -495.5075
  22  -394.7105
  23  -204.4383
  24  -9.856076
  25  -154.6339
  26  -227.9059
  27  -230.9853
  28  144.7245
  29  107.2128
  30  -84.8611
  31  -150.0551
  32  76.33797
  33  -217.1258
  34  -410.4885
  35  -247.1329
  36  -245.4718
  37  160.2555
  38  335.9556
  39  124.5661
  40  -96.40231
  41  17.33103
  42  58.97398
  43  -310.7523
  44  -387.2327
  45  187.0536
  46  -82.90382
  47  -319.4284
  48  -66.83722
  49  -164.1377
  50  -225.5133
  51  -285.0346
  52  -283.6855
  53  223.8267
  54  -148.5086
  55  -314.7152
  56  -295.1732
  57  -112.8776
  58  -270.2512
  59  -45.31117
  60  240.5539
  61  237.3268
  62  494.7239
  63  518.4695
  64  152.0432
  65  259.5335
  66  404.3069
  67  83.67707
  68  -194.3988
  69  233.3694
  70  292.8912
  71  94.02234
  72  103.2478
  73  12.73222
  74  256.1718
  75  193.9058
  76  -179.0172
  77  72.21487
  78  64.40311
  79  31.38404
  80  -19.07611
  81  36.32726
  82  104.1125
  83  184.7692
  84  277.6915
  85  467.7552
  86  265.6609
  87  219.5796
  88  222.2811
  89  441.3324
  90  388.3528
  91  141.5135
  92  194.8712
  93  236.8775
  94  116.0319
  95  -120.8733
  96  -13.34382
  97  19.66334
  98  -25.64722
  99  -127.9481
 100  194.7275
 101  40.98928
 102  0.2514088
 103  139.1097
 104  173.3433
 105  97.38657
 106  84.42686
 107  140.739
 108  431.6642
 109  120.4087
 110  230.6178
 111  172.888
 112  -80.16961
 113  -247.1037
 114  -294.0088
 115  -224.1247
 116  56.30168
 117  76.82944
 118  83.78856
 119  -60.90371
 120  33.81044
 121  -251.3985
 122  -276.5049
 123  -329.9003
 124  -45.69955
 125  -106.8371
 126  -383.2384
 127  -418.4671
 128  -383.434
 129  -212.9785
 130  -298.8389
 131  -415.6057
 132  -331.7783
 133  -298.7863
 134  -473.7533
 135  -506.4176
 136  -455.8072
 137  -314.3154
 138  -59.49445
 139  -245.7206
 140  -124.3049
 141  -33.46764
 142  -224.1418
 143  -72.8739
 144  44.91402
 145  -164.6884
 146  -36.347
 147  33.30729
 148  -9.295254
 149  -300.7062
 150  -349.4533
 151  -431.5373
 152  -267.7545
 153  -267.135
 154  -209.7381
 155  21.94029
 156  -89.50818
 157  -298.0893
 158  -140.1511
 159  -413.1107
 160  -441.6473
 161  -243.9309
 162  -255.0192
 163  -134.2526
 164  -138.7065
 165  -174.5551
 166  -41.75133
 167  -351.0551
 168  -347.1034
 169  -395.5367
 170  -146.0969
 171  30.60238
 172  27.1849
 173  42.38105
 174  96.324
 175  -419.6368
 176  -215.1039
 177  -291.4272
 178  -333.9858
 179  -103.2301
 180  112.4123
 181  -126.6629
 182  22.05147
 183  45.37553
 184  -412.321
 185  -684.9765
 186  -398.1485
 187  -122.9169
 188  -157.7568
 189  -407.1527
 190  -27.52454
 191  -3.298491
 192  90.40242
 193  108.3746
 194  -550.8478
 195  -404.0868
 196  -531.3044
 197  -158.1111
 198  56.6157
 199  157.5155
 200  465.4711
 201  -73.12253
 202  -276.8439
 203  -229.262
 204  -225.163
 205  -286.9979
 206  118.6351
 207  -97.86962
 208  -527.0306
 209  -411.313
 210  -300.4289
 211  -235.4142
 212  -293.1345
 213  -286.819
 214  -192.429
 215  -407.2693
 216  -59.81319
 217  -9.3058
 218  30.04228
 219  -435.7939
 220  -201.6349
 221  -26.69481
 222  42.41926
 223  205.3414
 224  479.5607
 225  519.1473
 226  348.7458
 227  457.7574
 228  106.7326
 229  -361.9958
 230  -56.76551
 231  235.5502
 232  78.62799
 233  190.1057
 234  175.2909
 235  36.99295
 236  -370.0491
 237  -264.951
 238  29.67178
 239  -8.571874
 240  120.2758
 241  96.67527
 242  -344.8534
 243  -187.2702
 244  -222.4664
 245  -101.6796
 246  -42.6209
 247  -172.0721
 248  -67.0866
 249  -83.17362
 250  -159.9191
 251  -298.2762
 252  -1.027651
 253  -153.8102
 254  -368.6417
 255  -267.6382
 256  -187.3674
 257  -342.0143
 258  -265.5416
 259  -117.8156
 260  -335.72
 261  -371.7483
 262  -187.4962
 263  -192.861
 264  -73.53938
 265  -103.1934
 266  11.97279
 267  249.2496
 268  256.4561
 269  425.9843
 270  161.4214
 271  71.774
 272  -122.6088
 273  71.15967
 274  278.2082
 275  322.8564
 276  160.839
 277  -164.8361
 278  -277.7977
 279  -293.1584
 280  -141.8833
 281  137.29
 282  -55.56314
 283  61.23276
 284  86.60456
 285  -64.11712
 286  -252.1091
 287  -40.92255
 288  170.8982
 289  -19.34583
 290  -243.1557
 291  156.7099
 292  225.3249
 293  -72.49754
 294  116.2356
 295  20.78769
 296  261.4991
 297  237.438
 298  448.0122
 299  256.9749
 300  142.8627
 301  -100.3012
 302  88.47341
 303  356.9038
 304  -6.142447
 305  -46.78483
 306  -17.45528
 307  233.6155
 308  208.3363
 309  365.6886
 310  432.9809
 311  42.06866
 312  -37.22438
 313  -15.37793
 314  -0.3833556
 315  -55.58741
 316  254.2229
 317  337.9167
 318  39.53224
 319  -2.505904
 320  -256.2856
 321  68.53693
 322  44.45142
 323  -50.24525
 324  232.6801
 325  177.5207
 326  132.0507
 327  13.18413
 328  179.2013
 329  89.67113
 330  38.55933
 331  153.8521
 332  73.18546
 333  130.8929
 334  234.6981
 335  214.9888
 336  45.94962
 337  124.59
 338  148.5833
 339  135.1371
 340  111.8955
 341  163.2134
 342  -73.95864
 343  -162.7889
 344  153.6578
 345  104.2279
 346  95.99457
 347  44.85757
 348  163.5392
 349  233.609
 350  50.69378
 351  115.1478
 352  219.2586
 353  -91.24128
 354  -274.1207
 355  -143.5956
 356  -124.8643
 357  187.8807
 358  419.8925
 359  271.391
 360  13.81404
 361  -282.0965
 362  24.47606
 363  12.69539
 364  -116.2502
 365  87.11491
 366  79.2651
 367  241.7953
 368  59.56043
 369  -36.84227
 370  -24.22385
 371  43.19548
 372  81.79663
 373  -182.3753
 374  110.6452
 375  93.52676
 376  76.38492
 377  -220.5022
 378  0.952077
 379  268.3033
 380  227.0786
 381  402.3193
 382  431.5969
 383  521.9309
 384  492.1373
 385  226.9976
 386  122.4741
 387  -107.5987
 388  242.854
 389  263.0673
 390  99.77713
 391  -191.529
 392  -337.4931
 393  -214.6105
 394  -242.3403
 395  -339.3538
 396  -105.7983
 397  93.42117
 398  -207.1052
 399  -283.6407
 400  -214.9965
 401  -332.7615
 402  -364.5988
 403  -123.3191
 404  -33.56963
 405  90.86902
 406  -153.4549
 407  139.6562
 408  114.1935
 409  34.12556
 410  148.2098
 411  250.1752
 412  250.6611
 413  385.8516
 414  135.4134
 415  -35.74676
 416  -265.6069
 417  -539.3004
 418  59.97683
 419  -254.9933
 420  -146.6208
 421  -112.5204
 422  -74.8453
 423  -229.5371
 424  -291.2599
 425  -43.91732
 426  122.7607
 427  -251.9009
 428  -258.8919
 429  -254.7464
 430  -74.00488
 431  215.8737
 432  410.9993
 433  407.9406
 434  166.9733
 435  -68.75354
 436  -152.9326
 437  -88.36264
 438  182.9678
 439  95.4369
 440  98.82433
 441  410.1871
 442  512.0823
 443  193.2704
 444  -111.9104
 445  -84.42962
 446  12.11076
 447  -141.0565
 448  -166.2944
 449  54.21158
 450  67.39449
 451  -183.0304
 452  9.511485
 453  -43.04574
 454  51.26046
 455  121.4975
 456  330.8538
 457  235.5559
 458  206.2389
 459  48.25938
 460  -14.09738
 461  232.4271
 462  263.4905
 463  127.5693
 464  206.6856
 465  441.4593
 466  435.3097
 467  200.4519
 468  107.89
 469  -22.55657
 470  105.8195
 471  176.5183
 472  107.2183
 473  198.691
 474  -15.64907
 475  150.2038
 476  339.3818
 477  143.1606
 478  -9.474908
 479  -55.72316
 480  -101.3773
 481  -241.3469
 482  -139.0324
 483  90.62357
 484  301.6941
 485  93.59785
 486  11.44254
 487  174.5579
 488  -10.53682
 489  17.43801
 490  38.57349
 491  335.9322
 492  -46.51423
 493  -297.0582
 494  -301.4499
 495  -112.5082
 496  -224.9806
 497  -208.8994
 498  -95.59966
 499  190.7043
 500  353.065
 501  407.8971
 502  221.0236
 503  337.9262
 504  1222.51
 505  1773.508
 506  1892.016
 507  2044.118
 508  1732.551
 509  870.9548
 510  215.4239
 511  119.1523
