# Input file       =  1184056858.110486_cleaned.dat
# Candidate        =  PSR_0332+5434
# Telescope        =  AR
# Epoch_topo       =  57948.362003593589
# Epoch_bary       =  N/A
# T_sample         =  0.002
# Data Folded      =  7340032
# Data Avg         =  0.189337570251415
# Data StdDev      =  4.68225900072534 
# Profile Bins     =  512
# Profile Avg      =  2714.28482107487 
# Profile StdDev   =  560.621087259287 
# Reduced chi-sqr  =  0.685
# Prob(Noise)      <  1   (~0.0 sigma)
# P_topo (ms)      =  714.479683258899  +/- 0.000433
# P'_topo (s/s)    =  -0                +/- 2.29e-10
# P''_topo (s/s^2) =  0                 +/- 1.01e-13
# P_bary (ms)      =  N/A
# P'_bary (s/s)    =  N/A
# P''_bary (s/s^2) =  N/A
# P_orb (s)        =  N/A
# asin(i)/c (s)    =  N/A
# eccentricity     =  N/A
# w (rad)          =  N/A
# T_peri           =  N/A
######################################################
   0  2997.489
   1  2761.313
   2  2960.492
   3  3019.902
   4  2938.798
   5  2986.744
   6  2762.243
   7  3080.78
   8  2852.993
   9  3067.74
  10  3016.888
  11  2984.259
  12  2985.333
  13  2788.943
  14  2793.854
  15  2645.164
  16  2731.69
  17  2717.823
  18  2619.372
  19  2539.063
  20  2424.171
  21  2413.87
  22  2812.161
  23  2811.15
  24  2902.818
  25  2857.562
  26  2822.086
  27  2813.605
  28  2797.137
  29  2393.919
  30  2501.914
  31  2497.297
  32  2699.894
  33  2481.261
  34  2824.919
  35  2643.606
  36  2639.093
  37  2949.085
  38  2686.086
  39  2771.198
  40  2523.19
  41  2653.544
  42  2833.42
  43  2900.66
  44  2962.163
  45  2966.906
  46  3116.39
  47  2924.689
  48  3214.879
  49  2922.656
  50  2931.484
  51  2696.599
  52  2882.383
  53  2596.243
  54  2573.125
  55  2489.391
  56  2171.265
  57  1666.237
  58  1650.625
  59  1704.427
  60  2081.88
  61  2354.231
  62  2580.26
  63  2605.314
  64  2354.946
  65  2529.279
  66  2715.261
  67  2633.621
  68  2301.955
  69  2378.255
  70  2564.276
  71  2709.902
  72  2681.746
  73  2966.565
  74  3111.77
  75  3055.033
  76  3037.803
  77  2791.934
  78  2805.688
  79  2699.5
  80  2834.583
  81  2631.644
  82  2790.515
  83  2970.813
  84  2625.547
  85  2202.077
  86  2367.565
  87  2618.584
  88  3131.06
  89  3069.512
  90  2817.533
  91  2757.997
  92  2769.175
  93  2678.922
  94  2694.937
  95  2673.48
  96  2313.571
  97  1963.056
  98  2122.046
  99  2252.538
 100  2395.331
 101  2342.62
 102  2211.824
 103  2238.305
 104  2365.883
 105  2490.6
 106  2464.43
 107  2805.673
 108  2489.297
 109  2448.789
 110  2508.005
 111  2748.693
 112  3029.969
 113  3156.006
 114  3124.412
 115  2616.743
 116  2562.367
 117  2295.584
 118  2312.389
 119  2350.535
 120  2732.866
 121  2953.781
 122  2735.985
 123  3020.764
 124  2865.537
 125  2741.906
 126  2733.363
 127  2747.819
 128  2733.311
 129  2576.115
 130  2494.829
 131  2626.256
 132  2454.175
 133  2206.645
 134  2384.794
 135  2510.467
 136  2279.421
 137  2181.731
 138  2401.631
 139  2637.583
 140  2732.137
 141  2475.887
 142  2426.917
 143  2749.231
 144  2491.842
 145  2764.263
 146  2866.534
 147  2807.347
 148  3009.291
 149  2735.772
 150  3128.785
 151  3155.494
 152  2914.01
 153  2738.074
 154  2946.393
 155  2591.901
 156  2461.837
 157  2650.846
 158  2687.415
 159  2643.728
 160  2349.879
 161  2747.845
 162  3182.857
 163  3297.464
 164  3196.171
 165  3228.789
 166  3352.006
 167  3206.137
 168  3166.953
 169  3372.017
 170  3576.872
 171  3278.934
 172  3425.761
 173  3276.729
 174  2978.693
 175  2939.639
 176  3086.323
 177  3195.596
 178  3289.351
 179  3141.379
 180  3246.166
 181  3244.92
 182  3128.364
 183  3029.386
 184  2694.985
 185  2803.317
 186  2750.482
 187  2976.956
 188  3050.524
 189  2976.458
 190  2713.753
 191  2931.608
 192  2684.242
 193  2649.798
 194  2472.669
 195  2187.039
 196  2294.834
 197  2407.865
 198  2235.571
 199  1877.046
 200  1939.528
 201  2193.14
 202  2371.944
 203  2492.864
 204  2520.251
 205  2688.51
 206  2947.102
 207  2808.614
 208  2574.932
 209  2683.306
 210  2697.361
 211  2948.318
 212  2719.151
 213  2839.035
 214  2766.988
 215  2642.268
 216  2643.986
 217  2354.4
 218  2714.44
 219  2631.522
 220  2624.903
 221  2375.301
 222  2402.052
 223  2431.976
 224  2298.152
 225  2110.043
 226  2334.07
 227  2035.1
 228  2109.133
 229  2122.138
 230  2241.229
 231  2474.576
 232  2474.725
 233  2616.033
 234  2535.672
 235  2564.413
 236  2773.754
 237  2726.572
 238  2662.64
 239  2533.26
 240  2710.676
 241  2871.75
 242  2962.279
 243  3084.598
 244  3204.54
 245  2955.055
 246  3053.7
 247  3323.124
 248  3109.277
 249  2852.042
 250  2601.817
 251  2606.47
 252  2914.681
 253  2803.247
 254  2813.958
 255  2873.732
 256  2552.832
 257  2391.06
 258  2339.877
 259  2335.936
 260  2575.424
 261  2666.347
 262  2847.84
 263  2766.405
 264  2824.153
 265  3039.018
 266  2790.908
 267  2734.51
 268  2842.907
 269  2855.46
 270  2722.987
 271  2594.646
 272  3066.302
 273  3389.417
 274  3062.99
 275  2790.89
 276  2952.372
 277  2826.43
 278  2924.505
 279  2916.291
 280  2805.434
 281  3159.874
 282  2933.844
 283  2582.789
 284  2492.854
 285  2568.558
 286  2683.961
 287  2754.201
 288  2795.051
 289  2605.605
 290  2565.939
 291  2492.891
 292  2190.157
 293  2182.022
 294  2462.61
 295  2369.39
 296  2353.043
 297  2565.733
 298  2367.26
 299  2535.69
 300  2475.879
 301  2511.142
 302  2438.076
 303  2691.6
 304  2451.977
 305  2723.476
 306  3180.784
 307  3174.645
 308  2822.757
 309  2508.438
 310  2683.714
 311  3012.117
 312  3187.448
 313  3095.188
 314  3110.848
 315  2913.535
 316  2604.097
 317  2308.553
 318  2559.407
 319  2578.363
 320  3148.547
 321  3302.432
 322  3134.234
 323  2849.544
 324  2583.673
 325  2920.966
 326  3201.455
 327  3192.82
 328  2739.829
 329  2664.926
 330  2974.315
 331  2733.271
 332  2655.141
 333  2743.439
 334  2960.063
 335  3014.904
 336  2508.693
 337  2888.215
 338  2635.173
 339  2536.883
 340  2689.026
 341  2836.016
 342  3284.692
 343  3457.171
 344  3369.048
 345  2920.201
 346  2705.564
 347  3165.416
 348  2984.448
 349  2613.085
 350  2808.135
 351  3056.81
 352  2717.517
 353  2625.46
 354  2757.194
 355  3071.625
 356  2865.496
 357  2634.301
 358  2675.23
 359  2603.68
 360  2597.315
 361  2739.545
 362  3017.113
 363  2818.552
 364  2428.103
 365  2588.158
 366  2541.675
 367  2586.021
 368  2580.952
 369  2535.266
 370  2519.996
 371  2868.62
 372  2952.4
 373  2955.62
 374  2910.08
 375  2941.631
 376  2666.806
 377  2660.213
 378  3019.954
 379  2807.661
 380  2857.401
 381  2780.137
 382  2379.881
 383  2528.712
 384  2572.408
 385  3128.397
 386  2629.137
 387  2834.829
 388  2482.53
 389  2304.834
 390  2377.029
 391  2246.873
 392  2236.636
 393  2405.118
 394  2460.423
 395  2381.879
 396  2301.996
 397  2121.338
 398  2105.138
 399  2143.2
 400  2130.046
 401  2560.485
 402  2864.125
 403  2927.485
 404  2527.857
 405  2197.038
 406  2567.7
 407  2583.69
 408  2944.104
 409  2962.657
 410  3139.082
 411  3767.021
 412  4488.795
 413  4776.069
 414  4160.672
 415  3513.247
 416  2803.753
 417  2644.066
 418  2498.869
 419  2267.096
 420  2349.915
 421  2202.78
 422  2458.56
 423  2134.323
 424  2772.08
 425  2656.767
 426  2322.246
 427  2619.67
 428  3010.584
 429  2862.157
 430  2610.495
 431  2448.402
 432  2743.671
 433  2767.378
 434  2654.694
 435  2773.001
 436  2748.309
 437  2545.087
 438  2394.35
 439  2425.349
 440  2538.713
 441  2523.82
 442  2796.821
 443  2398.359
 444  2243.072
 445  2800.976
 446  2381.577
 447  2057.269
 448  2377.455
 449  2769.105
 450  2820.323
 451  2340.305
 452  2606.839
 453  2616.118
 454  2425.964
 455  2428.689
 456  2492.15
 457  2416.752
 458  2315.274
 459  1943.185
 460  2178.769
 461  2582.898
 462  2702.467
 463  2856.894
 464  2478.16
 465  2374.231
 466  2491.509
 467  2382.311
 468  2622.075
 469  2623.408
 470  2686.185
 471  2847.499
 472  2703.681
 473  2362.683
 474  2417.959
 475  2805.797
 476  2874.322
 477  2722.338
 478  2721.903
 479  2818.784
 480  2682.022
 481  2716.155
 482  2837.156
 483  2717.164
 484  2699.887
 485  2459.521
 486  2679.321
 487  3046.814
 488  2761.083
 489  2584.981
 490  2773.485
 491  2827.513
 492  2818.49
 493  2714.269
 494  2621.976
 495  2653.164
 496  2944.993
 497  2804.879
 498  3093.803
 499  3660.555
 500  3159.986
 501  3162.287
 502  3150.675
 503  2883.407
 504  2919.979
 505  2959.349
 506  2982.436
 507  2922.371
 508  2778.391
 509  2995.673
 510  3206.546
 511  2992.281
