# Input file       =  1184716687.098535_cleaned.dat
# Candidate        =  PSR_0332+5434
# Telescope        =  AR
# Epoch_topo       =  57955.998913177486
# Epoch_bary       =  N/A
# T_sample         =  0.002
# Data Folded      =  7143424
# Data Avg         =  0.138001043917697
# Data StdDev      =  4.59343881277569 
# Profile Bins     =  512
# Profile Avg      =  1925.39941817017 
# Profile StdDev   =  542.570490469133 
# Reduced chi-sqr  =  0.572
# Prob(Noise)      <  1   (~0.0 sigma)
# P_topo (ms)      =  714.474541253708  +/- 6.43e-05
# P'_topo (s/s)    =  -0                +/- 3.49e-11
# P''_topo (s/s^2) =  0                 +/- 1.58e-14
# P_bary (ms)      =  N/A
# P'_bary (s/s)    =  N/A
# P''_bary (s/s^2) =  N/A
# P_orb (s)        =  N/A
# asin(i)/c (s)    =  N/A
# eccentricity     =  N/A
# w (rad)          =  N/A
# T_peri           =  N/A
######################################################
   0  2064.81
   1  1980.945
   2  1822.914
   3  1874.712
   4  1718.301
   5  1160.129
   6  1652.066
   7  1909.701
   8  1866.99
   9  1820.769
  10  2124.009
  11  1966.349
  12  1871.565
  13  1759.545
  14  1684.048
  15  1911.413
  16  1870.103
  17  1477.876
  18  1702.31
  19  1709.996
  20  1876.644
  21  1834.011
  22  1891.324
  23  1767.997
  24  1881.574
  25  2044.702
  26  1757.014
  27  1535.281
  28  1585.823
  29  1744.538
  30  1725.4
  31  1483.485
  32  1664.004
  33  1974.277
  34  2010.444
  35  2022.63
  36  1619.158
  37  1896.189
  38  1694.811
  39  1220.751
  40  1771.261
  41  1842.322
  42  1872.114
  43  1953.172
  44  2086.668
  45  1702.275
  46  1658.152
  47  2023.735
  48  2176.893
  49  2139.931
  50  1926.621
  51  1746.226
  52  1882.637
  53  2052.153
  54  1918.313
  55  2018.857
  56  1943.627
  57  2301.839
  58  2558.938
  59  2179.596
  60  1845.533
  61  1931.737
  62  2225.052
  63  2232.127
  64  2068.697
  65  1831.153
  66  2218.408
  67  1668.635
  68  1313.206
  69  1728.591
  70  1813.222
  71  1842.097
  72  1791.343
  73  2270.451
  74  2194.306
  75  1971.796
  76  2038.269
  77  1970.2
  78  1743.315
  79  1318.26
  80  1666.492
  81  2169.166
  82  1522.22
  83  1360.643
  84  1758.98
  85  1966.789
  86  1545.542
  87  1646.818
  88  2119.135
  89  2016.418
  90  1977.471
  91  1438.592
  92  1834.912
  93  2045.85
  94  1903.601
  95  1813.739
  96  2028.177
  97  2104.066
  98  1644.768
  99  1543.313
 100  2205.602
 101  1833.488
 102  1515.246
 103  1691.916
 104  1384.257
 105  1561.309
 106  1989.645
 107  2065.22
 108  2077.212
 109  2133.559
 110  2107.187
 111  1950.19
 112  1985.073
 113  1712.85
 114  1931.26
 115  1786.82
 116  2134.036
 117  2351.749
 118  1897.651
 119  1718.066
 120  1938.24
 121  1775.777
 122  1549.165
 123  1387.682
 124  1739.842
 125  1798.089
 126  2087.137
 127  1920.291
 128  1824.455
 129  1906.27
 130  2081.46
 131  1996.479
 132  2260.303
 133  2129.52
 134  1336.115
 135  1620.728
 136  1732.485
 137  1525.845
 138  1813.65
 139  2268.656
 140  2342.141
 141  2300.713
 142  1974.016
 143  1539.642
 144  1548.029
 145  1732.499
 146  1639.701
 147  2117.312
 148  2267.384
 149  1865.476
 150  2059.579
 151  2019.02
 152  1674.789
 153  1708.806
 154  2058.008
 155  1628.586
 156  1363.875
 157  1487.11
 158  1878.728
 159  2213.764
 160  1761.918
 161  1842.778
 162  2199.218
 163  1828.318
 164  1930.11
 165  2194.232
 166  1744.145
 167  1715.383
 168  1465.691
 169  1718.265
 170  1856.423
 171  1994.481
 172  2420.903
 173  1953.944
 174  1790.706
 175  1549.806
 176  1845.618
 177  1611.06
 178  1612.903
 179  2079.496
 180  2050.786
 181  2216.645
 182  1702.664
 183  1823.633
 184  2124.182
 185  1686.495
 186  1598.629
 187  1926.787
 188  1978.844
 189  1687.261
 190  1559.895
 191  2228.897
 192  2349.713
 193  1958.839
 194  1886.255
 195  2093.419
 196  1926.253
 197  1858.032
 198  1956.418
 199  1806.786
 200  2013.969
 201  1679.077
 202  1784.644
 203  1419.889
 204  1379.02
 205  1569.261
 206  2091.56
 207  2149.813
 208  1961.441
 209  2167.184
 210  1661.391
 211  1116.36
 212  1340.94
 213  1648.613
 214  1710.431
 215  1957.006
 216  2093.354
 217  2077.801
 218  1417.825
 219  1224.005
 220  1372.635
 221  1855.902
 222  1786.13
 223  2110.346
 224  2510.69
 225  2101.169
 226  1676.633
 227  1718.24
 228  1830.834
 229  1786.775
 230  1488.586
 231  1609.414
 232  1659.635
 233  1720.041
 234  1980.564
 235  2069.41
 236  1997.841
 237  1873.785
 238  2185.45
 239  2150.425
 240  1536.519
 241  1965.48
 242  1752.488
 243  1553.277
 244  1701.03
 245  2232.735
 246  2348.057
 247  2092.912
 248  1808.731
 249  1666.116
 250  2071.623
 251  1931.338
 252  1517.128
 253  1740.931
 254  2206.443
 255  1868.834
 256  1725.838
 257  2025.247
 258  2205.646
 259  2000.868
 260  2306.861
 261  2001.69
 262  1814.048
 263  2010.491
 264  1690.607
 265  1665.88
 266  1823.121
 267  2200.74
 268  2142.021
 269  1988.381
 270  1788.998
 271  1873.783
 272  2038.621
 273  2000.408
 274  2189.979
 275  2268.132
 276  2125.981
 277  2038.772
 278  1918.455
 279  1820.628
 280  1925.005
 281  1837.516
 282  1584.165
 283  1600.462
 284  1957.055
 285  1463.415
 286  1610.092
 287  1893.381
 288  1780.54
 289  2175.306
 290  2288.359
 291  2304.039
 292  1738.286
 293  1665.527
 294  2080.637
 295  1837.799
 296  1878.51
 297  1939.943
 298  2074.94
 299  2097.435
 300  2028.861
 301  2193.457
 302  2038.39
 303  1500.453
 304  1981.805
 305  2268.267
 306  1549.04
 307  1702.291
 308  2340.229
 309  2029.604
 310  1945.771
 311  2163.735
 312  1940.893
 313  1808.009
 314  1176.251
 315  1568.113
 316  1715.62
 317  1903.633
 318  1841.776
 319  1914.124
 320  1912.721
 321  1551.928
 322  1500.577
 323  1799.089
 324  2098.374
 325  2165.114
 326  1889.797
 327  2078.687
 328  2221.294
 329  2043.104
 330  1851.794
 331  2044.358
 332  1934.722
 333  1797.495
 334  2401.571
 335  2135.487
 336  1487.551
 337  1740.729
 338  2264.108
 339  2336.602
 340  1725.841
 341  1748.536
 342  1911.748
 343  1930.062
 344  1835.003
 345  2272.707
 346  2183.453
 347  1974.744
 348  2009.252
 349  2223.63
 350  2136.499
 351  1467.871
 352  1537.277
 353  1830.564
 354  1928.635
 355  2202.972
 356  2446.941
 357  2217.917
 358  1859.183
 359  1422.774
 360  1436.928
 361  1764.443
 362  1802.474
 363  1922.389
 364  2331.151
 365  2462.768
 366  2001.479
 367  1562.879
 368  1725.967
 369  1514.02
 370  1719.278
 371  2021.257
 372  2781.007
 373  2432.257
 374  2305.696
 375  2101.953
 376  1854.33
 377  1515.633
 378  1402.704
 379  1755.992
 380  1899.659
 381  2127.682
 382  2213.012
 383  1919.829
 384  1866.275
 385  2185.958
 386  2074.68
 387  2005.077
 388  1795.744
 389  1996.905
 390  2370.458
 391  2148.748
 392  1773.709
 393  2205.345
 394  2333.396
 395  2216.642
 396  1980.353
 397  2127.993
 398  2137.904
 399  1940.611
 400  1863.643
 401  1976.654
 402  1909.878
 403  2099.766
 404  2172.955
 405  2244.318
 406  2100.443
 407  2319.393
 408  2544.245
 409  2543.592
 410  2358.073
 411  2106.307
 412  2883.874
 413  3321.698
 414  3466.884
 415  3775.545
 416  3303.283
 417  2395.841
 418  2047.023
 419  2290.753
 420  2407.384
 421  2301.543
 422  2003.731
 423  2117.824
 424  1766.994
 425  1540.928
 426  1827.43
 427  2170.382
 428  2536.313
 429  2283.778
 430  2175.133
 431  1781.151
 432  1835.122
 433  1627.061
 434  1692.158
 435  1962.377
 436  1760.547
 437  2212.017
 438  2325.405
 439  2155.486
 440  2054.99
 441  2030.487
 442  1947.282
 443  1832.623
 444  1962.468
 445  1736.118
 446  1648.393
 447  1946.409
 448  2121.99
 449  2132.477
 450  1638.377
 451  1337.826
 452  1816.046
 453  1548.695
 454  1838.201
 455  1894.838
 456  2442.775
 457  2219.674
 458  1878.338
 459  1525.326
 460  2025.689
 461  2103.731
 462  1997.411
 463  1875.399
 464  1882.581
 465  1803.543
 466  1825.894
 467  1888.435
 468  2174.047
 469  1942.14
 470  2240.615
 471  2359.354
 472  1774.27
 473  1707.617
 474  2144.585
 475  1939.724
 476  2073.484
 477  2156.4
 478  1957.456
 479  1726.008
 480  1917.889
 481  1900.431
 482  2085.143
 483  2021.599
 484  1962.018
 485  2173.305
 486  1495.38
 487  1500.543
 488  1847.273
 489  2220.177
 490  2153.375
 491  1563.227
 492  1983.369
 493  2130.715
 494  1790.806
 495  1841.272
 496  1764.909
 497  1921.211
 498  1957.724
 499  1779.359
 500  1784.889
 501  2007.871
 502  2236.364
 503  2163.436
 504  2127.454
 505  2155.249
 506  2296.824
 507  2073.518
 508  1864.315
 509  2023.201
 510  1971.567
 511  2189.921
