# Input file       =  1184817381.103401_cleaned.dat
# Candidate        =  PSR_0332+5434
# Telescope        =  AR
# Epoch_topo       =  57957.164353048625
# Epoch_bary       =  N/A
# T_sample         =  0.002
# Data Folded      =  7340032
# Data Avg         =  0.032336334367002
# Data StdDev      =  1.00013650263529 
# Profile Bins     =  512
# Profile Avg      =  463.392976658749 
# Profile StdDev   =  119.749380251762 
# Reduced chi-sqr  =  1.951
# Prob(Noise)      <  1.15e-33   (~12.0 sigma)
# P_topo (ms)      =  714.473887147382  +/- 0.000225
# P'_topo (s/s)    =  -0                +/- 1.19e-10
# P''_topo (s/s^2) =  0                 +/- 5.25e-14
# P_bary (ms)      =  N/A
# P'_bary (s/s)    =  N/A
# P''_bary (s/s^2) =  N/A
# P_orb (s)        =  N/A
# asin(i)/c (s)    =  N/A
# eccentricity     =  N/A
# w (rad)          =  N/A
# T_peri           =  N/A
######################################################
   0  1378.656
   1  1268.307
   2  1067.381
   3  779.5978
   4  506.0043
   5  328.4378
   6  494.4355
   7  555.1152
   8  506.0594
   9  428.8752
  10  482.6559
  11  460.4901
  12  525.8737
  13  462.381
  14  502.8709
  15  457.3647
  16  370.6746
  17  309.1381
  18  309.0407
  19  408.5588
  20  359.6632
  21  354.4843
  22  364.0089
  23  421.7598
  24  428.0211
  25  491.6071
  26  525.0781
  27  471.1974
  28  457.3855
  29  416.2709
  30  404.6323
  31  394.453
  32  305.8083
  33  396.9041
  34  413.57
  35  439.9472
  36  328.8971
  37  405.5589
  38  467.5529
  39  420.5592
  40  323.2339
  41  318.8822
  42  356.4823
  43  244.8553
  44  208.1433
  45  366.3107
  46  463.7776
  47  415.5843
  48  395.9318
  49  400.1239
  50  386.5317
  51  391.9909
  52  415.5578
  53  363.557
  54  484.955
  55  433.3448
  56  440.5386
  57  492.4235
  58  369.9716
  59  403.3752
  60  508.0431
  61  425.4026
  62  505.0808
  63  539.0238
  64  610.259
  65  547.8341
  66  468.0549
  67  513.4608
  68  525.9542
  69  407.165
  70  461.102
  71  566.107
  72  559.0298
  73  494.0812
  74  504.8039
  75  483.562
  76  457.2964
  77  486.1895
  78  588.6752
  79  514.7651
  80  438.9963
  81  562.2917
  82  518.3632
  83  500.326
  84  481.2466
  85  464.9233
  86  482.281
  87  508.3572
  88  471.5259
  89  402.1816
  90  409.0477
  91  383.7526
  92  476.5857
  93  494.2098
  94  569.3773
  95  480.8109
  96  487.6565
  97  448.2215
  98  449.1559
  99  337.0555
 100  356.8168
 101  537.0634
 102  528.0459
 103  479.7784
 104  501.4666
 105  428.9014
 106  453.8489
 107  389.7601
 108  501.2344
 109  540.9893
 110  446.3474
 111  483.9386
 112  503.8078
 113  529.217
 114  505.9702
 115  522.1669
 116  433.8054
 117  539.976
 118  553.6795
 119  460.3327
 120  606.2985
 121  563.9128
 122  561.169
 123  481.133
 124  451.1106
 125  535.7796
 126  618.4169
 127  726.1644
 128  691.0567
 129  598.9594
 130  582.9026
 131  465.883
 132  421.5253
 133  467.438
 134  431.1359
 135  529.905
 136  556.6328
 137  536.0361
 138  611.4827
 139  547.8293
 140  590.4031
 141  633.8847
 142  609.723
 143  433.6654
 144  456.0578
 145  666.7173
 146  535.4562
 147  458.4358
 148  514.2187
 149  549.9008
 150  554.7776
 151  483.5904
 152  659.7629
 153  572.9836
 154  468.0367
 155  528.5482
 156  566.5899
 157  547.4149
 158  528.3041
 159  522.3812
 160  576.6337
 161  562.7084
 162  491.2288
 163  470.2047
 164  494.8686
 165  528.5546
 166  490.4889
 167  534.4623
 168  541.1566
 169  503.9388
 170  421.7476
 171  446.2186
 172  389.2774
 173  382.6063
 174  633.0703
 175  636.5466
 176  594.7927
 177  545.6741
 178  488.8481
 179  314.483
 180  347.552
 181  458.0294
 182  518.3454
 183  596.0165
 184  620.7155
 185  541.9318
 186  553.952
 187  590.2358
 188  539.8256
 189  506.977
 190  556.7008
 191  564.535
 192  605.274
 193  745.7286
 194  698.8009
 195  535.3225
 196  481.2344
 197  410.8516
 198  445.0782
 199  381.8846
 200  409.4734
 201  613.5696
 202  587.6796
 203  498.3472
 204  500.9074
 205  581.662
 206  589.1122
 207  525.24
 208  522.4676
 209  539.5241
 210  679.4857
 211  611.6656
 212  471.6001
 213  467.6636
 214  507.7904
 215  529.6573
 216  599.9195
 217  562.2698
 218  612.2763
 219  573.4208
 220  458.1778
 221  434.8126
 222  555.4769
 223  620.2097
 224  506.2685
 225  399.4341
 226  325.7887
 227  355.1908
 228  431.1648
 229  443.1733
 230  422.7987
 231  366.3796
 232  385.9015
 233  392.2514
 234  359.6219
 235  254.4592
 236  333.3193
 237  327.3681
 238  428.7917
 239  403.6339
 240  274.0639
 241  409.9072
 242  461.4399
 243  388.8644
 244  322.4665
 245  320.7523
 246  395.2651
 247  361.233
 248  358.8131
 249  344.8088
 250  411.7134
 251  488.8901
 252  372.8462
 253  296.6071
 254  271.3789
 255  258.2223
 256  331.5793
 257  506.556
 258  535.5147
 259  474.7184
 260  336.0998
 261  302.3536
 262  344.4936
 263  366.4938
 264  335.3271
 265  408.0127
 266  370.5746
 267  395.1652
 268  390.8045
 269  361.8772
 270  383.7513
 271  368.5779
 272  403.878
 273  409.6986
 274  404.8407
 275  451.3282
 276  325.6629
 277  394.116
 278  355.8098
 279  228.0114
 280  342.3997
 281  349.6963
 282  368.5645
 283  356.0176
 284  332.9235
 285  367.2522
 286  322.1167
 287  301.8003
 288  313.391
 289  419.3548
 290  439.7553
 291  413.4742
 292  580.7582
 293  563.5392
 294  304.0817
 295  255.1169
 296  338.6294
 297  475.0901
 298  493.2797
 299  478.6854
 300  503.5203
 301  487.759
 302  413.4164
 303  439.1945
 304  324.3222
 305  309.0052
 306  479.9427
 307  520.4946
 308  430.5464
 309  408.0901
 310  500.1819
 311  410.1072
 312  300.269
 313  332.306
 314  325.0772
 315  356.4359
 316  379.6953
 317  419.3468
 318  530.823
 319  541.6416
 320  391.982
 321  276.1938
 322  341.2091
 323  365.2798
 324  382.7529
 325  509.9311
 326  516.9747
 327  458.1771
 328  431.149
 329  360.2672
 330  403.5414
 331  450.6389
 332  407.6599
 333  426.7094
 334  420.1686
 335  349.5712
 336  270.5369
 337  335.6165
 338  379.2971
 339  451.7069
 340  270.5221
 341  273.9983
 342  343.1321
 343  425.1295
 344  362.2365
 345  242.6548
 346  383.6243
 347  419.923
 348  306.4526
 349  368.9644
 350  471.4914
 351  436.8872
 352  333.0974
 353  441.5779
 354  307.4568
 355  355.0612
 356  468.5647
 357  356.1015
 358  389.2644
 359  407.058
 360  484.5209
 361  454.6168
 362  365.0683
 363  347.3471
 364  368.2404
 365  435.4892
 366  482.7024
 367  496.7052
 368  588.2913
 369  591.1083
 370  536.5424
 371  501.8174
 372  553.7673
 373  436.9429
 374  320.0016
 375  326.4917
 376  392.0365
 377  501.063
 378  446.7865
 379  456.6837
 380  442.8175
 381  500.6575
 382  628.23
 383  541.686
 384  465.1314
 385  438.8
 386  317.5641
 387  332.3699
 388  255.8787
 389  394.1544
 390  539.5966
 391  497.5056
 392  381.1985
 393  321.0778
 394  416.6175
 395  478.5005
 396  367.8452
 397  425.4586
 398  419.6035
 399  302.5946
 400  401.9452
 401  467.7692
 402  518.0259
 403  480.8841
 404  478.5557
 405  482.8607
 406  492.4645
 407  588.8862
 408  613.8616
 409  533.5302
 410  532.7919
 411  506.869
 412  470.2902
 413  659.83
 414  664.7725
 415  599.6962
 416  583.8921
 417  551.5428
 418  436.7538
 419  421.2729
 420  460.8083
 421  465.462
 422  527.4257
 423  548.2891
 424  540.691
 425  548.0831
 426  508.0186
 427  343.9063
 428  457.7548
 429  579.5082
 430  595.463
 431  528.3495
 432  578.3618
 433  505.9919
 434  454.1384
 435  478.1221
 436  524.5861
 437  443.1337
 438  388.7836
 439  386.4551
 440  485.6838
 441  479.9835
 442  523.199
 443  484.8283
 444  507.5835
 445  452.2282
 446  441.3255
 447  364.5449
 448  393.8408
 449  345.4908
 450  389.413
 451  498.6091
 452  383.7694
 453  322.6821
 454  319.4554
 455  331.6486
 456  324.9361
 457  345.617
 458  332.7045
 459  353.2382
 460  362.9506
 461  347.8135
 462  351.1986
 463  496.5662
 464  531.6371
 465  505.1098
 466  602.7325
 467  438.5425
 468  388.6457
 469  407.3905
 470  510.6625
 471  494.9109
 472  387.519
 473  384.3704
 474  371.2916
 475  446.0206
 476  492.2846
 477  465.6532
 478  404.8215
 479  527.5029
 480  610.2476
 481  570.4107
 482  464.7198
 483  429.3435
 484  485.6465
 485  452.6676
 486  477.9361
 487  426.2457
 488  470.4402
 489  479.7721
 490  537.5288
 491  486.5826
 492  474.2221
 493  543.6901
 494  607.99
 495  381.7535
 496  321.3806
 497  385.271
 498  479.8199
 499  504.5381
 500  463.815
 501  433.1537
 502  447.2547
 503  423.1399
 504  451.2461
 505  562.1695
 506  575.3817
 507  476.7438
 508  658.0444
 509  877.0637
 510  1088.704
 511  1291.024
