# Input file       =  1184229138.101258_cleaned.dat
# Candidate        =  PSR_0332+5434
# Telescope        =  AR
# Epoch_topo       =  57950.355984968264
# Epoch_bary       =  N/A
# T_sample         =  0.002
# Data Folded      =  7340032
# Data Avg         =  0.210374349604536
# Data StdDev      =  4.75090918129868 
# Profile Bins     =  256
# Profile Avg      =  6031.8059840208  
# Profile StdDev   =  804.462348490866 
# Reduced chi-sqr  =  1.113
# Prob(Noise)      <  0.103   (~1.3 sigma)
# P_topo (ms)      =  714.478364991082  +/- 0.000845
# P'_topo (s/s)    =  -0                +/- 4.46e-10
# P''_topo (s/s^2) =  0                 +/- 1.97e-13
# P_bary (ms)      =  N/A
# P'_bary (s/s)    =  N/A
# P''_bary (s/s^2) =  N/A
# P_orb (s)        =  N/A
# asin(i)/c (s)    =  N/A
# eccentricity     =  N/A
# w (rad)          =  N/A
# T_peri           =  N/A
######################################################
   0  6169.767
   1  6346.292
   2  5433.042
   3  4894.64
   4  5575.267
   5  5400.012
   6  5868.944
   7  5638.475
   8  5959.541
   9  6459.088
  10  6055.792
  11  6103.957
  12  7751.418
  13  7157.549
  14  6512.82
  15  6427.062
  16  6764.32
  17  6206.05
  18  5968.108
  19  6233.562
  20  5932.772
  21  6384.788
  22  6265.549
  23  5874.75
  24  5915.305
  25  5385.289
  26  6279.297
  27  6398.989
  28  6206.605
  29  6737.623
  30  6097.803
  31  6034.295
  32  6530.603
  33  6912.14
  34  6231.305
  35  6329.843
  36  6258.285
  37  6284.424
  38  6523.94
  39  5604.636
  40  5127.7
  41  4975.166
  42  5102.146
  43  5531.856
  44  5765.755
  45  5326.582
  46  5149.99
  47  5587.166
  48  5632.001
  49  5286.466
  50  5750.675
  51  5125.846
  52  5789.735
  53  5337.272
  54  6167.008
  55  5612.443
  56  6115.072
  57  5931.16
  58  5203.256
  59  5461.104
  60  5639.006
  61  5802.429
  62  5859.974
  63  5421.921
  64  5931.269
  65  5757.891
  66  5324.574
  67  5254.205
  68  5563.758
  69  5461.111
  70  4883.275
  71  5218.15
  72  5488.824
  73  4974.365
  74  5464.388
  75  4996.34
  76  5412.82
  77  5410.335
  78  5499.051
  79  5311.094
  80  5440.418
  81  5096.19
  82  5403.403
  83  4625.068
  84  5326.782
  85  5414.294
  86  5380.447
  87  5474.041
  88  5582.139
  89  5582.227
  90  5972.614
  91  5081.434
  92  4967.821
  93  5686.278
  94  6411.05
  95  5665.245
  96  5888.463
  97  6201.249
  98  5366.017
  99  5550.865
 100  6630.171
 101  6453.509
 102  5388.535
 103  5910.932
 104  6335.201
 105  5715.538
 106  5158.778
 107  5506.35
 108  5989.768
 109  5162.999
 110  4766.828
 111  5446.522
 112  6136.963
 113  5906.756
 114  6502.626
 115  5649.881
 116  5941.802
 117  5739.208
 118  6578.609
 119  6106.382
 120  5803.37
 121  6899.99
 122  6043.743
 123  5619.463
 124  5671.399
 125  5899.633
 126  5548.29
 127  5680.773
 128  5419.838
 129  4871.737
 130  6280.193
 131  6656.34
 132  6000.065
 133  6387.457
 134  7183.931
 135  6957.91
 136  7256.588
 137  6186.962
 138  5703.863
 139  6155.016
 140  6018.569
 141  5821.999
 142  5517.159
 143  5502.36
 144  6154.674
 145  6009.143
 146  5795.223
 147  6190.998
 148  5852.03
 149  6776.087
 150  6602.406
 151  6208.372
 152  6395.229
 153  6069.172
 154  6758.309
 155  6122.507
 156  5515.349
 157  6551.967
 158  7046.435
 159  7221.381
 160  6884.689
 161  8230.611
 162  10387.73
 163  10330.33
 164  9303.827
 165  7274.027
 166  7118.118
 167  6821.372
 168  6432.947
 169  7146.527
 170  6678.156
 171  7229.886
 172  6988.827
 173  6594.741
 174  6314.109
 175  6100.214
 176  6098.865
 177  6406.556
 178  5731.352
 179  5922.95
 180  5329.737
 181  5767.701
 182  6488.374
 183  7219.476
 184  7024.143
 185  6832.644
 186  6377.286
 187  5941.775
 188  6062.688
 189  6270.123
 190  6110.964
 191  6929.382
 192  6617.013
 193  6797.861
 194  6452.356
 195  6098.317
 196  6205.057
 197  5845.416
 198  6323.405
 199  5961.249
 200  6053.888
 201  5822.384
 202  5789.512
 203  5280.028
 204  5642.225
 205  5752.315
 206  5247.416
 207  6360.246
 208  6547.272
 209  5901.38
 210  6455.188
 211  6258.151
 212  5536.704
 213  6202.779
 214  6036.167
 215  6063.529
 216  5553.9
 217  6695.26
 218  6533.904
 219  7143.357
 220  5842.369
 221  5722.136
 222  5977.964
 223  5885.877
 224  5188.609
 225  5545.458
 226  5779.565
 227  5925.025
 228  6067.713
 229  6338.645
 230  6286.715
 231  6413.092
 232  6566.314
 233  6626.639
 234  6402.44
 235  7218.164
 236  7323.09
 237  6831.319
 238  6167.934
 239  6066.766
 240  5200.559
 241  5006.4
 242  5461.264
 243  5319.551
 244  5878.889
 245  5787.109
 246  5661.95
 247  5843.979
 248  5560.833
 249  5976.847
 250  5699.955
 251  5168.393
 252  5544.055
 253  5184.88
 254  5822.436
 255  6056.532
