# Input file       =  1184027341.112139_cleaned.dat
# Candidate        =  PSR_0332+5434
# Telescope        =  AR
# Epoch_topo       =  57948.020371668274
# Epoch_bary       =  N/A
# T_sample         =  0.002
# Data Folded      =  7208960
# Data Avg         =  0.0247259714163004
# Data StdDev      =  1.0000512189023  
# Profile Bins     =  512
# Profile Avg      =  347.854281127572 
# Profile StdDev   =  118.665253386263 
# Reduced chi-sqr  =  1.288
# Prob(Noise)      <  1.09e-05   (~4.2 sigma)
# P_topo (ms)      =  714.479565933439  +/- 0.000252
# P'_topo (s/s)    =  -0                +/- 1.36e-10
# P''_topo (s/s^2) =  0                 +/- 6.1e-14
# P_bary (ms)      =  N/A
# P'_bary (s/s)    =  N/A
# P''_bary (s/s^2) =  N/A
# P_orb (s)        =  N/A
# asin(i)/c (s)    =  N/A
# eccentricity     =  N/A
# w (rad)          =  N/A
# T_peri           =  N/A
######################################################
   0  456.8034
   1  434.9853
   2  274.0663
   3  354.392
   4  325.7464
   5  213.3514
   6  198.6571
   7  285.492
   8  289.3665
   9  251.5786
  10  216.9693
  11  269.063
  12  357.834
  13  286.9165
  14  276.7039
  15  385.4694
  16  438.8355
  17  447.413
  18  418.1173
  19  391.7727
  20  419.1163
  21  300.0351
  22  313.4774
  23  438.8797
  24  431.3419
  25  334.786
  26  346.4562
  27  325.0429
  28  313.5098
  29  315.1837
  30  429.4488
  31  346.9565
  32  386.2359
  33  349.9724
  34  270.3041
  35  320.5433
  36  378.0242
  37  366.9658
  38  394.5779
  39  356.879
  40  347.3751
  41  300.8318
  42  354.2976
  43  391.3549
  44  384.5275
  45  503.1665
  46  499.4345
  47  314.4117
  48  243.9147
  49  183.347
  50  198.8716
  51  285.2372
  52  403.6187
  53  332.5869
  54  324.7275
  55  341.6894
  56  388.7267
  57  388.2397
  58  256.9034
  59  328.9693
  60  419.2067
  61  383.6949
  62  326.7592
  63  401.853
  64  350.1609
  65  357.6399
  66  362.2597
  67  365.2388
  68  279.1865
  69  419.2607
  70  445.3188
  71  311.2154
  72  336.1507
  73  360.6254
  74  252.399
  75  326.761
  76  314.6949
  77  336.766
  78  384.7454
  79  350.2123
  80  321.356
  81  174.1853
  82  160.7478
  83  336.4011
  84  322.268
  85  289.638
  86  389.8234
  87  349.0434
  88  219.185
  89  299.0394
  90  303.2126
  91  352.3351
  92  360.8733
  93  350.0177
  94  333.4149
  95  321.1293
  96  351.4778
  97  410.3878
  98  381.5927
  99  306.7359
 100  265.7149
 101  366.2154
 102  468.7761
 103  481.6992
 104  383.4496
 105  421.8487
 106  399.8985
 107  301.8765
 108  204.3072
 109  199.3202
 110  369.2746
 111  391.7435
 112  358.4207
 113  408.7045
 114  372.9704
 115  384.9052
 116  352.0948
 117  382.0937
 118  366.4279
 119  344.4327
 120  386.4028
 121  366.8927
 122  367.0696
 123  458.2072
 124  381.7798
 125  301.8259
 126  269.1729
 127  289.2938
 128  239.8295
 129  269.1643
 130  351.3516
 131  275.7205
 132  320.9232
 133  393.8361
 134  347.3311
 135  436.2448
 136  334.1492
 137  363.2408
 138  347.6543
 139  323.4031
 140  368.8725
 141  261.4802
 142  296.7683
 143  373.3128
 144  312.0608
 145  266.3711
 146  277.7312
 147  322.9741
 148  365.1381
 149  367.1631
 150  260.1037
 151  204.9295
 152  246.3627
 153  312.3605
 154  270.8456
 155  267.62
 156  255.5569
 157  229.2708
 158  97.19253
 159  127.4805
 160  136.7831
 161  212.5232
 162  309.1198
 163  406.4659
 164  312.789
 165  280.5298
 166  251.7638
 167  277.79
 168  294.4489
 169  300.9855
 170  310.484
 171  410.801
 172  409.2268
 173  299.7608
 174  408.5374
 175  328.7862
 176  121.413
 177  232.8999
 178  362.5171
 179  316.9314
 180  248.3722
 181  256.7179
 182  289.5198
 183  255.6688
 184  341.9585
 185  412.2428
 186  473.7842
 187  406.4351
 188  419.5275
 189  325.0322
 190  374.2897
 191  385.3347
 192  393.9844
 193  304.108
 194  339.339
 195  476.5024
 196  522.6295
 197  497.1037
 198  544.2742
 199  639.1199
 200  873.4236
 201  1005.133
 202  1032.982
 203  1009.168
 204  704.616
 205  478.9378
 206  357.0119
 207  434.1675
 208  354.3328
 209  304.0783
 210  318.8902
 211  433.5849
 212  393.2426
 213  320.4484
 214  473.0116
 215  502.3318
 216  388.8092
 217  378.2818
 218  355.1472
 219  301.6693
 220  292.7138
 221  289.2142
 222  316.3928
 223  296.8441
 224  223.2835
 225  380.184
 226  499.0663
 227  448.7696
 228  442.8376
 229  307.124
 230  393.3236
 231  346.8078
 232  314.8088
 233  388.6439
 234  429.72
 235  471.5216
 236  423.6997
 237  440.27
 238  324.6036
 239  253.5034
 240  244.1873
 241  263.0628
 242  322.9228
 243  430.4174
 244  417.2065
 245  414.9084
 246  461.7133
 247  385.2744
 248  320.4409
 249  372.274
 250  301.9622
 251  394.5479
 252  473.0569
 253  435.8938
 254  317.2373
 255  320.1961
 256  424.3687
 257  361.2014
 258  237.2812
 259  320.8557
 260  293.9757
 261  342.3288
 262  298.8835
 263  351.7245
 264  279.5453
 265  334.1924
 266  352.2744
 267  432.8173
 268  392.4134
 269  415.6084
 270  448.5976
 271  470.4564
 272  505.2618
 273  328.4901
 274  255.6849
 275  318.3986
 276  428.1423
 277  488.8006
 278  377.0638
 279  399.6678
 280  368.5518
 281  272.3706
 282  260.2341
 283  350.9364
 284  371.1107
 285  330.8033
 286  353.5353
 287  359.1357
 288  318.4125
 289  287.4372
 290  253.9509
 291  272.7513
 292  301.199
 293  336.6297
 294  355.6848
 295  243.7234
 296  252.9322
 297  371.8615
 298  372.6084
 299  292.3732
 300  333.3023
 301  316.9013
 302  340.9909
 303  301.3603
 304  429.1369
 305  462.0811
 306  401.0348
 307  335.9893
 308  263.6216
 309  409.8035
 310  373.2903
 311  256.569
 312  287.394
 313  261.9933
 314  322.9083
 315  190.5854
 316  477.8051
 317  361.1972
 318  210.1752
 319  223.4924
 320  284.7047
 321  284.154
 322  311.1724
 323  367.0147
 324  366.1841
 325  335.2149
 326  162.1921
 327  248.7499
 328  351.4955
 329  400.5938
 330  405.1306
 331  442.2943
 332  417.6005
 333  427.6848
 334  281.4266
 335  224.0953
 336  186.0504
 337  266.0807
 338  293.1786
 339  334.3361
 340  406.7
 341  395.7395
 342  341.7219
 343  437.7007
 344  455.1566
 345  496.685
 346  477.9226
 347  386.6152
 348  416.7597
 349  289.5232
 350  213.7544
 351  271.5215
 352  391.6425
 353  370.9806
 354  317.7756
 355  305.9228
 356  240.5373
 357  188.3926
 358  296.9659
 359  339.051
 360  289.9789
 361  310.7758
 362  324.3866
 363  304.8212
 364  300.3482
 365  267.7816
 366  277.6552
 367  249.0673
 368  209.4527
 369  170.7346
 370  206.333
 371  257.6497
 372  264.4456
 373  312.9199
 374  410.8052
 375  383.4042
 376  422.4299
 377  377.9827
 378  378.3715
 379  444.895
 380  472.1437
 381  426.476
 382  359.5341
 383  315.0365
 384  458.7518
 385  482.9019
 386  297.7905
 387  306.8291
 388  480.2472
 389  430.6831
 390  400.8502
 391  436.2135
 392  361.6901
 393  328.6433
 394  393.051
 395  375.6206
 396  332.5019
 397  288.8876
 398  225.6283
 399  402.9108
 400  411.4524
 401  387.5569
 402  324.0242
 403  425.9779
 404  350.3996
 405  298.0494
 406  324.4722
 407  232.5458
 408  203.3445
 409  383.0658
 410  389.9655
 411  392.907
 412  404.9624
 413  400.9756
 414  372.7503
 415  316.298
 416  419.7576
 417  379.9755
 418  358.8251
 419  198.097
 420  292.9627
 421  370.0906
 422  319.5526
 423  272.105
 424  333.3071
 425  299.9413
 426  247.9856
 427  187.0433
 428  254.6391
 429  213.5863
 430  258.4343
 431  335.5653
 432  253.5221
 433  375.1463
 434  274.9752
 435  204.6467
 436  260.6448
 437  288.8286
 438  290.2719
 439  352.7495
 440  269.2839
 441  291.2829
 442  244.9908
 443  152.3962
 444  215.1472
 445  264.2942
 446  297.8914
 447  348.0637
 448  371.4564
 449  298.6557
 450  307.5406
 451  281.5933
 452  374.0092
 453  361.368
 454  377.0849
 455  347.7407
 456  363.1637
 457  484.3501
 458  337.9235
 459  211.5151
 460  257.4799
 461  356.0411
 462  410.6856
 463  465.8148
 464  390.255
 465  261.2959
 466  429.3294
 467  485.2826
 468  267.6044
 469  339.4225
 470  386.59
 471  418.1246
 472  393.5777
 473  375.7045
 474  488.8881
 475  482.4222
 476  500.1143
 477  351.4589
 478  200.5574
 479  372.6377
 480  441.743
 481  415.3907
 482  382.6921
 483  419.5446
 484  565.7238
 485  388.5092
 486  269.3955
 487  393.9753
 488  519.3805
 489  454.6334
 490  356.7165
 491  334.4664
 492  356.3662
 493  295.5497
 494  303.1855
 495  449.2985
 496  474.4846
 497  410.7072
 498  261.0227
 499  216.4662
 500  270.2373
 501  324.8981
 502  310.0832
 503  379.0593
 504  352.0602
 505  415.5591
 506  454.4104
 507  412.6028
 508  214.0311
 509  233.6076
 510  319.6996
 511  396.309
