# Input file       =  1184573858.104995-PSRB0329-2ms-sampling-dd.dat
# Candidate        =  PSR_0332+5434
# Telescope        =  AR
# Epoch_topo       =  57954.345799826333
# Epoch_bary       =  N/A
# T_sample         =  0.002
# Data Folded      =  7340032
# Data Avg         =  -8.3674499705679e-11
# Data StdDev      =  12.1933400418798 
# Profile Bins     =  512
# Profile Avg      =  0.231123681509962
# Profile StdDev   =  1459.94562678867 
# Reduced chi-sqr  =  1.339
# Prob(Noise)      <  4.29e-07   (~4.9 sigma)
# P_topo (ms)      =  714.475866566402  +/- 0.000335
# P'_topo (s/s)    =  -0                +/- 1.77e-10
# P''_topo (s/s^2) =  0                 +/- 7.8e-14
# P_bary (ms)      =  N/A
# P'_bary (s/s)    =  N/A
# P''_bary (s/s^2) =  N/A
# P_orb (s)        =  N/A
# asin(i)/c (s)    =  N/A
# eccentricity     =  N/A
# w (rad)          =  N/A
# T_peri           =  N/A
######################################################
   0  -772.3796
   1  -1449.272
   2  -825.0673
   3  -514.051
   4  -237.531
   5  -271.2894
   6  -196.2235
   7  271.3667
   8  131.068
   9  -345.903
  10  -579.489
  11  149.1584
  12  599.3049
  13  825.9327
  14  668.2399
  15  -348.1191
  16  -571.7639
  17  -632.1823
  18  -598.9232
  19  -975.4424
  20  -1178.348
  21  -303.1671
  22  -152.1905
  23  -167.114
  24  305.182
  25  372.8266
  26  -200.7985
  27  -318.7383
  28  1085.837
  29  1599.278
  30  1305.093
  31  1243.532
  32  1527.73
  33  1229.593
  34  979.4755
  35  1344.834
  36  1024.215
  37  336.1687
  38  129.095
  39  497.9378
  40  389.0486
  41  -27.37896
  42  84.38796
  43  898.6555
  44  1561.332
  45  1215.828
  46  1047.462
  47  908.3368
  48  -357.4666
  49  574.8391
  50  968.0125
  51  1800.057
  52  1241.825
  53  503.2637
  54  73.53387
  55  -27.26527
  56  208.8661
  57  1402.315
  58  1589.552
  59  1467.26
  60  1217.618
  61  1237.337
  62  1663.386
  63  2646.78
  64  2772.723
  65  2635.693
  66  2195.913
  67  991.9937
  68  609.4902
  69  698.8439
  70  1247.843
  71  352.9696
  72  354.0674
  73  817.2262
  74  154.3916
  75  195.9626
  76  530.629
  77  1320.687
  78  1969.697
  79  2563.895
  80  2634.246
  81  1682.024
  82  1392.741
  83  1217.958
  84  1645.621
  85  1947.949
  86  1861.343
  87  1200.771
  88  2015.093
  89  1953.988
  90  2666.302
  91  3126.993
  92  2423.343
  93  2524.783
  94  -65.14099
  95  2426.813
  96  3234.82
  97  3976.261
  98  3153.258
  99  3339.391
 100  3004.458
 101  3059.553
 102  4410.723
 103  3225.343
 104  2216.763
 105  673.236
 106  663.3617
 107  1002.214
 108  1119.471
 109  2757.106
 110  3058.231
 111  2434.186
 112  2114.947
 113  836.8311
 114  610.0573
 115  799.4274
 116  1321.344
 117  1336.78
 118  1642.415
 119  1789.487
 120  1659.264
 121  1990.471
 122  2770.308
 123  2961.364
 124  1307.339
 125  1464.639
 126  1753.599
 127  3102.328
 128  2611.322
 129  2384.098
 130  1338.91
 131  711.0932
 132  58.67313
 133  -429.2509
 134  -573.8899
 135  -939.5039
 136  -1084.403
 137  -665.1521
 138  -275.9842
 139  -224.8839
 140  -867.6038
 141  -995.0012
 142  -466.414
 143  530.4167
 144  487.5274
 145  -61.88903
 146  -530.6979
 147  -383.8167
 148  -388.6921
 149  -658.8581
 150  -985.3117
 151  -756.1515
 152  -400.9991
 153  -270.3105
 154  -520.0835
 155  -1178.537
 156  -1376.465
 157  -927.7036
 158  -406.7068
 159  571.5836
 160  1107.807
 161  1682.168
 162  1719.849
 163  574.3123
 164  -164.1843
 165  -751.0328
 166  -395.8349
 167  -360.8558
 168  -524.7117
 169  -763.6677
 170  -1500.332
 171  -1526.991
 172  -1208.871
 173  -878.1454
 174  -846.3344
 175  -443.356
 176  -826.5618
 177  -846.3859
 178  -904.3055
 179  -783.3731
 180  -1181.677
 181  -1027.328
 182  -562.9486
 183  -429.0113
 184  -560.7956
 185  -884.7693
 186  -491.8129
 187  -417.0404
 188  -267.0235
 189  -342.8491
 190  -3.394427
 191  -574.7421
 192  -993.7294
 193  -1225.068
 194  -831.3896
 195  -661.0998
 196  146.5882
 197  668.1921
 198  211.6432
 199  -756.7755
 200  -1135.832
 201  -1194.901
 202  -1294.834
 203  -835.1151
 204  -566.6299
 205  243.9324
 206  -256.581
 207  -851.8955
 208  -1660.596
 209  -790.6724
 210  -665.8953
 211  -1221.57
 212  -1191.804
 213  -1284.094
 214  -1564.132
 215  -1261.819
 216  -263.9025
 217  1707.41
 218  1374.913
 219  522.9772
 220  373.042
 221  -1638.283
 222  -916.5439
 223  -263.5555
 224  198.7284
 225  159.2213
 226  716.6108
 227  -300.3423
 228  -1286.543
 229  -862.3227
 230  -1039.146
 231  -901.3545
 232  -777.4683
 233  -1675.469
 234  -1585.742
 235  -1290.451
 236  -610.2844
 237  -493.8791
 238  -80.40749
 239  -165.8058
 240  -981.3864
 241  -1699.864
 242  -1194.505
 243  -1490.818
 244  -1704.393
 245  -1653.991
 246  -1968.468
 247  -1776.766
 248  -1934.744
 249  -1680.049
 250  -1538.026
 251  -1990.369
 252  -2400.165
 253  -2014.106
 254  -1781.487
 255  -1829.004
 256  -2035.179
 257  -1982.403
 258  -2014.957
 259  -1857.108
 260  -1994.711
 261  -2137.967
 262  -2166.326
 263  -1733.486
 264  -1538.669
 265  -1157.776
 266  -1195.035
 267  -1582.25
 268  -1563.779
 269  -1660.805
 270  -1645.781
 271  -1378.702
 272  -805.3622
 273  -787.5438
 274  -1369.703
 275  -1534.534
 276  -1173.207
 277  -1196.258
 278  -1190.982
 279  -1047.658
 280  -760.1471
 281  -1425.546
 282  -795.9755
 283  -311.1645
 284  -642.3914
 285  -1123.71
 286  -1344.382
 287  -1469.252
 288  -1672.147
 289  -1415.273
 290  -1180.846
 291  -1148.629
 292  -1464.385
 293  -1195.191
 294  -1519.197
 295  -1754.144
 296  -1630.378
 297  -651.8386
 298  -303.2602
 299  -986.0239
 300  -991.1317
 301  -1480.482
 302  -1855.952
 303  -1892.132
 304  -698.2327
 305  -157.8616
 306  -375.7912
 307  -496.4146
 308  -1245.261
 309  -1596.674
 310  -911.4554
 311  -276.5799
 312  149.1038
 313  256.4263
 314  -325.923
 315  -1174.192
 316  -1373.496
 317  -878.119
 318  -632.0464
 319  -493.7706
 320  -1681.137
 321  -1714.93
 322  -1076.674
 323  74.23057
 324  187.7507
 325  171.6199
 326  -81.3793
 327  -712.1875
 328  -1131.953
 329  -905.3366
 330  -907.9205
 331  -925.2095
 332  -272.9849
 333  -109.906
 334  -460.3685
 335  -811.2917
 336  -2415.926
 337  -1749.74
 338  -929.9779
 339  116.3442
 340  -349.9454
 341  -718.4143
 342  -1431.504
 343  -1529.69
 344  -1468.084
 345  -1145.906
 346  -801.1137
 347  -575.0678
 348  -1022.941
 349  -1666.218
 350  -1043.946
 351  -126.3138
 352  -9.208134
 353  -5.29961
 354  -1152.831
 355  -728.3148
 356  -329.5493
 357  -255.4579
 358  188.896
 359  245.8588
 360  -851.2536
 361  -1501.888
 362  -1076.372
 363  -799.116
 364  -722.6494
 365  -287.0743
 366  -455.9681
 367  -359.0023
 368  794.9002
 369  -61.50573
 370  -126.7303
 371  583.5134
 372  -259.5425
 373  -962.1855
 374  -571.981
 375  -290.2813
 376  48.56691
 377  177.515
 378  475.4239
 379  46.4035
 380  -995.3713
 381  -614.4354
 382  -746.7639
 383  -255.3512
 384  -476.6899
 385  -1346.861
 386  -1322.419
 387  -33.75225
 388  94.67624
 389  376.0555
 390  148.3697
 391  -331.5378
 392  -412.2908
 393  -386.1496
 394  -444.0261
 395  -148.7578
 396  881.9681
 397  1642.026
 398  1410.835
 399  356.1117
 400  201.3996
 401  14.06553
 402  356.3369
 403  1243.788
 404  1801.48
 405  1962.594
 406  1223.787
 407  187.679
 408  -196.4727
 409  435.0537
 410  1081.102
 411  1158.225
 412  1856.38
 413  368.3732
 414  -881.6664
 415  -1537.222
 416  -944.1669
 417  -863.0497
 418  -980.8538
 419  -551.3115
 420  -730.4021
 421  -842.6106
 422  -1081.574
 423  -1315.467
 424  -87.03101
 425  170.1754
 426  1397.443
 427  1951.591
 428  637.6127
 429  439.1041
 430  1246.936
 431  2291.069
 432  2907.584
 433  3311.677
 434  1700.571
 435  382.625
 436  -330.3464
 437  388.9441
 438  916.0281
 439  973.1556
 440  667.9099
 441  -70.67884
 442  -575.3788
 443  -89.2757
 444  -763.4332
 445  -782.0775
 446  -460.8576
 447  280.7365
 448  479.826
 449  -428.9946
 450  237.2008
 451  703.9924
 452  1041.489
 453  519.1127
 454  1085.032
 455  332.5824
 456  -209.9534
 457  -158.2249
 458  -53.18013
 459  611.2658
 460  1291.561
 461  1067.349
 462  1635.374
 463  1744.106
 464  1586.367
 465  882.1639
 466  765.3419
 467  1089.745
 468  1456.964
 469  1280.029
 470  1047.162
 471  1003.262
 472  806.1299
 473  302.3724
 474  -408.7769
 475  842.4474
 476  794.2108
 477  616.1286
 478  1212.9
 479  343.5219
 480  394.6369
 481  99.64086
 482  851.5443
 483  465.6187
 484  706.0993
 485  -403.0735
 486  -28.10183
 487  537.3376
 488  30.71714
 489  14.62783
 490  -360.785
 491  46.83539
 492  612.925
 493  1134.317
 494  1514.929
 495  1382.913
 496  1067.148
 497  692.2108
 498  -82.35276
 499  707.916
 500  687.4075
 501  218.5291
 502  276.1296
 503  0.05954377
 504  -806.3055
 505  -920.6234
 506  -813.4229
 507  -876.0164
 508  -894.6412
 509  -1394.097
 510  -1234.597
 511  -799.1761
