# Input file       =  1184128104.119004_cleaned.dat
# Candidate        =  PSR_0332+5434
# Telescope        =  AR
# Epoch_topo       =  57949.186610173660
# Epoch_bary       =  N/A
# T_sample         =  0.002
# Data Folded      =  7340032
# Data Avg         =  0.0220714233717257
# Data StdDev      =  1.0000266339522  
# Profile Bins     =  512
# Profile Avg      =  316.419192730704 
# Profile StdDev   =  119.736225340734 
# Reduced chi-sqr  =  1.554
# Prob(Noise)      <  1.2e-14   (~7.6 sigma)
# P_topo (ms)      =  714.478798446325  +/- 0.000274
# P'_topo (s/s)    =  -0                +/- 1.44e-10
# P''_topo (s/s^2) =  0                 +/- 6.38e-14
# P_bary (ms)      =  N/A
# P'_bary (s/s)    =  N/A
# P''_bary (s/s^2) =  N/A
# P_orb (s)        =  N/A
# asin(i)/c (s)    =  N/A
# eccentricity     =  N/A
# w (rad)          =  N/A
# T_peri           =  N/A
######################################################
   0  1304.859
   1  1073.167
   2  769.9343
   3  529.3975
   4  446.1544
   5  390.9557
   6  332.4557
   7  404.9753
   8  332.5926
   9  344.0732
  10  483.1595
  11  483.2912
  12  245.4998
  13  319.1039
  14  409.1546
  15  321.1685
  16  277.8942
  17  401.5703
  18  391.9041
  19  299.4323
  20  254.1352
  21  308.2757
  22  284.9847
  23  307.3401
  24  363.4603
  25  241.0114
  26  222.3404
  27  352.7953
  28  412.6256
  29  305.699
  30  242.3708
  31  319.1094
  32  312.9842
  33  331.3382
  34  294.6266
  35  349.6788
  36  276.2969
  37  376.0664
  38  259.3006
  39  241.5622
  40  271.2089
  41  375.8141
  42  437.7653
  43  383.5204
  44  429.1601
  45  218.7617
  46  146.2321
  47  259.9658
  48  341.9157
  49  357.0528
  50  350.0753
  51  299.1341
  52  243.8473
  53  311.3354
  54  343.4984
  55  194.4882
  56  347.7656
  57  425.6119
  58  332.5978
  59  343.5419
  60  388.0644
  61  382.8449
  62  239.9436
  63  311.1952
  64  333.3419
  65  287.991
  66  278.4396
  67  294.2095
  68  341.2332
  69  444.3062
  70  394.1198
  71  309.3923
  72  216.5966
  73  320.8173
  74  310.3214
  75  326.5256
  76  331.9713
  77  350.5829
  78  383.8614
  79  272.1629
  80  242.5473
  81  319.887
  82  311.4833
  83  413.4598
  84  417.4729
  85  362.2295
  86  330.5175
  87  283.6073
  88  237.8559
  89  316.7159
  90  453.8983
  91  405.5245
  92  213.6952
  93  329.3061
  94  341.9486
  95  333.7302
  96  221.9082
  97  201.2122
  98  151.5042
  99  287.9121
 100  334.7428
 101  242.584
 102  229.2832
 103  264.5534
 104  377.3516
 105  298.3503
 106  222.5284
 107  293.3377
 108  393.7749
 109  284.808
 110  262.6194
 111  382.1231
 112  368.8011
 113  390.2322
 114  274.9983
 115  182.8575
 116  261.3135
 117  294.3152
 118  308.8387
 119  281.3232
 120  348.7981
 121  304.5913
 122  259.3069
 123  357.2507
 124  292.3243
 125  311.3374
 126  349.4919
 127  356.9505
 128  318.636
 129  235.8527
 130  278.192
 131  358.7474
 132  319.6854
 133  312.7451
 134  305.0554
 135  347.9295
 136  338.0084
 137  260.5204
 138  228.2613
 139  223.1651
 140  280.2019
 141  252.7259
 142  257.2032
 143  185.7475
 144  274.6082
 145  390.6182
 146  333.1915
 147  403.2211
 148  231.724
 149  264.0503
 150  319.525
 151  301.5272
 152  336.1685
 153  289.8966
 154  331.6501
 155  311.8085
 156  251.0268
 157  267.0904
 158  415.8176
 159  468.6521
 160  440.2679
 161  389.2941
 162  338.6878
 163  356.2126
 164  296.3899
 165  275.4041
 166  266.4432
 167  319.8643
 168  299.2762
 169  182.3658
 170  227.9939
 171  253.1436
 172  222.8776
 173  230.6356
 174  274.0942
 175  248.7043
 176  327.2071
 177  261.8413
 178  184.0049
 179  274.4809
 180  298.3132
 181  280.7218
 182  289.1376
 183  266.7704
 184  356.1113
 185  343.8076
 186  276.7021
 187  288.2788
 188  260.9119
 189  297.0831
 190  262.6864
 191  336.4923
 192  456.5005
 193  390.0453
 194  286.3937
 195  223.4081
 196  178.7358
 197  322.2923
 198  291.6831
 199  229.0724
 200  271.7454
 201  304.5109
 202  314.5067
 203  286.3998
 204  389.1022
 205  309.7331
 206  168.2068
 207  230.0635
 208  334.9481
 209  349.857
 210  285.388
 211  281.8001
 212  379.3912
 213  455.3865
 214  404.4789
 215  267.4803
 216  285.6777
 217  305.8902
 218  235.2695
 219  186.8998
 220  270.5662
 221  294.1954
 222  279.7836
 223  286.851
 224  200.9016
 225  205.1527
 226  242.3197
 227  297.4256
 228  226.4507
 229  203.7345
 230  211.4265
 231  188.7714
 232  182.4537
 233  348.3264
 234  175.7154
 235  195.1333
 236  187.6655
 237  256.021
 238  199.5535
 239  258.0046
 240  232.552
 241  209.9758
 242  230.8217
 243  218.9954
 244  364.1488
 245  476.4713
 246  481.3068
 247  497.2493
 248  348.6478
 249  273.2827
 250  316.5193
 251  232.5188
 252  202.4817
 253  276.3629
 254  169.5875
 255  149.4
 256  235.7671
 257  182.9886
 258  257.0586
 259  233.5028
 260  286.616
 261  169.6168
 262  108.5535
 263  299.5105
 264  220.0565
 265  101.8921
 266  160.1056
 267  296.5402
 268  439.9112
 269  418.9344
 270  290.922
 271  311.4607
 272  382.1876
 273  309.4528
 274  205.3678
 275  169.3472
 276  309.6708
 277  302.5359
 278  375.1251
 279  465.7689
 280  270.9904
 281  236.1276
 282  388.1131
 283  331.7069
 284  283.9169
 285  302.2297
 286  390.8161
 287  282.8783
 288  302.4042
 289  290.908
 290  328.8793
 291  370.6405
 292  361.7347
 293  270.2524
 294  87.41807
 295  184.5242
 296  170.6448
 297  263.0323
 298  312.7457
 299  317.8595
 300  385.1413
 301  310.3593
 302  259.532
 303  336.4784
 304  373.2049
 305  372.1478
 306  355.5229
 307  407.0276
 308  330.5786
 309  260.3585
 310  339.0568
 311  229.3912
 312  205.5966
 313  291.9897
 314  455.2594
 315  376.977
 316  324.4446
 317  266.8394
 318  327.5258
 319  337.939
 320  336.7597
 321  361.1079
 322  308.3589
 323  201.0225
 324  260.8327
 325  298.9107
 326  316.3489
 327  380.802
 328  328.7365
 329  211.4934
 330  298.1364
 331  298.0743
 332  324.7498
 333  305.5254
 334  419.295
 335  425.9202
 336  269.7372
 337  252.4616
 338  242.036
 339  384.1592
 340  275.8611
 341  248.8327
 342  241.3783
 343  231.2455
 344  265.7548
 345  198.5545
 346  276.3815
 347  215.1602
 348  193.3565
 349  198.2559
 350  229.389
 351  233.8971
 352  235.6422
 353  258.0038
 354  377.6594
 355  336.4544
 356  284.5672
 357  402.2165
 358  434.8951
 359  270.17
 360  291.6088
 361  288.9886
 362  225.9666
 363  121.9223
 364  190.7822
 365  358.7425
 366  371.7707
 367  352.8461
 368  309.3784
 369  326.7741
 370  379.9375
 371  369.9773
 372  360.0344
 373  419.9638
 374  376.9046
 375  320.616
 376  451.464
 377  435.4303
 378  272.9522
 379  380.0732
 380  332.3978
 381  243.6775
 382  209.8877
 383  198.0541
 384  320.0738
 385  315.7649
 386  333.3022
 387  360.8365
 388  152.9916
 389  233.8155
 390  331.9955
 391  287.6121
 392  287.9335
 393  233.1372
 394  345.7345
 395  270.4342
 396  299.077
 397  343.8293
 398  331.7827
 399  300.0211
 400  272.8441
 401  288.9501
 402  221.037
 403  340.3142
 404  440.597
 405  419.3059
 406  273.5349
 407  301.1304
 408  413.84
 409  407.3487
 410  455.6383
 411  338.9035
 412  351.6703
 413  311.8267
 414  350.4989
 415  324.537
 416  334.9167
 417  429.3463
 418  346.2375
 419  351.1363
 420  392.0604
 421  304.6557
 422  243.7224
 423  247.6418
 424  244.1177
 425  339.606
 426  470.8107
 427  471.4802
 428  276.3823
 429  213.1886
 430  283.2225
 431  289.9346
 432  229.3418
 433  380.4151
 434  314.4397
 435  237.7504
 436  284.77
 437  291.7086
 438  240.9214
 439  189.3735
 440  228.0629
 441  304.8167
 442  346.2038
 443  287.6577
 444  315.3474
 445  245.0347
 446  385.1145
 447  340.4915
 448  219.2921
 449  246.2608
 450  276.852
 451  332.3186
 452  354.841
 453  387.9605
 454  395.2984
 455  355.9423
 456  465.7502
 457  376.0651
 458  377.1905
 459  308.3496
 460  298.2932
 461  322.5561
 462  329.7438
 463  232.7966
 464  300.4911
 465  286.6171
 466  249.1713
 467  305.4912
 468  378.3004
 469  275.8965
 470  246.7596
 471  308.2891
 472  376.4513
 473  294.9429
 474  268.1389
 475  299.7599
 476  280.4417
 477  314.8009
 478  395.2583
 479  413.7572
 480  243.6986
 481  257.2785
 482  345.4174
 483  271.9953
 484  254.1447
 485  274.1781
 486  282.3178
 487  266.8756
 488  335.7767
 489  425.8512
 490  339.817
 491  367.3122
 492  341.0654
 493  259.6328
 494  387.3619
 495  435.9408
 496  409.7969
 497  412.77
 498  364.8713
 499  327.8481
 500  334.3272
 501  415.4668
 502  379.6749
 503  403.2022
 504  474.7436
 505  386.5451
 506  437.5922
 507  561.6924
 508  640.6382
 509  811.2898
 510  1002.99
 511  1123.566
