# Input file       =  1184832292.10788_cleaned.dat
# Candidate        =  PSR_0332+5434
# Telescope        =  AR
# Epoch_topo       =  57957.336934118983
# Epoch_bary       =  N/A
# T_sample         =  0.002
# Data Folded      =  7340032
# Data Avg         =  0.273350360657788
# Data StdDev      =  4.97455436751787 
# Profile Bins     =  512
# Profile Avg      =  3918.51963558063 
# Profile StdDev   =  595.618499044219 
# Reduced chi-sqr  =  0.970
# Prob(Noise)      <  0.681   (~0.0 sigma)
# P_topo (ms)      =  714.474124716226  +/- 0.00026
# P'_topo (s/s)    =  -0                +/- 1.37e-10
# P''_topo (s/s^2) =  0                 +/- 6.06e-14
# P_bary (ms)      =  N/A
# P'_bary (s/s)    =  N/A
# P''_bary (s/s^2) =  N/A
# P_orb (s)        =  N/A
# asin(i)/c (s)    =  N/A
# eccentricity     =  N/A
# w (rad)          =  N/A
# T_peri           =  N/A
######################################################
   0  4176.512
   1  3668.263
   2  3271.373
   3  3560.44
   4  3701.347
   5  3678.17
   6  3681.129
   7  3638.086
   8  3470.16
   9  3146.973
  10  3211.249
  11  3388.522
  12  3629.996
  13  3768.882
  14  3762.127
  15  3782.769
  16  3727.654
  17  3917.055
  18  3947.526
  19  3943.812
  20  3914.025
  21  4033.61
  22  3956.501
  23  3912.679
  24  4079.549
  25  4260.913
  26  4224.365
  27  4603.798
  28  4634.822
  29  4383.33
  30  4112.939
  31  3714.536
  32  4017.95
  33  4678.221
  34  4425.535
  35  4529.649
  36  4211.502
  37  3952.994
  38  3629.646
  39  3553.772
  40  3988.808
  41  4320.132
  42  4243.917
  43  3482.228
  44  3268.131
  45  3360.58
  46  3760.23
  47  3564.826
  48  4036.874
  49  3850.182
  50  3604.701
  51  3529.284
  52  4036.318
  53  3859.181
  54  3494.494
  55  3600.657
  56  3659.335
  57  3652.985
  58  3500.75
  59  3524.265
  60  3495.449
  61  2987.606
  62  3289.716
  63  3645.379
  64  3523.149
  65  3561.518
  66  3892.438
  67  3582.441
  68  3550.006
  69  3667.677
  70  3929.474
  71  3475.721
  72  3510.134
  73  3527.678
  74  3727.763
  75  3709.145
  76  4016.016
  77  4473.56
  78  4196.412
  79  4288.345
  80  4071.597
  81  3776.221
  82  4008.216
  83  3975.373
  84  4446.413
  85  4195.087
  86  4079.695
  87  4041.87
  88  3683.734
  89  3446.819
  90  3624.338
  91  4012.159
  92  3813.269
  93  3775.572
  94  4145.997
  95  3919.699
  96  4004.05
  97  3967.886
  98  3462.596
  99  3445.873
 100  4011.364
 101  4363.565
 102  4221.41
 103  4120.55
 104  3914.229
 105  3822.477
 106  3601.709
 107  3989.46
 108  4209.296
 109  3886.3
 110  3900.137
 111  4056.064
 112  3916.667
 113  3734.335
 114  3459.745
 115  3575.878
 116  3680.086
 117  3869.994
 118  3660.156
 119  3729.059
 120  3776.345
 121  3722
 122  3852.29
 123  4016.205
 124  4096.013
 125  3673.72
 126  3361.318
 127  3708.769
 128  3841.846
 129  4351.191
 130  4190.042
 131  4254.221
 132  3700.775
 133  3803.032
 134  3960.975
 135  3710.662
 136  3818.333
 137  4400.214
 138  4228.469
 139  3877.5
 140  3787.499
 141  3958.473
 142  4205.465
 143  4640.925
 144  4763.16
 145  4504.72
 146  4075.424
 147  4069.717
 148  4422.185
 149  4589.281
 150  4773.845
 151  4782.676
 152  4678.521
 153  4562.368
 154  4450.625
 155  4639.725
 156  4745.987
 157  4860.806
 158  4878.835
 159  4823.081
 160  4790.606
 161  4264.334
 162  4417.164
 163  4163.643
 164  4136.682
 165  4199.39
 166  4226.46
 167  4202.624
 168  4237.967
 169  4210.804
 170  4390.666
 171  4255.899
 172  4088.175
 173  4082.227
 174  3799.143
 175  3913.913
 176  4187.316
 177  3683.591
 178  3669.342
 179  3691.113
 180  3987.935
 181  3975.385
 182  3782.089
 183  3534.559
 184  3609.396
 185  3897.881
 186  3925.564
 187  3791.526
 188  3868.294
 189  3968.139
 190  3849.778
 191  3699.682
 192  3681.455
 193  4087.53
 194  4396.308
 195  4522.726
 196  4465.709
 197  4507.403
 198  4293.42
 199  4515.665
 200  4590.644
 201  4565.118
 202  4517.982
 203  4631.475
 204  4405.314
 205  4448.282
 206  4371.036
 207  4678.15
 208  4402.329
 209  4205.61
 210  4235.881
 211  4183.561
 212  4379.295
 213  4480.437
 214  4496.805
 215  4417.269
 216  4057.711
 217  4192.649
 218  4228.608
 219  4256.129
 220  4245.98
 221  4103.457
 222  4291.043
 223  4109.27
 224  4232.989
 225  4136.694
 226  4256.261
 227  4477.158
 228  4433.713
 229  4238.55
 230  4156.229
 231  4302.942
 232  4283.038
 233  4450.277
 234  4577.701
 235  4266.901
 236  3903.776
 237  4305.434
 238  4134.047
 239  4060.614
 240  4036.946
 241  4278.405
 242  3951.004
 243  4094.042
 244  4446.745
 245  4138.116
 246  3840.917
 247  4130.282
 248  4023.135
 249  3964.937
 250  3734.863
 251  3824.826
 252  4077.009
 253  4084.499
 254  3869.774
 255  4234.344
 256  4348.236
 257  4139.2
 258  4177.465
 259  3637.751
 260  3979.979
 261  4266.97
 262  4301.86
 263  4142.725
 264  4488.886
 265  5006.979
 266  4808.157
 267  4529.136
 268  4596.049
 269  4318.609
 270  4513.53
 271  4423.395
 272  4651.486
 273  4551.486
 274  4195.725
 275  3984.385
 276  4075.697
 277  4168.724
 278  4022.237
 279  3680.39
 280  3751.583
 281  3548.74
 282  3506.292
 283  3361.502
 284  3626.445
 285  3919.66
 286  3509.141
 287  3665.234
 288  3697.4
 289  3554.449
 290  3668.795
 291  3853.941
 292  3808.893
 293  4231.85
 294  4239.943
 295  4235.462
 296  4189.549
 297  4257.809
 298  3784.109
 299  3954.085
 300  4110.327
 301  4291.184
 302  4219.862
 303  3969.095
 304  3492.063
 305  3633.675
 306  3860.62
 307  4422.528
 308  4323.71
 309  4353.652
 310  3705.881
 311  3720.483
 312  3976.2
 313  3806.413
 314  4067.698
 315  4286.865
 316  4061.949
 317  4533.239
 318  4136.766
 319  4047.392
 320  3840.298
 321  4016.797
 322  4764.722
 323  5440.174
 324  5975.086
 325  5827.831
 326  5343.638
 327  4948.246
 328  4725.028
 329  4181.626
 330  4237.019
 331  4268.398
 332  4035.12
 333  3625.318
 334  3548.376
 335  3557.755
 336  3737.521
 337  3759.068
 338  3771.771
 339  3793.936
 340  3597.979
 341  3427.445
 342  3280.336
 343  3283.558
 344  3017.988
 345  3079.856
 346  3387.395
 347  3756.086
 348  3410.704
 349  3351.187
 350  3378.282
 351  3224.862
 352  3233.959
 353  3112.024
 354  3013.514
 355  3004.543
 356  3479.438
 357  3429.915
 358  3753.648
 359  3860.988
 360  3278.86
 361  3191.829
 362  3776.586
 363  3805.393
 364  4024.399
 365  3979.083
 366  3851.695
 367  3821.235
 368  3818.68
 369  3513.117
 370  3483.383
 371  3471.074
 372  3436.425
 373  3394.899
 374  3424.969
 375  3505.907
 376  3714.598
 377  3443.672
 378  3221.817
 379  3212.313
 380  3624.081
 381  3651.924
 382  3526.177
 383  3501.507
 384  3059.674
 385  3143.87
 386  3556.356
 387  3672.635
 388  3433.626
 389  3707.556
 390  3625.528
 391  3358.01
 392  3274.706
 393  3579.367
 394  3586.425
 395  3572.957
 396  3284.904
 397  3244.736
 398  3343.612
 399  3195.583
 400  3033.848
 401  2995.105
 402  3149.315
 403  3520.91
 404  3357.021
 405  3382.67
 406  3273.643
 407  3337.281
 408  3438.862
 409  3593.42
 410  3800.781
 411  3536.078
 412  3389.606
 413  3361.198
 414  3196.485
 415  3760.112
 416  3921.789
 417  4016.867
 418  4139.945
 419  3932.421
 420  3872.571
 421  3876.26
 422  3826.045
 423  4078.41
 424  4527.566
 425  4255.945
 426  3979.629
 427  3688.213
 428  3634.319
 429  3591.23
 430  3255.308
 431  3418.357
 432  3913.957
 433  3708.548
 434  3493.002
 435  3480.571
 436  3554.125
 437  3533.143
 438  3525.781
 439  4007.874
 440  4100.875
 441  4111.689
 442  4109.092
 443  3904.458
 444  3515.471
 445  3606.954
 446  3825.466
 447  3944.958
 448  3789.525
 449  3756.574
 450  3343.816
 451  3364.114
 452  3828.815
 453  3892.591
 454  3755.282
 455  3552.8
 456  3437.154
 457  3507.318
 458  3109.408
 459  3276.135
 460  3686.636
 461  3265.001
 462  3040.417
 463  3510.729
 464  4052.315
 465  4366.231
 466  4228.094
 467  4032.348
 468  4051.114
 469  3693.09
 470  3247.396
 471  3577.113
 472  3911.45
 473  3979.022
 474  4087.762
 475  3920.809
 476  3793.052
 477  3514.311
 478  3496.568
 479  3807.248
 480  3740.415
 481  4222.903
 482  4164.793
 483  3879.84
 484  3892.754
 485  4037.959
 486  4238.014
 487  4238.653
 488  4425.935
 489  4334.293
 490  3927.064
 491  3996.668
 492  4330.852
 493  4338.717
 494  4320.127
 495  4019.869
 496  3762.233
 497  3873.223
 498  3981.722
 499  4001.56
 500  4024.518
 501  4125.181
 502  3811.931
 503  3800.136
 504  3943.063
 505  3932.987
 506  3791.969
 507  3378.473
 508  3820.811
 509  3856.488
 510  3726.59
 511  3924.982
