# Input file       =  1184918446.155724-PSRB0329-2ms-sampling-dd.dat
# Candidate        =  PSR_0332+5434
# Telescope        =  AR
# Epoch_topo       =  57958.334087450508
# Epoch_bary       =  N/A
# T_sample         =  0.002
# Data Folded      =  7340032
# Data Avg         =  1.62576237981354e-10
# Data StdDev      =  6.66997150060963 
# Profile Bins     =  512
# Profile Avg      =  -0.25474336077535
# Profile StdDev   =  798.615940314487 
# Reduced chi-sqr  =  0.552
# Prob(Noise)      <  1   (~0.0 sigma)
# P_topo (ms)      =  714.473572588277  +/- 8.2e-05
# P'_topo (s/s)    =  -0                +/- 4.33e-11
# P''_topo (s/s^2) =  0                 +/- 1.91e-14
# P_bary (ms)      =  N/A
# P'_bary (s/s)    =  N/A
# P''_bary (s/s^2) =  N/A
# P_orb (s)        =  N/A
# asin(i)/c (s)    =  N/A
# eccentricity     =  N/A
# w (rad)          =  N/A
# T_peri           =  N/A
######################################################
   0  -462.2376
   1  -579.2711
   2  -620.6342
   3  -494.8033
   4  80.50697
   5  161.3266
   6  248.4431
   7  114.9801
   8  -298.2756
   9  -10.64506
  10  -60.86736
  11  43.14698
  12  234.1783
  13  137.332
  14  -33.36711
  15  -348.4239
  16  -430.9066
  17  -269.7885
  18  -435.6573
  19  -237.2987
  20  90.06633
  21  -87.99611
  22  -281.3673
  23  -447.0456
  24  -470.2555
  25  -578.9578
  26  -495.7791
  27  -4.516874
  28  -60.24145
  29  -93.23888
  30  -156.8795
  31  -794.9439
  32  -998.0812
  33  -736.7208
  34  -352.7847
  35  -429.0287
  36  -717.243
  37  -1389.482
  38  -1039.766
  39  -582.336
  40  -545.2252
  41  74.37331
  42  -173.8812
  43  -369.5937
  44  -738.5393
  45  -952.4778
  46  -449.0108
  47  -339.1749
  48  -273.2158
  49  185.7609
  50  228.7235
  51  143.5572
  52  -70.34618
  53  -236.026
  54  -610.4687
  55  -91.10473
  56  109.8465
  57  256.0872
  58  356.156
  59  10.82759
  60  -247.2919
  61  80.60182
  62  -116.553
  63  -130.8692
  64  62.68879
  65  343.4674
  66  78.47279
  67  -215.4049
  68  290.347
  69  282.9792
  70  247.059
  71  365.1344
  72  -3.505035
  73  214.1011
  74  143.9075
  75  -283.7309
  76  -148.8536
  77  535.2697
  78  897.6816
  79  543.6807
  80  143.2343
  81  124.4319
  82  27.67197
  83  52.98292
  84  107.6985
  85  385.6592
  86  83.5675
  87  153.2287
  88  -3.283646
  89  58.0034
  90  128.79
  91  -159.0647
  92  -8.254961
  93  -296.8378
  94  -134.1258
  95  154.3074
  96  183.7386
  97  372.2137
  98  410.4006
  99  121.1606
 100  -189.9697
 101  -88.33919
 102  54.4141
 103  236.9861
 104  215.1131
 105  314.3022
 106  411.4634
 107  139.9088
 108  202.3743
 109  -14.58432
 110  270.9063
 111  459.1421
 112  529.7416
 113  679.9773
 114  381.6099
 115  -189.3602
 116  -103.3088
 117  303.9712
 118  435.2192
 119  607.7593
 120  922.4525
 121  558.9136
 122  299.5483
 123  26.92676
 124  86.62933
 125  -232.9867
 126  -395.8748
 127  245.38
 128  -84.70101
 129  -243.7698
 130  -39.45074
 131  -123.7552
 132  -329.2623
 133  -346.2223
 134  -412.365
 135  -223.8258
 136  49.9324
 137  197.3503
 138  121.1784
 139  -163.3629
 140  36.61442
 141  163.5468
 142  148.4345
 143  35.57019
 144  294.1258
 145  249.383
 146  -213.2023
 147  294.0812
 148  477.5864
 149  359.607
 150  363.3942
 151  106.8639
 152  236.9328
 153  166.858
 154  40.27466
 155  -277.3613
 156  92.85809
 157  44.66806
 158  -516.9838
 159  -787.4875
 160  -898.3004
 161  -346.5188
 162  -130.5549
 163  -62.37381
 164  -402.4854
 165  -651.7468
 166  -1063.48
 167  -905.3209
 168  -967.347
 169  -340.8386
 170  179.4963
 171  88.63145
 172  -419.446
 173  -268.7036
 174  -419.6255
 175  -741.9617
 176  -622.825
 177  329.1533
 178  432.5093
 179  86.07729
 180  -185.3965
 181  -475.0039
 182  -27.94542
 183  30.6014
 184  115.9435
 185  241.4352
 186  -109.1275
 187  -200.3958
 188  -41.3477
 189  -162.243
 190  -264.3226
 191  -115.7012
 192  -274.4982
 193  -587.203
 194  -657.6596
 195  -260.6098
 196  -193.1288
 197  -377.8538
 198  -199.1938
 199  273.1049
 200  139.1206
 201  -536.3032
 202  -400.0475
 203  -718.9659
 204  -496.6178
 205  276.1364
 206  479.3955
 207  421.8838
 208  161.6629
 209  -310.9026
 210  -589.2851
 211  -238.8786
 212  353.511
 213  867.1345
 214  1039.01
 215  869.6282
 216  97.495
 217  -376.239
 218  -390.8447
 219  172.8221
 220  146.7753
 221  291.4327
 222  -0.7470183
 223  -112.3336
 224  -187.0049
 225  -403.1464
 226  45.6955
 227  48.25949
 228  393.8687
 229  483.7893
 230  -360.849
 231  -206.7441
 232  -120.0414
 233  -256.2365
 234  -483.4019
 235  -373.9997
 236  -305.843
 237  -538.11
 238  -826.941
 239  -106.405
 240  449.6895
 241  412.1437
 242  462.0215
 243  206.8858
 244  434.9587
 245  422.5032
 246  348.4519
 247  553.9266
 248  256.9497
 249  597.4409
 250  260.673
 251  15.31468
 252  -418.7453
 253  -584.3353
 254  -752.4926
 255  -288.1462
 256  341.4232
 257  135.3914
 258  64.66921
 259  -76.70419
 260  -204.2277
 261  -322.6652
 262  174.5116
 263  27.7169
 264  95.48727
 265  439.2334
 266  416.3358
 267  -224.3976
 268  -596.4745
 269  -417.2606
 270  -252.5462
 271  114.1734
 272  742.5284
 273  655.8334
 274  559.8406
 275  -280.3861
 276  115.3986
 277  698.1548
 278  671.5087
 279  316.6169
 280  186.059
 281  55.5416
 282  -76.52174
 283  -408.9144
 284  -397.1158
 285  -304.6155
 286  1.023338
 287  -118.0352
 288  -362.8783
 289  -397.5641
 290  -506.4061
 291  -495.3244
 292  -156.3193
 293  202.1177
 294  254.8598
 295  40.7963
 296  -256.0167
 297  157.2333
 298  337.5559
 299  404.761
 300  640.363
 301  132.1857
 302  145.7322
 303  74.57728
 304  342.3524
 305  570.1318
 306  304.4854
 307  435.6001
 308  256.3859
 309  207.9774
 310  131.9364
 311  -117.5006
 312  -326.6394
 313  23.6265
 314  500.1019
 315  603.9338
 316  469.8618
 317  111.1755
 318  -198.4536
 319  568.0478
 320  1242.758
 321  2436.04
 322  2402.864
 323  2118.479
 324  1136.418
 325  256.0915
 326  -266.2795
 327  -142.6455
 328  348.6086
 329  -48.5984
 330  -154.0617
 331  44.35042
 332  -491.4971
 333  -482.6812
 334  -654.2616
 335  -156.451
 336  119.392
 337  44.84148
 338  -262.3907
 339  -193.8599
 340  -289.4392
 341  -545.8029
 342  -727.6099
 343  -382.8088
 344  70.35137
 345  -154.0498
 346  64.31966
 347  -0.3097371
 348  93.5377
 349  374.943
 350  425.3693
 351  654.1973
 352  538.2149
 353  429.6156
 354  -198.6428
 355  127.8392
 356  405.0756
 357  137.3999
 358  281.1901
 359  155.0977
 360  13.35996
 361  -10.90107
 362  320.4573
 363  149.465
 364  220.1932
 365  315.8343
 366  189.8387
 367  419.2974
 368  194.9767
 369  564.8502
 370  579.4044
 371  384.9799
 372  327.0142
 373  87.31832
 374  102.3382
 375  37.97336
 376  418.1467
 377  183.8723
 378  128.18
 379  178.4229
 380  -11.60432
 381  52.51784
 382  -5.088341
 383  359.3436
 384  516.9708
 385  530.0988
 386  368.0796
 387  -82.74758
 388  222.9923
 389  -269.0077
 390  -344.0963
 391  -81.83656
 392  -275.3993
 393  -273.9808
 394  -78.6877
 395  -3.393526
 396  -407.4228
 397  -44.03681
 398  -304.6524
 399  109.4149
 400  464.3801
 401  211.6275
 402  494.2154
 403  426.0132
 404  239.4617
 405  152.5402
 406  823.946
 407  202.4511
 408  -87.40324
 409  133.0069
 410  83.13216
 411  492.2221
 412  453.796
 413  350.3481
 414  308.5747
 415  107.9667
 416  549.6517
 417  388.6297
 418  547.8716
 419  194.8159
 420  473.7996
 421  619.7458
 422  513.8512
 423  238.6451
 424  -29.15129
 425  -9.664386
 426  -311.8915
 427  -386.3024
 428  -415.4369
 429  -339.5231
 430  -288.7971
 431  -241.597
 432  40.71928
 433  104.7696
 434  212.7316
 435  430.8654
 436  531.3771
 437  437.1038
 438  531.9127
 439  536.899
 440  492.8666
 441  813.9128
 442  604.7793
 443  658.5099
 444  677.112
 445  277.1609
 446  -7.52782
 447  -478.7423
 448  -402.5755
 449  -493.7555
 450  109.4732
 451  93.22205
 452  -66.40868
 453  -675.463
 454  -679.1311
 455  -688.6806
 456  -829.5685
 457  -345.8956
 458  -282.661
 459  -89.20778
 460  -337.0509
 461  -1115.447
 462  -1107.951
 463  -979.3189
 464  -425.4157
 465  -253.7877
 466  -278.308
 467  -452.8022
 468  -958.3092
 469  -924.5216
 470  -607.5364
 471  -4.416926
 472  -35.37646
 473  -84.55822
 474  -334.7681
 475  -416.374
 476  -287.1079
 477  -378.2554
 478  -1.794667
 479  -17.0959
 480  75.92838
 481  -95.19975
 482  -351.2194
 483  -385.7346
 484  -281.7035
 485  97.32648
 486  272.9812
 487  478.3861
 488  261.5505
 489  109.6952
 490  -151.6533
 491  -11.48065
 492  27.77646
 493  74.21618
 494  -7.104732
 495  260.752
 496  171.3795
 497  -484.1922
 498  -381.6562
 499  203.2115
 500  111.5172
 501  -178.4958
 502  -127.8275
 503  -226.2614
 504  -427.4474
 505  -221.5305
 506  -434.2654
 507  -554.3933
 508  -660.6884
 509  101.0324
 510  -148.4814
 511  23.55262
