# Input file       =  1184487677.105509_cleaned.dat
# Candidate        =  PSR_0332+5434
# Telescope        =  AR
# Epoch_topo       =  57953.348334554503
# Epoch_bary       =  N/A
# T_sample         =  0.002
# Data Folded      =  7340032
# Data Avg         =  0.0302492524103305
# Data StdDev      =  1.00020651104266 
# Profile Bins     =  512
# Profile Avg      =  433.505404459001 
# Profile StdDev   =  119.757762570949 
# Reduced chi-sqr  =  1.328
# Prob(Noise)      <  8.8e-07   (~4.8 sigma)
# P_topo (ms)      =  714.476472919303  +/- 0.000241
# P'_topo (s/s)    =  -0                +/- 1.27e-10
# P''_topo (s/s^2) =  0                 +/- 5.61e-14
# P_bary (ms)      =  N/A
# P'_bary (s/s)    =  N/A
# P''_bary (s/s^2) =  N/A
# P_orb (s)        =  N/A
# asin(i)/c (s)    =  N/A
# eccentricity     =  N/A
# w (rad)          =  N/A
# T_peri           =  N/A
######################################################
   0  328.7855
   1  319.9758
   2  256.2684
   3  274.9991
   4  286.1255
   5  404.9631
   6  459.4903
   7  390.3193
   8  335.9715
   9  388.5356
  10  434.7177
  11  412.293
  12  412.1788
  13  418.6356
  14  412.1569
  15  473.4059
  16  474.9394
  17  587.0226
  18  703.363
  19  454.5511
  20  436.1863
  21  487.4578
  22  363.8792
  23  305.6162
  24  331.8656
  25  400.0153
  26  358.1015
  27  413.4815
  28  499.0409
  29  391.5787
  30  438.8362
  31  425.1154
  32  275.0238
  33  399.2575
  34  515.9643
  35  434.8158
  36  397.9906
  37  343.9566
  38  377.6353
  39  449.1783
  40  428.3333
  41  503.1426
  42  567.0574
  43  478.6074
  44  392.0204
  45  471.7751
  46  404.6996
  47  361.696
  48  378.0187
  49  496.5152
  50  456.0271
  51  406.3933
  52  418.9775
  53  480.4529
  54  361.5758
  55  368.6461
  56  313.881
  57  412.56
  58  449.1119
  59  465.3156
  60  404.5197
  61  464.6696
  62  510.579
  63  488.8907
  64  407.1255
  65  388.3337
  66  404.5697
  67  365.9994
  68  292.4892
  69  394.5626
  70  387.0205
  71  399.0249
  72  491.9069
  73  455.4121
  74  325.0733
  75  359.181
  76  381.5422
  77  454.0805
  78  364.9532
  79  244.1262
  80  300.7308
  81  316.9604
  82  355.4381
  83  416.5266
  84  437.1797
  85  532.2357
  86  525.5596
  87  358.0367
  88  358.7447
  89  443.1105
  90  407.0288
  91  331.5764
  92  420.6011
  93  365.2021
  94  380.6155
  95  465.035
  96  490.5118
  97  492.1608
  98  409.9662
  99  425.5651
 100  406.2125
 101  479.2338
 102  503.9689
 103  494.2746
 104  532.4329
 105  428.6045
 106  420.704
 107  481.4803
 108  451.4808
 109  484.6844
 110  520.1864
 111  395.7007
 112  395.4225
 113  433.1934
 114  460.4193
 115  479.3951
 116  328.8388
 117  487.2586
 118  519.7734
 119  536.3994
 120  491.7579
 121  322.198
 122  393.4775
 123  401.5053
 124  495.8393
 125  370.2289
 126  499.1106
 127  480.0658
 128  512.2596
 129  493.7093
 130  476.473
 131  426.5369
 132  363.382
 133  455.7092
 134  480.1807
 135  547.9163
 136  517.5743
 137  445.1484
 138  429.3754
 139  409.7257
 140  333.2276
 141  286.2393
 142  347.6868
 143  437.9555
 144  385.8532
 145  374.1936
 146  415.2069
 147  473.2486
 148  446.4454
 149  435.3997
 150  331.2478
 151  344.857
 152  401.223
 153  419.0988
 154  396.8571
 155  431.6296
 156  518.0156
 157  346.2175
 158  380.1446
 159  419.8979
 160  516.1872
 161  527.4944
 162  524.7811
 163  497.6393
 164  507.5877
 165  435.6876
 166  393.7158
 167  516.1782
 168  489.3537
 169  375.6158
 170  413.9109
 171  328.9382
 172  321.5076
 173  367.6045
 174  547.5025
 175  574.2498
 176  358.6466
 177  336.3158
 178  222.0954
 179  353.7947
 180  368.8512
 181  386.9616
 182  403.5787
 183  453.3498
 184  425.913
 185  389.4252
 186  437.0536
 187  468.4703
 188  470.1658
 189  389.1989
 190  303.1249
 191  253.6202
 192  397.8044
 193  509.7865
 194  420.8232
 195  460.8082
 196  559.9187
 197  452.1339
 198  454.8698
 199  456.5197
 200  464.0238
 201  404.2932
 202  451.0818
 203  424.1356
 204  491.5612
 205  383.36
 206  376.3152
 207  296.1937
 208  296.8182
 209  373.5718
 210  454.057
 211  468.9677
 212  299.1751
 213  278.0011
 214  347.8612
 215  243.7912
 216  362.6456
 217  419.1022
 218  378.0009
 219  451.0649
 220  406.2714
 221  372.3347
 222  450.8781
 223  412.2946
 224  395.5412
 225  447.4908
 226  554.5334
 227  551.9182
 228  374.4106
 229  390.3646
 230  458.0867
 231  472.018
 232  406.063
 233  349.0657
 234  493.1035
 235  483.4259
 236  402.377
 237  393.0551
 238  526.5406
 239  539.8376
 240  428.5947
 241  379.8824
 242  437.7008
 243  386.0747
 244  441.8659
 245  412.5506
 246  349.8282
 247  395.045
 248  368.5842
 249  398.2602
 250  373.9005
 251  342.9815
 252  476.3361
 253  409.2683
 254  429.8515
 255  346.6002
 256  368.4301
 257  415.7065
 258  484.6669
 259  469.396
 260  547.7112
 261  469.4274
 262  279.5973
 263  403.8313
 264  402.9607
 265  453.1486
 266  503.9056
 267  483.6149
 268  446.8653
 269  483.1995
 270  522.5349
 271  482.1952
 272  384.3621
 273  415.1028
 274  441.4844
 275  470.4556
 276  518.7481
 277  577.222
 278  556.1351
 279  513.8322
 280  575.9255
 281  609.0369
 282  751.2897
 283  836.2399
 284  1038.052
 285  1061.2
 286  1021.674
 287  973.0079
 288  806.1959
 289  598.6566
 290  489.8401
 291  536.611
 292  446.6851
 293  507.2787
 294  590.0341
 295  564.1443
 296  540.3307
 297  502.7824
 298  450.9033
 299  487.8805
 300  475.0826
 301  495.6312
 302  561.5208
 303  454.7068
 304  420.3893
 305  443.2756
 306  409.8452
 307  467.574
 308  376.3069
 309  564.2499
 310  562.3835
 311  432.5325
 312  516.6543
 313  523.7599
 314  416.6622
 315  377.0202
 316  316.0808
 317  426.6252
 318  487.6143
 319  364.5081
 320  399.4737
 321  448.1035
 322  544.156
 323  532.9213
 324  492.09
 325  560.5052
 326  506.2537
 327  550.533
 328  505.7947
 329  508.0472
 330  541.5394
 331  490.9289
 332  576.7929
 333  617.3157
 334  489.4579
 335  484.2491
 336  382.8004
 337  398.481
 338  460.1875
 339  489.145
 340  478.7129
 341  470.7585
 342  508.4387
 343  511.8821
 344  330.7798
 345  374.8837
 346  395.4934
 347  515.4495
 348  464.4542
 349  447.1693
 350  437.1773
 351  404.1394
 352  457.0671
 353  454.828
 354  392.1886
 355  420.8295
 356  428.9607
 357  383.9351
 358  405.7085
 359  435.7225
 360  460.4118
 361  390.9602
 362  430.3721
 363  481.3739
 364  456.2268
 365  367.9959
 366  361.6219
 367  377.7075
 368  372.1078
 369  325.2566
 370  421.0644
 371  489.1676
 372  467.0142
 373  369.4312
 374  344.5851
 375  383.0746
 376  390.6531
 377  457.1712
 378  483.187
 379  488.0369
 380  448.734
 381  478.6406
 382  476.3417
 383  411.3888
 384  497.8382
 385  529.227
 386  540.687
 387  583.8586
 388  583.0799
 389  464.7443
 390  338.1495
 391  374.8044
 392  455.1037
 393  511.0388
 394  545.4261
 395  501.3729
 396  443.2068
 397  534.0943
 398  469.3217
 399  348.7701
 400  378.9248
 401  491.1624
 402  519.8477
 403  444.4196
 404  526.4366
 405  463.2494
 406  362.9438
 407  414.804
 408  498.7863
 409  472.166
 410  493.3368
 411  564.275
 412  531.2123
 413  456.018
 414  652.998
 415  434.4428
 416  365.937
 417  556.6445
 418  575.1009
 419  374.6343
 420  507.6411
 421  587.6872
 422  509.9281
 423  433.6861
 424  324.1802
 425  360.8752
 426  334.4077
 427  326.0515
 428  335.5377
 429  420.5933
 430  399.7708
 431  332.3542
 432  335.6443
 433  352.226
 434  289.9664
 435  264.3375
 436  251.7852
 437  258.6795
 438  319.7455
 439  231.6512
 440  197.2821
 441  276.4351
 442  283.0224
 443  366.4207
 444  462.8898
 445  523.0645
 446  530.0624
 447  452.8157
 448  328.868
 449  366.9319
 450  530.5135
 451  514.5137
 452  468.3931
 453  415.8051
 454  470.8356
 455  458.6631
 456  487.1282
 457  573.3588
 458  524.0043
 459  431.368
 460  391.1656
 461  558.3455
 462  553.3932
 463  469.2661
 464  458.4852
 465  445.412
 466  319.4291
 467  392.4466
 468  456.6618
 469  418.5303
 470  323.4207
 471  360.1194
 472  322.9474
 473  190.1093
 474  236.2121
 475  274.2309
 476  374.3165
 477  437.1977
 478  455.8954
 479  425.1977
 480  412.3216
 481  297.3755
 482  262.171
 483  291.7407
 484  244.2242
 485  307.3494
 486  401.5349
 487  291.0396
 488  243.1231
 489  304.6167
 490  314.0525
 491  366.0873
 492  388.8762
 493  310.549
 494  307.9047
 495  345.472
 496  379.3862
 497  429.8896
 498  295.247
 499  364.5554
 500  527.5919
 501  451.3945
 502  338.0932
 503  244.455
 504  333.0587
 505  392.3525
 506  362.4015
 507  313.4618
 508  511.0904
 509  520.7987
 510  466.7117
 511  257.2908
