# Input file       =  1184832292.107880-PSRB0329-2ms-sampling-dd.dat
# Candidate        =  PSR_0332+5434
# Telescope        =  AR
# Epoch_topo       =  57957.336934118983
# Epoch_bary       =  N/A
# T_sample         =  0.002
# Data Folded      =  7340032
# Data Avg         =  -8.32249575574309e-10
# Data StdDev      =  6.68923450975611 
# Profile Bins     =  512
# Profile Avg      =  0.1456196732578  
# Profile StdDev   =  800.922358889348 
# Reduced chi-sqr  =  0.488
# Prob(Noise)      <  1   (~0.0 sigma)
# P_topo (ms)      =  714.47412481902   +/- 0.000308
# P'_topo (s/s)    =  -0                +/- 1.62e-10
# P''_topo (s/s^2) =  0                 +/- 7.17e-14
# P_bary (ms)      =  N/A
# P'_bary (s/s)    =  N/A
# P''_bary (s/s^2) =  N/A
# P_orb (s)        =  N/A
# asin(i)/c (s)    =  N/A
# eccentricity     =  N/A
# w (rad)          =  N/A
# T_peri           =  N/A
######################################################
   0  183.5857
   1  -153.9519
   2  -329.9388
   3  -201.2454
   4  -23.83592
   5  -335.1215
   6  -257.065
   7  -92.48916
   8  -24.1311
   9  -332.7862
  10  -540.6588
  11  -560.5458
  12  -728.189
  13  -678.4301
  14  156.5332
  15  204.7191
  16  91.48714
  17  223.9195
  18  15.7655
  19  -215.2579
  20  -137.6145
  21  163.0908
  22  30.478
  23  -213.5608
  24  -122.9331
  25  -233.7887
  26  -84.9306
  27  -287.0374
  28  276.7225
  29  225.8688
  30  330.143
  31  363.7557
  32  -65.71919
  33  -276.9882
  34  -500.425
  35  -301.5484
  36  -85.08187
  37  -87.34521
  38  17.34598
  39  -173.6916
  40  -539.2307
  41  -450.7651
  42  -400.9037
  43  -490.8568
  44  -714.092
  45  -178.4468
  46  86.49004
  47  -45.8997
  48  -149.4332
  49  -501.4332
  50  -998.3185
  51  -668.703
  52  73.20818
  53  274.3708
  54  151.7947
  55  174.4891
  56  80.10057
  57  -240.5648
  58  -158.4894
  59  27.97689
  60  33.58925
  61  -164.5921
  62  -148.9515
  63  -193.2262
  64  -292.0089
  65  -488.0848
  66  -561.7415
  67  -414.1314
  68  -335.4094
  69  -528.7926
  70  -529.0209
  71  -344.9747
  72  -425.2964
  73  -132.9498
  74  22.51388
  75  116.6341
  76  -349.5523
  77  -795.5878
  78  -679.8041
  79  -195.8244
  80  135.637
  81  542.4031
  82  388.322
  83  -9.349556
  84  -430.5025
  85  -217.5521
  86  -409.1017
  87  -546.4836
  88  99.00245
  89  199.9678
  90  -93.96064
  91  -505.9903
  92  -649.6999
  93  -655.5586
  94  -499.4985
  95  9.817433
  96  -228.8331
  97  -436.8871
  98  -525.5712
  99  45.03802
 100  212.1023
 101  265.6383
 102  392.5264
 103  192.6996
 104  198.6454
 105  11.78601
 106  343.4112
 107  476.4882
 108  534.0007
 109  538.2556
 110  260.4536
 111  568.9867
 112  383.9221
 113  670.1589
 114  521.567
 115  462.6507
 116  229.0427
 117  68.14364
 118  140.6363
 119  295.9841
 120  394.8043
 121  489.7181
 122  661.452
 123  347.0727
 124  393.2401
 125  178.4147
 126  33.05778
 127  287.8675
 128  137.972
 129  -84.21633
 130  -211.3364
 131  -170.2561
 132  104.5634
 133  84.90448
 134  -166.8892
 135  -225.4334
 136  -115.23
 137  -30.46893
 138  -391.7857
 139  -183.961
 140  -22.09185
 141  361.8177
 142  46.73854
 143  63.32322
 144  135.9973
 145  361.5185
 146  428.4328
 147  516.2236
 148  805.3578
 149  628.3065
 150  450.8431
 151  677.8633
 152  554.0583
 153  414.4625
 154  323.0686
 155  348.3115
 156  296.3082
 157  122.0862
 158  210.5103
 159  113.8225
 160  -216.2455
 161  -277.7864
 162  -200.4551
 163  -70.54948
 164  234.0085
 165  363.2919
 166  505.0323
 167  -21.40664
 168  -308.1432
 169  -353.939
 170  -295.6536
 171  136.6538
 172  98.39926
 173  426.4663
 174  248.0686
 175  206.0336
 176  110.1398
 177  -113.1389
 178  225.7887
 179  540.66
 180  665.8359
 181  412.1306
 182  763.2787
 183  360.4817
 184  391.3039
 185  532.8443
 186  440.3907
 187  115.1441
 188  306.1697
 189  459.0733
 190  -95.40854
 191  -206.3627
 192  -314.9389
 193  -372.6342
 194  -438.9886
 195  263.8125
 196  208.5023
 197  -454.6639
 198  -215.9527
 199  -519.8739
 200  -569.0993
 201  -714.3203
 202  -697.3676
 203  -521.609
 204  -486.7286
 205  -643.8766
 206  -489.0716
 207  9.630941
 208  -32.15592
 209  -32.43353
 210  -464.7884
 211  -451.8866
 212  -83.69089
 213  77.27551
 214  -23.91632
 215  309.2951
 216  770.5681
 217  852.2765
 218  364.8825
 219  409.0027
 220  -125.262
 221  -138.3106
 222  205.9001
 223  400.4613
 224  638.7839
 225  193.6999
 226  -200.7212
 227  -205.4678
 228  -24.17228
 229  -52.99152
 230  -264.0802
 231  -286.4017
 232  -562.2361
 233  -718.9572
 234  -592.0585
 235  -518.9217
 236  53.65813
 237  -43.5848
 238  -88.67009
 239  -97.16642
 240  107.8574
 241  -203.4292
 242  219.3301
 243  50.56184
 244  469.2888
 245  670.1025
 246  510.9134
 247  673.0793
 248  831.9246
 249  593.9631
 250  -42.30066
 251  295.9952
 252  251.3797
 253  245.9623
 254  387.5476
 255  158.7878
 256  -24.32455
 257  -146.4526
 258  168.7972
 259  193.2312
 260  191.8392
 261  1.75093
 262  -396.6215
 263  117.1105
 264  -304.4753
 265  -261.5215
 266  168.0632
 267  -117.9322
 268  386.577
 269  513.5336
 270  295.4182
 271  147.9861
 272  -178.9008
 273  300.2198
 274  1270.396
 275  1997.085
 276  2196.587
 277  1892.189
 278  1510.47
 279  1174.605
 280  598.7377
 281  410.5404
 282  607.6249
 283  461.9733
 284  141.465
 285  -113.2257
 286  -263.271
 287  -314.0203
 288  -109.3662
 289  69.0806
 290  229.6022
 291  79.68915
 292  -266.683
 293  -222.0628
 294  -497.8851
 295  -546.6874
 296  -702.3382
 297  -376.7032
 298  -153.38
 299  -303.946
 300  -408.3531
 301  -320.9523
 302  -284.3982
 303  -322.0346
 304  -269.9544
 305  -296.5348
 306  -564.3968
 307  -0.7765525
 308  -182.8506
 309  39.95308
 310  249.4954
 311  112.722
 312  -471.0139
 313  -146.4722
 314  177.4369
 315  157.4327
 316  450.7862
 317  120.3365
 318  38.0098
 319  -38.45657
 320  -229.3789
 321  -518.1711
 322  -422.3277
 323  -353.2812
 324  -657.2104
 325  -599.2905
 326  -593.5219
 327  -290.1154
 328  -293.3099
 329  -394.6396
 330  -481.0837
 331  -436.7296
 332  -541.3996
 333  -777.1383
 334  -506.0784
 335  -743.4989
 336  -814.8915
 337  -87.21445
 338  342.0946
 339  -40.52301
 340  -20.40851
 341  -36.94041
 342  -169.6782
 343  -240.5771
 344  238.1643
 345  -55.76507
 346  42.04629
 347  -341.7389
 348  -306.2047
 349  -380.5677
 350  -17.60357
 351  -350.4818
 352  -590.2142
 353  -501.9778
 354  -174.1725
 355  -187.0564
 356  -439.971
 357  -314.6432
 358  -578.918
 359  -421.5949
 360  -315.0107
 361  77.06071
 362  -203.2896
 363  -415.6715
 364  -477.6941
 365  -771.8516
 366  -368.0589
 367  147.1338
 368  237.6493
 369  494.0263
 370  243.0738
 371  271.1689
 372  302.2632
 373  157.7322
 374  218.6401
 375  592.12
 376  629.3889
 377  162.3193
 378  -37.87914
 379  -221.3423
 380  -52.77102
 381  -547.678
 382  -751.0309
 383  -350.9999
 384  -177.4481
 385  -394.8233
 386  -567.1985
 387  -513.567
 388  -378.0768
 389  -590.0135
 390  -335.1697
 391  52.15207
 392  216.841
 393  251.2947
 394  44.35295
 395  -248.6555
 396  -266.9718
 397  115.2215
 398  184.4149
 399  254.9948
 400  143.7094
 401  -59.64441
 402  -172.0197
 403  121.1777
 404  503.2592
 405  326.1543
 406  166.6052
 407  -97.76469
 408  252.8817
 409  45.49115
 410  -82.04536
 411  388.8892
 412  122.7123
 413  -505.7122
 414  -329.6855
 415  101.1199
 416  695.7568
 417  784.3475
 418  603.6272
 419  665.3032
 420  313.3736
 421  -391.0533
 422  -416.0763
 423  -161.9133
 424  255.6086
 425  568.2612
 426  459.5164
 427  419.0084
 428  -7.920375
 429  -179.9121
 430  388.5821
 431  365.0872
 432  477.8587
 433  488.0367
 434  308.0486
 435  45.97104
 436  253.6778
 437  549.4804
 438  531.0792
 439  806.4751
 440  585.6136
 441  242.4316
 442  59.94048
 443  448.9843
 444  488.7451
 445  382.6133
 446  316.5018
 447  -47.6171
 448  -37.72697
 449  186.9596
 450  353.6711
 451  330.2702
 452  288.2756
 453  29.23074
 454  -182.6887
 455  -24.18997
 456  -206.1806
 457  -33.2686
 458  -328.4776
 459  -107.0554
 460  201.7023
 461  202.3552
 462  219.2777
 463  265.5932
 464  81.75368
 465  -533.0348
 466  -300.4079
 467  -43.28199
 468  123.6362
 469  165.0071
 470  50.82329
 471  154.0983
 472  -257.9109
 473  -534.4381
 474  -824.9514
 475  -433.5969
 476  -185.9273
 477  -133.1642
 478  -198.645
 479  -323.8339
 480  -338.8195
 481  -267.5208
 482  -319.8132
 483  -91.13558
 484  -141.668
 485  -73.45496
 486  -286.8039
 487  -34.66765
 488  28.42394
 489  55.84715
 490  310.4971
 491  830.5389
 492  612.6309
 493  124.7583
 494  -229.9907
 495  -504.4061
 496  153.104
 497  284.7263
 498  403.2446
 499  391.3875
 500  278.249
 501  -57.17751
 502  28.72792
 503  35.59365
 504  352.6048
 505  336.8042
 506  -149.574
 507  -597.6473
 508  -423.0571
 509  -270.4012
 510  -248.6051
 511  22.58106
