# Input file       =  1184817381.103401_cleaned.dat
# Candidate        =  PSR_0332+5434
# Telescope        =  AR
# Epoch_topo       =  57957.164353048625
# Epoch_bary       =  N/A
# T_sample         =  0.002
# Data Folded      =  7340032
# Data Avg         =  0.152328423822058
# Data StdDev      =  3.43290714337742 
# Profile Bins     =  512
# Profile Avg      =  2182.47646867776 
# Profile StdDev   =  411.032395876069 
# Reduced chi-sqr  =  1.612
# Prob(Noise)      <  4.86e-17   (~8.3 sigma)
# P_topo (ms)      =  714.473887921991  +/- 0.000354
# P'_topo (s/s)    =  -0                +/- 1.87e-10
# P''_topo (s/s^2) =  0                 +/- 8.25e-14
# P_bary (ms)      =  N/A
# P'_bary (s/s)    =  N/A
# P''_bary (s/s^2) =  N/A
# P_orb (s)        =  N/A
# asin(i)/c (s)    =  N/A
# eccentricity     =  N/A
# w (rad)          =  N/A
# T_peri           =  N/A
######################################################
   0  1870.777
   1  1855.253
   2  1820.256
   3  1666.887
   4  1705.825
   5  1671.343
   6  1889.035
   7  1930.963
   8  2136.1
   9  2520.935
  10  2203.406
  11  1642.242
  12  1662.954
  13  1948.351
  14  2119.556
  15  2131.52
  16  2277.968
  17  2296.754
  18  2230.07
  19  2040.266
  20  2042.344
  21  1646.343
  22  1964.636
  23  2336.365
  24  2211.806
  25  2002.87
  26  2037.49
  27  2073.199
  28  1635.958
  29  1658.488
  30  1750.207
  31  1718.275
  32  1821.447
  33  1694.058
  34  2072.935
  35  2298.772
  36  2058.617
  37  1642.707
  38  1662.556
  39  1756.494
  40  1679.941
  41  1970.03
  42  2307.51
  43  2109.233
  44  1835.959
  45  1661.814
  46  1669.737
  47  1847.89
  48  1855.315
  49  1757.987
  50  1875.417
  51  1758.23
  52  1521.704
  53  1449.803
  54  1545.655
  55  1820.433
  56  1744.67
  57  1410.459
  58  1495.521
  59  1651.636
  60  1696.023
  61  1501.855
  62  1505.369
  63  1788.083
  64  1707.823
  65  1565.698
  66  1913.557
  67  2146.206
  68  1979.256
  69  1789.015
  70  1888.89
  71  1617.382
  72  1872.958
  73  2125.715
  74  1984.863
  75  2068.926
  76  2148.013
  77  2316.06
  78  2133.258
  79  1852.14
  80  1915.237
  81  1948.467
  82  2219.509
  83  2366.589
  84  2456.539
  85  2568.443
  86  2431.133
  87  2329.453
  88  2484.633
  89  2538.778
  90  2177.052
  91  1989.291
  92  2120.207
  93  2247.386
  94  2347.49
  95  2240.3
  96  2291.647
  97  2287.92
  98  2384.706
  99  2583.081
 100  2252.156
 101  2217.315
 102  2077.326
 103  1782.308
 104  1745.917
 105  1436.626
 106  2078.123
 107  2025.099
 108  1995.988
 109  1538.251
 110  1672.896
 111  1910.109
 112  1997.372
 113  1773.601
 114  2053.291
 115  1722.036
 116  1693.692
 117  2036.136
 118  2167.051
 119  2308.75
 120  2144.256
 121  2069.363
 122  2074.346
 123  2120.815
 124  2540.021
 125  2616.126
 126  2567.257
 127  2481.085
 128  2186.066
 129  2377.6
 130  2756.508
 131  2651.818
 132  2530.25
 133  2604.353
 134  2532.304
 135  2191.233
 136  2293.718
 137  2373.505
 138  2411.948
 139  2596.362
 140  2554.616
 141  2703.598
 142  2737.456
 143  2476.915
 144  2181.486
 145  2581.346
 146  2776.366
 147  2672.607
 148  2590.48
 149  2664.737
 150  2461.376
 151  2112.219
 152  2259.979
 153  2284.212
 154  2113.472
 155  1992.505
 156  2142.902
 157  2247.829
 158  2363.186
 159  2456.532
 160  2417.134
 161  2386.955
 162  2256.386
 163  2245.948
 164  2080.706
 165  1948.067
 166  1839.46
 167  2229.182
 168  2259.617
 169  1912.81
 170  1791.624
 171  1793.531
 172  1751.953
 173  1783.332
 174  1731.398
 175  1858.776
 176  1825.438
 177  1969.462
 178  1879.802
 179  2093.368
 180  2423.983
 181  2283.751
 182  2263.155
 183  2324.541
 184  1954.282
 185  1981.097
 186  2087.582
 187  2144.425
 188  2006.941
 189  1864.611
 190  1964.043
 191  2086.674
 192  2231.038
 193  2239.183
 194  2093.35
 195  2337.058
 196  2598.835
 197  2669.302
 198  2451.528
 199  2314.979
 200  2228.386
 201  2257.307
 202  2202.746
 203  2331.187
 204  2316.061
 205  2408.248
 206  2493.045
 207  2462.573
 208  2199.827
 209  2366.633
 210  2578.081
 211  2643.44
 212  2177.899
 213  2189.747
 214  2191.757
 215  2224.435
 216  2353.053
 217  2201.397
 218  2132.493
 219  2095.01
 220  2013.965
 221  2088.306
 222  2356.642
 223  2288.838
 224  2259.987
 225  2743.538
 226  3296.563
 227  3709.793
 228  4202.665
 229  4202.84
 230  4030.17
 231  3454.494
 232  2797.705
 233  2052.56
 234  1986.229
 235  2371.997
 236  2308.539
 237  2090.296
 238  2001.125
 239  2089.612
 240  2127.651
 241  2239.065
 242  2107.748
 243  2070.355
 244  1891.052
 245  1886.607
 246  1830.248
 247  1932.79
 248  2043.448
 249  1940.61
 250  1880.439
 251  1825.248
 252  1926.256
 253  2105.184
 254  2357.701
 255  2440.161
 256  2276.4
 257  2247.272
 258  2076.687
 259  2071.117
 260  1914.593
 261  2034.51
 262  2271.587
 263  2147.018
 264  2139.949
 265  1938.741
 266  2016.883
 267  2094.028
 268  1907.97
 269  1851.505
 270  2005.918
 271  1885.55
 272  1579.783
 273  1813.022
 274  2204.699
 275  2209.974
 276  2124.445
 277  2097.09
 278  1837.248
 279  2070.583
 280  2022.286
 281  2082.508
 282  2026.394
 283  2303.15
 284  1907.572
 285  2077.768
 286  2186.618
 287  1938.546
 288  2390.362
 289  2439.178
 290  2275.696
 291  2388.695
 292  2421.248
 293  2548.205
 294  2393.583
 295  2359.462
 296  2455.445
 297  2344.84
 298  2120.233
 299  2500.86
 300  2709.022
 301  2550.521
 302  2492.91
 303  2469.007
 304  2446.74
 305  2370.128
 306  2485.948
 307  2568.811
 308  2270.821
 309  2240.269
 310  2444.214
 311  2393.635
 312  2430.384
 313  2320.594
 314  2286.94
 315  2320.283
 316  2326.728
 317  2157.031
 318  2162.724
 319  2204.369
 320  2282.97
 321  2370.188
 322  2408.806
 323  2487.04
 324  2315.285
 325  2300.546
 326  2154.14
 327  2181.082
 328  2074.45
 329  2330.098
 330  2471.539
 331  2399.13
 332  2174.957
 333  2114.585
 334  2051.659
 335  2095.327
 336  2038.797
 337  2241.536
 338  2179.794
 339  2012.86
 340  2159.534
 341  2148.792
 342  2292.551
 343  2299.074
 344  2244.112
 345  2125.871
 346  2405.706
 347  2338.754
 348  2308.129
 349  2642.953
 350  2613.975
 351  2541.137
 352  2413.823
 353  2443.846
 354  2730.735
 355  2856.763
 356  3049.517
 357  2898.535
 358  2659.935
 359  2598.759
 360  2363.635
 361  2516.831
 362  2551.492
 363  2422.09
 364  2649.948
 365  2676.777
 366  2689.752
 367  2661.43
 368  2635.099
 369  2783.483
 370  2953.101
 371  2762.172
 372  2510.85
 373  2736.723
 374  2977.869
 375  2680.908
 376  2691.551
 377  2553.157
 378  2814.363
 379  2617.361
 380  2713.425
 381  2968.233
 382  2603.614
 383  2365.21
 384  2545.27
 385  2564.963
 386  2590.567
 387  2459.133
 388  2385.696
 389  2477.993
 390  2383.442
 391  2283.417
 392  2372.837
 393  2303.886
 394  2478.099
 395  2389.132
 396  2557.935
 397  2307.194
 398  2268.162
 399  2118.897
 400  2243.851
 401  1910.859
 402  2251.15
 403  2651.965
 404  2476.708
 405  2453.406
 406  2269.253
 407  2048.04
 408  1698.628
 409  2102.467
 410  2257.094
 411  2441.121
 412  2523.125
 413  2479.886
 414  2327.767
 415  2706.129
 416  2529.898
 417  2449.117
 418  2394.013
 419  2630.682
 420  2449.583
 421  2782.421
 422  3030.738
 423  2748.206
 424  2524.402
 425  2381.483
 426  2199.883
 427  2196.232
 428  2089.765
 429  2363.907
 430  2712.934
 431  2384.716
 432  2229.545
 433  2272.191
 434  2460.314
 435  2403.104
 436  2319.24
 437  2265.358
 438  2472.207
 439  2770.218
 440  2529.671
 441  2192.335
 442  2202.024
 443  2265.24
 444  2399.387
 445  2508.888
 446  2471.077
 447  2598.09
 448  2450.578
 449  2256.367
 450  2241.715
 451  2645.391
 452  2635.695
 453  2182.775
 454  1877.529
 455  1773.912
 456  1945.259
 457  2112.817
 458  2076.106
 459  1951.803
 460  1782.685
 461  1784.23
 462  1778.603
 463  1695.547
 464  1660.949
 465  1816.735
 466  1759.773
 467  1928.599
 468  1689.684
 469  1477.304
 470  1950.388
 471  1996.706
 472  1718.548
 473  1541.999
 474  1581.086
 475  1720.155
 476  1626.849
 477  1661.983
 478  1778.034
 479  1902.914
 480  1949.187
 481  1630.899
 482  1490.696
 483  1468.991
 484  1530.365
 485  1901.175
 486  2109.502
 487  2009.234
 488  1695.92
 489  1531.935
 490  1505.213
 491  1648.037
 492  1728.492
 493  1764.786
 494  1779.914
 495  1625.198
 496  1621.909
 497  1732.527
 498  1648.058
 499  1685.72
 500  1820.603
 501  1736.382
 502  1810.92
 503  1758.86
 504  1754.837
 505  1594.25
 506  1807.719
 507  1522.826
 508  1467.011
 509  1571.004
 510  1640.616
 511  1761.073
