# Input file       =  1184143011.101692_cleaned.dat
# Candidate        =  PSR_0332+5434
# Telescope        =  AR
# Epoch_topo       =  57949.359144695511
# Epoch_bary       =  N/A
# T_sample         =  0.002
# Data Folded      =  7340032
# Data Avg         =  0.0349499351615279
# Data StdDev      =  1.00004222955648 
# Profile Bins     =  512
# Profile Avg      =  501.08227332914  
# Profile StdDev   =  119.738092649788 
# Reduced chi-sqr  =  1.014
# Prob(Noise)      <  0.404   (~0.2 sigma)
# P_topo (ms)      =  714.479018299819  +/- 0.000376
# P'_topo (s/s)    =  -0                +/- 1.99e-10
# P''_topo (s/s^2) =  0                 +/- 8.77e-14
# P_bary (ms)      =  N/A
# P'_bary (s/s)    =  N/A
# P''_bary (s/s^2) =  N/A
# P_orb (s)        =  N/A
# asin(i)/c (s)    =  N/A
# eccentricity     =  N/A
# w (rad)          =  N/A
# T_peri           =  N/A
######################################################
   0  1179.747
   1  1055.965
   2  896.3642
   3  712.5685
   4  616.431
   5  546.7157
   6  488.3453
   7  425.3962
   8  531.5092
   9  544.9487
  10  567.2687
  11  591.4885
  12  546.0936
  13  540.2298
  14  602.6919
  15  570.9492
  16  514.5584
  17  483.5953
  18  577.9301
  19  508.1169
  20  437.597
  21  502.8521
  22  496.1877
  23  485.8075
  24  372.8496
  25  398.099
  26  484.9076
  27  487.3574
  28  576.543
  29  593.5487
  30  464.7807
  31  497.3414
  32  461.4282
  33  572.8798
  34  615.5746
  35  597.7356
  36  505.7705
  37  396.3159
  38  470.1775
  39  580.1613
  40  471.5805
  41  407.8477
  42  428.8623
  43  426.6343
  44  507.5772
  45  385.9174
  46  484.1911
  47  463.7692
  48  492.3762
  49  481.5
  50  487.2151
  51  516.5786
  52  565.1777
  53  557.093
  54  487.5508
  55  443.7066
  56  477.5952
  57  518.8453
  58  544.1083
  59  602.911
  60  582.6067
  61  459.6981
  62  533.0082
  63  583.5026
  64  549.1185
  65  419.0001
  66  531.0664
  67  473.6103
  68  592.0917
  69  582.5588
  70  498.5019
  71  455.5403
  72  355.4782
  73  450.7826
  74  476.9711
  75  556.3148
  76  487.9669
  77  464.361
  78  484.7543
  79  461.8206
  80  410.506
  81  505.7799
  82  581.3015
  83  624.2782
  84  503.5935
  85  379.2724
  86  438.9588
  87  423.9574
  88  465.8476
  89  432.9919
  90  521.4485
  91  477.7393
  92  394.4041
  93  511.3232
  94  537.7285
  95  420.4506
  96  610.0717
  97  595.3514
  98  509.1075
  99  436.5113
 100  462.3025
 101  372.0201
 102  347.2892
 103  414.8218
 104  528.4894
 105  566.374
 106  579.4942
 107  440.34
 108  376.0202
 109  500.4212
 110  529.0527
 111  481.1061
 112  579.0497
 113  557.8698
 114  558.7391
 115  557.2853
 116  565.0932
 117  582.9417
 118  601.2256
 119  691.3488
 120  618.287
 121  532.0102
 122  531.3229
 123  534.8649
 124  589.3311
 125  520.9492
 126  490.7422
 127  514.2417
 128  469.8198
 129  553.7036
 130  543.6627
 131  446.2079
 132  371.05
 133  344.5211
 134  456.0619
 135  560.0156
 136  506.0029
 137  523.5125
 138  512.3392
 139  436.2616
 140  462.2551
 141  382.8835
 142  435.0447
 143  495.057
 144  422.2064
 145  401.0692
 146  398.536
 147  453.1162
 148  441.4885
 149  400.4207
 150  406.6745
 151  487.9526
 152  487.7647
 153  475.2794
 154  481.9177
 155  485.7934
 156  490.678
 157  516.5001
 158  491.4396
 159  502.5192
 160  529.6057
 161  535.3595
 162  589.239
 163  678.452
 164  686.7429
 165  530.0305
 166  525.5673
 167  518.4252
 168  489.2078
 169  447.7223
 170  452.7801
 171  599.1788
 172  605.6957
 173  590.6525
 174  505.4593
 175  459.52
 176  509.7912
 177  587.8089
 178  551.4446
 179  441.7162
 180  588.2066
 181  644.2042
 182  527.2487
 183  528.3453
 184  477.7079
 185  467.0661
 186  489.6146
 187  452.3123
 188  553.866
 189  593.9334
 190  562.3734
 191  436.6035
 192  534.3591
 193  555.0984
 194  424.6158
 195  329.4012
 196  504.2885
 197  579.0943
 198  607.7726
 199  625.4081
 200  602.2339
 201  692.2335
 202  684.3313
 203  483.8517
 204  561.9532
 205  522.7722
 206  465.4447
 207  569.2238
 208  485.2989
 209  529.8161
 210  488.77
 211  470.796
 212  452.7378
 213  571.6595
 214  478.7827
 215  456.4862
 216  447.8006
 217  545.8859
 218  555.2843
 219  619.147
 220  589.0905
 221  564.97
 222  550.1404
 223  550.7402
 224  584.8317
 225  607.1986
 226  498.9404
 227  424.4172
 228  472.184
 229  447.5654
 230  442.6423
 231  518.9567
 232  469.8659
 233  446.4551
 234  450.1425
 235  467.3814
 236  467.8433
 237  616.2648
 238  595.1237
 239  549.6134
 240  597.343
 241  639.1536
 242  537.1353
 243  464.4246
 244  556.2068
 245  495.7597
 246  565.04
 247  623.8055
 248  605.4043
 249  616.4852
 250  433.0215
 251  416.9538
 252  440.5245
 253  477.214
 254  566.7967
 255  498.1275
 256  344.4006
 257  388.6057
 258  423.7565
 259  501.8423
 260  516.6829
 261  567.7242
 262  596.772
 263  530.0925
 264  483.3223
 265  583.0505
 266  528.4542
 267  569.8615
 268  601.2081
 269  495.4588
 270  401.8153
 271  439.6306
 272  486.137
 273  501.1032
 274  537.0198
 275  579.5522
 276  613.8549
 277  544.2032
 278  539.4129
 279  452.5978
 280  473.2536
 281  486.8341
 282  566.5529
 283  473.2618
 284  474.5345
 285  553.5513
 286  461.3531
 287  451.8784
 288  584.6183
 289  547.8807
 290  439.5284
 291  501.0808
 292  549.7719
 293  511.5176
 294  520.6076
 295  623.0966
 296  511.3742
 297  434.7718
 298  453.4283
 299  451.6665
 300  443.6378
 301  520.6081
 302  504.8976
 303  420.5093
 304  500.3773
 305  601.4704
 306  472.4624
 307  393.2556
 308  423.1904
 309  483.876
 310  533.884
 311  559.3334
 312  498.0806
 313  593.9583
 314  471.9491
 315  423.5197
 316  415.5128
 317  483.653
 318  451.6913
 319  386.4132
 320  453.3057
 321  541.694
 322  510.63
 323  544.5417
 324  416.6743
 325  409.6721
 326  468.0758
 327  422.2074
 328  410.3956
 329  443.6056
 330  496.8358
 331  409.9768
 332  435.508
 333  379.7164
 334  472.4314
 335  527.559
 336  534.1239
 337  476.7635
 338  435.742
 339  443.4376
 340  485.5401
 341  447.585
 342  455.4383
 343  415.4164
 344  316.8574
 345  422.7696
 346  405.3873
 347  443.9342
 348  497.4276
 349  415.0013
 350  342.7012
 351  491.0803
 352  376.3239
 353  390.4723
 354  460.7292
 355  476.8982
 356  520.1292
 357  497.4344
 358  546.9142
 359  450.5891
 360  423.3651
 361  471.0166
 362  441.9015
 363  474.1544
 364  446.8818
 365  446.0866
 366  394.1309
 367  392.4989
 368  478.9327
 369  488.0066
 370  423.2433
 371  444.7845
 372  501.0765
 373  508.9244
 374  448.4208
 375  465.0226
 376  439.6551
 377  386.2566
 378  409.1075
 379  458.1946
 380  444.7001
 381  426.2527
 382  458.1324
 383  486.2581
 384  494.4121
 385  476.9288
 386  431.1424
 387  429.4933
 388  457.0359
 389  482.2303
 390  515.0475
 391  521.0091
 392  448.635
 393  367.8795
 394  462.8874
 395  473.8716
 396  433.95
 397  350.5858
 398  500.67
 399  475.6727
 400  490.3299
 401  569.5737
 402  462.5017
 403  580.7102
 404  558.0356
 405  514.0922
 406  478.9748
 407  407.3253
 408  445.4761
 409  435.1327
 410  571.6309
 411  504.6166
 412  495.1056
 413  427.8727
 414  415.6899
 415  446.6421
 416  563.1007
 417  576.0832
 418  504.4769
 419  493.8011
 420  485.0211
 421  415.546
 422  413.1717
 423  506.4465
 424  491.7255
 425  460.1839
 426  439.3872
 427  444.3412
 428  493.6643
 429  586.2372
 430  530.6891
 431  465.9521
 432  513.905
 433  474.3217
 434  499.1761
 435  545.3137
 436  458.4654
 437  433.4787
 438  499.6266
 439  532.2343
 440  545.5436
 441  425.7612
 442  399.1267
 443  368.3248
 444  420.7166
 445  414.4602
 446  405.2394
 447  426.079
 448  389.2579
 449  437.8523
 450  429.4106
 451  450.921
 452  423.7986
 453  431.5844
 454  460.0088
 455  384.0634
 456  495.9942
 457  512.2701
 458  426.0818
 459  524.0302
 460  398.8105
 461  603.2964
 462  566.9037
 463  515.2559
 464  545.7504
 465  555.904
 466  548.4923
 467  543.2592
 468  582.5519
 469  540.0649
 470  527.447
 471  585.9526
 472  641.5906
 473  701.1577
 474  590.1855
 475  539.3342
 476  537.3438
 477  509.7733
 478  592.8875
 479  492.5282
 480  473.7965
 481  414.4321
 482  416.7988
 483  448.3468
 484  458.4252
 485  506.0157
 486  540.0156
 487  474.9898
 488  501.3879
 489  497.7344
 490  416.1245
 491  421.4639
 492  552.0222
 493  464.9373
 494  499.0724
 495  452.7643
 496  473.7932
 497  502.7733
 498  471.0359
 499  426.8434
 500  483.3044
 501  388.5134
 502  422.3153
 503  594.1649
 504  511.2382
 505  351.1218
 506  435.905
 507  538.4398
 508  694.3906
 509  872.0726
 510  905.8585
 511  1033.346
