# Input file       =  1184975008.108039_cleaned.dat
# Candidate        =  PSR_0332+5434
# Telescope        =  AR
# Epoch_topo       =  57958.988739676373
# Epoch_bary       =  N/A
# T_sample         =  0.002
# Data Folded      =  7274496
# Data Avg         =  0.144306663845389
# Data StdDev      =  5.05286906807994 
# Profile Bins     =  256
# Profile Avg      =  4100.82846672577 
# Profile StdDev   =  851.764463356639 
# Reduced chi-sqr  =  0.635
# Prob(Noise)      <  1   (~0.0 sigma)
# P_topo (ms)      =  714.472874077611  +/- 0.000133
# P'_topo (s/s)    =  -0                +/- 7.11e-11
# P''_topo (s/s^2) =  0                 +/- 3.17e-14
# P_bary (ms)      =  N/A
# P'_bary (s/s)    =  N/A
# P''_bary (s/s^2) =  N/A
# P_orb (s)        =  N/A
# asin(i)/c (s)    =  N/A
# eccentricity     =  N/A
# w (rad)          =  N/A
# T_peri           =  N/A
######################################################
   0  3913.764
   1  3053.455
   2  4015.708
   3  4487.129
   4  3959.033
   5  3300.401
   6  3245.666
   7  4993.463
   8  4155.019
   9  3853.438
  10  4169.27
  11  3966.979
  12  4130.645
  13  4083.722
  14  4593.255
  15  4413.859
  16  3916.383
  17  3966.425
  18  4391.84
  19  4279.697
  20  4417.647
  21  3691.332
  22  4024.204
  23  4729.213
  24  4330.501
  25  4850.649
  26  5229.03
  27  4348.841
  28  4124.362
  29  3583.146
  30  4543.579
  31  4719.913
  32  4430.616
  33  3839.759
  34  4382.536
  35  4616.967
  36  4147.799
  37  3507.864
  38  3726.355
  39  4601.6
  40  5281.304
  41  4234.269
  42  3556.264
  43  3509.774
  44  4475.662
  45  4610.204
  46  3375.253
  47  4244.967
  48  4624.993
  49  4456.785
  50  4257.722
  51  4291.728
  52  3812.743
  53  3865.514
  54  3564.113
  55  4002.094
  56  4684.383
  57  4537.301
  58  3634.606
  59  3945.518
  60  4248.137
  61  4226.915
  62  4671.341
  63  4767.522
  64  3764.522
  65  4182.707
  66  4622.996
  67  3917.835
  68  5033.358
  69  4063.462
  70  3112.219
  71  3912.661
  72  4261.369
  73  5401.773
  74  4266.93
  75  4054.445
  76  3654.055
  77  4175.634
  78  4191.754
  79  3649.83
  80  4069.48
  81  3816.849
  82  4292.416
  83  3771.002
  84  4428.096
  85  4283.629
  86  3860.392
  87  3292.594
  88  3865.249
  89  3898.01
  90  4191.35
  91  3741.675
  92  4083.969
  93  4074.973
  94  4936.635
  95  4217.86
  96  3645.303
  97  4292.341
  98  4918.859
  99  4747.16
 100  3903.528
 101  3733.63
 102  3903.722
 103  4155.757
 104  3342.108
 105  3560.276
 106  3465.774
 107  4273.914
 108  3903.79
 109  4064.22
 110  4538.758
 111  3735.786
 112  3429.68
 113  3155.045
 114  3533.049
 115  4154.604
 116  3670.436
 117  3444.799
 118  3610.993
 119  3813.702
 120  4423.912
 121  4278.519
 122  3587.126
 123  3838.924
 124  4111.107
 125  3575.358
 126  3999.744
 127  3889.682
 128  3847.709
 129  3424.726
 130  4305.234
 131  4516.374
 132  3807.682
 133  3300.499
 134  3434.671
 135  4012.195
 136  4147.707
 137  3273.412
 138  3926.738
 139  4153.289
 140  4205.417
 141  4324.815
 142  4132.979
 143  4744.457
 144  4573.683
 145  4068.807
 146  4273.691
 147  4015.242
 148  5465.861
 149  4679.131
 150  4509.139
 151  4365.479
 152  5018.671
 153  4648.623
 154  3804.231
 155  3504.529
 156  4743.402
 157  4583.059
 158  4349.941
 159  4437.687
 160  5084.223
 161  6529.449
 162  7067.692
 163  7633.341
 164  5553.329
 165  4210.102
 166  4125.76
 167  3626.523
 168  4258.494
 169  5461.153
 170  3716.086
 171  4436.534
 172  4866.197
 173  4301.034
 174  3519.31
 175  3435.594
 176  3995.237
 177  3875.177
 178  2808.712
 179  3885.593
 180  4849.803
 181  4420.751
 182  3579.575
 183  3829.352
 184  4286.16
 185  4598.209
 186  4374.476
 187  3552.378
 188  3452.922
 189  4124.514
 190  4598.489
 191  3869.528
 192  3662.813
 193  3566.279
 194  4020.804
 195  3929.73
 196  3661.971
 197  3268.345
 198  3130.075
 199  3498.547
 200  4008.401
 201  3880.23
 202  3213.799
 203  3134.097
 204  3534.429
 205  3973.135
 206  4096.456
 207  4645.738
 208  4032.77
 209  3338.821
 210  4080.265
 211  3952.812
 212  3272.616
 213  3431.017
 214  4210.694
 215  4131.347
 216  3362.441
 217  3864.47
 218  4308.511
 219  3062.538
 220  3226.97
 221  3975.419
 222  4230.31
 223  3831.565
 224  4083.853
 225  3595.497
 226  4020.077
 227  3943.067
 228  3829.725
 229  3003.575
 230  4110.472
 231  3778.976
 232  4224.151
 233  4213.686
 234  4208.653
 235  3218.879
 236  3685.709
 237  4612.492
 238  4030.409
 239  4421.133
 240  4360.32
 241  4060.531
 242  4442.979
 243  3841.843
 244  3859.977
 245  4230.445
 246  5070.72
 247  4134.93
 248  3945.924
 249  4388.163
 250  4266.258
 251  4271.396
 252  3616.383
 253  3969.15
 254  4812.913
 255  4092.109
