# Input file       =  1184975008.108039-PSRB0329-2ms-sampling-dd.dat
# Candidate        =  PSR_0332+5434
# Telescope        =  AR
# Epoch_topo       =  57958.988739676373
# Epoch_bary       =  N/A
# T_sample         =  0.002
# Data Folded      =  7274496
# Data Avg         =  -4.49349790154523e-10
# Data StdDev      =  6.59278253271251 
# Profile Bins     =  512
# Profile Avg      =  0.24553145007484 
# Profile StdDev   =  785.841978954972 
# Reduced chi-sqr  =  0.542
# Prob(Noise)      <  1   (~0.0 sigma)
# P_topo (ms)      =  714.472874095587  +/- 0.000124
# P'_topo (s/s)    =  -0                +/- 6.59e-11
# P''_topo (s/s^2) =  0                 +/- 2.94e-14
# P_bary (ms)      =  N/A
# P'_bary (s/s)    =  N/A
# P''_bary (s/s^2) =  N/A
# P_orb (s)        =  N/A
# asin(i)/c (s)    =  N/A
# eccentricity     =  N/A
# w (rad)          =  N/A
# T_peri           =  N/A
######################################################
   0  361.4932
   1  375.4133
   2  257.3514
   3  509.3738
   4  464.359
   5  378.8921
   6  219.1728
   7  350.8661
   8  60.22464
   9  403.1279
  10  641.5294
  11  353.7552
  12  145.299
  13  -110.2551
  14  18.87847
  15  256.3262
  16  555.4279
  17  928.761
  18  1069.077
  19  516.1137
  20  71.04417
  21  419.6944
  22  175.5392
  23  411.5881
  24  598.7312
  25  269.4359
  26  270.3852
  27  32.97273
  28  257.9875
  29  -169.3987
  30  237.0491
  31  202.3282
  32  185.9751
  33  794.2746
  34  409.5792
  35  357.4124
  36  225.4832
  37  401.425
  38  371.731
  39  -238.2112
  40  93.51266
  41  281.5176
  42  619.1313
  43  464.7063
  44  546.3546
  45  471.7103
  46  427.9518
  47  206.4542
  48  -84.85374
  49  -15.30054
  50  -216.3617
  51  610.3411
  52  1211.607
  53  939.4034
  54  126.3772
  55  219.5923
  56  238.1847
  57  162.9599
  58  198.4397
  59  183.8779
  60  393.8562
  61  305.7717
  62  59.35036
  63  -103.4793
  64  155.6127
  65  372.2038
  66  160.2212
  67  518.3882
  68  642.2725
  69  361.1892
  70  -158.3224
  71  -134.071
  72  -20.85406
  73  -194.2284
  74  199.2843
  75  129.0924
  76  -7.791492
  77  356.9034
  78  -168.0508
  79  -437.5968
  80  -237.8012
  81  -20.69758
  82  27.04619
  83  621.5029
  84  399.4044
  85  120.757
  86  -24.97441
  87  -175.8571
  88  249.2352
  89  526.341
  90  606.4177
  91  172.9983
  92  -235.8376
  93  -76.00783
  94  -269.4748
  95  -475.1681
  96  -511.0747
  97  -4.135759
  98  441.6602
  99  253.7063
 100  217.2796
 101  -11.49819
 102  74.27023
 103  -473.511
 104  -160.3845
 105  -1.213068
 106  -236.2959
 107  153.2779
 108  -118.6327
 109  26.58735
 110  -51.42229
 111  -72.78223
 112  -514.8688
 113  -421.905
 114  -388.6843
 115  -415.613
 116  579.2871
 117  505.8783
 118  316.2543
 119  107.1443
 120  -63.62283
 121  -450.9814
 122  -672.7362
 123  -720.4584
 124  -230.905
 125  -16.38212
 126  138.2959
 127  253.8105
 128  -47.31263
 129  -740.2948
 130  -893.0287
 131  -483.6181
 132  -296.8695
 133  -343.7227
 134  279.0066
 135  245.2569
 136  88.94086
 137  -96.37907
 138  -134.2744
 139  131.9222
 140  -643.6591
 141  -720.5404
 142  -334.881
 143  125.6732
 144  -498.7132
 145  -701.3197
 146  -350.2256
 147  -447.5939
 148  -372.7907
 149  -137.9139
 150  218.0983
 151  493.9863
 152  109.5789
 153  -357.8181
 154  -352.4434
 155  -290.1296
 156  -149.4323
 157  101.6716
 158  455.01
 159  1.116499
 160  -145.174
 161  -103.7412
 162  -119.7728
 163  100.0091
 164  266.2835
 165  146.8588
 166  -160.7343
 167  23.73221
 168  -80.5415
 169  162.8579
 170  -294.627
 171  -336.1857
 172  350.0826
 173  746.7288
 174  425.4961
 175  -300.1802
 176  -103.0731
 177  -536.4064
 178  -722.7537
 179  -787.5174
 180  324.0732
 181  355.7865
 182  -64.10334
 183  595.7572
 184  447.7975
 185  101.6601
 186  -484.8535
 187  -292.8338
 188  -375.0851
 189  -535.3696
 190  -30.01327
 191  104.0609
 192  90.25352
 193  512.3425
 194  22.90643
 195  -150.327
 196  -425.8252
 197  -320.0652
 198  221.1176
 199  -114.2558
 200  -206.7611
 201  100.85
 202  -73.07049
 203  -373.1986
 204  -344.0033
 205  -88.59991
 206  121.2362
 207  -39.61945
 208  -33.32042
 209  45.56848
 210  46.09212
 211  -350.5647
 212  -304.2244
 213  -315.8392
 214  8.028361
 215  47.66973
 216  -459.7947
 217  -6.575231
 218  77.83346
 219  -27.02151
 220  133.7771
 221  -104.8288
 222  -279.4485
 223  -286.8158
 224  41.95504
 225  408.6087
 226  726.1267
 227  447.8955
 228  30.67478
 229  -466.3221
 230  -702.7205
 231  -227.1821
 232  336.7538
 233  561.0823
 234  917.4023
 235  585.5686
 236  7.954164
 237  -61.16636
 238  -90.88586
 239  2.800624
 240  749.7814
 241  343.9204
 242  432.8844
 243  817.1317
 244  69.34628
 245  -435.5631
 246  -256.8541
 247  396.7395
 248  -119.3388
 249  -468.7125
 250  120.8418
 251  440.2914
 252  157.2116
 253  95.09538
 254  -45.53484
 255  -177.8647
 256  115.8521
 257  559.3563
 258  305.9423
 259  161.6666
 260  -33.28512
 261  24.7142
 262  124.0517
 263  -283.7754
 264  -260.8777
 265  -197.6175
 266  -427.1573
 267  159.4975
 268  161.0165
 269  -39.73091
 270  -378.2768
 271  -515.6064
 272  -435.0918
 273  -174.9569
 274  -379.4826
 275  -203.1479
 276  -14.69155
 277  501.2805
 278  -73.85464
 279  177.3769
 280  -63.04147
 281  -281.1149
 282  -421.9052
 283  -530.524
 284  212.6481
 285  82.50098
 286  206.3929
 287  -359.5555
 288  -433.611
 289  -185.3351
 290  -530.922
 291  -532.8998
 292  -282.5146
 293  -11.1818
 294  367.8376
 295  -52.3248
 296  -554.4113
 297  -612.6313
 298  -275.7727
 299  -135.5835
 300  346.4453
 301  278.5902
 302  194.2711
 303  -287.1999
 304  -891.3402
 305  -674.2094
 306  -645.1717
 307  -264.3012
 308  9.837863
 309  214.3127
 310  307.6701
 311  -714.2222
 312  -552.5325
 313  -453.6023
 314  -265.0845
 315  -224.5777
 316  -296.2059
 317  77.41908
 318  -74.68813
 319  145.9919
 320  130.2409
 321  -28.1907
 322  -225.5052
 323  75.65464
 324  374.7358
 325  291.2422
 326  190.4303
 327  283.8729
 328  67.12845
 329  7.417758
 330  189.5858
 331  192.1831
 332  -478.0714
 333  51.04417
 334  828.6884
 335  474.7459
 336  142.3722
 337  22.53191
 338  -124.694
 339  -414.2157
 340  -452.2453
 341  353.2703
 342  477.3629
 343  523.2814
 344  571.7616
 345  -283.1117
 346  -500.1147
 347  -458.962
 348  -433.7905
 349  24.6524
 350  80.38641
 351  458.779
 352  -303.4617
 353  -25.21106
 354  31.76246
 355  -149.017
 356  -217.6101
 357  -66.31322
 358  610.1331
 359  827.8018
 360  1545.542
 361  1784.488
 362  1824.608
 363  1998.194
 364  1449.817
 365  1028.217
 366  236.0395
 367  -48.72936
 368  453.942
 369  461.7597
 370  68.25089
 371  -468.1926
 372  -479.8694
 373  -524.3128
 374  346.4261
 375  1184.757
 376  923.799
 377  497.0107
 378  24.62121
 379  -87.9751
 380  248.4065
 381  86.04618
 382  189.0137
 383  542.8524
 384  381.4302
 385  116.4257
 386  -377.2882
 387  -413.3547
 388  -273.2906
 389  -182.5679
 390  99.00006
 391  23.68597
 392  140.9005
 393  -261.2907
 394  -673.3169
 395  -232.501
 396  -0.6866801
 397  431.1432
 398  331.2744
 399  202.4427
 400  294.9146
 401  14.48054
 402  -286.7213
 403  -467.54
 404  -218.3185
 405  -55.6963
 406  -290.8592
 407  -211.6752
 408  -70.51787
 409  229.2651
 410  309.286
 411  -432.3199
 412  -376.087
 413  -675.7488
 414  -357.2798
 415  -587.9681
 416  -172.7498
 417  393.3496
 418  641.1951
 419  -265.7998
 420  -339.8368
 421  -715.3505
 422  -743.7452
 423  -848.7485
 424  -703.5552
 425  -127.9652
 426  -468.7231
 427  -588.066
 428  -238.6297
 429  -424.1387
 430  -132.1082
 431  -687.8563
 432  -508.5181
 433  -608.5356
 434  -543.5758
 435  -311.284
 436  -474.4131
 437  -208.8717
 438  -431.017
 439  -427.5766
 440  -750.5526
 441  -1116.716
 442  -655.5062
 443  -544.0976
 444  -261.1003
 445  -373.8462
 446  -403.6578
 447  -342.1657
 448  -399.5792
 449  -285.1254
 450  -13.07443
 451  402.9341
 452  181.6493
 453  -400.5741
 454  -570.8981
 455  -874.1194
 456  -1209.105
 457  -646.6857
 458  282.9342
 459  411.4614
 460  -359.4526
 461  -460.6432
 462  -420.3729
 463  -581.6825
 464  -213.3434
 465  -107.718
 466  491.8797
 467  184.5977
 468  -146.9713
 469  -529.5878
 470  -511.8275
 471  -25.74803
 472  -163.6828
 473  94.03243
 474  -215.0734
 475  -339.2851
 476  -665.569
 477  -645.8145
 478  -282.1245
 479  -378.2297
 480  88.17708
 481  81.49904
 482  152.1282
 483  -22.43994
 484  -188.3143
 485  138.3143
 486  -325.7579
 487  -253.2829
 488  -204.6406
 489  21.14966
 490  113.0209
 491  142.0054
 492  399.0142
 493  268.2205
 494  132.659
 495  -405.2732
 496  -49.94969
 497  194.632
 498  455.2538
 499  363.9701
 500  360.4351
 501  483.7362
 502  250.645
 503  71.55158
 504  509.8549
 505  421.187
 506  103.1657
 507  74.53889
 508  -239.4008
 509  -186.0132
 510  26.00793
 511  494.6847
