# Input file       =  1184056858.110486-PSRB0329-2ms-sampling-dd.dat
# Candidate        =  PSR_0332+5434
# Telescope        =  AR
# Epoch_topo       =  57948.362003593589
# Epoch_bary       =  N/A
# T_sample         =  0.002
# Data Folded      =  7340032
# Data Avg         =  -1.10994088319728e-09
# Data StdDev      =  8.40406789723841 
# Profile Bins     =  512
# Profile Avg      =  -0.0428040830047478
# Profile StdDev   =  1006.24456725286 
# Reduced chi-sqr  =  0.692
# Prob(Noise)      <  1   (~0.0 sigma)
# P_topo (ms)      =  714.479683258899  +/- 0.000472
# P'_topo (s/s)    =  -0                +/- 2.49e-10
# P''_topo (s/s^2) =  0                 +/- 1.1e-13
# P_bary (ms)      =  N/A
# P'_bary (s/s)    =  N/A
# P''_bary (s/s^2) =  N/A
# P_orb (s)        =  N/A
# asin(i)/c (s)    =  N/A
# eccentricity     =  N/A
# w (rad)          =  N/A
# T_peri           =  N/A
######################################################
   0  4336.817
   1  3962.585
   2  1669.026
   3  848.7103
   4  -64.44305
   5  2353.577
   6  2602.142
   7  3494.069
   8  3313.129
   9  1757.791
  10  1421.5
  11  138.8118
  12  -68.78437
  13  -526.2376
  14  -191.3562
  15  -249.5906
  16  -234.5922
  17  -80.30448
  18  -419.5702
  19  -505.1952
  20  -705.577
  21  -698.4057
  22  -617.6697
  23  -494.407
  24  -476.554
  25  -293.9151
  26  -51.66617
  27  -60.5686
  28  221.6529
  29  -559.46
  30  -480.1255
  31  -532.7457
  32  -162.6193
  33  -228.5627
  34  -318.7858
  35  -538.8024
  36  -800.0195
  37  -162.2837
  38  -335.5827
  39  -274.1367
  40  -215.2017
  41  -317.4193
  42  -314.1797
  43  -495.5286
  44  -373.4421
  45  -245.0019
  46  -31.90023
  47  24.57365
  48  149.3293
  49  -162.7771
  50  -163.0063
  51  -497.2786
  52  -457.2981
  53  -509.1075
  54  -367.21
  55  -432.4384
  56  -727.532
  57  -993.371
  58  -845.2452
  59  -925.3371
  60  -812.8939
  61  -651.0466
  62  -516.2156
  63  -575.4536
  64  -753.9018
  65  -550.2265
  66  -208.1309
  67  -3.245121
  68  -326.2303
  69  -256.4558
  70  141.5903
  71  117.8763
  72  -190.229
  73  -124.1769
  74  62.32893
  75  130.011
  76  126.0878
  77  232.6954
  78  2.570959
  79  -370.0971
  80  -650.9721
  81  -915.9175
  82  -736.5723
  83  -352.2173
  84  -239.7301
  85  -666.571
  86  -390.0017
  87  -676.2594
  88  -195.0799
  89  -392.5663
  90  -276.1817
  91  238.7779
  92  188.1792
  93  338.0977
  94  13.93783
  95  -19.17418
  96  -580.78
  97  -627.1253
  98  -295.9438
  99  227.8526
 100  508.7791
 101  114.6232
 102  -256.3927
 103  -415.0965
 104  -356.9983
 105  -176.8172
 106  18.51164
 107  513.3954
 108  236.7952
 109  -74.32951
 110  -325.0947
 111  -112.818
 112  392.0654
 113  543.8244
 114  312.3319
 115  -274.4979
 116  -479.7085
 117  -705.9741
 118  -561.1769
 119  -447.7053
 120  -240.0739
 121  -220.5348
 122  -367.2013
 123  -296.9649
 124  -553.4453
 125  -247.1478
 126  -238.5191
 127  -435.1737
 128  -234.4782
 129  -154.254
 130  -78.8952
 131  -218.0802
 132  -380.4131
 133  -307.2669
 134  -310.7873
 135  -386.0114
 136  -382.0394
 137  -386.1188
 138  -90.84454
 139  195.7177
 140  553.904
 141  428.2986
 142  253.1225
 143  611.8451
 144  344.7948
 145  271.77
 146  285.3855
 147  81.58424
 148  219.3743
 149  311.0949
 150  822.7776
 151  1000.92
 152  368.7341
 153  50.82677
 154  -41.66129
 155  11.55803
 156  21.94003
 157  319.9753
 158  584.7911
 159  -107.0112
 160  -149.507
 161  -196.5581
 162  350.5367
 163  485.6892
 164  441.9938
 165  345.064
 166  532.1954
 167  526.5856
 168  313.1133
 169  476.153
 170  862.8923
 171  774.8179
 172  534.2684
 173  454.0441
 174  246.0526
 175  142.3482
 176  223.2879
 177  334.1053
 178  493.3531
 179  217.3671
 180  276.2174
 181  175.0105
 182  307.1974
 183  191.9686
 184  -0.556858
 185  215.9828
 186  98.14462
 187  81.99637
 188  61.79225
 189  141.4147
 190  -14.58867
 191  358.4995
 192  315.809
 193  -67.54754
 194  -256.6748
 195  -456.0944
 196  -169.5086
 197  -34.76557
 198  -201.2255
 199  -436.3223
 200  -314.9001
 201  -392.7903
 202  -151.3934
 203  -232.1651
 204  -57.08364
 205  432.7742
 206  368.9015
 207  249.3069
 208  -180.5594
 209  -84.65971
 210  -200.523
 211  -61.20941
 212  -67.94579
 213  -139.7517
 214  -4.927251
 215  -259.6049
 216  -381.1458
 217  -737.3348
 218  -328.1782
 219  -281.6498
 220  -245.5707
 221  -391.5645
 222  -9.090359
 223  -70.15834
 224  -335.4998
 225  -404.325
 226  -317.5121
 227  -484.3348
 228  -422.5083
 229  -474.4818
 230  -730.8167
 231  -751.8289
 232  -602.2498
 233  -308.8509
 234  -47.63809
 235  -125.3968
 236  159.8727
 237  33.18081
 238  -271.179
 239  -346.3458
 240  -197.8186
 241  250.1732
 242  446.1219
 243  470.6531
 244  440.6312
 245  392.2361
 246  334.6645
 247  435.3402
 248  262.7859
 249  296.2958
 250  -96.45681
 251  -211.5996
 252  369.3534
 253  259.7892
 254  152.0237
 255  -26.97616
 256  -339.402
 257  -517.1707
 258  -635.6055
 259  -504.354
 260  -409.2339
 261  -167.7052
 262  105.6685
 263  30.05104
 264  204.985
 265  116.5185
 266  -145.0444
 267  -57.67783
 268  264.8817
 269  516.2247
 270  423.277
 271  391.7349
 272  508.0295
 273  749.5217
 274  430.5935
 275  519.2861
 276  751.7751
 277  598.4377
 278  707.3345
 279  594.8881
 280  453.4902
 281  517.8188
 282  532.6229
 283  408.6005
 284  178.3434
 285  -5.091509
 286  35.45986
 287  178.0767
 288  227.3384
 289  4.368409
 290  57.00522
 291  4.647146
 292  -531.9694
 293  -671.7764
 294  -208.8532
 295  -173.7407
 296  -321.7672
 297  -78.69083
 298  -353.1652
 299  -369.0924
 300  -572.7477
 301  -447.2314
 302  -370.2142
 303  19.31603
 304  -217.3598
 305  56.39938
 306  539.8306
 307  475.1643
 308  201.4377
 309  -16.61544
 310  11.74444
 311  429.7838
 312  737.8963
 313  561.2151
 314  475.5161
 315  281.5169
 316  -198.8519
 317  -390.0745
 318  -3.715907
 319  330.5347
 320  1141.608
 321  1174.31
 322  669.0829
 323  385.0724
 324  185.3663
 325  621.1066
 326  894.3447
 327  1165.826
 328  450.819
 329  212.1637
 330  251.7463
 331  -242.6092
 332  -186.4976
 333  44.91424
 334  322.7185
 335  475.6635
 336  90.69093
 337  46.51797
 338  -638.147
 339  -670.9094
 340  -56.56917
 341  303.3142
 342  697.1778
 343  958.3141
 344  443.2101
 345  -13.05411
 346  -506.7159
 347  -131.7597
 348  72.25425
 349  85.16943
 350  510.7903
 351  603.9813
 352  492.0306
 353  260.5602
 354  216.9929
 355  407.5645
 356  359.409
 357  572.7382
 358  324.5275
 359  359.2723
 360  329.864
 361  531.5827
 362  800.9402
 363  311.5284
 364  254.4162
 365  524.5285
 366  341.464
 367  278.1222
 368  203.5393
 369  12.69306
 370  -228.3146
 371  26.84637
 372  351.8913
 373  18.29405
 374  -149.0364
 375  7.382971
 376  -205.1466
 377  63.57979
 378  337.9829
 379  -8.021598
 380  -399.3332
 381  -546.3554
 382  -956.9222
 383  -677.9144
 384  -338.8164
 385  477.615
 386  303.3431
 387  266.2309
 388  -106.5202
 389  -361.0443
 390  -54.07828
 391  -360.6219
 392  -308.1759
 393  -9.865642
 394  157.968
 395  122.0455
 396  -242.0823
 397  -602.9828
 398  -1083.126
 399  -864.2058
 400  -814.4615
 401  -273.6734
 402  147.1223
 403  89.54609
 404  -240.4176
 405  -863.8545
 406  -379.6069
 407  -317.9376
 408  -95.93095
 409  183.5783
 410  400.5993
 411  1078.456
 412  1656.038
 413  1976.183
 414  1333.05
 415  643.6457
 416  -45.61381
 417  -120.4881
 418  1.713262
 419  -118.58
 420  -232.9918
 421  -498.6736
 422  -542.0294
 423  -945.1785
 424  -306.2828
 425  -392.0198
 426  -442.2294
 427  -246.2925
 428  96.81198
 429  103.9111
 430  -308.6786
 431  -319.0052
 432  -227.2123
 433  -290.2148
 434  -319.7539
 435  -129.2625
 436  62.65444
 437  -188.6976
 438  -359.2235
 439  -170.8262
 440  135.9566
 441  -104.0447
 442  188.7339
 443  -110.854
 444  -263.8758
 445  245.3074
 446  -35.45951
 447  -669.133
 448  -711.4086
 449  -329.921
 450  -85.65003
 451  -430.3186
 452  -348.5319
 453  -129.4875
 454  -318.5652
 455  -293.4378
 456  -285.7789
 457  -404.7358
 458  -545.9053
 459  -932.0521
 460  -653.7559
 461  -211.6566
 462  -327.3274
 463  -399.8659
 464  -708.8326
 465  -888.0919
 466  -455.6618
 467  -699.4351
 468  -213.3795
 469  -281.1017
 470  -304.5598
 471  45.66265
 472  -287.4726
 473  -623.8716
 474  -870.2162
 475  -327.4237
 476  -152.9628
 477  -155.9596
 478  23.0713
 479  -51.97699
 480  -227.3936
 481  -498.114
 482  -371.9131
 483  -458.3218
 484  -243.997
 485  -304.6845
 486  -189.4646
 487  171.0287
 488  -158.9313
 489  -362.5248
 490  -218.9028
 491  -435.8371
 492  -511.5352
 493  -641.1339
 494  -800.9512
 495  -801.6426
 496  -539.7083
 497  -491.1991
 498  64.12749
 499  719.6151
 500  488.6543
 501  325.0616
 502  -79.2942
 503  -754.9307
 504  -408.3427
 505  -247.971
 506  -244.8732
 507  65.88911
 508  -281.5353
 509  -40.76641
 510  1963.408
 511  3716.672
