# Input file       =  1184027341.112139_cleaned.dat
# Candidate        =  PSR_0332+5434
# Telescope        =  AR
# Epoch_topo       =  57948.020371668274
# Epoch_bary       =  N/A
# T_sample         =  0.002
# Data Folded      =  7208960
# Data Avg         =  0.0247259714163004
# Data StdDev      =  1.0000512189023  
# Profile Bins     =  512
# Profile Avg      =  347.8542530072   
# Profile StdDev   =  118.665253386263 
# Reduced chi-sqr  =  1.286
# Prob(Noise)      <  1.21e-05   (~4.2 sigma)
# P_topo (ms)      =  714.479565266654  +/- 0.000253
# P'_topo (s/s)    =  -0                +/- 1.36e-10
# P''_topo (s/s^2) =  0                 +/- 6.1e-14
# P_bary (ms)      =  N/A
# P'_bary (s/s)    =  N/A
# P''_bary (s/s^2) =  N/A
# P_orb (s)        =  N/A
# asin(i)/c (s)    =  N/A
# eccentricity     =  N/A
# w (rad)          =  N/A
# T_peri           =  N/A
######################################################
   0  1050.927
   1  870.1349
   2  589.8312
   3  389.0131
   4  396.248
   5  424.4955
   6  301.8853
   7  308.7423
   8  363.975
   9  441.8911
  10  335.7355
  11  379.5732
  12  525.939
  13  441.5269
  14  360.3686
  15  385.2075
  16  318.7117
  17  303.1078
  18  278.0002
  19  317.8905
  20  302.942
  21  262.928
  22  263.824
  23  475.6576
  24  463.1111
  25  463.0868
  26  369.1075
  27  334.5755
  28  409.7062
  29  296.5214
  30  373.1894
  31  387.201
  32  470.154
  33  441.5157
  34  441.3973
  35  376.4791
  36  277.7188
  37  250.418
  38  261.8049
  39  283.085
  40  376.0901
  41  428.2305
  42  386.3716
  43  452.7166
  44  437.5889
  45  351.5888
  46  336.1735
  47  354.3383
  48  311.29
  49  455.2403
  50  476.2606
  51  383.1896
  52  282.8443
  53  387.174
  54  424.0159
  55  270.0595
  56  280.5777
  57  288.9324
  58  346.3987
  59  313.2283
  60  325.906
  61  316.0729
  62  297.6463
  63  338.3923
  64  400.0273
  65  422.1622
  66  387.3466
  67  444.3898
  68  446.9038
  69  500.8117
  70  448.4191
  71  247.4545
  72  295.2769
  73  358.1625
  74  479.4932
  75  439.5635
  76  366.8005
  77  424.2622
  78  306.1838
  79  255.1964
  80  293.6583
  81  384.282
  82  346.1537
  83  325.797
  84  371.35
  85  343.4889
  86  303.8724
  87  253.4827
  88  250.6994
  89  287.5942
  90  326.7596
  91  343.4961
  92  317.4635
  93  214.1242
  94  331.1961
  95  395.3842
  96  313.2034
  97  313.423
  98  318.9264
  99  349.8111
 100  294.3533
 101  377.7365
 102  444.4062
 103  462.9326
 104  343.7937
 105  294.5226
 106  305.6721
 107  449.1399
 108  281.5947
 109  304.2733
 110  230.9924
 111  333.9012
 112  230.2281
 113  319.0944
 114  495.6838
 115  234.9048
 116  206.3412
 117  254.089
 118  286.3389
 119  287.8141
 120  337.9058
 121  371.6712
 122  370.1423
 123  262.0389
 124  159.6992
 125  315.0265
 126  391.4039
 127  386.649
 128  440.7865
 129  417.0665
 130  436.3403
 131  366.9916
 132  230.3377
 133  215.1385
 134  208.6954
 135  292.2945
 136  302.6891
 137  388.6367
 138  414.6747
 139  340.3179
 140  401.5475
 141  439.8292
 142  480.1006
 143  495.3956
 144  414.4099
 145  413.1894
 146  358.2306
 147  242.1845
 148  225.502
 149  331.3631
 150  410.2213
 151  317.0435
 152  339.5408
 153  265.5988
 154  225.1937
 155  204.8727
 156  355.86
 157  302.7333
 158  310.175
 159  289.6402
 160  338.1671
 161  274.7487
 162  315.3414
 163  235.9237
 164  289.8007
 165  212.0839
 166  218.0057
 167  160.8202
 168  262.7505
 169  249.2101
 170  278.4734
 171  372.1088
 172  388.433
 173  401.9268
 174  414.3416
 175  360.2766
 176  405.8689
 177  469.9735
 178  442.9335
 179  416.0513
 180  310.7572
 181  379.3175
 182  507.9406
 183  407.8112
 184  238.142
 185  419.7178
 186  464.5532
 187  400.5985
 188  429.4819
 189  401.4185
 190  322.0511
 191  364.7441
 192  406.9188
 193  343.3811
 194  335.9174
 195  224.4621
 196  318.2265
 197  425.7697
 198  401.7501
 199  362.0412
 200  353.9623
 201  420.173
 202  294.0894
 203  320.1433
 204  291.9824
 205  180.7741
 206  274.4515
 207  418.3943
 208  382.3303
 209  406.9668
 210  404.3792
 211  396.367
 212  334.0051
 213  372.4212
 214  399.7979
 215  389.0823
 216  262.8267
 217  220.7927
 218  351.2624
 219  361.4498
 220  280.7524
 221  291.3445
 222  334.5308
 223  258.1333
 224  226.3386
 225  197.7223
 226  275.9001
 227  194.5171
 228  336.5891
 229  265.8831
 230  311.8166
 231  358.2044
 232  216.6364
 233  239.8076
 234  269.6809
 235  281.7923
 236  323.6146
 237  322.3024
 238  269.5248
 239  289.9175
 240  185.7384
 241  168.958
 242  246.5907
 243  267.4278
 244  347.1861
 245  363.959
 246  334.3246
 247  290.7326
 248  288.3394
 249  321.3383
 250  383.4536
 251  362.0862
 252  373.7212
 253  340.0929
 254  429.1649
 255  433.0568
 256  251.188
 257  221.6948
 258  318.2103
 259  387.4424
 260  420.8035
 261  480.5826
 262  286.6426
 263  326.4015
 264  501.7743
 265  375.3617
 266  266.9778
 267  363.4861
 268  411.8784
 269  411.8695
 270  397.0987
 271  405.2841
 272  517.8378
 273  463.5664
 274  472.0937
 275  237.6042
 276  268.5368
 277  423.136
 278  439.3652
 279  396.176
 280  379.8408
 281  511.6282
 282  505.6497
 283  306.8475
 284  304.4225
 285  481.701
 286  498.7866
 287  395.7444
 288  328.6567
 289  359.3849
 290  331.1817
 291  278.2615
 292  383.5677
 293  472.6419
 294  454.786
 295  335.5092
 296  230.2212
 297  218.8786
 298  307.6878
 299  305.0271
 300  363.9978
 301  376.85
 302  357.9579
 303  456.5668
 304  438.2461
 305  321.7047
 306  197.0697
 307  284.8535
 308  344.3513
 309  436.3894
 310  460.5186
 311  351.2471
 312  304.5735
 313  366.8537
 314  267.4919
 315  172.5467
 316  225.1613
 317  322.0359
 318  261.6508
 319  238.9417
 320  224.7633
 321  312.83
 322  336.7351
 323  257.2137
 324  339.9746
 325  425.6096
 326  447.3323
 327  432.9344
 328  392.2628
 329  408.1144
 330  370.258
 331  286.7175
 332  375.8248
 333  460.6203
 334  382.9156
 335  321.1317
 336  352.8812
 337  309.4081
 338  300.0055
 339  383.8838
 340  399.24
 341  344.0953
 342  396.7521
 343  297.2579
 344  280.7997
 345  378.2386
 346  354.482
 347  405.9064
 348  361.3712
 349  354.9828
 350  309.9178
 351  321.9888
 352  403.985
 353  356.2235
 354  447.8681
 355  517.3607
 356  413.6674
 357  280.1824
 358  203.0869
 359  200.3293
 360  199.964
 361  376.1425
 362  352.1086
 363  335.9318
 364  309.2721
 365  386.2905
 366  403.8257
 367  337.3737
 368  246.1062
 369  397.9602
 370  406.3625
 371  353.1151
 372  362.7942
 373  379.816
 374  365.0998
 375  349.2481
 376  380.4903
 377  301.6415
 378  318.7118
 379  471.1323
 380  363.7025
 381  301.6393
 382  387.3866
 383  304.0007
 384  265.76
 385  356.2447
 386  289.137
 387  391.3657
 388  342.8173
 389  354.403
 390  265.5847
 391  133.6483
 392  246.3252
 393  342.5115
 394  291.4089
 395  329.9477
 396  422.5036
 397  235.702
 398  270.5291
 399  297.4667
 400  329.1951
 401  361.9804
 402  345.4617
 403  351.7579
 404  323.6502
 405  342.0402
 406  376.9198
 407  417.8307
 408  339.471
 409  272.4343
 410  310.2915
 411  420.6333
 412  484.2774
 413  436.4236
 414  370.6014
 415  453.9832
 416  318.8526
 417  281.6113
 418  163.8906
 419  296.8802
 420  400.417
 421  362.9818
 422  382.9908
 423  396.5564
 424  376.516
 425  377.2899
 426  357.1
 427  388.1793
 428  340.279
 429  358.8213
 430  407.3737
 431  329.3187
 432  434.9934
 433  413.0265
 434  351.9475
 435  259.8474
 436  300.9767
 437  252.541
 438  252.9254
 439  307.9265
 440  318.4579
 441  267.13
 442  383.547
 443  359.5478
 444  420.8757
 445  385.4215
 446  341.4187
 447  361.2881
 448  310.4498
 449  363.6661
 450  314.708
 451  256.4076
 452  354.5855
 453  354.6816
 454  276.7171
 455  279.2732
 456  281.1879
 457  370.3678
 458  359.6318
 459  331.8116
 460  194.1261
 461  230.3846
 462  280.3586
 463  299.7184
 464  266.7619
 465  258.9575
 466  267.3394
 467  167.0291
 468  94.70292
 469  130.0251
 470  163.1738
 471  248.083
 472  394.3321
 473  361.2496
 474  287.9398
 475  261.1537
 476  259.6652
 477  288.8954
 478  296.1
 479  295.6801
 480  349.954
 481  449.2707
 482  348.8827
 483  334.1291
 484  426.3616
 485  172.7763
 486  170.2119
 487  290.4544
 488  381.7581
 489  262.0519
 490  261.981
 491  258.5771
 492  277.6847
 493  278.3841
 494  387.1555
 495  455.1765
 496  425.8186
 497  425.6563
 498  371.4755
 499  344.5566
 500  375.9391
 501  389.4461
 502  351.7572
 503  306.9686
 504  415.4441
 505  501.1434
 506  522.6871
 507  493.3696
 508  595.299
 509  742.0041
 510  957.6921
 511  1018.599
