# Input file       =  1184716687.098535-PSRB0329-2ms-sampling-dd.dat
# Candidate        =  PSR_0332+5434
# Telescope        =  AR
# Epoch_topo       =  57955.998913177486
# Epoch_bary       =  N/A
# T_sample         =  0.002
# Data Folded      =  7143424
# Data Avg         =  -1.71962084122977e-09
# Data StdDev      =  6.53923565797681 
# Profile Bins     =  512
# Profile Avg      =  0.0985284368617794
# Profile StdDev   =  772.405259513572 
# Reduced chi-sqr  =  0.442
# Prob(Noise)      <  1   (~0.0 sigma)
# P_topo (ms)      =  714.47454111089   +/- 0.000147
# P'_topo (s/s)    =  -0                +/- 7.99e-11
# P''_topo (s/s^2) =  0                 +/- 3.63e-14
# P_bary (ms)      =  N/A
# P'_bary (s/s)    =  N/A
# P''_bary (s/s^2) =  N/A
# P_orb (s)        =  N/A
# asin(i)/c (s)    =  N/A
# eccentricity     =  N/A
# w (rad)          =  N/A
# T_peri           =  N/A
######################################################
   0  574.0588
   1  454.7499
   2  260.1948
   3  544.4988
   4  486.1537
   5  -230.2302
   6  -8.24707
   7  502.6355
   8  555.6463
   9  490.7802
  10  501.8177
  11  257.9518
  12  401.1346
  13  169.4202
  14  257.0529
  15  346.9443
  16  91.35105
  17  -293.1907
  18  -301.2458
  19  -218.0734
  20  -94.5574
  21  -50.31578
  22  6.054623
  23  -191.9146
  24  259.3406
  25  204.2498
  26  -253.5406
  27  -284.1555
  28  -146.4489
  29  -107.0927
  30  -282.7486
  31  -672.7402
  32  -435.101
  33  -138.8727
  34  -180.5832
  35  -84.2083
  36  -182.1882
  37  48.69865
  38  -268.7887
  39  -853.3351
  40  -284.8379
  41  -163.1155
  42  -70.11343
  43  193.4673
  44  585.4946
  45  240.0972
  46  -150.6321
  47  -21.43572
  48  194.8023
  49  324.1887
  50  169.3744
  51  105.4761
  52  52.32819
  53  176.4679
  54  -73.76875
  55  -117.3842
  56  8.483987
  57  560.0059
  58  628.948
  59  190.4591
  60  -249.2622
  61  -55.35206
  62  332.6116
  63  175.0438
  64  -2.266553
  65  -286.3026
  66  72.59597
  67  -610.6685
  68  -811.1703
  69  -331.9792
  70  -33.74174
  71  -217.2697
  72  -453.3616
  73  -70.09615
  74  -68.45328
  75  -157.2278
  76  -28.09611
  77  -19.89127
  78  -253.472
  79  -716.0056
  80  -876.5645
  81  -50.45486
  82  -430.2541
  83  -298.6017
  84  95.9407
  85  215.8588
  86  -28.01373
  87  -126.5618
  88  100.269
  89  -110.7784
  90  174.5361
  91  -230.9944
  92  40.24574
  93  125.7006
  94  201.8528
  95  128.3316
  96  -4.114454
  97  -78.44179
  98  -397.6834
  99  -574.9844
 100  -182.6023
 101  -309.0881
 102  -305.2325
 103  21.24941
 104  -589.4738
 105  -446.7161
 106  -149.383
 107  -103.6391
 108  -194.6398
 109  -31.50553
 110  247.0098
 111  196.3645
 112  273.0006
 113  -197.1749
 114  -91.59494
 115  -267.1429
 116  162.5999
 117  538.851
 118  130.7421
 119  22.1675
 120  216.4702
 121  -181.7457
 122  -393.4337
 123  -520.5468
 124  84.5924
 125  227.4595
 126  346.4248
 127  348.9839
 128  245.3973
 129  9.034329
 130  -272.0119
 131  53.40661
 132  539.9398
 133  440.3398
 134  -306.0127
 135  29.95085
 136  155.8687
 137  -300.1473
 138  36.04652
 139  514.0895
 140  645.0222
 141  451.4918
 142  287.5746
 143  65.10478
 144  34.64477
 145  77.98319
 146  -261.9117
 147  281.5006
 148  622.076
 149  170.7618
 150  309.0143
 151  443.5271
 152  16.8819
 153  -28.26886
 154  417.4983
 155  -59.02044
 156  -326.8596
 157  38.1735
 158  462.256
 159  610.8626
 160  -128.9379
 161  129.8319
 162  579.6795
 163  149.5578
 164  115.3256
 165  377.2074
 166  227.2258
 167  4.505938
 168  -258.0975
 169  182.224
 170  176.2982
 171  149.4752
 172  742.9006
 173  148.384
 174  -73.24227
 175  -373.5931
 176  42.80067
 177  -10.34149
 178  162.0754
 179  625.3135
 180  436.9769
 181  481.5901
 182  -202.9311
 183  -192.1417
 184  191.4096
 185  -44.21628
 186  184.1207
 187  452.1827
 188  302.0716
 189  78.96377
 190  -87.67973
 191  565.1561
 192  537.743
 193  153.1698
 194  265.9529
 195  209.5395
 196  92.93551
 197  36.58843
 198  203.5101
 199  208.8233
 200  226.2534
 201  -10.49567
 202  -123.0785
 203  -416.5588
 204  -615.3839
 205  -387.9688
 206  236.3983
 207  366.5889
 208  210.1111
 209  212.3076
 210  -90.67634
 211  -751.1295
 212  -712.1136
 213  -652.9507
 214  -351.6242
 215  11.42275
 216  201.2523
 217  52.44593
 218  -490.7215
 219  -822.5001
 220  -1009.806
 221  -523.306
 222  -618.6226
 223  -125.5142
 224  266.8455
 225  78.57647
 226  -248.2014
 227  -457.376
 228  -504.6837
 229  -637.6716
 230  -978.9972
 231  -749.5342
 232  -530.1636
 233  -470.61
 234  -120.0893
 235  20.74045
 236  -85.95214
 237  -483.554
 238  -79.74761
 239  204.203
 240  -301.4874
 241  -153.5538
 242  -512.7858
 243  -698.7468
 244  -524.196
 245  79.06973
 246  17.07717
 247  -304.4839
 248  -690.964
 249  -744.0867
 250  -334.2143
 251  -253.259
 252  -636.7059
 253  -484.4893
 254  -263.4271
 255  -573.0017
 256  -741.5333
 257  -180.8774
 258  -49.52512
 259  -291.8063
 260  337.2169
 261  -58.89279
 262  -411.477
 263  -521.3104
 264  -772.6671
 265  -668.6735
 266  -62.02868
 267  456.5549
 268  402.5178
 269  -40.80127
 270  -551.8414
 271  -434.2745
 272  -112.3482
 273  198.0005
 274  491.1526
 275  508.0409
 276  106.1033
 277  69.2977
 278  -404.5905
 279  -534.0149
 280  -412.5891
 281  -130.8326
 282  -366.0871
 283  -161.719
 284  -64.57449
 285  -804.7999
 286  -724.2341
 287  -513.8044
 288  -474.3937
 289  34.36946
 290  347.05
 291  182.7623
 292  -312.3013
 293  -316.2121
 294  -13.47016
 295  -415.2443
 296  -518.1353
 297  -324.8529
 298  140.4559
 299  394.7451
 300  338.1043
 301  435.9318
 302  79.96422
 303  -721.8424
 304  -167.0613
 305  261.7666
 306  -246.5672
 307  -47.82866
 308  433.0165
 309  55.67247
 310  -294.8293
 311  -253.812
 312  -293.2778
 313  -112.7038
 314  -272.2099
 315  197.7613
 316  -3.341972
 317  104.0851
 318  -101.9828
 319  -65.13215
 320  25.70346
 321  -213.1127
 322  -289.1972
 323  -20.07975
 324  28.95079
 325  -11.64369
 326  -212.4888
 327  -29.71252
 328  59.73186
 329  -192.1473
 330  -460.0793
 331  -473.5175
 332  -414.0831
 333  -318.4279
 334  485.6873
 335  234.6778
 336  -624.0792
 337  -581.2023
 338  -41.36475
 339  152.523
 340  -432.2628
 341  -409.153
 342  24.93933
 343  164.6163
 344  -139.0266
 345  -59.1511
 346  -118.5712
 347  -115.6858
 348  -252.5216
 349  228.0856
 350  411.2667
 351  -363.2709
 352  -757.6661
 353  -473.7243
 354  -335.1686
 355  -284.6019
 356  131.0224
 357  37.43304
 358  -169.0207
 359  -452.4402
 360  -500.8153
 361  -474.8309
 362  -748.2336
 363  -670.1739
 364  -242.6492
 365  286.1228
 366  29.27011
 367  -221.3537
 368  -239.5024
 369  -403.4135
 370  -279.7359
 371  -217.093
 372  611.3792
 373  456.0158
 374  290.258
 375  352.7275
 376  -4.852632
 377  -493.5033
 378  -818.0703
 379  -395.5443
 380  -219.815
 381  6.61032
 382  229.8981
 383  -65.27954
 384  -244.6118
 385  -282.1458
 386  -313.2567
 387  -142.9471
 388  -39.84772
 389  329.8725
 390  418.5505
 391  306.0454
 392  48.00382
 393  116.0561
 394  -24.43439
 395  170.0937
 396  -27.36157
 397  107.7566
 398  88.1181
 399  -60.29224
 400  -93.57184
 401  77.95372
 402  52.55735
 403  307.4157
 404  142.9525
 405  -12.34358
 406  -97.30503
 407  74.08295
 408  531.8795
 409  829.793
 410  660.1067
 411  383.5042
 412  853.454
 413  1123.499
 414  1285.073
 415  1310.122
 416  1095.677
 417  451.804
 418  241.6167
 419  203.6592
 420  260.4165
 421  163.7222
 422  -335.7203
 423  -145.1381
 424  -462.8627
 425  -203.6328
 426  68.19007
 427  226.7893
 428  420.195
 429  120.7783
 430  253.9797
 431  -118.1887
 432  25.30549
 433  96.40527
 434  25.33129
 435  -33.63369
 436  -376.3123
 437  30.44118
 438  312.2266
 439  173.7199
 440  510.9966
 441  622.5464
 442  317.8077
 443  16.1076
 444  -317.627
 445  -561.3597
 446  -582.7438
 447  71.69423
 448  421.6807
 449  453.0948
 450  -13.94837
 451  -557.8871
 452  -236.0269
 453  -240.9
 454  -39.94601
 455  222.2124
 456  626.3765
 457  356.6661
 458  89.14925
 459  -281.8597
 460  76.54747
 461  152.0461
 462  486.089
 463  241.0683
 464  173.1998
 465  57.50468
 466  31.46441
 467  -27.07992
 468  242.222
 469  340.2492
 470  566.3489
 471  723.8352
 472  130.0742
 473  98.84266
 474  532.9077
 475  353.3599
 476  414.3536
 477  379.5482
 478  191.6939
 479  -7.056873
 480  46.41931
 481  49.78376
 482  301.2709
 483  357.8364
 484  271.6637
 485  327.5584
 486  -479.7491
 487  -574.4763
 488  -25.19252
 489  423.7586
 490  759.4022
 491  136.8466
 492  753.6647
 493  524.3185
 494  242.3141
 495  98.36199
 496  -167.6847
 497  273.8813
 498  154.2509
 499  236.308
 500  159.6372
 501  410.6342
 502  671.4395
 503  518.4113
 504  475.2452
 505  390.3436
 506  738.9715
 507  628.6795
 508  717.9687
 509  696.9943
 510  613.9059
 511  766.3518
