# Input file       =  1184746163.112572_cleaned.dat
# Candidate        =  PSR_0332+5434
# Telescope        =  AR
# Epoch_topo       =  57956.340070747363
# Epoch_bary       =  N/A
# T_sample         =  0.002
# Data Folded      =  7340032
# Data Avg         =  0.0357114303785759
# Data StdDev      =  1.00018474283135 
# Profile Bins     =  512
# Profile Avg      =  511.997067245082 
# Profile StdDev   =  119.755156196913 
# Reduced chi-sqr  =  1.392
# Prob(Noise)      <  9.52e-09   (~5.6 sigma)
# P_topo (ms)      =  714.474691011634  +/- 0.000289
# P'_topo (s/s)    =  -0                +/- 1.53e-10
# P''_topo (s/s^2) =  0                 +/- 6.74e-14
# P_bary (ms)      =  N/A
# P'_bary (s/s)    =  N/A
# P''_bary (s/s^2) =  N/A
# P_orb (s)        =  N/A
# asin(i)/c (s)    =  N/A
# eccentricity     =  N/A
# w (rad)          =  N/A
# T_peri           =  N/A
######################################################
   0  1187.863
   1  1064.971
   2  805.2689
   3  631.9133
   4  480.2516
   5  438.2307
   6  464.1288
   7  571.5528
   8  546.2272
   9  530.3008
  10  590.7863
  11  632.5184
  12  664.8514
  13  573.5967
  14  483.1802
  15  593.4271
  16  680.1216
  17  596.3948
  18  546.3384
  19  588.4633
  20  550.3575
  21  503.7293
  22  416.3786
  23  624.9138
  24  607.5213
  25  692.8484
  26  698.9385
  27  696.2199
  28  654.1498
  29  642.038
  30  598.4916
  31  608.7305
  32  623.1848
  33  578.1298
  34  477.0878
  35  563.5015
  36  595.1653
  37  637.5654
  38  457.7
  39  537.6403
  40  452.0652
  41  414.3136
  42  447.6845
  43  377.4661
  44  365.0936
  45  355.864
  46  402.0496
  47  544.4821
  48  539.6825
  49  461.6933
  50  691.0481
  51  635.6644
  52  532.5319
  53  513.7742
  54  545.9712
  55  703.1442
  56  625.5931
  57  635.942
  58  632.1021
  59  530.9669
  60  562.3049
  61  530.7716
  62  533.7308
  63  552.8651
  64  555.058
  65  526.1194
  66  551.4861
  67  563.5793
  68  579.7219
  69  572.3253
  70  550.5069
  71  582.9942
  72  590.3409
  73  628.1129
  74  591.3134
  75  535.2126
  76  510.579
  77  454.8734
  78  605.2207
  79  748.2941
  80  629.0119
  81  558.1705
  82  628.4434
  83  695.0483
  84  555.2701
  85  457.1306
  86  550.7828
  87  631.7303
  88  597.5328
  89  614.8502
  90  556.783
  91  514.5213
  92  569.7827
  93  678.9554
  94  647.0009
  95  545.7548
  96  574.5698
  97  521.0804
  98  478.7513
  99  600.6665
 100  692.0713
 101  725.4761
 102  566.2611
 103  522.9132
 104  662.0188
 105  744.7777
 106  644.0881
 107  549.2518
 108  583.2084
 109  603.7341
 110  539.0215
 111  531.4102
 112  520.9866
 113  502.4685
 114  514.0078
 115  512.7628
 116  502.0631
 117  440.4376
 118  475.3872
 119  539.5364
 120  476.4794
 121  487.4828
 122  559.0134
 123  523.894
 124  404.3002
 125  500.326
 126  478.8219
 127  389.4898
 128  406.3643
 129  522.911
 130  471.7231
 131  532.7557
 132  579.2078
 133  609.1922
 134  488.5492
 135  479.2274
 136  536.0464
 137  522.6806
 138  452.303
 139  362.597
 140  410.7597
 141  540.4636
 142  497.7278
 143  451.5335
 144  414.7415
 145  406.5076
 146  474.9782
 147  490.4198
 148  481.9962
 149  333.7024
 150  338.8868
 151  358.9358
 152  352.9054
 153  482.7514
 154  530.7952
 155  387.999
 156  485.8576
 157  395.8999
 158  496.3847
 159  556.2335
 160  598.5678
 161  417.7435
 162  438.9221
 163  515.446
 164  382.4921
 165  441.0854
 166  433.8361
 167  431.5333
 168  388.9037
 169  445.3523
 170  512.8036
 171  368.7912
 172  487.1304
 173  517.4072
 174  466.007
 175  479.4861
 176  507.8718
 177  489.1259
 178  446.44
 179  495.561
 180  470.4057
 181  502.7154
 182  470.6219
 183  577.7106
 184  500.8001
 185  481.0564
 186  429.0951
 187  466.6611
 188  464.0804
 189  449.2923
 190  454.8059
 191  520.4304
 192  571.7704
 193  546.1271
 194  403.2206
 195  495.7496
 196  535.1641
 197  530.4482
 198  377.9519
 199  376.2979
 200  415.7939
 201  530.511
 202  543.0117
 203  437.2043
 204  338.5
 205  239.2538
 206  424.8662
 207  450.8785
 208  425.0354
 209  439.2004
 210  412.3109
 211  459.7065
 212  494.8775
 213  394.6164
 214  456.6484
 215  561.9977
 216  430.7333
 217  447.0741
 218  463.6194
 219  460.776
 220  583.7117
 221  505.9657
 222  455.239
 223  354.3893
 224  549.9096
 225  520.0867
 226  423.4272
 227  408.1099
 228  476.5248
 229  488.9397
 230  446.4564
 231  427.2284
 232  493.1146
 233  546.9579
 234  422.8598
 235  374.91
 236  499.8125
 237  535.6087
 238  517.8103
 239  531.2455
 240  566.0474
 241  551.8887
 242  481.9175
 243  442.7383
 244  504.1048
 245  561.085
 246  638.325
 247  535.6366
 248  685.002
 249  624.6896
 250  563.3741
 251  509.1871
 252  546.9048
 253  515.5601
 254  522.0333
 255  508.6266
 256  458.0087
 257  453.9965
 258  481.5497
 259  408.9766
 260  454.2456
 261  399.5631
 262  445.1068
 263  516.798
 264  486.8478
 265  437.721
 266  510.0094
 267  570.9545
 268  416.0367
 269  395.02
 270  357.3474
 271  459.2076
 272  463.5552
 273  630.4622
 274  491.4449
 275  459.7214
 276  449.4723
 277  391.2548
 278  460.6004
 279  490.3844
 280  473.1996
 281  456.6415
 282  550.0312
 283  463.8095
 284  382.8383
 285  472.9074
 286  432.3677
 287  523.1171
 288  562.8353
 289  438.0792
 290  441.5453
 291  413.3566
 292  392.1862
 293  436.7115
 294  465.807
 295  578.3187
 296  517.8028
 297  497.4589
 298  652.6917
 299  448.0315
 300  424.7072
 301  418.4674
 302  544.6179
 303  450.1043
 304  454.2589
 305  430.2045
 306  476.2387
 307  488.7995
 308  551.7676
 309  510.6508
 310  571.7575
 311  521.3804
 312  617.1813
 313  557.8417
 314  480.3024
 315  489.3849
 316  610.4207
 317  622.8337
 318  512.4279
 319  547.1571
 320  574.8551
 321  498.9743
 322  514.0421
 323  545.1491
 324  584.0024
 325  675.1053
 326  610.0972
 327  665.7917
 328  704.2028
 329  672.0758
 330  686.0948
 331  589.2885
 332  498.4873
 333  720.2335
 334  705.2451
 335  707.159
 336  605.1429
 337  597.6497
 338  594.6516
 339  619.9577
 340  568.1578
 341  478.1675
 342  411.5741
 343  542.4852
 344  583.4467
 345  583.2259
 346  488.2418
 347  461.3689
 348  526.7171
 349  651.6169
 350  657.1874
 351  679.4844
 352  598.9964
 353  622.147
 354  531.4641
 355  633.4774
 356  560.8129
 357  571.8215
 358  511.338
 359  438.2165
 360  499.0544
 361  463.5042
 362  594.3937
 363  637.7176
 364  563.41
 365  557.4517
 366  549.4388
 367  399.9691
 368  512.5634
 369  504.9641
 370  471.7464
 371  464.7474
 372  426.2917
 373  572.8959
 374  519.6538
 375  444.5974
 376  488.0641
 377  441.2055
 378  585.0273
 379  548.7503
 380  472.1111
 381  457.5309
 382  483.3884
 383  506.924
 384  484.8342
 385  335.6157
 386  433.4952
 387  490.2763
 388  517.0266
 389  498.0648
 390  447.259
 391  480.2228
 392  483.9391
 393  404.4318
 394  382.771
 395  511.7934
 396  555.7426
 397  479.5645
 398  546.3272
 399  561.6335
 400  565.3951
 401  491.1711
 402  554.0736
 403  584.814
 404  473.6948
 405  507.0443
 406  510.7357
 407  492.3949
 408  541.6517
 409  531.8823
 410  557.1401
 411  548.3825
 412  579.6136
 413  497.4169
 414  452.9561
 415  407.513
 416  436.3748
 417  460.5
 418  462.6877
 419  472.9018
 420  487.7848
 421  457.7372
 422  503.6042
 423  445.3254
 424  485.5113
 425  543.0751
 426  493.0767
 427  487.1091
 428  444.9153
 429  405.5825
 430  463.9379
 431  528.4001
 432  519.666
 433  458.2943
 434  433.4706
 435  366.6114
 436  399.3885
 437  313.0669
 438  323.5397
 439  411.9604
 440  408.2841
 441  368.3669
 442  335.4361
 443  377.0962
 444  568.1645
 445  443.2139
 446  349.4311
 447  404.1082
 448  344.8902
 449  365.7349
 450  447.1247
 451  470.6142
 452  532.7995
 453  441.1874
 454  414.8027
 455  341.2914
 456  454.2322
 457  443.9242
 458  385.089
 459  451.0752
 460  481.2821
 461  503.0282
 462  455.558
 463  487.263
 464  467.8408
 465  385.4281
 466  325.8633
 467  344.4339
 468  471.6681
 469  493.5529
 470  489.4619
 471  509.0246
 472  593.4252
 473  518.52
 474  545.5083
 475  449.1003
 476  458.2359
 477  496.1389
 478  543.0577
 479  499.3056
 480  476.914
 481  468.3535
 482  466.3381
 483  466.0377
 484  470.5905
 485  466.9997
 486  564.6994
 487  462.0992
 488  366.2166
 489  420.5816
 490  496.3555
 491  545.9742
 492  541.4292
 493  409.1893
 494  271.4188
 495  431.1111
 496  577.0654
 497  394.5808
 498  386.9716
 499  537.5193
 500  495.2737
 501  570.2067
 502  480.0298
 503  530.1729
 504  423.6541
 505  501.453
 506  472.2245
 507  538.1849
 508  663.5229
 509  953.9573
 510  1071.597
 511  1188.991
