# Input file       =  1184372028.105099_cleaned.dat
# Candidate        =  PSR_0332+5434
# Telescope        =  AR
# Epoch_topo       =  57952.009804457164
# Epoch_bary       =  N/A
# T_sample         =  0.002
# Data Folded      =  7143424
# Data Avg         =  0.0208990834723048
# Data StdDev      =  1.00003572277598 
# Profile Bins     =  512
# Profile Avg      =  291.632261377149 
# Profile StdDev   =  118.1228040056   
# Reduced chi-sqr  =  1.500
# Prob(Noise)      <  1.58e-12   (~7.0 sigma)
# P_topo (ms)      =  714.476959324488  +/- 0.000345
# P'_topo (s/s)    =  -0                +/- 1.87e-10
# P''_topo (s/s^2) =  0                 +/- 8.49e-14
# P_bary (ms)      =  N/A
# P'_bary (s/s)    =  N/A
# P''_bary (s/s^2) =  N/A
# P_orb (s)        =  N/A
# asin(i)/c (s)    =  N/A
# eccentricity     =  N/A
# w (rad)          =  N/A
# T_peri           =  N/A
######################################################
   0  52.09404
   1  195.5399
   2  305.2254
   3  303.4203
   4  348.9199
   5  352.2399
   6  379.3105
   7  229.1735
   8  244.1464
   9  213.7263
  10  197.2085
  11  185.0203
  12  217.4096
  13  285.4744
  14  190.2783
  15  280.6637
  16  210.5233
  17  244.6675
  18  295.6367
  19  260.0367
  20  164.4919
  21  187.1512
  22  347.1859
  23  292.4528
  24  246.5726
  25  238.5426
  26  316.0996
  27  320.0359
  28  296.6878
  29  249.6844
  30  211.0315
  31  243.8583
  32  162.08
  33  252.8148
  34  374.9602
  35  419.2482
  36  298.5031
  37  329.5796
  38  304.9273
  39  455.7767
  40  394.7536
  41  269.7635
  42  219.8322
  43  335.0198
  44  373.3614
  45  227.0843
  46  259.1927
  47  365.3743
  48  334.9136
  49  345.6122
  50  398.9707
  51  248.9675
  52  242.7563
  53  151.2551
  54  248.7478
  55  307.01
  56  269.3399
  57  360.329
  58  319.2825
  59  310.6145
  60  240.6814
  61  200.5921
  62  255.8846
  63  296.0536
  64  289.368
  65  311.1705
  66  354.1616
  67  325.4991
  68  238.1944
  69  217.4741
  70  226.9756
  71  332.6758
  72  373.1877
  73  313.4386
  74  389.0436
  75  342.3286
  76  274.1754
  77  318.6765
  78  286.9974
  79  218.3513
  80  281.1602
  81  283.3596
  82  227.8994
  83  129.5706
  84  180.6659
  85  265.3431
  86  298.231
  87  206.9771
  88  265.3692
  89  392.0609
  90  280.0857
  91  222.5378
  92  294.717
  93  331.0986
  94  452.1913
  95  350.6439
  96  295.7906
  97  329.7878
  98  266.6334
  99  223.794
 100  251.6286
 101  329.6626
 102  246.1304
 103  212.9177
 104  265.9914
 105  174.9028
 106  182.9155
 107  210.2012
 108  202.1637
 109  214.03
 110  345.1283
 111  334.0928
 112  315.491
 113  133.9632
 114  60.85552
 115  244.1646
 116  339.5459
 117  438.0174
 118  383.0612
 119  409.2899
 120  327.5744
 121  324.2174
 122  362.1688
 123  216.3936
 124  271.6714
 125  413.2788
 126  273.4939
 127  299.1376
 128  279.3266
 129  200.4957
 130  219.563
 131  313.9294
 132  387.4722
 133  364.5625
 134  411.1535
 135  379.3236
 136  226.2616
 137  295.4505
 138  409.9926
 139  380.5974
 140  251.4232
 141  253.9961
 142  342.9612
 143  339.9698
 144  281.5943
 145  254.2716
 146  228.0446
 147  294.0015
 148  272.6284
 149  281.4399
 150  401.2713
 151  390.4318
 152  416.5196
 153  316.7681
 154  228.2323
 155  137.6838
 156  215.4344
 157  275.1146
 158  251.3213
 159  188.7764
 160  260.4225
 161  151.0828
 162  81.9809
 163  189.2221
 164  345.4752
 165  386.9209
 166  347.8309
 167  217.1418
 168  269.3683
 169  260.782
 170  206.8323
 171  186.1695
 172  311.868
 173  322.1733
 174  437.095
 175  308.9569
 176  165.7944
 177  225.8483
 178  319.8658
 179  312.6202
 180  237.0797
 181  316.8173
 182  419.1064
 183  349.8957
 184  278.1327
 185  292.2196
 186  284.2355
 187  241.769
 188  236.0023
 189  371.4061
 190  337.0746
 191  195.324
 192  145.2459
 193  297.5133
 194  265.7393
 195  260.8269
 196  285.0154
 197  266.3209
 198  268.7155
 199  278.4912
 200  288.9531
 201  432.2359
 202  332.5027
 203  428.936
 204  417.1707
 205  263.7359
 206  209.9552
 207  294.9956
 208  265.2798
 209  317.7686
 210  334.7453
 211  326.9407
 212  328.8604
 213  212.5773
 214  263.0444
 215  320.0341
 216  392.8954
 217  340.2389
 218  220.8135
 219  262.6426
 220  228.3951
 221  185.1505
 222  317.3245
 223  385.0862
 224  411.7823
 225  338.3535
 226  321.3459
 227  351.8331
 228  336.2211
 229  251.1029
 230  367.5624
 231  240.4718
 232  198.5676
 233  238.7916
 234  268.6055
 235  151.9683
 236  69.63374
 237  211.7377
 238  258.3093
 239  231.8962
 240  222.7158
 241  254.0128
 242  217.9102
 243  130.074
 244  229.6113
 245  307.5717
 246  103.8849
 247  112.5691
 248  294.2017
 249  381.7299
 250  508.9352
 251  428.8712
 252  384.0074
 253  311.4307
 254  251.5189
 255  405.2689
 256  351.9796
 257  225.3024
 258  346.5646
 259  390.5883
 260  389.6749
 261  347.4933
 262  237.1418
 263  213.9692
 264  224.1427
 265  269.5051
 266  309.1329
 267  359.6841
 268  345.0575
 269  282.4107
 270  338.9962
 271  364.3585
 272  399.3856
 273  259.7603
 274  264.5291
 275  371.8769
 276  310.5086
 277  266.4039
 278  200.836
 279  289.1162
 280  284.1942
 281  215.4595
 282  357.5557
 283  393.1049
 284  163.617
 285  221.5809
 286  260.4973
 287  217.653
 288  257.9618
 289  355.5641
 290  292.6073
 291  359.6097
 292  320.6254
 293  318.831
 294  288.0555
 295  363.6953
 296  387.7703
 297  407.4836
 298  369.0559
 299  221.3983
 300  277.887
 301  308.1533
 302  204.6785
 303  160.5532
 304  194.7911
 305  212.73
 306  106.9603
 307  186.8954
 308  312.1569
 309  273.0694
 310  256.5592
 311  271.6036
 312  236.8011
 313  367.0234
 314  352.7128
 315  261.7681
 316  248.9658
 317  287.6904
 318  312.3641
 319  285.8752
 320  216.0833
 321  242.1122
 322  464.8726
 323  342.0548
 324  241.9855
 325  278.1313
 326  311.5532
 327  322.7955
 328  170.311
 329  315.9994
 330  368.9746
 331  320.8191
 332  289.7886
 333  381.4508
 334  367.6622
 335  235.9938
 336  257.6966
 337  159.9221
 338  280.1653
 339  408.0587
 340  323.0393
 341  261.4053
 342  189.5123
 343  277.7748
 344  331.1965
 345  286.4418
 346  341.935
 347  311.9438
 348  291.2907
 349  134.5206
 350  204.6483
 351  418.5793
 352  422.9881
 353  278.735
 354  319.0378
 355  352.4534
 356  302.8959
 357  263.6708
 358  336.9262
 359  221.1186
 360  207.0858
 361  258.7763
 362  335.9545
 363  310.2021
 364  221.0057
 365  205.1734
 366  240.8027
 367  255.9933
 368  209.8861
 369  291.26
 370  199.3759
 371  166.8978
 372  242.354
 373  270.8766
 374  299.1326
 375  314.6487
 376  371.4603
 377  269.2257
 378  246.9088
 379  238.6233
 380  331.5483
 381  322.1854
 382  187.6074
 383  250.9917
 384  337.8198
 385  385.9546
 386  179.58
 387  153.6462
 388  201.062
 389  203.8198
 390  354.2585
 391  393.1617
 392  297.5253
 393  288.6747
 394  244.8335
 395  291.5739
 396  275.5445
 397  290.8492
 398  409.2341
 399  266.0098
 400  129.2031
 401  208.0829
 402  216.9227
 403  290.0499
 404  355.435
 405  272.0074
 406  248.6598
 407  125.9468
 408  192.0801
 409  242.6971
 410  278.0492
 411  311.8315
 412  176.7157
 413  182.1799
 414  182.85
 415  301.826
 416  272.8924
 417  297.4411
 418  365.7256
 419  265.4536
 420  294.1253
 421  318.3455
 422  331.3781
 423  117.9858
 424  272.5964
 425  276.5646
 426  281.2045
 427  336.6615
 428  331.8576
 429  344.8303
 430  381.7425
 431  267.5315
 432  343.6291
 433  509.9697
 434  515.4503
 435  556.6294
 436  723.3624
 437  1016.923
 438  1132.766
 439  1035.515
 440  973.9505
 441  677.261
 442  402.1818
 443  351.576
 444  312.5497
 445  201.8685
 446  254.9778
 447  379.9633
 448  405.6646
 449  394.9602
 450  346.5665
 451  340.6438
 452  226.7222
 453  321.3596
 454  350.433
 455  260.6211
 456  197.7349
 457  249.7213
 458  363.6912
 459  334.6948
 460  368.019
 461  133.5588
 462  111.4208
 463  239.1877
 464  284.3322
 465  252.514
 466  252.5164
 467  200.7217
 468  186.7768
 469  295.667
 470  267.3381
 471  283.45
 472  258.1922
 473  446.4819
 474  437.1412
 475  357.3893
 476  243.702
 477  261.0699
 478  150.1968
 479  242.1884
 480  433.3077
 481  314.1956
 482  246.6186
 483  279.7377
 484  283.3719
 485  192.3869
 486  286.8236
 487  339.3865
 488  415.1423
 489  475.6284
 490  404.6879
 491  326.594
 492  204.5017
 493  284.6099
 494  347.2477
 495  305.9736
 496  288.0293
 497  216.2806
 498  260.1823
 499  248.8436
 500  214.6659
 501  243.7875
 502  294.4524
 503  297.5154
 504  196.7947
 505  130.9906
 506  91.01212
 507  216.116
 508  222.091
 509  253.7376
 510  239.2555
 511  198.8876
