# Input file       =  1184746163.112572_cleaned.dat
# Candidate        =  PSR_0332+5434
# Telescope        =  AR
# Epoch_topo       =  57956.340070747363
# Epoch_bary       =  N/A
# T_sample         =  0.002
# Data Folded      =  7340032
# Data Avg         =  0.205717674636357
# Data StdDev      =  4.46655810650482 
# Profile Bins     =  512
# Profile Avg      =  2949.24755863008 
# Profile StdDev   =  534.794564245081 
# Reduced chi-sqr  =  1.163
# Prob(Noise)      <  0.00627   (~2.5 sigma)
# P_topo (ms)      =  714.474691751631  +/- 0.000882
# P'_topo (s/s)    =  -0                +/- 4.65e-10
# P''_topo (s/s^2) =  0                 +/- 2.05e-13
# P_bary (ms)      =  N/A
# P'_bary (s/s)    =  N/A
# P''_bary (s/s^2) =  N/A
# P_orb (s)        =  N/A
# asin(i)/c (s)    =  N/A
# eccentricity     =  N/A
# w (rad)          =  N/A
# T_peri           =  N/A
######################################################
   0  2708.688
   1  2825.689
   2  2712.639
   3  2581.104
   4  2602.252
   5  2856.056
   6  3157.682
   7  3020.575
   8  2718.558
   9  2941.275
  10  3024.342
  11  2924.163
  12  2526.359
  13  2538.188
  14  2728.638
  15  3087.585
  16  2933.635
  17  2412.779
  18  2208.73
  19  2109.398
  20  2712.099
  21  2829.162
  22  2623.579
  23  2569.979
  24  2564.92
  25  2802.439
  26  2828.004
  27  2591.736
  28  2840.771
  29  3041.876
  30  2625.962
  31  2547.396
  32  2727.883
  33  2855.461
  34  3210.391
  35  2890.591
  36  2759.823
  37  2556.08
  38  3016.483
  39  2950.517
  40  2906.831
  41  2676.479
  42  2935.854
  43  3090.21
  44  3020.091
  45  2917.11
  46  3020.333
  47  3251.49
  48  2741.171
  49  2584.397
  50  2996.534
  51  3038.788
  52  3037.67
  53  3180.199
  54  3140.655
  55  3174.429
  56  2912.013
  57  2796.951
  58  2954.911
  59  3021.451
  60  3163.343
  61  2951.846
  62  3372.165
  63  3129.403
  64  2872.944
  65  2917.823
  66  2910.578
  67  2753.286
  68  2872.579
  69  2819.071
  70  2652.39
  71  2588.906
  72  2587.354
  73  2426.885
  74  2400.772
  75  2296.96
  76  2541.364
  77  2523.473
  78  2353.836
  79  2164.276
  80  2587.276
  81  2644.859
  82  2064.496
  83  2128.295
  84  2153.981
  85  2401.588
  86  2470.215
  87  2856.077
  88  2521.862
  89  2522.156
  90  2617.071
  91  2350.079
  92  2443.231
  93  2463.575
  94  2337.303
  95  2339.872
  96  2440.738
  97  2079.097
  98  2096.004
  99  2366.28
 100  2508.764
 101  2753.304
 102  2669.37
 103  2584.75
 104  2564.412
 105  2514.646
 106  2536.716
 107  2559.474
 108  2785.379
 109  2958.333
 110  2824.094
 111  2872.917
 112  3165.807
 113  2608.846
 114  2766.977
 115  2818.524
 116  3199.092
 117  2950.959
 118  2910.017
 119  2795.188
 120  2919.343
 121  3009.315
 122  3051.464
 123  3088.409
 124  3146.105
 125  2940.362
 126  3238.258
 127  3209.823
 128  2872.89
 129  2900.129
 130  3291.899
 131  3181.08
 132  3074.736
 133  3345.357
 134  3340.917
 135  3000.479
 136  3223.396
 137  3183.155
 138  3265.202
 139  3462.523
 140  3127.506
 141  3401.462
 142  3574.275
 143  3375.908
 144  3383.352
 145  2988.478
 146  3041.863
 147  3707.245
 148  3484.452
 149  3570.418
 150  3310.107
 151  3301.13
 152  3178.478
 153  3176.183
 154  3008.033
 155  2804.241
 156  2661.396
 157  3066.896
 158  3069.371
 159  2924.429
 160  2647.605
 161  2669.345
 162  3026.667
 163  3375.85
 164  3385.459
 165  3400.676
 166  3132.111
 167  3099.698
 168  3041.66
 169  3281.702
 170  3110.176
 171  3063.952
 172  2888.47
 173  2758.202
 174  2838.185
 175  2862.042
 176  3261.098
 177  3399.32
 178  3128.812
 179  3213.274
 180  3238.319
 181  2749.474
 182  3048.674
 183  3125.667
 184  3200.713
 185  2958.151
 186  2934.733
 187  3095.658
 188  2749.604
 189  2735.75
 190  2834.267
 191  2779.388
 192  3337.478
 193  3146.71
 194  2970.849
 195  2768.626
 196  2934.455
 197  3001.766
 198  2925.686
 199  2698.334
 200  3057.563
 201  3188.977
 202  2983.108
 203  2833.1
 204  2625.344
 205  2931.175
 206  2963.812
 207  2612.734
 208  2636.656
 209  2976.99
 210  2931.673
 211  2722.428
 212  2796.211
 213  2647.954
 214  2762.024
 215  2733.663
 216  2969.192
 217  2987.136
 218  2627.961
 219  2761.713
 220  2617.158
 221  2580.784
 222  2741.121
 223  2626.325
 224  2814.778
 225  3065.169
 226  3040.87
 227  2538.948
 228  2368.221
 229  2281.148
 230  2264.646
 231  2469.971
 232  2585.192
 233  2693.508
 234  2701.601
 235  2574.619
 236  2556.611
 237  2417.434
 238  2650.194
 239  2944.217
 240  2743.134
 241  2617.315
 242  2641.231
 243  2642.824
 244  2637.682
 245  2778.593
 246  2712.071
 247  2668.047
 248  2459.003
 249  2344.925
 250  2427.762
 251  2250.642
 252  2338.078
 253  2498.071
 254  2394.402
 255  2270.546
 256  2183.261
 257  2590.656
 258  3072.335
 259  2589.845
 260  2308.668
 261  2367.966
 262  2304.232
 263  2318.806
 264  2630.449
 265  2818.044
 266  3008.453
 267  2556.704
 268  2154.328
 269  2159.69
 270  2648.968
 271  2446.091
 272  2371.564
 273  2656.637
 274  2686.396
 275  2822.973
 276  2627.911
 277  2751.334
 278  2619.684
 279  2404.675
 280  2369.49
 281  2404.483
 282  2683.637
 283  2743.788
 284  2870.448
 285  2874.883
 286  3106.137
 287  2924.693
 288  2850.225
 289  2477.423
 290  2559.949
 291  2683.089
 292  2753.279
 293  2545.656
 294  2590.436
 295  2469.686
 296  2495.897
 297  2540.186
 298  2421.333
 299  2294.272
 300  2495.504
 301  2240.991
 302  2106.674
 303  2286.329
 304  2621.707
 305  2723.569
 306  2677.24
 307  2324.812
 308  2082.89
 309  2466.396
 310  2629.472
 311  2178.695
 312  2445.05
 313  2838.794
 314  2653.232
 315  2744.64
 316  2504.335
 317  2618.942
 318  2469.571
 319  2857.843
 320  2873.913
 321  3147.097
 322  3539.83
 323  4133.946
 324  4652.673
 325  4915.079
 326  5008.97
 327  4499.781
 328  3704.297
 329  3306.964
 330  3024.083
 331  2876.634
 332  2947.189
 333  3285.066
 334  3218.724
 335  3314.619
 336  3336.548
 337  3398.226
 338  3322.453
 339  3178.598
 340  3039.427
 341  3431.126
 342  3567.036
 343  3301.391
 344  3133.37
 345  3080.482
 346  3062.66
 347  2845.597
 348  2945.55
 349  3455.064
 350  3439.246
 351  3724.161
 352  3679.943
 353  3595.715
 354  3486.54
 355  3473.654
 356  3287.702
 357  3444
 358  3518.229
 359  3363.917
 360  2946.104
 361  3116.794
 362  3206.292
 363  3216.144
 364  2744.117
 365  2966.264
 366  2477.52
 367  2562.766
 368  2714.721
 369  2591.671
 370  2577.958
 371  2360.556
 372  2472.409
 373  2747.996
 374  2861.965
 375  2852.126
 376  3630.218
 377  3378.837
 378  3009.228
 379  2904.091
 380  3061.967
 381  3460.737
 382  3244.284
 383  3512.371
 384  3342.568
 385  3050.948
 386  3229.338
 387  3167.369
 388  3090.21
 389  3215.997
 390  3313.079
 391  3342.896
 392  3393.5
 393  3420.997
 394  3488.463
 395  3341.827
 396  3280.126
 397  3433.33
 398  3470.681
 399  3579.136
 400  3553.976
 401  3286.931
 402  3126.999
 403  3078.364
 404  3593.855
 405  3857.422
 406  3444.037
 407  3353.818
 408  3537.671
 409  3907.492
 410  3385.658
 411  3181.217
 412  3469.712
 413  3591.502
 414  3503.586
 415  3683.062
 416  3569.316
 417  3472.137
 418  3807.411
 419  4060.03
 420  3607.573
 421  3285.333
 422  3593.167
 423  3525.56
 424  3551.799
 425  3917.954
 426  4001.195
 427  4112.217
 428  3528.411
 429  3585.859
 430  3909.821
 431  3863.179
 432  3608.242
 433  3482.099
 434  3597.979
 435  3546.716
 436  3335.046
 437  3251.564
 438  3257.882
 439  3259.423
 440  3356.2
 441  3385.622
 442  3302.888
 443  3103.358
 444  3171.786
 445  3374.89
 446  3091.341
 447  3206.844
 448  3392.313
 449  3181.802
 450  2927.542
 451  3117.593
 452  2820.73
 453  2793.715
 454  2974.787
 455  3294.537
 456  3178.787
 457  3300.848
 458  3379.714
 459  3527.292
 460  3232.929
 461  3277.512
 462  3301.952
 463  3146.686
 464  3048.952
 465  2927.822
 466  3024.017
 467  3245.26
 468  3072.746
 469  2841.349
 470  2621.19
 471  2812.823
 472  2989.948
 473  3065.564
 474  2823.998
 475  2601.724
 476  2619.325
 477  2644.042
 478  2722.668
 479  3222.332
 480  3239.045
 481  2902.94
 482  2999.087
 483  2973.515
 484  3343.694
 485  3377.14
 486  3313.569
 487  2710.764
 488  2998.651
 489  3093.628
 490  2749.016
 491  2907.887
 492  2826.15
 493  2651.964
 494  2537.364
 495  2753.002
 496  2902.057
 497  2670.143
 498  2905.301
 499  2968.367
 500  2907.39
 501  2990.249
 502  2989.723
 503  3038.973
 504  2899.358
 505  2965.281
 506  2924.874
 507  2781.848
 508  2851.365
 509  3041.566
 510  2962.193
 511  2848.689
