# Input file       =  1184817381.103401_cleaned.dat
# Candidate        =  PSR_0332+5434
# Telescope        =  AR
# Epoch_topo       =  57957.164353048625
# Epoch_bary       =  N/A
# T_sample         =  0.002
# Data Folded      =  7340032
# Data Avg         =  0.032336334367002
# Data StdDev      =  1.00013650263529 
# Profile Bins     =  512
# Profile Avg      =  463.392977975406 
# Profile StdDev   =  119.749380251762 
# Reduced chi-sqr  =  1.948
# Prob(Noise)      <  1.67e-33   (~12.0 sigma)
# P_topo (ms)      =  714.473887921991  +/- 0.000235
# P'_topo (s/s)    =  -0                +/- 1.24e-10
# P''_topo (s/s^2) =  0                 +/- 5.48e-14
# P_bary (ms)      =  N/A
# P'_bary (s/s)    =  N/A
# P''_bary (s/s^2) =  N/A
# P_orb (s)        =  N/A
# asin(i)/c (s)    =  N/A
# eccentricity     =  N/A
# w (rad)          =  N/A
# T_peri           =  N/A
######################################################
   0  343.1538
   1  347.3657
   2  365.2158
   3  299.5515
   4  308.3769
   5  328.0931
   6  455.9489
   7  407.7036
   8  461.9463
   9  612.6569
  10  482.6927
  11  272.9006
  12  267.4014
  13  393.8798
  14  487.4138
  15  486.9554
  16  491.1624
  17  494.2935
  18  468.2151
  19  399.8239
  20  429.3867
  21  277.4398
  22  369.9563
  23  527.1767
  24  485.8088
  25  412.3162
  26  432.1819
  27  499.8976
  28  346.2152
  29  313.0473
  30  333.8202
  31  325.7063
  32  370.4717
  33  370.2993
  34  474.0197
  35  554.1539
  36  507.9961
  37  320.9857
  38  282.9171
  39  372.9662
  40  346.6463
  41  432.4204
  42  532.306
  43  478.3955
  44  473.0893
  45  398.8499
  46  367.6008
  47  418.4113
  48  437.544
  49  409.1738
  50  434.4583
  51  403.2957
  52  310.151
  53  284.4137
  54  339.7796
  55  430.4598
  56  403.2859
  57  247.0853
  58  303.7943
  59  362.1565
  60  424.7013
  61  291.9438
  62  272.5486
  63  444.6564
  64  374.5343
  65  306.2661
  66  413.3516
  67  481.3369
  68  376.7038
  69  371.9589
  70  414.2195
  71  301.133
  72  414.7074
  73  439.5706
  74  347.4246
  75  394.0417
  76  432.9987
  77  481.9936
  78  424.5488
  79  350.7678
  80  363.378
  81  375.9562
  82  458.1713
  83  482.1302
  84  527.7524
  85  610.2824
  86  575.751
  87  504.4212
  88  530.5667
  89  524.8063
  90  389.8836
  91  305.7927
  92  340.6518
  93  436.5533
  94  485.975
  95  451.7346
  96  450.3449
  97  461.6923
  98  531.9044
  99  636.2487
 100  498.3253
 101  469.94
 102  393.3891
 103  303.9639
 104  333.7916
 105  246.9307
 106  490.3636
 107  514.5126
 108  485.0367
 109  323.0434
 110  354.328
 111  447.2667
 112  453.5814
 113  347.75
 114  465.3798
 115  347.1665
 116  333.6273
 117  436.9217
 118  498.6586
 119  514.1259
 120  463.1055
 121  476.846
 122  485.3156
 123  507.5479
 124  630.623
 125  569.0338
 126  549.2058
 127  529.2291
 128  471.1289
 129  529.9142
 130  691.2936
 131  640.9982
 132  582.0614
 133  566.2709
 134  520.9726
 135  410.2139
 136  459.398
 137  460.3374
 138  477.4211
 139  558.502
 140  521.7487
 141  550.262
 142  544.386
 143  448.6734
 144  350.7841
 145  514.9179
 146  599.951
 147  561.366
 148  544.6705
 149  561.5806
 150  490.1429
 151  447.16
 152  520.7492
 153  492.1896
 154  427.8321
 155  374.0314
 156  415.0731
 157  483.828
 158  501.9573
 159  509.2646
 160  498.0589
 161  475.7256
 162  446.1676
 163  433.6761
 164  364.5187
 165  389.825
 166  325.9202
 167  446.6541
 168  479.8553
 169  334.8809
 170  324.8384
 171  325.3888
 172  323.541
 173  344.9909
 174  340.2177
 175  348.7237
 176  337.0278
 177  377.7068
 178  324.8585
 179  408.6813
 180  530.2271
 181  498.7603
 182  549.2601
 183  565.7793
 184  399.6235
 185  390.3607
 186  436.7362
 187  526.9106
 188  462.799
 189  366.803
 190  369.4027
 191  392.2674
 192  471.3497
 193  506.4315
 194  417.243
 195  444.7683
 196  560.7646
 197  620.7359
 198  532.9221
 199  434.1409
 200  444.6125
 201  485.6172
 202  458.2357
 203  469.2367
 204  422.0596
 205  473.3224
 206  506.6353
 207  531.9554
 208  466.9758
 209  486.6111
 210  587.9158
 211  554.3422
 212  331.5201
 213  334.7195
 214  429.0542
 215  490.6732
 216  496.9782
 217  435.9131
 218  449.0649
 219  441.0235
 220  433.0098
 221  468.7029
 222  589.4999
 223  530.4528
 224  517.2148
 225  740.3082
 226  959.8384
 227  1144.145
 228  1369.01
 229  1333.839
 230  1226.552
 231  950.8317
 232  687.8547
 233  401.4027
 234  386.7724
 235  536.9763
 236  538.8183
 237  462.1613
 238  438.7546
 239  474.6282
 240  491.5504
 241  515.4998
 242  465.9609
 243  503.9451
 244  422.77
 245  344.5042
 246  292.8346
 247  351.9893
 248  400.6558
 249  351.3882
 250  346.7621
 251  393.4341
 252  426.5648
 253  454.0802
 254  509.885
 255  522.2533
 256  455.0425
 257  449.426
 258  385.5363
 259  415.936
 260  345.811
 261  336.2802
 262  406.4495
 263  435.8463
 264  407.993
 265  334.9333
 266  436.9145
 267  468.6763
 268  385.7284
 269  310.8401
 270  323.8355
 271  334.5159
 272  210.0795
 273  252.7174
 274  422.637
 275  440.6304
 276  408.4677
 277  408.629
 278  383.1127
 279  398.2188
 280  389.5629
 281  406.3999
 282  392.5869
 283  489.0297
 284  406.1343
 285  477.8333
 286  457.206
 287  346.3019
 288  460.3121
 289  491.4233
 290  438.6817
 291  526.9293
 292  542.673
 293  616.68
 294  503.5597
 295  482.2188
 296  533.048
 297  490.7985
 298  394.9265
 299  518.4496
 300  570.5291
 301  526.316
 302  491.304
 303  495.9729
 304  494.004
 305  439.2347
 306  533.9396
 307  574.9073
 308  480.1646
 309  477.0715
 310  562.2698
 311  501.6647
 312  505.9046
 313  479.7323
 314  457.0765
 315  501.0609
 316  499.7223
 317  441.8107
 318  389.6328
 319  399.7683
 320  401.5795
 321  495.4883
 322  523.319
 323  544.4899
 324  477.3512
 325  473.6519
 326  453.4127
 327  428.3749
 328  300.1893
 329  446.685
 330  541.8193
 331  503.0429
 332  490.62
 333  478.045
 334  430.1804
 335  422.3066
 336  409.8465
 337  538.859
 338  516.5373
 339  446.234
 340  507.4572
 341  508.7798
 342  519.6277
 343  522.124
 344  483.1391
 345  447.9391
 346  569.0278
 347  510.1186
 348  516.4841
 349  596.5016
 350  561.139
 351  536.8172
 352  473.7994
 353  455.1559
 354  575.522
 355  656.9369
 356  733.3036
 357  650.655
 358  589.443
 359  554.8947
 360  429.0363
 361  443.8598
 362  454.6141
 363  447.323
 364  557.6375
 365  539.0644
 366  577.5211
 367  602.4572
 368  549.6
 369  594.1738
 370  640.5183
 371  557.3732
 372  401.3542
 373  542.864
 374  655.3844
 375  470.8012
 376  500.1565
 377  508.1178
 378  584.9044
 379  488.9671
 380  563.7
 381  645.2719
 382  530.3746
 383  459.0466
 384  565.1763
 385  551.9317
 386  543.3394
 387  526.47
 388  538.6436
 389  582.1193
 390  542.6537
 391  473.6126
 392  482.7906
 393  478.9623
 394  548.6936
 395  472.4797
 396  581.7739
 397  497.138
 398  492.9261
 399  397.6298
 400  474.7487
 401  349.3365
 402  471.8396
 403  659.8948
 404  602.3027
 405  597.353
 406  517.7135
 407  444.3967
 408  268.5531
 409  417.8811
 410  466.895
 411  558.4176
 412  611.9897
 413  607.4179
 414  509.6814
 415  601.3579
 416  550.6902
 417  545.5352
 418  497.6332
 419  589.3646
 420  540.2875
 421  673.1794
 422  754.2377
 423  634.7297
 424  512.5082
 425  454.9177
 426  403.8599
 427  439.3817
 428  362.839
 429  475.4786
 430  649.3729
 431  538.247
 432  501.8789
 433  520.8524
 434  606.035
 435  553.8458
 436  525.8364
 437  510.9491
 438  592.2604
 439  674.9258
 440  559.8895
 441  458.3118
 442  491.5898
 443  505.7839
 444  551.4933
 445  605.0571
 446  562.8305
 447  615.9617
 448  531.3994
 449  427.1531
 450  467.435
 451  595.0717
 452  604.5781
 453  457.3677
 454  369.5063
 455  315.4727
 456  385.9595
 457  447.0525
 458  438.5898
 459  418.2046
 460  348.1858
 461  407.7079
 462  378.3415
 463  316.673
 464  264.9959
 465  340.2766
 466  350.0131
 467  452.5945
 468  350.4858
 469  278.5903
 470  464.5341
 471  437.1526
 472  377.9198
 473  317.6426
 474  345.6163
 475  376.9113
 476  354.8239
 477  346.7202
 478  369.7803
 479  444.8126
 480  466.0579
 481  331.5763
 482  281.4623
 483  269.8729
 484  258.0556
 485  409.2692
 486  534.6657
 487  522.9079
 488  424.1195
 489  305.4527
 490  308.7901
 491  377.0849
 492  350.9526
 493  354.0102
 494  403.5518
 495  369.0525
 496  387.1796
 497  394.6055
 498  365.5167
 499  370.238
 500  391.4175
 501  393.8709
 502  424.6838
 503  412.9784
 504  417.1275
 505  326.8741
 506  429.3768
 507  282.3872
 508  258.9265
 509  346.9524
 510  354.7229
 511  369.7068
