# Input file       =  1184802742.097903_cleaned.dat
# Candidate        =  PSR_0332+5434
# Telescope        =  AR
# Epoch_topo       =  57956.994920114616
# Epoch_bary       =  N/A
# T_sample         =  0.002
# Data Folded      =  7208960
# Data Avg         =  0.0324325248089297
# Data StdDev      =  1.00017023872457 
# Profile Bins     =  512
# Profile Avg      =  456.787543394366 
# Profile StdDev   =  118.679376180277 
# Reduced chi-sqr  =  1.392
# Prob(Noise)      <  1.01e-08   (~5.6 sigma)
# P_topo (ms)      =  714.473971089578  +/- 0.000142
# P'_topo (s/s)    =  -0                +/- 7.6e-11
# P''_topo (s/s^2) =  0                 +/- 3.42e-14
# P_bary (ms)      =  N/A
# P'_bary (s/s)    =  N/A
# P''_bary (s/s^2) =  N/A
# P_orb (s)        =  N/A
# asin(i)/c (s)    =  N/A
# eccentricity     =  N/A
# w (rad)          =  N/A
# T_peri           =  N/A
######################################################
   0  1278.083
   1  1121.929
   2  837.4001
   3  615.0029
   4  623.559
   5  516.5933
   6  440.4143
   7  473.4475
   8  479.6186
   9  479.2173
  10  406.905
  11  338.1048
  12  318.4138
  13  363.6226
  14  342.1974
  15  403.1074
  16  395.1674
  17  371.5916
  18  267.4136
  19  321.901
  20  380.1131
  21  442.696
  22  441.6499
  23  465.1309
  24  509.3103
  25  567.5132
  26  569.7495
  27  404.9807
  28  328.6278
  29  276.5192
  30  360.0831
  31  342.981
  32  414.5991
  33  384.2411
  34  457.9089
  35  412.0562
  36  373.8614
  37  331.443
  38  419.5472
  39  473.2819
  40  418.0259
  41  431.1892
  42  507.2878
  43  422.9442
  44  369.2073
  45  434.9814
  46  506.8672
  47  468.9431
  48  554.9284
  49  514.6145
  50  426.1997
  51  449.9789
  52  375.7034
  53  383.0737
  54  365.7297
  55  384.5537
  56  510.2522
  57  554.2939
  58  488.875
  59  503.9851
  60  544.6218
  61  465.8327
  62  393.7254
  63  317.3946
  64  427.9862
  65  418.7405
  66  443.4624
  67  544.7297
  68  466.8918
  69  322.1445
  70  295.9185
  71  393.9877
  72  393.7498
  73  457.2089
  74  448.9627
  75  430.0439
  76  536.1312
  77  513.6434
  78  408.9666
  79  451.1609
  80  411.6681
  81  426.3885
  82  451.3112
  83  484.5799
  84  509.7666
  85  531.134
  86  501.1343
  87  509.3185
  88  517.1591
  89  578.5206
  90  566.4203
  91  574.8915
  92  536.0886
  93  523.619
  94  442.2412
  95  404.3703
  96  435.1305
  97  479.155
  98  571.7019
  99  537.4043
 100  531.7885
 101  460.2363
 102  451.7193
 103  452.0655
 104  484.2462
 105  540.7683
 106  433.6615
 107  394.9368
 108  401.5577
 109  373.9382
 110  495.706
 111  379.1133
 112  415.3044
 113  409.1792
 114  407.2338
 115  470.6068
 116  507.2208
 117  445.5704
 118  382.0627
 119  349.5844
 120  406.0823
 121  444.7335
 122  510.1322
 123  548.264
 124  525.5453
 125  501.3141
 126  499.9445
 127  419.7781
 128  339.9615
 129  376.2045
 130  439.892
 131  464.6948
 132  444.105
 133  478.593
 134  423.8571
 135  390.1086
 136  400.6531
 137  428.8709
 138  430.5084
 139  534.1145
 140  541.398
 141  463.6207
 142  446.7919
 143  509.6146
 144  456.7682
 145  353.3693
 146  293.8943
 147  383.5969
 148  429.7657
 149  425.5158
 150  480.0423
 151  516.1932
 152  494.089
 153  418.7056
 154  520.811
 155  484.9383
 156  509.6692
 157  466.213
 158  426.8617
 159  513.4141
 160  505.5402
 161  520.3436
 162  543.8545
 163  579.9075
 164  461.692
 165  428.1916
 166  435.2332
 167  401.5264
 168  444.8876
 169  539.5656
 170  668.0104
 171  543.4401
 172  549.9923
 173  595.527
 174  501.1891
 175  540.7417
 176  563.1335
 177  596.7689
 178  506.5807
 179  498.1613
 180  519.6107
 181  499.5004
 182  434.9311
 183  538.3627
 184  577.8469
 185  512.0966
 186  524.2034
 187  432.9444
 188  400.4181
 189  516.7815
 190  463.5901
 191  502.8615
 192  557.4333
 193  513.6555
 194  442.5779
 195  389.5925
 196  389.2722
 197  381.5437
 198  398.8898
 199  484.8093
 200  447.5304
 201  323.3712
 202  371.0109
 203  460.1704
 204  425.2173
 205  386.6577
 206  470.9575
 207  629.9292
 208  581.5244
 209  388.4637
 210  349.7365
 211  381.5955
 212  390.0916
 213  441.2126
 214  507.1605
 215  516.0816
 216  370.3633
 217  400.7138
 218  360.4601
 219  312.1127
 220  398.1308
 221  350.1742
 222  372.6706
 223  448.0539
 224  469.9409
 225  443.6204
 226  490.3806
 227  535.2398
 228  585.9037
 229  482.7286
 230  377.2722
 231  345.2079
 232  296.4923
 233  373.3967
 234  419.7105
 235  433.4478
 236  366.6991
 237  336.9797
 238  380.4591
 239  395.1834
 240  383.6452
 241  472.1511
 242  494.3987
 243  388.884
 244  325.7609
 245  373.4398
 246  420.4574
 247  392.2616
 248  480.5393
 249  418.113
 250  466.7948
 251  531.9944
 252  473.3176
 253  329.427
 254  376.5257
 255  602.7294
 256  546.6276
 257  592.4979
 258  581.4836
 259  511.8946
 260  475.5125
 261  391.4591
 262  497.7001
 263  466.1159
 264  482.739
 265  446.9091
 266  409.1095
 267  484.699
 268  539.7318
 269  426.9492
 270  415.3141
 271  437.7965
 272  524.957
 273  539.3155
 274  387.8532
 275  369.5855
 276  483.965
 277  422.2812
 278  437.3884
 279  474.4676
 280  554.9268
 281  519.072
 282  448.7968
 283  451.6836
 284  388.6256
 285  345.4001
 286  493.0493
 287  539.0304
 288  518.2198
 289  445.8303
 290  452.7889
 291  402.6724
 292  510.4394
 293  446.5204
 294  424.806
 295  380.7076
 296  411.2025
 297  401.4135
 298  496.7367
 299  506.2255
 300  496.4488
 301  393.8262
 302  383.8625
 303  402.4244
 304  392.996
 305  510.3375
 306  598.0779
 307  584.141
 308  397.3499
 309  440.7148
 310  366.4612
 311  309.8027
 312  404.5944
 313  302.4307
 314  340.578
 315  401.9284
 316  434.0936
 317  500.859
 318  485.3134
 319  408.5017
 320  349.1167
 321  364.3277
 322  399.1835
 323  464.7036
 324  534.9183
 325  526.1035
 326  397.1985
 327  367.2231
 328  345.938
 329  406.403
 330  408.522
 331  382.1404
 332  442.8096
 333  445.4062
 334  430.6963
 335  368.8405
 336  377.1342
 337  489.7787
 338  504.6588
 339  535.296
 340  506.7265
 341  454.1635
 342  486.2057
 343  404.5735
 344  358.8517
 345  437.206
 346  480.5893
 347  407.6619
 348  285.8169
 349  351.2794
 350  385.5854
 351  299.5731
 352  399.8587
 353  433.1423
 354  382.9932
 355  454.7433
 356  476.6854
 357  419.218
 358  551.3281
 359  524.5968
 360  346.2709
 361  368.8139
 362  402.8615
 363  351.9101
 364  386.6064
 365  403.0952
 366  354.869
 367  323.6325
 368  398.7137
 369  444.818
 370  430.6599
 371  545.1463
 372  419.9635
 373  428.995
 374  507.8615
 375  500.048
 376  505.448
 377  442.9904
 378  388.9889
 379  473.2738
 380  431.5327
 381  399.1675
 382  547.0331
 383  534.2601
 384  443.4528
 385  346.7798
 386  432.8996
 387  585.6867
 388  536.4608
 389  439.6741
 390  403.9495
 391  454.6536
 392  461.1604
 393  422.167
 394  418.6604
 395  477.6956
 396  497.0623
 397  474.6661
 398  355.0995
 399  418.7049
 400  411.7607
 401  412.6192
 402  494.6756
 403  507.1405
 404  498.562
 405  445.4216
 406  493.42
 407  400.3634
 408  406.9503
 409  375.2772
 410  413.5442
 411  454.1687
 412  511.681
 413  545.5746
 414  443.9315
 415  507.5884
 416  555.713
 417  478.221
 418  294.682
 419  350.0858
 420  365.6839
 421  481.0222
 422  538.3284
 423  522.4758
 424  457.7285
 425  350.8159
 426  300.1089
 427  230.5406
 428  276.2512
 429  339.4509
 430  404.6418
 431  428.6477
 432  451.0872
 433  515.0331
 434  391.0812
 435  373.029
 436  420.4791
 437  463.766
 438  444.236
 439  506.1761
 440  478.8842
 441  462.807
 442  448.6914
 443  447.9323
 444  472.1526
 445  467.2736
 446  407.8568
 447  517.6552
 448  438.1277
 449  337.2253
 450  464.1049
 451  367.8393
 452  499.8794
 453  455.9977
 454  537.498
 455  485.6603
 456  389.7767
 457  383.4545
 458  372.4447
 459  413.5227
 460  415.3147
 461  477.6985
 462  406.1209
 463  528.7511
 464  541.1954
 465  396.5551
 466  421.1174
 467  415.0937
 468  375.0077
 469  410.4376
 470  366.166
 471  427.3507
 472  450.4248
 473  451.3571
 474  470.068
 475  451.6113
 476  374.2373
 477  316.8018
 478  393.6904
 479  660.0884
 480  582.7753
 481  507.6026
 482  390.6762
 483  393.2693
 484  434.5087
 485  498.831
 486  491.1228
 487  478.3815
 488  526.8157
 489  556.9822
 490  434.8866
 491  505.7711
 492  532.3359
 493  522.7455
 494  507.2486
 495  460.9627
 496  452.1055
 497  473.227
 498  539.9025
 499  496.1108
 500  501.3027
 501  391.0894
 502  430.8613
 503  623.5087
 504  727.403
 505  620.3514
 506  608.265
 507  717.029
 508  794.6476
 509  880.166
 510  1048.077
 511  1230.494
