# Input file       =  1184056858.110486_cleaned.dat
# Candidate        =  PSR_0332+5434
# Telescope        =  AR
# Epoch_topo       =  57948.362003593589
# Epoch_bary       =  N/A
# T_sample         =  0.002
# Data Folded      =  7340032
# Data Avg         =  0.189337570251415
# Data StdDev      =  4.68225900072534 
# Profile Bins     =  512
# Profile Avg      =  2714.2848210788  
# Profile StdDev   =  560.621087259287 
# Reduced chi-sqr  =  0.684
# Prob(Noise)      <  1   (~0.0 sigma)
# P_topo (ms)      =  714.479683408949  +/- 0.000435
# P'_topo (s/s)    =  -0                +/- 2.29e-10
# P''_topo (s/s^2) =  0                 +/- 1.01e-13
# P_bary (ms)      =  N/A
# P'_bary (s/s)    =  N/A
# P''_bary (s/s^2) =  N/A
# P_orb (s)        =  N/A
# asin(i)/c (s)    =  N/A
# eccentricity     =  N/A
# w (rad)          =  N/A
# T_peri           =  N/A
######################################################
   0  2587.183
   1  3077.232
   2  3109.367
   3  2802.826
   4  2797.73
   5  2763.441
   6  2692.417
   7  2691.342
   8  2695.873
   9  2351.304
  10  1965.318
  11  2082.059
  12  2250.947
  13  2388.962
  14  2350.812
  15  2246.878
  16  2225.189
  17  2354.039
  18  2476.374
  19  2447.629
  20  2774.264
  21  2544.615
  22  2411.298
  23  2524.396
  24  2710.856
  25  3008.752
  26  3144.323
  27  3139.634
  28  2684.592
  29  2552.809
  30  2335.043
  31  2296.368
  32  2333.96
  33  2685.966
  34  2961.663
  35  2739.08
  36  2974.562
  37  2942.86
  38  2713.685
  39  2756.303
  40  2737.869
  41  2731.686
  42  2602.02
  43  2469.652
  44  2637.486
  45  2474.22
  46  2221.562
  47  2364.393
  48  2522.455
  49  2302.345
  50  2181.205
  51  2364.608
  52  2609.318
  53  2714.207
  54  2525.473
  55  2385.376
  56  2757.094
  57  2518.533
  58  2718.453
  59  2889.852
  60  2792.527
  61  3003.076
  62  2743.121
  63  3080.599
  64  3170.345
  65  2959.077
  66  2728.774
  67  2938.353
  68  2629.487
  69  2473.875
  70  2642.947
  71  2666.303
  72  2663.238
  73  2345.753
  74  2712.293
  75  3112.652
  76  3344.007
  77  3169.269
  78  3265.024
  79  3295.536
  80  3261.165
  81  3169.636
  82  3322.883
  83  3596.042
  84  3280.851
  85  3401.32
  86  3307.87
  87  3012.618
  88  2907.297
  89  3082.589
  90  3186.599
  91  3285.032
  92  3166.06
  93  3227.565
  94  3271.487
  95  3115.334
  96  3079.751
  97  2685.453
  98  2797.823
  99  2750.885
 100  2937.578
 101  3079.678
 102  2983.148
 103  2740.891
 104  2901.714
 105  2707.569
 106  2635.005
 107  2519.629
 108  2219.198
 109  2258.598
 110  2406.253
 111  2266.488
 112  1918.042
 113  1910.314
 114  2193.077
 115  2307.663
 116  2507.39
 117  2507.01
 118  2659.923
 119  2943.106
 120  2840.05
 121  2575.767
 122  2684.136
 123  2677.622
 124  2942.045
 125  2740.881
 126  2813.752
 127  2790.231
 128  2643.858
 129  2659.326
 130  2355.467
 131  2679.123
 132  2661.933
 133  2626.249
 134  2398.968
 135  2384.153
 136  2426.211
 137  2357.466
 138  2067.138
 139  2353.678
 140  2048.178
 141  2111.782
 142  2102.453
 143  2231.282
 144  2455.866
 145  2473.514
 146  2611.743
 147  2545.386
 148  2553.34
 149  2717.529
 150  2769.872
 151  2651.008
 152  2553.953
 153  2672.77
 154  2865.937
 155  2977.068
 156  3055.76
 157  3222.968
 158  2964.879
 159  3019.419
 160  3308.556
 161  3133.008
 162  2894.915
 163  2607.553
 164  2605.192
 165  2879.765
 166  2830.423
 167  2790.851
 168  2897.91
 169  2591.72
 170  2373.669
 171  2360.54
 172  2308.699
 173  2582.25
 174  2622.04
 175  2878.595
 176  2746.411
 177  2816.801
 178  3024.465
 179  2811.129
 180  2749.562
 181  2816.918
 182  2865.049
 183  2725.255
 184  2614.282
 185  2966.395
 186  3416.862
 187  3114.911
 188  2783.464
 189  2974.666
 190  2812.101
 191  2897.875
 192  2939.914
 193  2781.571
 194  3152.741
 195  2977.554
 196  2624.465
 197  2475.886
 198  2579.745
 199  2645.172
 200  2766.087
 201  2786.285
 202  2620.293
 203  2565.261
 204  2513.67
 205  2230.002
 206  2151.684
 207  2473.916
 208  2355.859
 209  2345.741
 210  2570.962
 211  2354.107
 212  2531.608
 213  2477.225
 214  2507.897
 215  2438.45
 216  2682.314
 217  2484.186
 218  2656.604
 219  3155.652
 220  3199.927
 221  2871.246
 222  2511.735
 223  2658.567
 224  2964.333
 225  3193.305
 226  3080.128
 227  3143.735
 228  2926.74
 229  2657.181
 230  2309.163
 231  2544.267
 232  2554.808
 233  3073.128
 234  3325.456
 235  3137.598
 236  2899.604
 237  2570.644
 238  2891.993
 239  3193.769
 240  3222.62
 241  2773.23
 242  2653.11
 243  2960.232
 244  2759.149
 245  2626.224
 246  2722.984
 247  2944.659
 248  3036.27
 249  2545.426
 250  2860.714
 251  2696.6
 252  2504.265
 253  2672.868
 254  2810.689
 255  3242.428
 256  3441.066
 257  3402.088
 258  2977.717
 259  2678.849
 260  3150.533
 261  3019.443
 262  2642.046
 263  2754.715
 264  3071.375
 265  2721.516
 266  2642.989
 267  2716.198
 268  3070.191
 269  2924.834
 270  2621.272
 271  2680.991
 272  2589.727
 273  2612.817
 274  2691.374
 275  3009.337
 276  2860.029
 277  2436.845
 278  2599.1
 279  2512.274
 280  2604.806
 281  2557.871
 282  2581.843
 283  2485.58
 284  2853.768
 285  2946.064
 286  2965.007
 287  2886.993
 288  2951.934
 289  2700.247
 290  2615.633
 291  3012.349
 292  2842.721
 293  2836.278
 294  2838.988
 295  2381.71
 296  2528.973
 297  2510.475
 298  3113.573
 299  2671.72
 300  2805.031
 301  2549.468
 302  2313.684
 303  2377.466
 304  2272.272
 305  2215.043
 306  2385.114
 307  2449.145
 308  2394.74
 309  2319.841
 310  2126.483
 311  2115.474
 312  2140.033
 313  2117.447
 314  2503.065
 315  2852.942
 316  2930.692
 317  2591.237
 318  2191.891
 319  2535.994
 320  2554.625
 321  2923.06
 322  2966.706
 323  3116.476
 324  3690.117
 325  4417.192
 326  4783.231
 327  4248.104
 328  3572.051
 329  2879.477
 330  2627.146
 331  2511.28
 332  2290.22
 333  2343.637
 334  2216.184
 335  2463.649
 336  2129.932
 337  2713.701
 338  2701.094
 339  2339.377
 340  2543.349
 341  3005.206
 342  2867.108
 343  2656.653
 344  2434.779
 345  2729.392
 346  2774.814
 347  2663.845
 348  2764.318
 349  2751.132
 350  2550.804
 351  2419.372
 352  2391.5
 353  2556.502
 354  2503.737
 355  2798.058
 356  2472.62
 357  2195.483
 358  2784.921
 359  2437.219
 360  2061.258
 361  2325.766
 362  2715.53
 363  2876.225
 364  2352.803
 365  2568.282
 366  2642.653
 367  2443.215
 368  2427.716
 369  2488.237
 370  2414.328
 371  2354.746
 372  1965.167
 373  2128.799
 374  2534.018
 375  2704.634
 376  2840.229
 377  2545.691
 378  2349.623
 379  2514.682
 380  2387.253
 381  2571.279
 382  2633.744
 383  2650.884
 384  2853.112
 385  2729.244
 386  2407.603
 387  2370.573
 388  2813.528
 389  2849.27
 390  2760.348
 391  2702.613
 392  2804.532
 393  2710.824
 394  2671.582
 395  2867.124
 396  2696.979
 397  2723.386
 398  2477.892
 399  2643.906
 400  3038.254
 401  2797.035
 402  2578.542
 403  2737.632
 404  2826.317
 405  2831.147
 406  2708.073
 407  2645.485
 408  2625.186
 409  2941.408
 410  2828.705
 411  3019.573
 412  3643.5
 413  3221.328
 414  3131.452
 415  3186.162
 416  2902.164
 417  2903.06
 418  2950.436
 419  2988.9
 420  2937.292
 421  2787.978
 422  2954.647
 423  3222.738
 424  2999.753
 425  3007.082
 426  2749.731
 427  2944.694
 428  3018.471
 429  2937.81
 430  3001.646
 431  2791.454
 432  3049.746
 433  2882.483
 434  3029.315
 435  3015.745
 436  2988.698
 437  2999.286
 438  2794.386
 439  2788.04
 440  2654.153
 441  2734.568
 442  2745.614
 443  2631.411
 444  2528.708
 445  2446.103
 446  2367.402
 447  2810.988
 448  2805.459
 449  2887.166
 450  2865.451
 451  2815.644
 452  2822.992
 453  2825.617
 454  2420.902
 455  2477.264
 456  2480.414
 457  2737.594
 458  2452.188
 459  2813.833
 460  2648.651
 461  2618.445
 462  2944.184
 463  2716.607
 464  2762.891
 465  2560.181
 466  2605.628
 467  2853.979
 468  2863.768
 469  2958.505
 470  2947.512
 471  3133.209
 472  2917.833
 473  3209.616
 474  2965.729
 475  2912.985
 476  2717.11
 477  2882.175
 478  2625.511
 479  2554.392
 480  2498.506
 481  2246.296
 482  1676.644
 483  1659.185
 484  1689.04
 485  2059.027
 486  2321.818
 487  2556.269
 488  2604.974
 489  2354.391
 490  2518.32
 491  2701.891
 492  2648.417
 493  2337.489
 494  2363.086
 495  2549.362
 496  2713.685
 497  2671.757
 498  2915.837
 499  3118.876
 500  3049.09
 501  3060.938
 502  2796.111
 503  2813.449
 504  2703.658
 505  2827.535
 506  2672.453
 507  2757.892
 508  2976.625
 509  2668.842
 510  2229.609
 511  2321.976
