# Input file       =  1184903540.128384_cleaned.dat
# Candidate        =  PSR_0332+5434
# Telescope        =  AR
# Epoch_topo       =  57958.161563985930
# Epoch_bary       =  N/A
# T_sample         =  0.002
# Data Folded      =  7340032
# Data Avg         =  0.127588346552719
# Data StdDev      =  3.21914012948407 
# Profile Bins     =  512
# Profile Avg      =  1828.06487070344 
# Profile StdDev   =  385.437422225423 
# Reduced chi-sqr  =  1.343
# Prob(Noise)      <  3.13e-07   (~5.0 sigma)
# P_topo (ms)      =  714.473333345924  +/- 0.000339
# P'_topo (s/s)    =  -0                +/- 1.79e-10
# P''_topo (s/s^2) =  0                 +/- 7.89e-14
# P_bary (ms)      =  N/A
# P'_bary (s/s)    =  N/A
# P''_bary (s/s^2) =  N/A
# P_orb (s)        =  N/A
# asin(i)/c (s)    =  N/A
# eccentricity     =  N/A
# w (rad)          =  N/A
# T_peri           =  N/A
######################################################
   0  1600.179
   1  1904.131
   2  1835.096
   3  1695.666
   4  1757.688
   5  1576.558
   6  1592.267
   7  1578.384
   8  1788.404
   9  1824.62
  10  1941.511
  11  1847.74
  12  2064.698
  13  2066.44
  14  1917.269
  15  1952.156
  16  1895.961
  17  1687.7
  18  2078.67
  19  2067.271
  20  2021.459
  21  2185.072
  22  2400.799
  23  2208.984
  24  2237.553
  25  2110.334
  26  2030.143
  27  1898.019
  28  1967.683
  29  2250.095
  30  2234.092
  31  2357.744
  32  2089.864
  33  2109.522
  34  1933.479
  35  1939.99
  36  1687.374
  37  1400.163
  38  1465.333
  39  1488.096
  40  1815.534
  41  1868.215
  42  1873.633
  43  1806.147
  44  1601.916
  45  1747.332
  46  1741.628
  47  1909.254
  48  2090.317
  49  2021.419
  50  1951.875
  51  1921.744
  52  2010.442
  53  2069.579
  54  1916.149
  55  1900.386
  56  1850.545
  57  1967.987
  58  2003.294
  59  1739.569
  60  1994.69
  61  1856.639
  62  1784.465
  63  1501.342
  64  1863.953
  65  1890.731
  66  1854.004
  67  1681.497
  68  1450.457
  69  1463.554
  70  1768.542
  71  1884.823
  72  1824.569
  73  1883.45
  74  1638.369
  75  1509.276
  76  1529.228
  77  1856.686
  78  1885.327
  79  1853.701
  80  1908.715
  81  1753.114
  82  1961.145
  83  1859.877
  84  1943.243
  85  2051.406
  86  2033.132
  87  2044.802
  88  2027.726
  89  2193.478
  90  1954.706
  91  1887.36
  92  2067.126
  93  2390.417
  94  2397.354
  95  2353.419
  96  2455.774
  97  2355.215
  98  2376.023
  99  2371.208
 100  2370.272
 101  2399.42
 102  2347.87
 103  2323.231
 104  2131.34
 105  2135.426
 106  1945.611
 107  2081.544
 108  2190.345
 109  2271.21
 110  2237.653
 111  2295.364
 112  1937.723
 113  1835.834
 114  2049.975
 115  1954.547
 116  1986.282
 117  1984.001
 118  1712.57
 119  1865.637
 120  1797.388
 121  1859.661
 122  1869.379
 123  1869.585
 124  1905.514
 125  1672.307
 126  1786.099
 127  1814.339
 128  1855.591
 129  1918.667
 130  2157.202
 131  2197.206
 132  1932.786
 133  1841.6
 134  2055.007
 135  2095.747
 136  1855.456
 137  1776.618
 138  1992.524
 139  1987.783
 140  1655.264
 141  1802.021
 142  1721.201
 143  1952.93
 144  2226.061
 145  2012.93
 146  1807.741
 147  1807.271
 148  1763.184
 149  1676.282
 150  1926.954
 151  2069.447
 152  2039.352
 153  1868.091
 154  1962.526
 155  2065.174
 156  2082.034
 157  1671.462
 158  1759.289
 159  2202.082
 160  2147.154
 161  2021.893
 162  2047.546
 163  2018.058
 164  2157.325
 165  2116.985
 166  1878.361
 167  1831.825
 168  2022.823
 169  2296.517
 170  2039.319
 171  2011.24
 172  2124.355
 173  1943.545
 174  1826.625
 175  1859.601
 176  1996.964
 177  2200.174
 178  2211.804
 179  2047.675
 180  1857.142
 181  1994.647
 182  1636.453
 183  1969.669
 184  2151.124
 185  2026.678
 186  1775.388
 187  1905.365
 188  1862.863
 189  1454.6
 190  1935.718
 191  1948.161
 192  1695.502
 193  1724.528
 194  1695.01
 195  1679.315
 196  1602.861
 197  1647.133
 198  1626.604
 199  1419.583
 200  1521.31
 201  1742.205
 202  1826.543
 203  1908.208
 204  1658.856
 205  1718.163
 206  1771.728
 207  1653.276
 208  1729.521
 209  1774.995
 210  1640.143
 211  1659.968
 212  1624.754
 213  1439.287
 214  1215.352
 215  1544.163
 216  1433.979
 217  1486.457
 218  1533.014
 219  1557.811
 220  1378.973
 221  1153.389
 222  1054.824
 223  1094.434
 224  1166.491
 225  1356.585
 226  1866.763
 227  1717.146
 228  1152.397
 229  1149.104
 230  1326.109
 231  1312.078
 232  1422.284
 233  1534.778
 234  1682.913
 235  1712.276
 236  1584.912
 237  1700.305
 238  1725.099
 239  1793.754
 240  1843.045
 241  1668.366
 242  1745.215
 243  1689.112
 244  2019.491
 245  2161.766
 246  1852.391
 247  1876.427
 248  1662.175
 249  1446.945
 250  1723.305
 251  1703.613
 252  1991.281
 253  1843.065
 254  1823.092
 255  1914.58
 256  1803.844
 257  1852.925
 258  1878.941
 259  1821.062
 260  1836.615
 261  1963.97
 262  1658.695
 263  1642.499
 264  1677.58
 265  1534.349
 266  1504.996
 267  1565.625
 268  1597.6
 269  1912.882
 270  2054.717
 271  2033.401
 272  1542.536
 273  1391.121
 274  1336.469
 275  1381.338
 276  1344.227
 277  1584.455
 278  1965.244
 279  1869.708
 280  1515.657
 281  1608.068
 282  1594.603
 283  1614.167
 284  1366.583
 285  1424.63
 286  1826.362
 287  1900.684
 288  1720.837
 289  1600.544
 290  1749.916
 291  1574.536
 292  1331.472
 293  1441.812
 294  1273.787
 295  1463.372
 296  1507.53
 297  1552.692
 298  1626.548
 299  1465.28
 300  1409.48
 301  1299.024
 302  1697.715
 303  2032.43
 304  1880.148
 305  1681.256
 306  1507.991
 307  1748.955
 308  1971.491
 309  2058.555
 310  2090.449
 311  1878.086
 312  2060.914
 313  2034.788
 314  1974.642
 315  2039.56
 316  2238.688
 317  2279.972
 318  2213.155
 319  2675.552
 320  2718.805
 321  2826.903
 322  2717.54
 323  3017.031
 324  3563.288
 325  4073.619
 326  3990.979
 327  3419.802
 328  2681.225
 329  2227.166
 330  2135.112
 331  2040.013
 332  1587.84
 333  1753.128
 334  2041.654
 335  1811.273
 336  1675.939
 337  1725.734
 338  1963.666
 339  2100.113
 340  2070.102
 341  2137.425
 342  2018.182
 343  1861.923
 344  1634.206
 345  1810.866
 346  1899.313
 347  1679.95
 348  1613.018
 349  1683.288
 350  1465.343
 351  1478.319
 352  1662.311
 353  1813.989
 354  1693.292
 355  1506.629
 356  1739.594
 357  1456.894
 358  1329.815
 359  1389.422
 360  1403.66
 361  1563.714
 362  1446.384
 363  1420.048
 364  1784.393
 365  1745.092
 366  1588.119
 367  1660.449
 368  1336.143
 369  1321.239
 370  1387.14
 371  1654.156
 372  1732.36
 373  1292.472
 374  1486.972
 375  1899.359
 376  1923.655
 377  1455.734
 378  1443.421
 379  1561.093
 380  1550.511
 381  1428.633
 382  1586.295
 383  1859.271
 384  1848.856
 385  1950.835
 386  1615.23
 387  1641.01
 388  2143.641
 389  2270.787
 390  2165.862
 391  2018.079
 392  2070.507
 393  2104.184
 394  2181.603
 395  2382.771
 396  2227.344
 397  1804.077
 398  1857.637
 399  1963.826
 400  2110.71
 401  1846.443
 402  1964.095
 403  2033.295
 404  1999.876
 405  1755.826
 406  1315.111
 407  1390.478
 408  1841.859
 409  2123.03
 410  1852.749
 411  2002.924
 412  1842.464
 413  1629.876
 414  1648.07
 415  2016.513
 416  2109.429
 417  1779.833
 418  1629.067
 419  1966.733
 420  1847.358
 421  1689.097
 422  1735.621
 423  1609.552
 424  1745.805
 425  1498.656
 426  1589.671
 427  1780.266
 428  1759.408
 429  1615.34
 430  1682.963
 431  1630.726
 432  1726.178
 433  1582.031
 434  1636.37
 435  1528.497
 436  1613.558
 437  1616.827
 438  1514.176
 439  1254.683
 440  1411.229
 441  1629.924
 442  1580.699
 443  1525.268
 444  1326.253
 445  1549.437
 446  1337.439
 447  1732.156
 448  2050.972
 449  2114.151
 450  1635.295
 451  1752.364
 452  1764.695
 453  1766.506
 454  1788.529
 455  1585.174
 456  1777.683
 457  1717.178
 458  1719.847
 459  1898.603
 460  1803.912
 461  1974.807
 462  2065.938
 463  2063.998
 464  1922.585
 465  1769.741
 466  1804.543
 467  1775.615
 468  1714.603
 469  1940.623
 470  2150.323
 471  1649.334
 472  1712.988
 473  1809.007
 474  1891.663
 475  1790.522
 476  1788.542
 477  2118.055
 478  1767.202
 479  1431.602
 480  1718.917
 481  1812.392
 482  1967.069
 483  2074.808
 484  1598.777
 485  1542.784
 486  1619.37
 487  1512.185
 488  1737.253
 489  1754.643
 490  1738.564
 491  1798.86
 492  1821.746
 493  1812.842
 494  1677.244
 495  1609.568
 496  1775.723
 497  1723.359
 498  1715.315
 499  1740.962
 500  1616.202
 501  1611.643
 502  1419.811
 503  1733.377
 504  1674.22
 505  1460.766
 506  1537.203
 507  1651.651
 508  1664.636
 509  1641.726
 510  1839.945
 511  1843.8
