# Input file       =  1184832292.10788_cleaned.dat
# Candidate        =  PSR_0332+5434
# Telescope        =  AR
# Epoch_topo       =  57957.336934118983
# Epoch_bary       =  N/A
# T_sample         =  0.002
# Data Folded      =  7340032
# Data Avg         =  0.273350360657788
# Data StdDev      =  4.97455436751787 
# Profile Bins     =  512
# Profile Avg      =  3918.51963552101 
# Profile StdDev   =  595.618499044219 
# Reduced chi-sqr  =  0.968
# Prob(Noise)      <  0.692   (~0.0 sigma)
# P_topo (ms)      =  714.47412481902   +/- 0.000259
# P'_topo (s/s)    =  -0                +/- 1.36e-10
# P''_topo (s/s^2) =  0                 +/- 6.02e-14
# P_bary (ms)      =  N/A
# P'_bary (s/s)    =  N/A
# P''_bary (s/s^2) =  N/A
# P_orb (s)        =  N/A
# asin(i)/c (s)    =  N/A
# eccentricity     =  N/A
# w (rad)          =  N/A
# T_peri           =  N/A
######################################################
   0  4044.72
   1  3659.881
   2  3487.736
   3  3853.566
   4  4024.595
   5  3547.658
   6  3544.364
   7  3685.754
   8  3652.851
   9  3586.982
  10  3447.633
  11  3599.012
  12  3127.193
  13  3103.52
  14  3557.516
  15  3599.097
  16  3477.29
  17  3780.724
  18  3807.707
  19  3479.275
  20  3634.335
  21  3847.471
  22  3694.469
  23  3389.531
  24  3596.223
  25  3607.659
  26  3761.416
  27  3764.398
  28  4419.264
  29  4301.246
  30  4237.54
  31  4256.548
  32  3768.256
  33  3935.96
  34  3908.931
  35  4304.097
  36  4350.455
  37  4090.994
  38  4094.346
  39  3854.651
  40  3512.669
  41  3503.803
  42  3899.574
  43  3944.805
  44  3696.363
  45  4051.667
  46  4021.168
  47  3903.223
  48  4066.223
  49  3678.641
  50  3330.319
  51  3814.853
  52  4244.259
  53  4298.053
  54  4115.149
  55  4042.445
  56  3862.816
  57  3661.136
  58  3819.883
  59  4143.872
  60  4077.646
  61  3783.473
  62  4054.096
  63  3961.93
  64  3826.954
  65  3572.174
  66  3511.891
  67  3616.331
  68  3812.123
  69  3746.19
  70  3632.739
  71  3834.222
  72  3718.773
  73  3834.874
  74  3930.151
  75  4114.667
  76  3812.43
  77  3430.509
  78  3549.126
  79  3830.498
  80  4127.104
  81  4287.86
  82  4256.786
  83  3931.559
  84  3642.371
  85  3995.029
  86  3795.801
  87  3712.382
  88  4195.275
  89  4369.451
  90  4007.328
  91  3803.738
  92  3861.844
  93  4120.477
  94  4430.173
  95  4820.981
  96  4614.377
  97  4232.623
  98  3964.884
  99  4343.077
 100  4521.273
 101  4709.437
 102  4828.767
 103  4665.826
 104  4660.417
 105  4358.308
 106  4634.098
 107  4698.249
 108  4827.343
 109  4901.823
 110  4759.771
 111  4927.684
 112  4375.624
 113  4398.951
 114  4260.16
 115  4129.055
 116  4195.984
 117  4171.731
 118  4225.875
 119  4235.432
 120  4197.031
 121  4327.483
 122  4316.008
 123  4171.1
 124  4102.002
 125  3953.983
 126  3749.454
 127  4187.312
 128  3835.406
 129  3617.578
 130  3707.79
 131  3850.242
 132  4065.95
 133  3848.512
 134  3588.105
 135  3558.365
 136  3761.824
 137  4012.638
 138  3783.035
 139  3883.117
 140  3872.486
 141  3976.401
 142  3715.616
 143  3679.004
 144  3908.333
 145  4285.661
 146  4523.392
 147  4444.392
 148  4540.28
 149  4390.417
 150  4329.621
 151  4626.119
 152  4556.848
 153  4513.054
 154  4644.281
 155  4505.398
 156  4443.905
 157  4347.789
 158  4574.75
 159  4563.24
 160  4206.024
 161  4217.428
 162  4209.105
 163  4249.983
 164  4548.104
 165  4388.792
 166  4563.297
 167  4167.525
 168  4109.711
 169  4266.969
 170  4150.605
 171  4340.742
 172  4104.599
 173  4251.572
 174  4150.932
 175  4154.571
 176  4221.678
 177  4164.316
 178  4421.893
 179  4449.256
 180  4372.226
 181  4040.725
 182  4343.606
 183  4254.772
 184  4377.004
 185  4570.929
 186  4454.757
 187  3971.474
 188  4128.82
 189  4273.913
 190  4019.269
 191  4017.66
 192  4199.258
 193  4139.047
 194  3946.934
 195  4357.486
 196  4312.747
 197  3876.814
 198  4069.075
 199  4069.938
 200  3992.309
 201  3821.557
 202  3714.441
 203  4039.368
 204  4098.682
 205  3952.581
 206  4037.776
 207  4382.762
 208  4184.99
 209  4211.07
 210  3808.035
 211  3804.811
 212  4154.944
 213  4372.827
 214  4130.475
 215  4328.013
 216  4815.631
 217  5015.847
 218  4524.543
 219  4640.099
 220  4378.605
 221  4404.401
 222  4512.563
 223  4497.327
 224  4711.574
 225  4267.647
 226  4056.004
 227  4034.605
 228  4119.163
 229  4132.935
 230  3744.314
 231  3753.65
 232  3610.575
 233  3509.51
 234  3436.503
 235  3446.833
 236  3958.109
 237  3588.556
 238  3614.794
 239  3661.441
 240  3625.011
 241  3584.721
 242  3846.312
 243  3793.071
 244  4035.249
 245  4335.142
 246  4179.532
 247  4247.229
 248  4242.346
 249  3961.919
 250  3804.914
 251  4080.01
 252  4237.703
 253  4282.607
 254  4061.75
 255  3663.209
 256  3526.123
 257  3796.924
 258  4220.82
 259  4382.083
 260  4344.262
 261  4005.643
 262  3579.988
 263  3965.949
 264  3856.223
 265  3876.98
 266  4336.202
 267  4044.058
 268  4405.168
 269  4350.734
 270  4022.122
 271  3952.487
 272  3839.768
 273  4450.138
 274  5177.656
 275  5833.635
 276  5958.709
 277  5561.936
 278  5087.837
 279  4816.002
 280  4404.197
 281  4082.059
 282  4357.433
 283  4140.117
 284  3728.224
 285  3561.22
 286  3550.908
 287  3706.321
 288  3731.499
 289  3762.342
 290  3785.252
 291  3711.902
 292  3466.242
 293  3375.235
 294  3231.269
 295  3148.032
 296  2990.094
 297  3273.658
 298  3628.213
 299  3601.076
 300  3281.495
 301  3417.913
 302  3311.924
 303  3220.892
 304  3139.35
 305  3101.082
 306  2881.786
 307  3387.25
 308  3397.898
 309  3645.774
 310  3858.412
 311  3566.934
 312  3083.425
 313  3565.995
 314  3885.954
 315  3839.243
 316  4089.978
 317  3866.222
 318  3779.615
 319  3909.376
 320  3600.32
 321  3491.663
 322  3481.878
 323  3481.305
 324  3392.568
 325  3358.618
 326  3469.54
 327  3680.832
 328  3600.551
 329  3294.43
 330  3129.495
 331  3502.649
 332  3705.609
 333  3486.635
 334  3590.913
 335  3171.765
 336  3075.51
 337  3368.796
 338  3758.979
 339  3477.817
 340  3586.719
 341  3657.876
 342  3521.587
 343  3252.819
 344  3507.226
 345  3534.512
 346  3612.61
 347  3352.509
 348  3285.177
 349  3262.421
 350  3309.298
 351  3009.072
 352  3048.792
 353  3051.684
 354  3410.932
 355  3478.091
 356  3312.135
 357  3391.256
 358  3214.302
 359  3467.124
 360  3440.81
 361  3823.022
 362  3643.064
 363  3418.027
 364  3372.528
 365  3201.161
 366  3513.692
 367  3965.461
 368  3930.214
 369  4155.988
 370  3962.995
 371  3901.134
 372  3872.042
 373  3872.718
 374  3892.27
 375  4412.799
 376  4427.95
 377  4047.341
 378  3835.799
 379  3547.338
 380  3746.229
 381  3327.253
 382  3292.408
 383  3753.314
 384  3831.879
 385  3563.883
 386  3450.397
 387  3515.475
 388  3575.03
 389  3502.016
 390  3776.533
 391  4172.272
 392  4040.5
 393  4200.617
 394  3934.862
 395  3680.51
 396  3504.781
 397  3774.048
 398  3888.949
 399  3864.663
 400  3792.655
 401  3499.954
 402  3294.226
 403  3620.084
 404  3984.443
 405  3775.969
 406  3615.539
 407  3471.911
 408  3526.792
 409  3246.8
 410  3052.523
 411  3627.174
 412  3530.567
 413  3021.025
 414  3337.959
 415  3792.393
 416  4361.611
 417  4273.374
 418  4065.767
 419  4070.753
 420  3886.116
 421  3346.301
 422  3386.244
 423  3822.748
 424  3933.075
 425  4095.201
 426  3970.053
 427  3876.562
 428  3666.279
 429  3368.756
 430  3766.531
 431  3704.307
 432  4083.858
 433  4223.316
 434  4002.131
 435  3812.07
 436  3966.274
 437  4200.761
 438  4213.941
 439  4401.709
 440  4372.187
 441  4086.432
 442  3884.535
 443  4259.238
 444  4353.233
 445  4321.191
 446  4158.15
 447  3843.588
 448  3756.284
 449  4004.241
 450  3954.891
 451  4036.311
 452  4128.796
 453  3930.815
 454  3762.795
 455  3930.988
 456  3929.91
 457  3927.814
 458  3439.664
 459  3605.246
 460  3905.433
 461  3764.476
 462  3814.958
 463  4133.259
 464  3956.921
 465  3315.266
 466  3387.737
 467  3725.854
 468  3647.191
 469  3708.162
 470  3637.78
 471  3598.825
 472  3217.606
 473  3186.311
 474  3277.382
 475  3552.984
 476  3711.94
 477  3738.261
 478  3821.25
 479  3765.813
 480  3816.994
 481  3977.798
 482  3864.417
 483  3986.282
 484  3953.346
 485  4088.176
 486  3835.804
 487  4020.317
 488  4189.695
 489  4247.039
 490  4413.423
 491  4698.923
 492  4468.981
 493  4213.953
 494  3915.36
 495  3734.541
 496  4529.299
 497  4546.583
 498  4466.574
 499  4375.438
 500  4072.523
 501  3695.057
 502  3568.731
 503  3766.625
 504  4220.309
 505  4383.085
 506  3809.676
 507  3251.445
 508  3312.761
 509  3592.519
 510  3639.244
 511  3822.832
