# Input file       =  1184989753.099401-PSRB0329-2ms-sampling-dd.dat
# Candidate        =  PSR_0332+5434
# Telescope        =  AR
# Epoch_topo       =  57959.159399298624
# Epoch_bary       =  N/A
# T_sample         =  0.002
# Data Folded      =  7340032
# Data Avg         =  9.20824821649255e-10
# Data StdDev      =  5.63170745959869 
# Profile Bins     =  512
# Profile Avg      =  0.919487208453249
# Profile StdDev   =  674.301434123435 
# Reduced chi-sqr  =  0.710
# Prob(Noise)      <  1   (~0.0 sigma)
# P_topo (ms)      =  714.472794114062  +/- 0.000116
# P'_topo (s/s)    =  -0                +/- 6.12e-11
# P''_topo (s/s^2) =  0                 +/- 2.7e-14
# P_bary (ms)      =  N/A
# P'_bary (s/s)    =  N/A
# P''_bary (s/s^2) =  N/A
# P_orb (s)        =  N/A
# asin(i)/c (s)    =  N/A
# eccentricity     =  N/A
# w (rad)          =  N/A
# T_peri           =  N/A
######################################################
   0  452.5264
   1  311.9296
   2  350.6189
   3  23.77256
   4  389.7226
   5  369.9033
   6  -81.00915
   7  -60.62424
   8  -126.2656
   9  -105.7394
  10  -168.8722
  11  -99.5113
  12  -20.31733
  13  -79.37012
  14  -78.68585
  15  2.192898
  16  159.186
  17  -30.9746
  18  -481.5988
  19  -232.0981
  20  -294.2269
  21  323.9031
  22  264.1787
  23  107.2431
  24  -12.7716
  25  -334.8086
  26  -490.8986
  27  -435.7742
  28  -93.97639
  29  348.2253
  30  -134.3309
  31  -260.6469
  32  -78.11635
  33  -185.1616
  34  -330.6613
  35  -665.2419
  36  -715.1259
  37  -317.566
  38  41.35938
  39  -263.1366
  40  -170.5461
  41  -690.1432
  42  -785.9236
  43  -592.4772
  44  -760.0981
  45  -152.5736
  46  159.4623
  47  181.3522
  48  10.7309
  49  -209.2727
  50  -792.6573
  51  -438.5956
  52  -274.5844
  53  -209.5985
  54  -501.9604
  55  -627.9047
  56  -495.0261
  57  -619.3865
  58  -347.9553
  59  215.2969
  60  -215.5815
  61  135.4128
  62  726.448
  63  1010.116
  64  1907.583
  65  1987.823
  66  1796.401
  67  749.4738
  68  -23.63673
  69  -307.6273
  70  160.568
  71  327.5851
  72  498.0526
  73  582.0085
  74  294.171
  75  125.689
  76  -68.08163
  77  -24.16089
  78  358.6709
  79  583.6272
  80  103.0077
  81  -356.4784
  82  -216.5267
  83  -128.6162
  84  -1.806444
  85  61.70729
  86  -126.0134
  87  -241.9587
  88  187.4475
  89  -276.9342
  90  -22.39962
  91  257.8563
  92  -66.59402
  93  -140.7868
  94  -318.0665
  95  -132.4589
  96  128.3278
  97  39.3403
  98  -337.0488
  99  -433.8751
 100  -552.0682
 101  -172.278
 102  66.2131
 103  107.7608
 104  -162.5906
 105  -113.3036
 106  41.05272
 107  -151.405
 108  166.4528
 109  199.0566
 110  -438.5121
 111  -480.4966
 112  -59.37413
 113  32.77987
 114  220.3379
 115  -147.1173
 116  -350.1909
 117  -244.3925
 118  -55.51718
 119  -152.0259
 120  50.94432
 121  216.8699
 122  264.0059
 123  108.9369
 124  576.8285
 125  769.8612
 126  272.718
 127  -172.4402
 128  -339.8825
 129  10.74355
 130  890.8303
 131  917.5853
 132  659.9236
 133  444.5277
 134  441.9566
 135  133.2607
 136  202.7021
 137  391.5214
 138  416.3957
 139  579.2499
 140  -27.2602
 141  8.870207
 142  362.4982
 143  575.182
 144  200.8727
 145  62.33194
 146  7.309242
 147  -273.3181
 148  142.7062
 149  235.6805
 150  298.396
 151  12.94116
 152  -7.584699
 153  232.2639
 154  -8.521182
 155  389.8882
 156  374.711
 157  333.5131
 158  290.989
 159  542.1434
 160  552.9788
 161  727.6771
 162  378.7123
 163  -383.4723
 164  -77.16782
 165  46.70387
 166  209.0849
 167  294.3181
 168  162.8888
 169  -298.8148
 170  -86.37117
 171  187.6596
 172  120.084
 173  96.41614
 174  -102.835
 175  -401.0926
 176  -337.9918
 177  -96.95317
 178  502.3913
 179  336.3868
 180  7.311428
 181  132.474
 182  304.6848
 183  526.0186
 184  457.2306
 185  425.0446
 186  342.1893
 187  459.1705
 188  154.8188
 189  359.8993
 190  229.7003
 191  -143.3497
 192  -204.6924
 193  130.8731
 194  51.49133
 195  56.91841
 196  -208.2163
 197  -296.1395
 198  -321.0077
 199  -309.8257
 200  111.8448
 201  138.6916
 202  283.7796
 203  20.45807
 204  -293.2747
 205  50.0946
 206  281.1777
 207  736.8188
 208  1132.012
 209  552.9889
 210  390.9724
 211  337.8546
 212  517.8303
 213  493.4148
 214  326.7194
 215  -190.8394
 216  -177.176
 217  446.3962
 218  573.6584
 219  543.137
 220  205.5227
 221  -388.3029
 222  -702.6384
 223  -342.7216
 224  8.095801
 225  235.6282
 226  150.5222
 227  64.55074
 228  -652.6356
 229  -401.1335
 230  -416.6054
 231  -220.6005
 232  208.8302
 233  -113.7403
 234  -75.8152
 235  -209.0818
 236  46.57353
 237  -45.67878
 238  327.4698
 239  146.4194
 240  25.42092
 241  92.23182
 242  524.8733
 243  1113.892
 244  1118.606
 245  764.0224
 246  217.1866
 247  390.6953
 248  961.0837
 249  1009.784
 250  707.6657
 251  425.1574
 252  183.9202
 253  167.7551
 254  819.9407
 255  687.2611
 256  737.1696
 257  -44.57758
 258  -346.3289
 259  -53.96037
 260  -3.594707
 261  414.4005
 262  424.1885
 263  82.87988
 264  -281.5087
 265  -231.9939
 266  205.3312
 267  573.554
 268  865.0848
 269  334.0343
 270  95.2423
 271  138.4735
 272  373.4489
 273  270.1443
 274  434.2771
 275  456.8707
 276  289.8267
 277  370.6216
 278  -66.34024
 279  -257.4624
 280  -233.1364
 281  -263.9981
 282  -459.8698
 283  12.76986
 284  51.9558
 285  -163.2691
 286  -349.7316
 287  -434.6387
 288  -323.1403
 289  -85.24097
 290  289.3198
 291  796.7568
 292  221.574
 293  -58.02182
 294  -214.6258
 295  -226.1122
 296  -3.066914
 297  529.9291
 298  231.7597
 299  283.3663
 300  313.3567
 301  350.1375
 302  538.1474
 303  283.543
 304  34.87638
 305  137.6926
 306  497.2557
 307  397.4581
 308  16.44325
 309  360.1658
 310  63.08146
 311  -750.7111
 312  -533.8634
 313  -83.10809
 314  -104.7278
 315  -354.6829
 316  -138.6397
 317  -241.1029
 318  -349.0394
 319  -105.2683
 320  82.1273
 321  130.1325
 322  170.3088
 323  363.8418
 324  459.9163
 325  448.2857
 326  409.6864
 327  358.5811
 328  358.0951
 329  257.6807
 330  173.1918
 331  199.7025
 332  -358.2457
 333  55.6631
 334  284.1295
 335  372.9175
 336  321.1328
 337  357.181
 338  310.61
 339  53.88808
 340  202.5837
 341  -31.00258
 342  31.69896
 343  -232.6497
 344  -256.6372
 345  -40.67972
 346  149.3318
 347  347.4296
 348  466.378
 349  454.0884
 350  517.1816
 351  432.8497
 352  452.746
 353  281.675
 354  635.9562
 355  742.2205
 356  687.1779
 357  1115.923
 358  774.738
 359  454.4662
 360  541.0517
 361  167.6998
 362  -413.476
 363  12.55135
 364  195.0054
 365  22.82199
 366  -145.4666
 367  -428.4865
 368  -276.2842
 369  -321.5973
 370  -177.2671
 371  31.50589
 372  -0.001024431
 373  -207.0997
 374  -243.2566
 375  68.76096
 376  129.1346
 377  -395.0791
 378  -553.1946
 379  -572.3403
 380  -378.5756
 381  -485.6974
 382  -172.0971
 383  -9.907623
 384  58.21037
 385  -165.5346
 386  -437.4644
 387  -73.4823
 388  -141.6266
 389  104.7304
 390  452.3479
 391  133.9795
 392  5.070971
 393  -192.3896
 394  -154.2837
 395  -158.5342
 396  -301.575
 397  -245.3414
 398  -235.0617
 399  -113.5736
 400  -205.7219
 401  -272.9976
 402  -472.2849
 403  -338.912
 404  -393.6333
 405  -217.9538
 406  -662.4191
 407  -1058.221
 408  -887.9708
 409  -476.2195
 410  -544.1989
 411  -478.6859
 412  -772.5508
 413  -794.9133
 414  -325.9478
 415  -399.8174
 416  -225.3551
 417  -395.7828
 418  -342.7889
 419  -291.9491
 420  -229.1864
 421  -41.43741
 422  136.8576
 423  -561.2147
 424  -343.4602
 425  -312.0229
 426  -255.3421
 427  342.0981
 428  87.15085
 429  -245.2454
 430  -470.3904
 431  -44.33521
 432  -649.3777
 433  -391.4224
 434  -474.0545
 435  -651.8544
 436  -718.7501
 437  -779.2196
 438  -522.2333
 439  -103.88
 440  -99.3873
 441  -26.40726
 442  -466.1469
 443  -712.8918
 444  -904.6729
 445  -892.1426
 446  -298.9254
 447  -119.5691
 448  -189.3549
 449  -550.5057
 450  -367.3041
 451  -320.6866
 452  -145.0392
 453  -292.7945
 454  -147.4564
 455  -140.7726
 456  -468.3703
 457  -85.0647
 458  -21.94365
 459  -17.22111
 460  -357.8209
 461  -274.9623
 462  -376.1375
 463  -150.4476
 464  52.37897
 465  396.4142
 466  -148.2678
 467  -740.7275
 468  -848.2134
 469  -324.2034
 470  -425.0508
 471  -333.5282
 472  -208.4036
 473  -945.0574
 474  -1087.099
 475  -776.0174
 476  -323.0216
 477  -383.1836
 478  -259.3433
 479  -652.7416
 480  -181.0363
 481  -183.9549
 482  260.7231
 483  405.3011
 484  281.1683
 485  305.1056
 486  -385.7777
 487  -186.5746
 488  -174.352
 489  -200.5327
 490  -225.1887
 491  -468.565
 492  -523.1097
 493  131.2483
 494  52.26033
 495  -86.93792
 496  -486.3941
 497  -815.3544
 498  -723.8439
 499  -694.6638
 500  -135.9465
 501  169.6557
 502  -38.42782
 503  -127.7879
 504  69.09893
 505  -22.56867
 506  -395.3915
 507  -223.6962
 508  87.57456
 509  -288.6868
 510  -189.7864
 511  -35.40083
