# Input file       =  1184630491.118226_cleaned.dat
# Candidate        =  PSR_0332+5434
# Telescope        =  AR
# Epoch_topo       =  57955.001274516508
# Epoch_bary       =  N/A
# T_sample         =  0.002
# Data Folded      =  7208960
# Data Avg         =  0.361753982507667
# Data StdDev      =  7.78886712968937 
# Profile Bins     =  256
# Profile Avg      =  10187.0601941311 
# Profile StdDev   =  1307.04524205438 
# Reduced chi-sqr  =  0.392
# Prob(Noise)      <  1   (~0.0 sigma)
# P_topo (ms)      =  714.475126901143  +/- 0.000116
# P'_topo (s/s)    =  -0                +/- 6.25e-11
# P''_topo (s/s^2) =  0                 +/- 2.81e-14
# P_bary (ms)      =  N/A
# P'_bary (s/s)    =  N/A
# P''_bary (s/s^2) =  N/A
# P_orb (s)        =  N/A
# asin(i)/c (s)    =  N/A
# eccentricity     =  N/A
# w (rad)          =  N/A
# T_peri           =  N/A
######################################################
   0  10353.65
   1  10654.29
   2  10051.45
   3  9684.835
   4  9550.149
   5  9966.8
   6  11196.93
   7  10521.51
   8  9634.116
   9  10965.3
  10  9367.242
  11  8812.068
  12  10163.88
  13  10578.38
  14  9396.386
  15  9552.654
  16  9771.805
  17  11089.83
  18  10323.43
  19  9276.405
  20  8919.27
  21  9270.37
  22  11123.31
  23  10599.34
  24  9704.8
  25  9736.442
  26  10501.72
  27  10562.85
  28  9160.844
  29  9806.473
  30  9950.087
  31  9702.234
  32  9870.465
  33  10592.18
  34  10627.63
  35  9711.919
  36  8973.179
  37  9787.316
  38  10787.09
  39  9916.659
  40  9769.637
  41  9352.035
  42  10144.99
  43  9917.118
  44  11143.94
  45  10265.63
  46  9159.234
  47  9569.53
  48  10365.82
  49  10200.66
  50  10275.79
  51  9606.129
  52  9069.863
  53  10051.26
  54  8943.905
  55  10458.45
  56  9522.797
  57  9418.069
  58  9855.503
  59  10059.54
  60  9310.129
  61  9876.602
  62  9575.508
  63  9616.582
  64  10760.28
  65  10796.86
  66  9950.267
  67  10436.27
  68  9994.216
  69  8544.22
  70  9932.433
  71  11089.03
  72  10094.15
  73  9499.965
  74  9391.278
  75  10724.9
  76  10421.17
  77  10660.55
  78  8676.33
  79  10051.36
  80  10038.12
  81  10812.21
  82  10202.07
  83  9538.729
  84  9782.301
  85  10883.47
  86  10594.27
  87  10773.86
  88  10319.09
  89  9993.224
  90  10548.71
  91  10360.59
  92  10729.53
  93  10082.83
  94  9747.598
  95  9609.089
  96  9811.759
  97  11131.58
  98  11060.24
  99  10470.35
 100  11241.45
 101  10646
 102  9667.866
 103  10435.84
 104  11312.17
 105  9693.486
 106  10037.1
 107  9342.628
 108  11199.13
 109  10656.62
 110  9838.838
 111  8747.779
 112  9947.653
 113  11053
 114  10266.09
 115  9145.235
 116  10134.92
 117  9995.002
 118  10401.99
 119  9948.188
 120  9347.583
 121  9279.3
 122  9822.521
 123  10965.5
 124  10204.14
 125  9820.24
 126  9764.104
 127  10217.74
 128  10167.2
 129  10453.81
 130  10927.17
 131  9777.942
 132  10087.6
 133  10912.7
 134  10200.32
 135  9845.166
 136  10198.49
 137  9613.878
 138  10338.24
 139  10853.07
 140  10394.47
 141  10871.1
 142  10381.26
 143  9938.17
 144  10133.18
 145  11249.13
 146  10455.42
 147  10674.48
 148  10378.8
 149  9977.646
 150  10575
 151  10953.08
 152  10487.32
 153  9444.875
 154  10722.22
 155  10784.11
 156  9865.554
 157  10203.45
 158  11229.2
 159  9591.445
 160  10511.13
 161  11921.19
 162  14245.2
 163  12743.98
 164  11511.44
 165  10830.63
 166  11197.45
 167  10618.65
 168  10788.07
 169  10333.42
 170  11337.98
 171  11275.24
 172  10259.01
 173  9538.481
 174  10194.02
 175  10717.97
 176  10228.25
 177  9923.271
 178  10836.49
 179  10270.83
 180  10715.79
 181  10536.25
 182  11075.47
 183  11400.72
 184  10384.04
 185  8675.399
 186  10185.35
 187  10491.21
 188  10111.46
 189  10336.31
 190  11057.19
 191  10341.32
 192  10764.62
 193  9771.268
 194  9724.288
 195  10932.49
 196  9019.775
 197  9593.158
 198  9705.599
 199  11062.89
 200  10442.19
 201  8815.564
 202  8890.4
 203  11196.55
 204  11091.24
 205  9508.772
 206  9263.343
 207  10009.64
 208  10664.2
 209  10442.59
 210  9540.646
 211  9734.996
 212  10153.5
 213  10931.79
 214  10597.35
 215  10506.47
 216  10497.28
 217  10181.19
 218  9411.702
 219  10034.86
 220  10896.38
 221  10454.99
 222  9631.649
 223  11082.32
 224  11178.27
 225  9918.11
 226  10033.22
 227  9702.431
 228  10229.5
 229  10373.84
 230  10950.31
 231  9608.245
 232  10915.21
 233  9586.403
 234  7880.167
 235  9490.708
 236  10450.66
 237  10401.89
 238  9814.292
 239  9389.727
 240  10016.49
 241  11382.05
 242  10475.42
 243  9933.146
 244  9382.82
 245  10144.7
 246  10812.41
 247  9934.809
 248  9285.337
 249  9909.874
 250  10398.27
 251  9367.386
 252  10107.58
 253  10009.86
 254  10145.62
 255  9437.233
