# Input file       =  1184888937.102792_cleaned.dat
# Candidate        =  PSR_0332+5434
# Telescope        =  AR
# Epoch_topo       =  57957.992547486021
# Epoch_bary       =  N/A
# T_sample         =  0.002
# Data Folded      =  7143424
# Data Avg         =  0.143915173999213
# Data StdDev      =  4.98386329952405 
# Profile Bins     =  256
# Profile Avg      =  4015.78824915363 
# Profile StdDev   =  832.528967128661 
# Reduced chi-sqr  =  0.722
# Prob(Noise)      <  1   (~0.0 sigma)
# P_topo (ms)      =  714.473414513338  +/- 0.000205
# P'_topo (s/s)    =  -0                +/- 1.11e-10
# P''_topo (s/s^2) =  0                 +/- 5.04e-14
# P_bary (ms)      =  N/A
# P'_bary (s/s)    =  N/A
# P''_bary (s/s^2) =  N/A
# P_orb (s)        =  N/A
# asin(i)/c (s)    =  N/A
# eccentricity     =  N/A
# w (rad)          =  N/A
# T_peri           =  N/A
######################################################
   0  3679.807
   1  4159.946
   2  4051.999
   3  3408.467
   4  3049.959
   5  4213.781
   6  4351.946
   7  2995.196
   8  3231.008
   9  4038.341
  10  4150.375
  11  4310.107
  12  4174.962
  13  4288.674
  14  4135.073
  15  4175.917
  16  3681.667
  17  3318.57
  18  4297.771
  19  4266.527
  20  3838.727
  21  3569.45
  22  3145.918
  23  4043.929
  24  4209.651
  25  4245.968
  26  3348.731
  27  3883.201
  28  4664.825
  29  4299.716
  30  3329.802
  31  4316.087
  32  4226.222
  33  3977.62
  34  3559.063
  35  3535.406
  36  3683.583
  37  3889.186
  38  3882.068
  39  3411.11
  40  3946.391
  41  3893.396
  42  4217.855
  43  3891.741
  44  4603.433
  45  3476.021
  46  4516.791
  47  3545.352
  48  3813.483
  49  4277.762
  50  4639.765
  51  4477.615
  52  3262.781
  53  4517.933
  54  4168.025
  55  3924.537
  56  4484.322
  57  3656.473
  58  3470.156
  59  4131.959
  60  4371.698
  61  4438.73
  62  4003.116
  63  3660.569
  64  4336.863
  65  4700.269
  66  4034.693
  67  3570.914
  68  4145.308
  69  3941.177
  70  4237.832
  71  4288.225
  72  3353.5
  73  3796.49
  74  4000.93
  75  4355.852
  76  4297.307
  77  5176.097
  78  4655.539
  79  4245.627
  80  3750.535
  81  4427.189
  82  3892.986
  83  4746.108
  84  4240.9
  85  3144.117
  86  3663.845
  87  4114.999
  88  3726.254
  89  3771.613
  90  3979.41
  91  4343.779
  92  4106.475
  93  3689.697
  94  4074.95
  95  4122.118
  96  3948.798
  97  3789.977
  98  4128.2
  99  3925.134
 100  3546.499
 101  4039.146
 102  4053.104
 103  4149.977
 104  3813.245
 105  3887.329
 106  4394.014
 107  3913.744
 108  3210.298
 109  4048.285
 110  4775.764
 111  3343.144
 112  3400.006
 113  3537.984
 114  3610.246
 115  3971.164
 116  3262.988
 117  2962.327
 118  2369.552
 119  5106.08
 120  3739.882
 121  2612.628
 122  4067.77
 123  4791.458
 124  3823.887
 125  3931.908
 126  2996.052
 127  3138.715
 128  4138.411
 129  3852.532
 130  3458.309
 131  4262.536
 132  4166.149
 133  2906.86
 134  3239.727
 135  4366.833
 136  4373.33
 137  3697.726
 138  3452.256
 139  4471.357
 140  4797.388
 141  3900.988
 142  3486.392
 143  4067.903
 144  3031.913
 145  3401.675
 146  3679.44
 147  3937.429
 148  3362.287
 149  2932.058
 150  3539.797
 151  3899.131
 152  4227.878
 153  2792.026
 154  3991.306
 155  4086.55
 156  3961.06
 157  4109.568
 158  4735.386
 159  4216.136
 160  5109.05
 161  7028.193
 162  7441.911
 163  7850.231
 164  5506.402
 165  4343.433
 166  3862.713
 167  3777.474
 168  4779.34
 169  3727.779
 170  3687.302
 171  3712.416
 172  4400.839
 173  4457.29
 174  5119.119
 175  3777.122
 176  3960.004
 177  4274.543
 178  4810.732
 179  3943.579
 180  4962.201
 181  4460.023
 182  3553.873
 183  3998.304
 184  4416.657
 185  4190.418
 186  3524.904
 187  3927.021
 188  4544.89
 189  4453.739
 190  4473.196
 191  4059.003
 192  3842.982
 193  4530.54
 194  4000.881
 195  3545.684
 196  4109.553
 197  4023.793
 198  4917.351
 199  4396.167
 200  3509.402
 201  3467.012
 202  4321.962
 203  4221.383
 204  3823.288
 205  4506.85
 206  4325.86
 207  4404.246
 208  4042.381
 209  4616.085
 210  4473.905
 211  4173.192
 212  3394.284
 213  3813.802
 214  4561.035
 215  4072.395
 216  4192.816
 217  4313.372
 218  3940.265
 219  4212.892
 220  4535.316
 221  4225.987
 222  4149.499
 223  3843.566
 224  4205.996
 225  4381.882
 226  4509.312
 227  3839.498
 228  3323.874
 229  3943.223
 230  4080.721
 231  3273.299
 232  3568.198
 233  3540.152
 234  3465.98
 235  3323.676
 236  4397.074
 237  3685.911
 238  3715.085
 239  4488.117
 240  3926.598
 241  3632.456
 242  3900.494
 243  3580.812
 244  3581.158
 245  3740.885
 246  3754.322
 247  4563.971
 248  4730.665
 249  3279.485
 250  2975.987
 251  4360.1
 252  4335.56
 253  3314.319
 254  3862.261
 255  3925.778
