# Input file       =  1184888937.102792-PSRB0329-2ms-sampling-dd.dat
# Candidate        =  PSR_0332+5434
# Telescope        =  AR
# Epoch_topo       =  57957.992547486021
# Epoch_bary       =  N/A
# T_sample         =  0.002
# Data Folded      =  7208960
# Data Avg         =  -1.08120626855771e-09
# Data StdDev      =  7.8711667772034  
# Profile Bins     =  512
# Profile Avg      =  -0.851358182620682
# Profile StdDev   =  933.986162316376 
# Reduced chi-sqr  =  0.711
# Prob(Noise)      <  1   (~0.0 sigma)
# P_topo (ms)      =  714.473414642759  +/- 0.00124
# P'_topo (s/s)    =  -0                +/- 6.66e-10
# P''_topo (s/s^2) =  0                 +/- 2.99e-13
# P_bary (ms)      =  N/A
# P'_bary (s/s)    =  N/A
# P''_bary (s/s^2) =  N/A
# P_orb (s)        =  N/A
# asin(i)/c (s)    =  N/A
# eccentricity     =  N/A
# w (rad)          =  N/A
# T_peri           =  N/A
######################################################
   0  -1165.597
   1  -1115.973
   2  -384.2182
   3  -158.2898
   4  188.0762
   5  270.6617
   6  148.5142
   7  -314.9753
   8  -147.4838
   9  -463.5887
  10  -915.9188
  11  266.035
  12  264.1045
  13  -13.76104
  14  -139.924
  15  -131.4304
  16  -437.9518
  17  -354.924
  18  -227.0395
  19  -44.71768
  20  -376.6736
  21  -375.5274
  22  -374.3214
  23  -85.02843
  24  -6.509776
  25  -44.60941
  26  -12.50174
  27  -115.653
  28  117.9861
  29  124.6555
  30  -147.1581
  31  -468.985
  32  -408.1282
  33  -187.7644
  34  -382.2696
  35  -320.335
  36  -74.45423
  37  -94.24068
  38  -193.7051
  39  -75.60402
  40  -384.5225
  41  -608.2355
  42  -453.6394
  43  -94.09409
  44  -127.8079
  45  -99.58701
  46  206.1788
  47  153.3294
  48  284.6422
  49  -522.3272
  50  -588.3886
  51  -294.1591
  52  -314.4164
  53  -359.9673
  54  -235.3382
  55  -152.2571
  56  9.488097
  57  -265.6409
  58  -377.1046
  59  -34.0829
  60  321.0454
  61  348.746
  62  52.60546
  63  225.3214
  64  -54.36229
  65  -500.2505
  66  -458.9232
  67  -511.6639
  68  -145.7751
  69  -445.8018
  70  -719.8322
  71  -271.866
  72  -49.1304
  73  -230.2785
  74  -334.5262
  75  -665.8282
  76  -982.8715
  77  -818.3211
  78  -321.7857
  79  -607.6273
  80  -81.747
  81  -123.2861
  82  -564.2401
  83  -881.3856
  84  -824.6429
  85  -427.5192
  86  -384.2198
  87  179.0433
  88  -172.9853
  89  -241.0395
  90  -344.6889
  91  -374.8101
  92  -245.4163
  93  76.59441
  94  96.44857
  95  168.56
  96  -123.1327
  97  -459.749
  98  -305.5789
  99  -37.20334
 100  -525.7209
 101  -489.2912
 102  -212.531
 103  -70.62864
 104  -427.1899
 105  -215.803
 106  -349.2721
 107  -426.5052
 108  -201.243
 109  -58.12952
 110  -298.6517
 111  -241.0873
 112  -120.3573
 113  -314.4171
 114  -113.0282
 115  -173.5679
 116  -537.84
 117  -102.4576
 118  -219.4868
 119  -295.0087
 120  -101.6821
 121  -341.5894
 122  -352.174
 123  -200.4192
 124  -352.6858
 125  178.6803
 126  539.8977
 127  -105.8595
 128  -75.24985
 129  -184.0666
 130  -0.2704049
 131  -310.7832
 132  -337.912
 133  -86.52103
 134  -292.8029
 135  33.82495
 136  -122.7727
 137  -434.8499
 138  -561.5524
 139  -680.3777
 140  -499.318
 141  -980.191
 142  -1121.755
 143  -296.9721
 144  573.509
 145  95.916
 146  -409.2328
 147  -273.4186
 148  -808.8845
 149  -611.5817
 150  124.6942
 151  163.8685
 152  337.8344
 153  465.2072
 154  28.74056
 155  -228.1331
 156  170.1804
 157  -142.173
 158  -558.8058
 159  -268.4626
 160  -118.0663
 161  178.3807
 162  388.1515
 163  252.2129
 164  91.4578
 165  -419.2558
 166  -373.4448
 167  122.3867
 168  524.144
 169  567.1102
 170  286.4329
 171  -258.2985
 172  -379.3382
 173  -161.4861
 174  -0.1464054
 175  498.27
 176  656.073
 177  304.5926
 178  168.2202
 179  102.9295
 180  -0.1778666
 181  12.50312
 182  -98.94212
 183  -16.07255
 184  82.40498
 185  396.6053
 186  413.9645
 187  267.2032
 188  265.8052
 189  368.878
 190  -40.7871
 191  -108.1857
 192  -37.60357
 193  -246.8701
 194  -418.8686
 195  -38.25288
 196  -71.49234
 197  -116.7283
 198  -14.77469
 199  -448.6144
 200  -172.9025
 201  -195.8771
 202  -441.9302
 203  -231.8163
 204  -519.7244
 205  -374.2268
 206  -405.9315
 207  -286.7881
 208  -182.8909
 209  -123.9766
 210  75.9227
 211  -641.9387
 212  -613.3737
 213  -285.6368
 214  -67.55959
 215  259.0745
 216  78.81631
 217  -14.05472
 218  -14.69876
 219  183.5847
 220  291.4571
 221  108.3818
 222  779.8182
 223  559.0682
 224  401.4886
 225  429.1298
 226  579.2274
 227  966.9806
 228  1507.708
 229  1976.725
 230  1918.657
 231  1824.943
 232  1855.532
 233  1469.581
 234  472.2778
 235  503.4179
 236  422.8474
 237  314.894
 238  20.51763
 239  -659.5821
 240  -344.3005
 241  -265.0998
 242  187.9134
 243  186.5088
 244  -293.0853
 245  -333.9681
 246  -433.9867
 247  -603.4751
 248  -370.6955
 249  -290.7423
 250  337.2487
 251  144.779
 252  96.10436
 253  288.0063
 254  371.9705
 255  105.0523
 256  213.5974
 257  226.472
 258  292.0681
 259  564.0558
 260  222.1925
 261  386.354
 262  539.3939
 263  209.7881
 264  -176.6815
 265  528.6953
 266  571.6141
 267  297.9593
 268  123.9142
 269  -131.9943
 270  -10.77349
 271  -376.6901
 272  -240.4931
 273  247.2379
 274  -287.2524
 275  -362.5831
 276  -180.7423
 277  407.9595
 278  -486.4946
 279  167.1243
 280  -333.2754
 281  1222.321
 282  6248.694
 283  3043.099
 284  1397.441
 285  -415.653
 286  664.099
 287  177.4892
 288  -480.0277
 289  403.7351
 290  -157.4612
 291  102.1758
 292  683.8887
 293  209.8841
 294  233.3618
 295  59.62827
 296  -235.1525
 297  219.9595
 298  316.2398
 299  237.3206
 300  123.1127
 301  152.6664
 302  537.5093
 303  752.3404
 304  684.0795
 305  91.63425
 306  -116.9628
 307  -40.56491
 308  -402.8931
 309  165.0818
 310  37.24975
 311  156.4187
 312  266.051
 313  144.8391
 314  -300.4294
 315  -141.9162
 316  338.0876
 317  439.1103
 318  579.1649
 319  988.4578
 320  507.1171
 321  78.931
 322  556.4969
 323  460.2048
 324  1010.29
 325  627.1381
 326  912.9235
 327  571.9362
 328  285.6655
 329  -212.2394
 330  -314.0158
 331  -176.2202
 332  277.3026
 333  723.7
 334  602.7841
 335  143.0836
 336  214.7785
 337  814.3801
 338  719.8309
 339  1576.976
 340  863.2832
 341  455.6846
 342  435.7987
 343  1807.669
 344  2000.779
 345  1635.795
 346  1771.468
 347  602.9262
 348  295.0607
 349  512.0271
 350  336.4701
 351  511.8623
 352  463.6186
 353  691.7462
 354  691.2547
 355  614.9998
 356  1066.406
 357  1288.365
 358  1135.75
 359  1078.528
 360  344.7932
 361  241.53
 362  224.37
 363  935.6426
 364  1243.968
 365  1034.866
 366  824.1072
 367  179.89
 368  -670.644
 369  -316.6555
 370  -126.1285
 371  -117.1128
 372  -148.6456
 373  -234.747
 374  -283.9365
 375  -512.5583
 376  -800.3842
 377  -361.5549
 378  129.8643
 379  250.0593
 380  -14.62321
 381  -182.9182
 382  -349.9634
 383  -144.5835
 384  152.2009
 385  199.4562
 386  196.0216
 387  105.0954
 388  -74.20687
 389  -340.3061
 390  34.75777
 391  336.6485
 392  246.5395
 393  -112.7974
 394  -156.0505
 395  -531.4603
 396  -548.9969
 397  -829.6242
 398  -401.3098
 399  64.14566
 400  361.5956
 401  252.0918
 402  323.0542
 403  -463.6136
 404  -838.895
 405  -935.5564
 406  -830.58
 407  -224.7132
 408  188.4408
 409  226.8855
 410  -215.3155
 411  -654.2726
 412  -859.8292
 413  -775.4684
 414  -206.2257
 415  -5.430173
 416  -413.8873
 417  -560.813
 418  -731.8995
 419  -464.1798
 420  -138.0318
 421  118.4187
 422  54.15796
 423  -53.26867
 424  -305.577
 425  -796.337
 426  -661.64
 427  -254.8359
 428  -158.1818
 429  -270.8802
 430  -200.5388
 431  -308.8582
 432  -660.4975
 433  -344.0099
 434  -302.5633
 435  -270.9285
 436  -229.3742
 437  -459.8141
 438  -94.33211
 439  245.0059
 440  285.1948
 441  -66.2944
 442  -219.4138
 443  -322.8937
 444  -166.2083
 445  -376.5578
 446  -527.2063
 447  -382.3707
 448  -114.6351
 449  -149.0179
 450  -229.9756
 451  -210.5864
 452  -327.3969
 453  -287.0699
 454  -101.7386
 455  -27.70851
 456  27.60869
 457  320.0159
 458  -145.2475
 459  -431.8279
 460  -376.1349
 461  -153.2699
 462  -522.97
 463  -308.1943
 464  -170.4996
 465  -86.54083
 466  -137.2636
 467  -251.9463
 468  233.3707
 469  -246.0385
 470  -420.9883
 471  -306.587
 472  -291.9578
 473  -92.5797
 474  497.095
 475  519.2817
 476  276.0964
 477  -412.837
 478  -748.6113
 479  -125.2857
 480  -133.3717
 481  -64.37393
 482  165.1674
 483  -62.19772
 484  63.40966
 485  -371.6254
 486  -589.0085
 487  -508.0567
 488  -713.9749
 489  -353.2765
 490  -2.531591
 491  35.50032
 492  -75.25236
 493  146.3902
 494  -173.3179
 495  -657.0884
 496  -513.1144
 497  -258.2963
 498  131.2673
 499  -191.5973
 500  -141.1669
 501  51.61954
 502  -178.9182
 503  -349.0842
 504  -299.581
 505  165.3391
 506  248.8715
 507  -247.4881
 508  -322.3275
 509  -224.0761
 510  -15.03777
 511  -249.6904
