# Input file       =  1184041954.091831_cleaned.dat
# Candidate        =  PSR_0332+5434
# Telescope        =  AR
# Epoch_topo       =  57948.189503377675
# Epoch_bary       =  N/A
# T_sample         =  0.002
# Data Folded      =  7340032
# Data Avg         =  0.0363212454315984
# Data StdDev      =  1.00010402674649 
# Profile Bins     =  512
# Profile Avg      =  520.724117099264 
# Profile StdDev   =  119.745491814988 
# Reduced chi-sqr  =  1.441
# Prob(Noise)      <  2.19e-10   (~6.2 sigma)
# P_topo (ms)      =  714.479464469877  +/- 0.000355
# P'_topo (s/s)    =  -0                +/- 1.87e-10
# P''_topo (s/s^2) =  0                 +/- 8.26e-14
# P_bary (ms)      =  N/A
# P'_bary (s/s)    =  N/A
# P''_bary (s/s^2) =  N/A
# P_orb (s)        =  N/A
# asin(i)/c (s)    =  N/A
# eccentricity     =  N/A
# w (rad)          =  N/A
# T_peri           =  N/A
######################################################
   0  1353.906
   1  1105.974
   2  911.3179
   3  715.2008
   4  686.4077
   5  723.3361
   6  724.0388
   7  683.4086
   8  587.0114
   9  511.442
  10  626.2471
  11  616.761
  12  577.3977
  13  568.8105
  14  609.0712
  15  545.4089
  16  488.0856
  17  493.7478
  18  511.3052
  19  552.6522
  20  576.0277
  21  562.5187
  22  481.274
  23  496.1858
  24  514.9311
  25  410.1572
  26  422.6044
  27  542.7437
  28  534.0507
  29  551.5228
  30  642.0739
  31  391.8548
  32  370.6399
  33  576.5806
  34  665.6686
  35  509.6151
  36  467.7258
  37  520.6448
  38  564.8007
  39  514.7996
  40  459.6329
  41  495.4405
  42  466.2847
  43  377.5794
  44  416.4822
  45  465.4731
  46  524.4074
  47  506.8019
  48  481.9369
  49  484.4502
  50  584.3252
  51  623.418
  52  587.0692
  53  492.7927
  54  603.0592
  55  588.9299
  56  427.0567
  57  451.4963
  58  449.6992
  59  458.1934
  60  502.6351
  61  486.4693
  62  431.9257
  63  425.5808
  64  345.1433
  65  384.7969
  66  491.8107
  67  451.4207
  68  477.232
  69  499.0628
  70  423.5916
  71  407.7668
  72  520.1964
  73  591.7843
  74  455.7616
  75  441.9561
  76  330.1744
  77  443.8459
  78  530.121
  79  512.5774
  80  457.1638
  81  491.8053
  82  379.474
  83  360.713
  84  508.5137
  85  501.9104
  86  498.2438
  87  531.3229
  88  668.2038
  89  717.4086
  90  615.821
  91  524.5974
  92  599.1097
  93  656.1367
  94  684.2083
  95  580.202
  96  454.4862
  97  510.6502
  98  473.0358
  99  523.8771
 100  554.5326
 101  365.5572
 102  344.1194
 103  429.0722
 104  529.5779
 105  681.7108
 106  505.7165
 107  448.1658
 108  522.127
 109  598.0635
 110  574.2037
 111  491.2003
 112  509.1972
 113  448.1056
 114  491.0167
 115  551.5042
 116  517.317
 117  421.4765
 118  453.129
 119  467.0624
 120  481.7371
 121  580.5396
 122  585.3686
 123  589.021
 124  570.7354
 125  619.4323
 126  603.5715
 127  550.8917
 128  525.7131
 129  593.8906
 130  653.4564
 131  603.4488
 132  431.0798
 133  406.1128
 134  398.3964
 135  400.0652
 136  502.3271
 137  422.2785
 138  370.24
 139  296.3912
 140  418.2783
 141  496.6165
 142  379.2448
 143  402.8445
 144  446.438
 145  512.1245
 146  577.116
 147  415.5437
 148  352.0048
 149  439.4834
 150  476.4395
 151  443.1784
 152  367.0197
 153  408.3388
 154  460.0523
 155  549.0101
 156  500.0921
 157  509.7096
 158  382.2513
 159  368.7102
 160  487.2061
 161  480.2503
 162  447.0354
 163  466.9925
 164  448.7056
 165  488.3708
 166  554.967
 167  488.109
 168  457.9317
 169  594.926
 170  644.5707
 171  540.5252
 172  494.6929
 173  526.2759
 174  489.1515
 175  603.4169
 176  651.7444
 177  577.8402
 178  530.1915
 179  409.0866
 180  387.101
 181  367.4556
 182  364.9344
 183  419.1125
 184  454.779
 185  550.3936
 186  475.3652
 187  346.7153
 188  372.5912
 189  353.6807
 190  371.7802
 191  474.5481
 192  410.9825
 193  381.6381
 194  467.4202
 195  435.3552
 196  427.9648
 197  406.3568
 198  412.8312
 199  558.8572
 200  568.1646
 201  441.4846
 202  411.6703
 203  433.3369
 204  403.1194
 205  507.9368
 206  484.6302
 207  388.1197
 208  414.2581
 209  425.7646
 210  460.699
 211  507.8795
 212  429.9091
 213  520.6387
 214  470.5285
 215  464.1716
 216  540.223
 217  483.6729
 218  510.1941
 219  592.9733
 220  574.7401
 221  552.287
 222  581.3104
 223  733.4907
 224  740.669
 225  668.4477
 226  650.1041
 227  479.6804
 228  488.7724
 229  600.5164
 230  560.0591
 231  507.876
 232  407.6481
 233  565.2453
 234  610.1783
 235  574.3199
 236  558.2509
 237  498.8508
 238  553.8126
 239  466.9399
 240  540.881
 241  626.9126
 242  583.2149
 243  639.3473
 244  747.6896
 245  602.6312
 246  482.0338
 247  576.4
 248  533.8149
 249  529.5643
 250  500.8089
 251  447.5363
 252  389.1688
 253  453.1714
 254  530.249
 255  501.2719
 256  523.1826
 257  517.2675
 258  547.0453
 259  495.0315
 260  488.4148
 261  499.3237
 262  444.6932
 263  442.9972
 264  502.8023
 265  613.409
 266  562.0386
 267  564.6257
 268  685.9379
 269  648.0761
 270  560.0576
 271  654.0719
 272  667.4564
 273  489.0118
 274  485.4818
 275  430.9464
 276  497.1929
 277  424.7889
 278  543.4302
 279  573.8011
 280  462.4111
 281  441.5091
 282  519.5129
 283  422.7848
 284  463.9649
 285  409.8217
 286  533.7524
 287  485.2217
 288  566.7028
 289  651.9367
 290  584.1216
 291  488.1968
 292  530.3137
 293  599.9807
 294  424.2116
 295  459.3945
 296  501.1615
 297  538.4919
 298  434.7582
 299  529.3988
 300  605.0172
 301  531.8928
 302  522.5457
 303  614.8443
 304  515.7701
 305  565.0096
 306  551.8819
 307  515.8181
 308  454.5037
 309  436.2756
 310  532.4573
 311  544.8476
 312  556.797
 313  544.9765
 314  437.1189
 315  610.7894
 316  519.0002
 317  407.1299
 318  471.6951
 319  485.2078
 320  480.4671
 321  454.874
 322  451.974
 323  468.0922
 324  487.9596
 325  454.2674
 326  456.2112
 327  594.2772
 328  601.7186
 329  513.134
 330  456.4063
 331  389.1824
 332  429.2237
 333  440.7355
 334  375.5001
 335  389.6904
 336  449.034
 337  514.3321
 338  417.7931
 339  557.1613
 340  560.4623
 341  567.4569
 342  526.2738
 343  478.7074
 344  516.4498
 345  595.1023
 346  600.929
 347  553.6927
 348  376.393
 349  465.7747
 350  511.0136
 351  553.9166
 352  523.133
 353  590.0817
 354  549.5812
 355  604.8954
 356  659.8408
 357  661.0051
 358  570.3192
 359  496.1062
 360  591.2551
 361  491.5612
 362  593.8875
 363  552.5728
 364  552.5923
 365  621.261
 366  580.269
 367  576.3417
 368  609.0382
 369  595.0933
 370  591.4589
 371  513.7082
 372  537.695
 373  618.9648
 374  536.4294
 375  530.6433
 376  547.5128
 377  619.2391
 378  651.9836
 379  526.6231
 380  551.6561
 381  607.8565
 382  535.7386
 383  645.4557
 384  725.063
 385  636.0215
 386  519.6322
 387  485.9682
 388  480.2889
 389  579.4076
 390  564.2604
 391  550.0882
 392  570.392
 393  597.9908
 394  630.9304
 395  557.5639
 396  511.9436
 397  364.3632
 398  350.4746
 399  463.7909
 400  427.0294
 401  423.619
 402  451.8254
 403  492.533
 404  414.0264
 405  433.0117
 406  449.3175
 407  458.5861
 408  557.8051
 409  618.6861
 410  556.8907
 411  342.7531
 412  462.8717
 413  466.367
 414  406.9554
 415  415.991
 416  412.4306
 417  504.6446
 418  561.059
 419  511.7505
 420  514.772
 421  475.0479
 422  393.9259
 423  450.4676
 424  502.2518
 425  525.9714
 426  526.7008
 427  542.2307
 428  486.1102
 429  450.543
 430  464.3785
 431  466.7583
 432  621.541
 433  560.7359
 434  587.1147
 435  551.9789
 436  533.6972
 437  550.3223
 438  525.2347
 439  541.6763
 440  587.1943
 441  507.3632
 442  572.1882
 443  576.2693
 444  584.326
 445  675.4404
 446  599.4791
 447  493.245
 448  479.9417
 449  492.3395
 450  541.4106
 451  502.7845
 452  552.6924
 453  620.2795
 454  496.3937
 455  527.7155
 456  417.4038
 457  489.7166
 458  508.058
 459  470.2658
 460  505.0408
 461  477.5557
 462  566.2615
 463  495.178
 464  424.7854
 465  436.3628
 466  433.653
 467  501.5328
 468  548.2763
 469  554.5721
 470  483.4929
 471  411.4959
 472  433.0064
 473  502.6631
 474  577.1402
 475  571.9324
 476  529.925
 477  463.2796
 478  617.5555
 479  581.1958
 480  547.7374
 481  529.694
 482  428.3773
 483  554.8036
 484  492.2003
 485  458.4997
 486  549.0698
 487  506.091
 488  454.1805
 489  416.9622
 490  543.1172
 491  511.7626
 492  532.5568
 493  546.264
 494  461.9404
 495  527.0475
 496  547.3611
 497  636.5763
 498  558.5828
 499  515.7491
 500  591.2292
 501  495.126
 502  482.4869
 503  475.4429
 504  580.5482
 505  624.7932
 506  661.2932
 507  778.7856
 508  768.7729
 509  882.3868
 510  1149.003
 511  1236.398
