# Input file       =  1184113454.097065_cleaned.dat
# Candidate        =  PSR_0332+5434
# Telescope        =  AR
# Epoch_topo       =  57949.017049734546
# Epoch_bary       =  N/A
# T_sample         =  0.002
# Data Folded      =  7208960
# Data Avg         =  0.306835462755143
# Data StdDev      =  6.51037664049457 
# Profile Bins     =  512
# Profile Avg      =  4320.25345804545 
# Profile StdDev   =  772.51592626654  
# Reduced chi-sqr  =  0.465
# Prob(Noise)      <  1   (~0.0 sigma)
# P_topo (ms)      =  714.478899247129  +/- 8.18e-05
# P'_topo (s/s)    =  -0                +/- 4.4e-11
# P''_topo (s/s^2) =  0                 +/- 1.98e-14
# P_bary (ms)      =  N/A
# P'_bary (s/s)    =  N/A
# P''_bary (s/s^2) =  N/A
# P_orb (s)        =  N/A
# asin(i)/c (s)    =  N/A
# eccentricity     =  N/A
# w (rad)          =  N/A
# T_peri           =  N/A
######################################################
   0  4127.298
   1  4263.426
   2  4182.749
   3  4267.059
   4  4139.344
   5  4385.359
   6  4460.11
   7  4414.647
   8  4328.66
   9  4317.377
  10  4311.467
  11  4015.353
  12  3513.786
  13  3553.08
  14  3897.427
  15  3780.581
  16  4174.544
  17  4816.076
  18  4617.7
  19  4047.193
  20  4076.365
  21  4436.668
  22  4494.864
  23  4114.332
  24  4174.978
  25  4683.907
  26  4523.77
  27  4411.503
  28  4474.396
  29  4525.312
  30  4202.724
  31  4402.56
  32  4582.258
  33  4776.589
  34  4823.968
  35  5011.808
  36  4484.656
  37  4369.708
  38  4666.016
  39  4729.978
  40  4387.287
  41  4059.725
  42  4718.219
  43  4721.186
  44  4617.379
  45  4032.114
  46  3848.138
  47  4352.326
  48  4322.221
  49  4347.336
  50  4808.506
  51  4688.892
  52  4731.272
  53  5230.086
  54  5032.396
  55  4676.353
  56  4506.664
  57  4432.615
  58  4666.587
  59  4882.742
  60  4237.628
  61  4273.709
  62  4229.406
  63  4631.829
  64  4449.66
  65  4135.112
  66  4447.603
  67  4585.17
  68  4632.845
  69  4803.276
  70  4647.757
  71  4680.997
  72  4644.812
  73  4558.309
  74  4375.583
  75  4645.645
  76  4406.417
  77  4002.236
  78  4036.88
  79  4155.907
  80  4595.462
  81  4080.936
  82  3724.725
  83  4638.775
  84  4931.781
  85  4477.427
  86  4611.146
  87  4489.04
  88  4659.94
  89  4565.542
  90  4568.672
  91  4495.128
  92  4517.862
  93  4108.511
  94  3901.899
  95  4123.801
  96  3971.067
  97  4186.719
  98  4054.88
  99  4502.293
 100  4671.982
 101  4681.507
 102  4505.559
 103  4106.779
 104  4120.88
 105  4225.235
 106  4751.6
 107  4390.302
 108  4553.361
 109  4598.065
 110  4046.155
 111  3660.834
 112  3827.049
 113  4201.875
 114  4327.87
 115  4000.095
 116  4722.712
 117  4896.623
 118  4541.124
 119  4578.738
 120  4606.049
 121  4443.073
 122  4334.077
 123  4425.668
 124  4472.676
 125  4680.273
 126  4699.337
 127  4243.849
 128  4239.93
 129  3827.273
 130  3539.671
 131  3437.214
 132  3951.918
 133  4150.633
 134  4618.29
 135  4389.126
 136  3871.535
 137  4138.701
 138  4173.438
 139  4342.277
 140  4365.172
 141  3902.071
 142  3992.165
 143  3873.376
 144  3719.057
 145  3719.035
 146  3829.83
 147  3462.973
 148  3501.367
 149  4134.983
 150  4353.498
 151  4182.808
 152  4373.121
 153  4619.835
 154  4704.794
 155  4085.844
 156  3760.667
 157  3773.431
 158  4364.949
 159  3926.996
 160  3766.816
 161  3923.161
 162  4066.516
 163  3953.653
 164  4221.824
 165  4500.764
 166  4772.109
 167  4788.811
 168  4347.474
 169  3933.888
 170  4192.219
 171  4553.328
 172  4305.713
 173  4275.44
 174  4342.93
 175  3991.686
 176  4240.818
 177  4184.316
 178  4005.253
 179  4334.413
 180  4245.326
 181  4320.103
 182  4536.498
 183  4950.718
 184  4468.966
 185  4318.446
 186  4492.703
 187  4556.071
 188  4791.307
 189  4453.506
 190  4761.037
 191  4870.393
 192  4235.812
 193  4316.524
 194  3729.039
 195  3776.644
 196  4227.591
 197  4161.516
 198  4207.483
 199  4900.929
 200  5060.441
 201  4276.856
 202  3931.018
 203  4025.377
 204  4032.516
 205  4399.723
 206  4593.35
 207  4712.739
 208  4496.751
 209  4338.987
 210  4146.423
 211  4016.543
 212  3832.688
 213  3889.21
 214  3587.345
 215  4396.765
 216  5108.311
 217  4586.763
 218  4108.264
 219  4153.121
 220  4002.593
 221  3551.74
 222  4284.052
 223  4540.393
 224  4696.85
 225  4338.819
 226  3877.237
 227  3880.548
 228  3546.795
 229  3679.941
 230  3761.005
 231  4321.156
 232  4732.652
 233  4908.812
 234  4478.619
 235  4407.942
 236  4678.093
 237  4406.825
 238  4037.054
 239  3888.399
 240  4507.373
 241  4943.443
 242  4666.61
 243  4207.552
 244  4405.334
 245  4473.695
 246  4386.062
 247  4395.03
 248  4564.194
 249  5065.467
 250  4791.208
 251  4345.383
 252  4116.941
 253  4646.925
 254  4366.381
 255  4096.977
 256  4226.476
 257  4885.082
 258  4751.165
 259  3975.604
 260  4048.876
 261  4399.287
 262  4190.327
 263  4127.704
 264  4545.541
 265  4727.896
 266  4588.929
 267  4346.206
 268  4595.739
 269  4670.028
 270  4323.582
 271  4160.048
 272  3933.25
 273  3947.439
 274  4299.958
 275  4737.422
 276  4464.625
 277  4137.223
 278  4187.171
 279  4018
 280  3879.015
 281  4432.9
 282  5131.365
 283  4620.6
 284  4063.365
 285  4013.364
 286  4473.324
 287  4398.463
 288  4244.222
 289  4728.8
 290  4566.32
 291  4288.41
 292  3750.927
 293  3607.376
 294  3986.441
 295  4076.393
 296  3628.661
 297  4276.568
 298  4619.965
 299  4863.295
 300  4747.756
 301  4285.458
 302  3791.579
 303  3804.541
 304  4158.965
 305  4294.949
 306  4774.033
 307  4590.729
 308  4524.861
 309  3989.76
 310  3587.249
 311  4147.75
 312  4413.509
 313  4576.338
 314  4768.145
 315  4916.885
 316  4869.513
 317  4500.645
 318  3927.885
 319  4284.645
 320  4671.865
 321  3967.704
 322  3888.152
 323  4456.196
 324  4702.531
 325  4165.528
 326  4014.634
 327  4200.104
 328  4294.853
 329  4223.703
 330  4097.237
 331  4417.32
 332  4112.171
 333  4424.485
 334  4824.353
 335  4293.195
 336  4320.784
 337  4289.831
 338  4102.819
 339  4021.268
 340  4027.128
 341  4154.216
 342  3956.34
 343  3941.276
 344  4228.554
 345  4335.954
 346  4159.644
 347  4250.205
 348  4694.398
 349  4570.729
 350  4080.699
 351  3896.516
 352  4360.161
 353  4604.404
 354  4154.685
 355  4118.438
 356  4310.601
 357  4311.578
 358  3763.618
 359  3914.559
 360  4126.126
 361  3828.416
 362  3730.494
 363  3737.435
 364  4239.008
 365  4475.012
 366  4593.831
 367  4238.426
 368  3725.518
 369  3960.511
 370  3986.081
 371  4133.458
 372  4130.888
 373  4495.465
 374  4469.065
 375  3939.387
 376  3571.991
 377  3358.869
 378  3493.362
 379  4030.184
 380  4580.638
 381  4827.022
 382  4832.456
 383  4259.907
 384  3644.363
 385  3812.132
 386  4235.864
 387  4563.925
 388  4256.014
 389  4251.813
 390  4676.248
 391  4129.531
 392  3636.542
 393  3989.173
 394  4189.505
 395  3880.051
 396  4452.911
 397  4696.312
 398  4489.718
 399  4454.805
 400  4785.917
 401  4414.46
 402  4155.539
 403  4420.886
 404  4561.624
 405  4285.562
 406  4265.726
 407  4842.735
 408  4278.892
 409  4334.435
 410  4654.356
 411  4736.201
 412  4410.341
 413  4029.762
 414  3904.726
 415  4183.875
 416  4397.756
 417  4564.549
 418  4698.058
 419  4487.347
 420  4087.344
 421  4000.115
 422  4155.447
 423  4133.973
 424  3862.369
 425  3510.825
 426  4160.544
 427  4344.051
 428  3920.777
 429  4514.017
 430  4525.333
 431  4568.562
 432  4026.743
 433  3651.88
 434  3978.229
 435  4135.642
 436  4178.577
 437  4415.835
 438  4533.604
 439  4164.35
 440  3933.868
 441  3938.856
 442  3320.221
 443  3659.724
 444  4038.91
 445  4232.512
 446  4594.29
 447  4797.336
 448  4609.952
 449  4338.409
 450  3968.226
 451  4016.862
 452  4415.362
 453  4097.776
 454  4152.31
 455  4618.873
 456  4526.93
 457  4335.705
 458  4058.604
 459  3863.12
 460  3873.972
 461  3492.765
 462  3864.401
 463  4810.913
 464  5298.327
 465  4823.873
 466  4348.058
 467  4185.139
 468  4356.771
 469  5017.34
 470  5454.983
 471  5944.729
 472  6355.258
 473  6146.049
 474  5519.249
 475  5062.971
 476  4716.392
 477  4574.799
 478  4571.46
 479  4337.548
 480  4853.486
 481  5102.42
 482  4227.145
 483  4377.844
 484  4791.455
 485  4709.454
 486  4210.774
 487  4236.394
 488  4521.919
 489  4925.906
 490  4671.078
 491  4190.09
 492  4531.393
 493  4219.238
 494  4109.501
 495  4119.048
 496  4664.245
 497  4511.48
 498  3926.789
 499  3991.788
 500  4488.838
 501  4526.371
 502  4473.215
 503  4402.261
 504  4273.425
 505  4071.025
 506  3937.977
 507  3831.152
 508  4315.879
 509  4312.878
 510  4199.83
 511  4573.853
