# Input file       =  1184975008.108039_cleaned.dat
# Candidate        =  PSR_0332+5434
# Telescope        =  AR
# Epoch_topo       =  57958.988739676373
# Epoch_bary       =  N/A
# T_sample         =  0.002
# Data Folded      =  7274496
# Data Avg         =  0.0272164263453817
# Data StdDev      =  1.00013011054231 
# Profile Bins     =  512
# Profile Avg      =  386.7432248006   
# Profile StdDev   =  119.21282423336  
# Reduced chi-sqr  =  1.432
# Prob(Noise)      <  4.72e-10   (~6.1 sigma)
# P_topo (ms)      =  714.472873282526  +/- 0.000194
# P'_topo (s/s)    =  -0                +/- 1.03e-10
# P''_topo (s/s^2) =  0                 +/- 4.6e-14
# P_bary (ms)      =  N/A
# P'_bary (s/s)    =  N/A
# P''_bary (s/s^2) =  N/A
# P_orb (s)        =  N/A
# asin(i)/c (s)    =  N/A
# eccentricity     =  N/A
# w (rad)          =  N/A
# T_peri           =  N/A
######################################################
   0  1105.922
   1  1074.891
   2  870.7768
   3  614.719
   4  466.0222
   5  407.4756
   6  465.4123
   7  442.5515
   8  397.9254
   9  399.5244
  10  343.0014
  11  433.6943
  12  716.8031
  13  632.5863
  14  485.7457
  15  356.2075
  16  398.5174
  17  493.2661
  18  567.4567
  19  498.4633
  20  426.1663
  21  405.5961
  22  409.253
  23  348.951
  24  263.2017
  25  349.7047
  26  351.6984
  27  242.6398
  28  327.2806
  29  352.795
  30  369.5604
  31  227.2827
  32  239.4951
  33  381.5036
  34  453.1281
  35  430.2913
  36  376.3697
  37  415.4701
  38  390.4342
  39  295.3639
  40  363.9804
  41  391.3648
  42  407.7108
  43  360.2708
  44  365.8641
  45  424.2809
  46  448.6523
  47  396.7255
  48  363.2318
  49  340.2763
  50  297.2465
  51  311.0359
  52  226.0045
  53  304.9127
  54  373.6589
  55  421.0168
  56  391.9238
  57  362.3806
  58  319.5199
  59  305.626
  60  332.465
  61  263.2412
  62  375.7787
  63  353.3825
  64  296.5081
  65  304.3156
  66  308.6259
  67  272.3684
  68  282.6053
  69  246.7726
  70  270.9367
  71  206.2714
  72  291.2824
  73  223.5006
  74  280.3006
  75  344.5312
  76  389.5893
  77  308.9779
  78  208.9014
  79  243.5252
  80  295.3761
  81  299.2088
  82  250.9809
  83  259.0094
  84  336.3279
  85  331.4151
  86  336.6596
  87  359.3398
  88  439.9499
  89  420.9895
  90  344.7594
  91  354.62
  92  298.7886
  93  263.4435
  94  219.0134
  95  456.8119
  96  508.8955
  97  295.8851
  98  243.3774
  99  312.6577
 100  251.2744
 101  211.5807
 102  265.2969
 103  409.2453
 104  441.0213
 105  458.5319
 106  301.8872
 107  228.2042
 108  246.8661
 109  371.4345
 110  413.8887
 111  318.2883
 112  326.4471
 113  226.2398
 114  220.7163
 115  352.8622
 116  369.0543
 117  355.2382
 118  414.7191
 119  353.7777
 120  328.8967
 121  336.5346
 122  440.8991
 123  387.1639
 124  360.7133
 125  335.8009
 126  400.1186
 127  357.6736
 128  349.8962
 129  333.6073
 130  235.5222
 131  362.9628
 132  243.9842
 133  265.9843
 134  364.759
 135  421.49
 136  321.9877
 137  388.474
 138  427.1778
 139  388.3127
 140  315.1609
 141  352.4474
 142  419.825
 143  346.4137
 144  311.7132
 145  263.641
 146  366.2013
 147  423.1142
 148  419.7776
 149  406.3635
 150  345.3435
 151  311.5288
 152  390.9182
 153  446.2487
 154  487.7556
 155  343.9628
 156  392.9966
 157  349.0078
 158  339.3033
 159  429.0039
 160  396.4049
 161  312.3749
 162  392.0403
 163  393.0316
 164  448.7185
 165  490.844
 166  500.0306
 167  533.0222
 168  413.5663
 169  350.4024
 170  423.9017
 171  351.0143
 172  432.5213
 173  491.4728
 174  430.123
 175  357.7214
 176  394.3359
 177  519.4749
 178  371.7224
 179  427.2154
 180  391.0511
 181  411.1132
 182  440.4071
 183  474.1289
 184  402.0789
 185  352.4633
 186  310.632
 187  347.276
 188  310.9285
 189  313.2847
 190  382.1649
 191  405.1126
 192  487.6486
 193  446.4074
 194  359.0964
 195  398.9621
 196  413.2558
 197  297.7072
 198  320.5552
 199  303.4189
 200  357.3601
 201  481.9663
 202  470.4138
 203  311.8989
 204  240.7865
 205  348.3381
 206  437.5138
 207  404.7681
 208  361.8125
 209  326.7041
 210  360.5018
 211  392.0976
 212  257.7436
 213  467.587
 214  491.919
 215  430.5266
 216  345.2211
 217  405.4445
 218  429.139
 219  345.5972
 220  272.9377
 221  380.9677
 222  325.9866
 223  395.0289
 224  399.0869
 225  350.9711
 226  461.6055
 227  341.1918
 228  269.854
 229  352.7571
 230  477.3824
 231  358.996
 232  448.9645
 233  396.0948
 234  322.7724
 235  273.1637
 236  283.1168
 237  460.4171
 238  540.5859
 239  507.1576
 240  443.8108
 241  431.8515
 242  433.694
 243  410.558
 244  310.0676
 245  379.1552
 246  470.9766
 247  424.5142
 248  394.7081
 249  328.5792
 250  417.0403
 251  429.4204
 252  441.2822
 253  404.1698
 254  439.6324
 255  404.6775
 256  430.5354
 257  369.5836
 258  345.5084
 259  333.3586
 260  419.0393
 261  369.0155
 262  387.8047
 263  370.2935
 264  303.3631
 265  579.8574
 266  589.5395
 267  498.2416
 268  339.5308
 269  280.4327
 270  366.4948
 271  368.7879
 272  320.4355
 273  366.4139
 274  387.8337
 275  396.3608
 276  409.5121
 277  408.5437
 278  395.1837
 279  346.9622
 280  353.9591
 281  479.1456
 282  494.0498
 283  514.6953
 284  431.629
 285  341.5244
 286  369.1632
 287  444.1809
 288  432.8884
 289  394.5901
 290  306.5607
 291  312.6937
 292  347.8605
 293  235.0112
 294  276.7994
 295  398.8552
 296  394.4729
 297  359.4222
 298  329.6025
 299  467.5494
 300  482.3978
 301  338.3052
 302  307.3161
 303  267.8712
 304  351.0772
 305  316.042
 306  340.2209
 307  453.8358
 308  515.238
 309  422.0669
 310  448.1741
 311  378.9723
 312  538.3973
 313  553.4702
 314  463.6938
 315  345.553
 316  359.651
 317  418.407
 318  418.2814
 319  420.0389
 320  315.0139
 321  365.8207
 322  455.251
 323  537.9948
 324  418.9986
 325  319.0933
 326  375.052
 327  287.1145
 328  290.1408
 329  442.9822
 330  392.6654
 331  282.3162
 332  451.3689
 333  557.9751
 334  494.8735
 335  418.0923
 336  404.6121
 337  399.2143
 338  351.2731
 339  297.7496
 340  387.8198
 341  433.1481
 342  463.1245
 343  310.6048
 344  347.9128
 345  419.4057
 346  321.1636
 347  390.0335
 348  410.933
 349  315.4904
 350  371.8631
 351  366.8786
 352  261.0133
 353  317.8321
 354  390.8057
 355  456.9205
 356  453.2213
 357  436.2182
 358  386.6542
 359  307.6583
 360  286.263
 361  385.0436
 362  348.138
 363  307.4121
 364  324.4942
 365  300.0403
 366  352.4743
 367  419.3172
 368  285.3831
 369  292.2467
 370  347.8146
 371  389.3431
 372  305.9097
 373  288.2578
 374  467.3296
 375  522.1528
 376  442.2255
 377  402.6575
 378  465.7036
 379  401.6734
 380  394.1642
 381  505.0995
 382  456.0296
 383  558.3054
 384  504.8282
 385  431.4142
 386  377.3601
 387  312.9725
 388  247.912
 389  413.119
 390  423.5109
 391  351.0353
 392  451.935
 393  329.6005
 394  219.7131
 395  300.9189
 396  316.8104
 397  300.5897
 398  239.0081
 399  331.9689
 400  450.2235
 401  452.9999
 402  435.2452
 403  331.7127
 404  280.6617
 405  431.7712
 406  501.5679
 407  467.8958
 408  363.6662
 409  287.1893
 410  288.4206
 411  407.0821
 412  331.0973
 413  261.3238
 414  265.4476
 415  247.7397
 416  308.6891
 417  330.9789
 418  267.3984
 419  280.18
 420  276.0492
 421  290.8485
 422  418.5691
 423  361.9093
 424  291.8248
 425  384.5987
 426  480.3238
 427  452.1917
 428  354.0196
 429  368.5381
 430  376.019
 431  339.3842
 432  365.5144
 433  390.4353
 434  430.9127
 435  352.9125
 436  232.583
 437  255.0907
 438  330.1717
 439  371.7357
 440  280.4746
 441  362.5445
 442  347.5787
 443  349.5894
 444  350.1052
 445  338.4704
 446  432.4944
 447  424.6951
 448  397.7526
 449  367.6532
 450  280.2326
 451  307.4146
 452  409.4764
 453  245.6245
 454  296.4435
 455  253.6806
 456  304.8713
 457  366.4397
 458  341.1084
 459  402.8492
 460  308.4148
 461  322.5623
 462  383.7576
 463  315.2085
 464  397.1011
 465  290.3156
 466  375.168
 467  468.4916
 468  507.6674
 469  490.9899
 470  454.6108
 471  357.5783
 472  403.1037
 473  448.5847
 474  533.9011
 475  505.043
 476  469.8669
 477  387.2227
 478  438.0798
 479  451.2164
 480  401.0237
 481  317.5984
 482  437.1079
 483  544.3995
 484  551.5358
 485  416.0412
 486  495.3779
 487  573.9083
 488  534.0681
 489  517.9402
 490  560.3553
 491  586.7203
 492  506.8507
 493  538.4456
 494  457.9135
 495  315.319
 496  338.2329
 497  271.4835
 498  445.2733
 499  483.8642
 500  488.8979
 501  426.259
 502  357.5513
 503  429.1875
 504  492.0318
 505  523.2927
 506  538.9531
 507  579.3116
 508  695.147
 509  925.1849
 510  949.4822
 511  886.0618
