# Input file       =  1184573858.104995_cleaned.dat
# Candidate        =  PSR_0332+5434
# Telescope        =  AR
# Epoch_topo       =  57954.345799826333
# Epoch_bary       =  N/A
# T_sample         =  0.002
# Data Folded      =  7340032
# Data Avg         =  0.367392866933577
# Data StdDev      =  5.8090169036759  
# Profile Bins     =  512
# Profile Avg      =  5266.88522629893 
# Profile StdDev   =  695.531232241076 
# Reduced chi-sqr  =  1.182
# Prob(Noise)      <  0.00275   (~2.8 sigma)
# P_topo (ms)      =  714.475866522207  +/- 0.000209
# P'_topo (s/s)    =  -0                +/- 1.1e-10
# P''_topo (s/s^2) =  0                 +/- 4.86e-14
# P_bary (ms)      =  N/A
# P'_bary (s/s)    =  N/A
# P''_bary (s/s^2) =  N/A
# P_orb (s)        =  N/A
# asin(i)/c (s)    =  N/A
# eccentricity     =  N/A
# w (rad)          =  N/A
# T_peri           =  N/A
######################################################
   0  5548.566
   1  5506.383
   2  5377.93
   3  5851.831
   4  5919.593
   5  5785.024
   6  5801.703
   7  5687.062
   8  5388.126
   9  5089.437
  10  4992.562
  11  5487.28
  12  5968.787
  13  5556.783
  14  5580.111
  15  5601.943
  16  5256.446
  17  5382.623
  18  5927.156
  19  6120.481
  20  5776.604
  21  5449.472
  22  5204.188
  23  4972.297
  24  4958.889
  25  5417.604
  26  5363.29
  27  5110.216
  28  4741.225
  29  4915.517
  30  5009.288
  31  5488.846
  32  5297.992
  33  5446.592
  34  5741.097
  35  5440.407
  36  5667.628
  37  5137.542
  38  4894.5
  39  5121.071
  40  5243.929
  41  5624.575
  42  5321.525
  43  5007.734
  44  4965.313
  45  5057.087
  46  5144.99
  47  5290.155
  48  5223.958
  49  5644.625
  50  5514.311
  51  5464.93
  52  5614.443
  53  5393.337
  54  5502.92
  55  5720.875
  56  5784.394
  57  5887.839
  58  5840.923
  59  5671.953
  60  6004.309
  61  5701.263
  62  5630.357
  63  5389.13
  64  5277.08
  65  5339.958
  66  5056.6
  67  5051.167
  68  5541.406
  69  5431.133
  70  5745.195
  71  5333.066
  72  5267.708
  73  5374.023
  74  5426.405
  75  5482.923
  76  5381.462
  77  5138.237
  78  5320.29
  79  5628.668
  80  5491.259
  81  5757.332
  82  5713.138
  83  5556.979
  84  5800.09
  85  5747.105
  86  5836.7
  87  5734.413
  88  6033.161
  89  5799.519
  90  5588.111
  91  6170.833
  92  6256.568
  93  5819.971
  94  4963.008
  95  5123.691
  96  5239.747
  97  4849.941
  98  4911.75
  99  5055.261
 100  5358.719
 101  5229.058
 102  4764.533
 103  5006.342
 104  5153.771
 105  5073.281
 106  4962.629
 107  5521.32
 108  5224.708
 109  4668.265
 110  4588.935
 111  4670.359
 112  5017.888
 113  5165.276
 114  5345.025
 115  5486.012
 116  5425.628
 117  5332.44
 118  5506.314
 119  5657.954
 120  5810.525
 121  5787.392
 122  5277.565
 123  4907.791
 124  4722.246
 125  4914.677
 126  4762.466
 127  4867.71
 128  5120.309
 129  4883.915
 130  4829.167
 131  5308.744
 132  5769.949
 133  5856.507
 134  5499.368
 135  5791.69
 136  5762.222
 137  5754.387
 138  5520.626
 139  6236.837
 140  6609.707
 141  5994.663
 142  5970.409
 143  5446.378
 144  5661.765
 145  5989.981
 146  6177.912
 147  6229.621
 148  6052.971
 149  6100.094
 150  5940.797
 151  5493.436
 152  5513.3
 153  5373.72
 154  5187.622
 155  5699.096
 156  5501.76
 157  5112.767
 158  5370.93
 159  5301.162
 160  5081.601
 161  4921.361
 162  4624.368
 163  4961.708
 164  5232.582
 165  5297.075
 166  4916.54
 167  5559.987
 168  5512.106
 169  5874.027
 170  5541.786
 171  5407.882
 172  5801.653
 173  5812.375
 174  5749.211
 175  5665.65
 176  6061.086
 177  5926.294
 178  5766.215
 179  5620.011
 180  5204.482
 181  5353.855
 182  5402.216
 183  5228.559
 184  5120.903
 185  5254.109
 186  5653.271
 187  5548.767
 188  5391.961
 189  5705.328
 190  5827.25
 191  5633.853
 192  5755.324
 193  5880.711
 194  6178.68
 195  6405.802
 196  6175.883
 197  6216.349
 198  5962.036
 199  5678.752
 200  6036.033
 201  6465.223
 202  6626.073
 203  6466.917
 204  6321.218
 205  5896.647
 206  5334.892
 207  5500.285
 208  6190.813
 209  6163.662
 210  5368.972
 211  5372.324
 212  5334.71
 213  5412.229
 214  5343.537
 215  5139.875
 216  5408.799
 217  5132.707
 218  5266.418
 219  5214.139
 220  5345.115
 221  5311.573
 222  5698.383
 223  5451.384
 224  5764.373
 225  5581.586
 226  5296.332
 227  5341.208
 228  5281.062
 229  5416.95
 230  5698.807
 231  6065.069
 232  5850.954
 233  5647.626
 234  5721.576
 235  5478.391
 236  5459.587
 237  5585.564
 238  5624.575
 239  5617.393
 240  5515.732
 241  5453.821
 242  5958.808
 243  5852.072
 244  5886.866
 245  6221.725
 246  5749.509
 247  5405.972
 248  5453.814
 249  5396.391
 250  5364.164
 251  5321.724
 252  5341.46
 253  5480.089
 254  5150.31
 255  5386.002
 256  5206.688
 257  5067.521
 258  5461.87
 259  5402.612
 260  5788.913
 261  5558.08
 262  5460.576
 263  5107.338
 264  5382.42
 265  5274.917
 266  5403.614
 267  5399.194
 268  5082.808
 269  5099.545
 270  5012.551
 271  4770.542
 272  4937.981
 273  5497.588
 274  5811.747
 275  5856.551
 276  5713.304
 277  6078.058
 278  5694.83
 279  5460.075
 280  5953.266
 281  6162.439
 282  5986.895
 283  6283.489
 284  6254.216
 285  5760.588
 286  5331.704
 287  6142.99
 288  6500.248
 289  6268.128
 290  5831.645
 291  5648.043
 292  5782.776
 293  5431.259
 294  5533.771
 295  5417.425
 296  5364.218
 297  5046.757
 298  4789.96
 299  5000.005
 300  4452.847
 301  4543.943
 302  5064.791
 303  5597.031
 304  5473.928
 305  4807.42
 306  4831.761
 307  5266.618
 308  5980.646
 309  5620.85
 310  5387.989
 311  5030.574
 312  5316.137
 313  5164.755
 314  4901.287
 315  4788.072
 316  4707.061
 317  5170.933
 318  5283.604
 319  5216.589
 320  4653.561
 321  4636.458
 322  4948.038
 323  5647.882
 324  6591.201
 325  6943.042
 326  7262.878
 327  6733.411
 328  5911.045
 329  5265.193
 330  5221.316
 331  5267.191
 332  5108.281
 333  4910.611
 334  4630.762
 335  4504.874
 336  4525.201
 337  4818.242
 338  4409.997
 339  4616.992
 340  4672.152
 341  4316.056
 342  4409.009
 343  4623.272
 344  4800.56
 345  4742.48
 346  4827.935
 347  4958.389
 348  4953.294
 349  4550.774
 350  4524.928
 351  5029.492
 352  5383.433
 353  5636.211
 354  5638.291
 355  5529.97
 356  4963.676
 357  4633.88
 358  4710.232
 359  4564.562
 360  5088.952
 361  5530.224
 362  5450.735
 363  5046.809
 364  4379.057
 365  4527.822
 366  4537.605
 367  4554.083
 368  4652.522
 369  4991.099
 370  4685.746
 371  4289.938
 372  4397.275
 373  4534.859
 374  5043.72
 375  4998.117
 376  4571.563
 377  4564.459
 378  4724.959
 379  4307.285
 380  4166.838
 381  4532.663
 382  5126.192
 383  4866.329
 384  4109.581
 385  4217.484
 386  3887.111
 387  4032.946
 388  4471.975
 389  4406.035
 390  4478.263
 391  4482.903
 392  3887.95
 393  3818.953
 394  4022.615
 395  4016.991
 396  4570.549
 397  4929.938
 398  4416.921
 399  4368.411
 400  4083.555
 401  4157.383
 402  4476.009
 403  4902.246
 404  5051.071
 405  4653.093
 406  4125.706
 407  4136.714
 408  3815.323
 409  3858.128
 410  4527.517
 411  4756.081
 412  4818.645
 413  4394.964
 414  4233.533
 415  4248.103
 416  4130.848
 417  3973.708
 418  4461.227
 419  4817.67
 420  4355.095
 421  4033.602
 422  4309.409
 423  4231.914
 424  3864.847
 425  3972.958
 426  4041.432
 427  4272.957
 428  4414.635
 429  4536.718
 430  4902.885
 431  4925.209
 432  4886.396
 433  4891.031
 434  4701.573
 435  4759.228
 436  4907.117
 437  5423.43
 438  5459.03
 439  5086.338
 440  5283.094
 441  5437.921
 442  4832.403
 443  4911.112
 444  5220.207
 445  5518.897
 446  5428.247
 447  5412.74
 448  5584.29
 449  5247.219
 450  5034.58
 451  5088.355
 452  5028.925
 453  5188.081
 454  5072.688
 455  4665.269
 456  4424.257
 457  4489.209
 458  4619.118
 459  4820.695
 460  5070.929
 461  5356.517
 462  5536
 463  5302.335
 464  4863.663
 465  4816.121
 466  4654.512
 467  4591.578
 468  4568.487
 469  5059.447
 470  5519.321
 471  5289.698
 472  5342.746
 473  5147.572
 474  4670.516
 475  4943.635
 476  5066.239
 477  5274.129
 478  5343.615
 479  5275.218
 480  5167.245
 481  4998.217
 482  5388.152
 483  5499.458
 484  5218.894
 485  4805.619
 486  4979.76
 487  5650.73
 488  5361.871
 489  5417.7
 490  5294.788
 491  5317.731
 492  5377.498
 493  5681.667
 494  6283.134
 495  5710.966
 496  5518.529
 497  5593.081
 498  5367.274
 499  5193.829
 500  5110.852
 501  5372.476
 502  5355.226
 503  5489.738
 504  5636.299
 505  5590.566
 506  5408.509
 507  5603.022
 508  5869.808
 509  5674.759
 510  5219.333
 511  5276.806
