# Input file       =  1184056858.110486_cleaned.dat
# Candidate        =  PSR_0332+5434
# Telescope        =  AR
# Epoch_topo       =  57948.362003593589
# Epoch_bary       =  N/A
# T_sample         =  0.002
# Data Folded      =  7340032
# Data Avg         =  0.189337570251415
# Data StdDev      =  4.68225900072534 
# Profile Bins     =  256
# Profile Avg      =  5428.5696421576  
# Profile StdDev   =  792.837944954434 
# Reduced chi-sqr  =  0.860
# Prob(Noise)      <  0.948   (~0.0 sigma)
# P_topo (ms)      =  714.479683408949  +/- 0.000433
# P'_topo (s/s)    =  -0                +/- 2.28e-10
# P''_topo (s/s^2) =  0                 +/- 1.01e-13
# P_bary (ms)      =  N/A
# P'_bary (s/s)    =  N/A
# P''_bary (s/s^2) =  N/A
# P_orb (s)        =  N/A
# asin(i)/c (s)    =  N/A
# eccentricity     =  N/A
# w (rad)          =  N/A
# T_peri           =  N/A
######################################################
   0  5664.415
   1  5912.193
   2  5561.172
   3  5383.759
   4  5047.178
   5  4047.377
   6  4639.909
   7  4597.689
   8  4579.228
   9  4924.002
  10  5318.879
  11  4935.694
  12  5719.608
  13  6283.958
  14  5237.4
  15  4631.411
  16  5019.926
  17  5700.743
  18  5917.423
  19  5469.988
  20  5469.556
  21  5071.671
  22  5111.706
  23  4585.956
  24  4824.8
  25  4545.812
  26  5323.525
  27  4910.849
  28  5275.626
  29  5608.306
  30  5795.604
  31  5823.72
  32  6129.422
  33  5667.127
  34  5103.361
  35  5309.25
  36  5008.99
  37  5824.945
  38  6513.276
  39  6560.56
  40  6430.801
  41  6918.924
  42  6682.171
  43  6320.487
  44  5989.885
  45  6471.631
  46  6393.625
  47  6386.821
  48  5765.204
  49  5548.708
  50  6017.255
  51  5724.039
  52  5609.282
  53  5154.633
  54  4477.795
  55  4672.741
  56  3828.356
  57  4500.74
  58  5014.4
  59  5603.029
  60  5415.817
  61  5361.758
  62  5682.926
  63  5603.983
  64  5303.184
  65  5034.59
  66  5288.182
  67  4783.121
  68  4783.677
  69  4420.816
  70  4159.961
  71  4333.734
  72  4929.379
  73  5157.13
  74  5270.869
  75  5420.88
  76  5226.722
  77  5843.005
  78  6278.728
  79  5984.298
  80  6441.564
  81  5502.468
  82  5484.957
  83  5621.274
  84  5489.63
  85  4734.209
  86  4890.95
  87  5500.635
  88  5563.211
  89  5835.593
  90  5566.48
  91  5590.304
  92  5580.677
  93  6531.773
  94  5758.13
  95  5709.977
  96  5721.484
  97  6130.295
  98  5100.352
  99  5224.916
 100  5552.372
 101  5185.554
 102  4743.671
 103  4625.6
 104  4701.601
 105  4925.069
 106  5008.833
 107  4946.347
 108  5166.5
 109  5812.255
 110  6071.173
 111  5170.302
 112  6157.638
 113  6223.863
 114  5583.921
 115  4853.429
 116  5627.936
 117  6463.054
 118  5470.248
 119  6085.763
 120  5995.85
 121  5613.342
 122  5385.373
 123  5667.643
 124  5581.695
 125  5557.314
 126  5177.133
 127  6053.117
 128  6843.153
 129  5656.566
 130  6169.976
 131  5396.761
 132  5792.891
 133  5359.187
 134  5995.025
 135  5302.264
 136  5202.544
 137  5700.711
 138  5296.874
 139  5111.374
 140  5162.677
 141  5067.422
 142  5799.832
 143  5852
 144  5652.181
 145  5627.982
 146  5678.999
 147  5220.698
 148  5039.448
 149  5785.293
 150  5354.498
 151  4691.15
 152  4487.315
 153  4834.259
 154  4714.581
 155  4241.957
 156  4257.48
 157  5356.007
 158  5521.928
 159  4727.885
 160  5477.685
 161  6083.182
 162  8107.31
 163  9031.335
 164  6451.528
 165  5138.425
 166  4633.857
 167  4679.833
 168  4843.632
 169  5040.471
 170  5548.555
 171  5523.761
 172  5164.171
 173  5438.659
 174  5515.45
 175  4970.177
 176  4948.002
 177  5301.794
 178  4668.103
 179  5222.14
 180  4387.023
 181  5591.755
 182  4921.084
 183  5085.868
 184  4915.953
 185  4769.074
 186  4093.967
 187  5238.652
 188  5385.92
 189  4864.305
 190  4958.531
 191  5284.627
 192  5582.356
 193  4778.176
 194  5662.798
 195  5462.96
 196  5515.356
 197  5538.706
 198  5420.365
 199  5121.798
 200  5835.289
 201  5316.174
 202  5657.465
 203  5353.559
 204  5566.594
 205  5848.277
 206  6864.829
 207  6317.614
 208  5805.224
 209  5939.336
 210  5725.27
 211  6177.385
 212  6006.835
 213  5694.425
 214  5956.281
 215  5793.1
 216  5932.229
 217  6045.06
 218  5987.984
 219  5582.426
 220  5388.721
 221  5377.025
 222  4974.812
 223  5178.389
 224  5692.625
 225  5681.095
 226  5648.608
 227  4898.167
 228  5218.008
 229  5266.021
 230  5267.096
 231  5660.791
 232  5323.072
 233  5459.607
 234  5822.273
 235  6080.721
 236  6127.449
 237  5878.713
 238  5599.285
 239  5179.903
 240  4744.802
 241  3335.83
 242  3748.067
 243  4878.087
 244  4959.365
 245  5220.21
 246  4985.906
 247  4912.448
 248  5385.441
 249  6034.713
 250  6110.028
 251  5609.56
 252  5531.193
 253  5430.345
 254  5645.466
 255  4551.585
