# Input file       =  1184458115.111231_cleaned.dat
# Candidate        =  PSR_0332+5434
# Telescope        =  AR
# Epoch_topo       =  57953.006181842953
# Epoch_bary       =  N/A
# T_sample         =  0.002
# Data Folded      =  7208960
# Data Avg         =  0.0221703388244682
# Data StdDev      =  1.00000965481512 
# Profile Bins     =  512
# Profile Avg      =  312.180083388073 
# Profile StdDev   =  118.660321425935 
# Reduced chi-sqr  =  1.379
# Prob(Noise)      <  2.5e-08   (~5.5 sigma)
# P_topo (ms)      =  714.476336713273  +/- 0.00018
# P'_topo (s/s)    =  -0                +/- 9.65e-11
# P''_topo (s/s^2) =  0                 +/- 4.34e-14
# P_bary (ms)      =  N/A
# P'_bary (s/s)    =  N/A
# P''_bary (s/s^2) =  N/A
# P_orb (s)        =  N/A
# asin(i)/c (s)    =  N/A
# eccentricity     =  N/A
# w (rad)          =  N/A
# T_peri           =  N/A
######################################################
   0  1108.536
   1  981.85
   2  780.3478
   3  420.9322
   4  324.4219
   5  254.3797
   6  307.0018
   7  278.3835
   8  340.0436
   9  432.8651
  10  338.5442
  11  249.1614
  12  290.6132
  13  261.317
  14  287.9605
  15  317.0892
  16  275.9483
  17  310.8559
  18  420.0155
  19  386.0309
  20  241.3659
  21  236.4116
  22  398.484
  23  271.0959
  24  291.354
  25  357.0848
  26  454.5414
  27  366.1913
  28  403.5006
  29  455.6324
  30  389.5273
  31  338.2744
  32  191.9541
  33  284.0496
  34  416.528
  35  462.7941
  36  314.239
  37  418.5424
  38  397.5666
  39  374.9986
  40  385.5072
  41  387.0845
  42  345.0225
  43  329.9369
  44  332.5957
  45  316.2754
  46  281.8266
  47  343.4273
  48  332.0281
  49  243.1876
  50  143.8407
  51  256.4151
  52  366.599
  53  332.4707
  54  337.8428
  55  269.8122
  56  380.0388
  57  252.5086
  58  222.7444
  59  276.278
  60  311.3123
  61  426.7646
  62  436.4739
  63  357.3792
  64  282.8235
  65  219.621
  66  217.2487
  67  149.0595
  68  349.2284
  69  291.3315
  70  207.4797
  71  329.8974
  72  295.0661
  73  166.9197
  74  380.4535
  75  375.4514
  76  282.8949
  77  321.4874
  78  313.963
  79  219.6098
  80  342.7432
  81  238.439
  82  194.0675
  83  257.4193
  84  342.9699
  85  222.0027
  86  160.8403
  87  213.2031
  88  262.8921
  89  262.0163
  90  227.9406
  91  230.4861
  92  304.4498
  93  273.6602
  94  294.4341
  95  335.2856
  96  451.7106
  97  340.3871
  98  209.0087
  99  248.7776
 100  286.4872
 101  225.5733
 102  257.7828
 103  369.1115
 104  358.3555
 105  361.678
 106  364.6939
 107  368.5705
 108  295.7537
 109  217.743
 110  332.3854
 111  408.3485
 112  417.9144
 113  334.2588
 114  424.0608
 115  289.305
 116  330.7206
 117  291.8918
 118  259.8722
 119  385.1453
 120  357.3875
 121  389.3541
 122  206.2332
 123  148.6885
 124  189.6284
 125  216.5509
 126  334.0037
 127  237.5886
 128  203.117
 129  57.4906
 130  284.302
 131  353.2091
 132  273.2192
 133  341.9907
 134  317.6875
 135  341.8604
 136  389.9444
 137  358.7983
 138  271.9075
 139  269.5462
 140  251.2041
 141  341.471
 142  359.8689
 143  310.0152
 144  312.6198
 145  292.8518
 146  239.8312
 147  240.6084
 148  162.4398
 149  232.8069
 150  315.0128
 151  284.8336
 152  233.9893
 153  109.1792
 154  225.7657
 155  353.8985
 156  303.6333
 157  328.8259
 158  316.3062
 159  194.7612
 160  128.281
 161  174.263
 162  305.373
 163  341.7164
 164  304.4561
 165  270.0378
 166  367.3294
 167  315.5897
 168  278.4337
 169  126.0842
 170  207.0233
 171  279.3942
 172  227.1676
 173  269.5141
 174  514.4742
 175  486.9344
 176  349.9511
 177  387.4839
 178  251.9584
 179  170.1562
 180  117.2461
 181  256.3133
 182  265.7367
 183  233.612
 184  272.2273
 185  182.3301
 186  178.0789
 187  331.2075
 188  328.0703
 189  315.4878
 190  341.3535
 191  300.1754
 192  224.6397
 193  217.7318
 194  214.7574
 195  317.6838
 196  367.3118
 197  293.249
 198  294.1205
 199  297.6825
 200  275.2385
 201  244.9422
 202  175.0181
 203  335.0645
 204  278.1357
 205  150.7762
 206  220.6067
 207  364.0588
 208  306.765
 209  191.9771
 210  246.5384
 211  378.779
 212  304.3259
 213  251.0411
 214  437.03
 215  401.9272
 216  380.0248
 217  239.5913
 218  224.4415
 219  257.1295
 220  231.109
 221  208.5885
 222  297.4146
 223  341.1163
 224  208.9101
 225  321.6112
 226  399.6739
 227  267.5219
 228  356.8079
 229  287.0664
 230  228.856
 231  225.8591
 232  251.8542
 233  229.9635
 234  340.9381
 235  451.2112
 236  305.5005
 237  298.8101
 238  260.8878
 239  248.0285
 240  325.221
 241  376.8347
 242  457.4764
 243  299.1237
 244  178.0047
 245  133.7691
 246  220.8999
 247  255.4823
 248  253.3794
 249  335.5097
 250  354.2391
 251  271.7003
 252  153.3294
 253  95.93547
 254  142.3472
 255  274.75
 256  294.0053
 257  284.3563
 258  177.2158
 259  331.7849
 260  242.6195
 261  196.6285
 262  255.4513
 263  184.5386
 264  115.8328
 265  295.2401
 266  286.8242
 267  381.4719
 268  388.1707
 269  348.0013
 270  203.2889
 271  295.5241
 272  269.2451
 273  292.167
 274  310.319
 275  305.8732
 276  295.3866
 277  249.6981
 278  207.1062
 279  229.8533
 280  219.382
 281  244.4618
 282  332.3
 283  270.9908
 284  169.5974
 285  244.5914
 286  293.2414
 287  323.2154
 288  367.1024
 289  260.909
 290  311.431
 291  407.884
 292  319.8379
 293  337.1426
 294  418.7348
 295  356.3698
 296  301.7953
 297  240.4414
 298  336.1269
 299  348.8117
 300  274.6015
 301  296.8011
 302  272.4218
 303  181.2776
 304  255.2259
 305  258.697
 306  294.4471
 307  386.438
 308  402.8784
 309  307.8924
 310  325.4651
 311  254.1084
 312  226.8046
 313  265.3305
 314  382.9641
 315  369.5314
 316  387.9643
 317  254.149
 318  352.6623
 319  419.551
 320  297.2632
 321  359.4665
 322  325.1684
 323  337.9807
 324  342.0635
 325  324.6413
 326  373.8547
 327  276.0157
 328  252.0231
 329  300.4836
 330  361.2875
 331  328.3492
 332  385.6525
 333  422.0242
 334  287.1625
 335  292.8786
 336  345.3511
 337  269.2707
 338  305.8921
 339  307.102
 340  280.2612
 341  350.0388
 342  335.5167
 343  434.6472
 344  510.7518
 345  505.8553
 346  427.3513
 347  304.1714
 348  285.2526
 349  270.8217
 350  256.0043
 351  282.5898
 352  415.1191
 353  339.1687
 354  255.9973
 355  279.2118
 356  306.7816
 357  311.5674
 358  376.8575
 359  372.4772
 360  251.827
 361  115.8072
 362  247.6915
 363  386.7557
 364  331.3969
 365  326.1562
 366  301.4055
 367  257.1545
 368  357.5298
 369  381.519
 370  337.5439
 371  369.7469
 372  321.7641
 373  418.5287
 374  314.9962
 375  266.2974
 376  211.7561
 377  266.9796
 378  375.5328
 379  258.507
 380  359.4829
 381  391.1081
 382  341.8071
 383  247.3302
 384  319.1529
 385  338.0134
 386  278.1975
 387  323.1391
 388  315.1073
 389  243.6876
 390  292.4903
 391  331.9168
 392  241.1796
 393  299.1869
 394  342.8095
 395  300.4062
 396  215.0112
 397  358.5159
 398  402.3935
 399  356.2215
 400  347.4232
 401  317.9799
 402  293.2407
 403  233.8951
 404  305.4272
 405  413.5449
 406  435.2411
 407  385.6377
 408  436.9853
 409  462.9455
 410  411.16
 411  311.1319
 412  277.2334
 413  279.2948
 414  222.8053
 415  294.7467
 416  304.0875
 417  246.6488
 418  240.7111
 419  245.3554
 420  276.4434
 421  311.5875
 422  323.2241
 423  308.5061
 424  323.0954
 425  206.0609
 426  154.6352
 427  171.6432
 428  234.5126
 429  380.9668
 430  342.8337
 431  340.8561
 432  257.7509
 433  316.0024
 434  285.9524
 435  372.8345
 436  475.4463
 437  468.3828
 438  376.4406
 439  409.661
 440  383.1169
 441  325.4561
 442  412.5613
 443  414.7925
 444  376.98
 445  313.5104
 446  309.4422
 447  283.9036
 448  278.0861
 449  328.8255
 450  236.9448
 451  263.0857
 452  320.8271
 453  376.5078
 454  356.3732
 455  345.2482
 456  519.8206
 457  312.8012
 458  251.5113
 459  282.5672
 460  281.2931
 461  265.8639
 462  290.0339
 463  272.8887
 464  197.5612
 465  276.267
 466  274.8666
 467  252.7794
 468  248.1996
 469  330.4091
 470  328.6025
 471  260.2951
 472  288.9464
 473  400.5861
 474  311.3587
 475  213.5007
 476  325.7972
 477  293.8347
 478  327.713
 479  413.4918
 480  393.5269
 481  308.4601
 482  395.6284
 483  332.8426
 484  250.186
 485  269.479
 486  446.8523
 487  376.0754
 488  343.1912
 489  393.1599
 490  303.5873
 491  265.1536
 492  240.2475
 493  455.869
 494  400.0773
 495  338.7184
 496  328.2359
 497  349.9698
 498  294.9308
 499  311.0782
 500  333.2428
 501  334.3278
 502  177.1068
 503  286.9963
 504  492.365
 505  484.6512
 506  443.3809
 507  393.8132
 508  532.837
 509  652.757
 510  856.8019
 511  1094.126
