# Input file       =  1184903540.128384_cleaned.dat
# Candidate        =  PSR_0332+5434
# Telescope        =  AR
# Epoch_topo       =  57958.161563985930
# Epoch_bary       =  N/A
# T_sample         =  0.002
# Data Folded      =  7340032
# Data Avg         =  0.032819082628953
# Data StdDev      =  1.00014556496707 
# Profile Bins     =  512
# Profile Avg      =  470.297906825338 
# Profile StdDev   =  119.750465312263 
# Reduced chi-sqr  =  1.363
# Prob(Noise)      <  8.32e-08   (~5.2 sigma)
# P_topo (ms)      =  714.473333381643  +/- 0.000499
# P'_topo (s/s)    =  -0                +/- 2.64e-10
# P''_topo (s/s^2) =  0                 +/- 1.16e-13
# P_bary (ms)      =  N/A
# P'_bary (s/s)    =  N/A
# P''_bary (s/s^2) =  N/A
# P_orb (s)        =  N/A
# asin(i)/c (s)    =  N/A
# eccentricity     =  N/A
# w (rad)          =  N/A
# T_peri           =  N/A
######################################################
   0  460.4623
   1  382.2026
   2  522.5213
   3  575.9181
   4  601.4116
   5  578.8834
   6  542.7466
   7  543.8786
   8  498.579
   9  511.4784
  10  397.7137
  11  326.1532
  12  351.0807
  13  397.7779
  14  499.8038
  15  495.8011
  16  523.6586
  17  461.5109
  18  429.4372
  19  493.7536
  20  483.4508
  21  620.7044
  22  605.9436
  23  540.7888
  24  531.8904
  25  493.38
  26  601.1401
  27  536.6127
  28  490.8449
  29  507.0367
  30  483.3372
  31  592.7111
  32  494.2467
  33  471.1393
  34  543.2289
  35  467.1974
  36  402.1616
  37  385.7604
  38  481.2888
  39  512.6434
  40  493.5635
  41  397.9111
  42  302.8851
  43  365.8827
  44  463.2474
  45  461.5445
  46  482.1431
  47  464.3875
  48  391.6873
  49  409.4483
  50  453.9114
  51  520.5014
  52  473.222
  53  484.6411
  54  451.9054
  55  471.921
  56  469.3089
  57  483.4359
  58  484.6136
  59  525.133
  60  541.9088
  61  480.9431
  62  545.8576
  63  545.242
  64  455.6334
  65  455.5411
  66  568.1419
  67  633.0815
  68  566.1982
  69  563.1699
  70  610.6091
  71  575.4456
  72  621.3038
  73  621.7796
  74  614.0906
  75  596.2762
  76  517.735
  77  487.2923
  78  474.528
  79  458.2758
  80  426.4594
  81  459.5479
  82  545.6705
  83  560.1312
  84  554.3087
  85  554.876
  86  389.0877
  87  458.6713
  88  507.982
  89  488.7434
  90  468.5422
  91  445.7486
  92  417.6312
  93  478.281
  94  413.29
  95  438.2321
  96  453.5373
  97  444.3213
  98  474.6306
  99  388.5123
 100  454.5152
 101  442.0971
 102  459.9048
 103  480.9877
 104  586.0889
 105  583.8785
 106  436.8875
 107  496.0766
 108  531.1338
 109  509.4338
 110  409.5797
 111  466.6128
 112  541.832
 113  503.7789
 114  414.3532
 115  504.0163
 116  442.6332
 117  561.9579
 118  566.3798
 119  453.1059
 120  406.9237
 121  427.5548
 122  467.7911
 123  452.5455
 124  505.5133
 125  540.6011
 126  513.7205
 127  469.3786
 128  471.5168
 129  554.0656
 130  516.2153
 131  340.5031
 132  468.4532
 133  560.9782
 134  492.0267
 135  442.2575
 136  480.4006
 137  504.4774
 138  599.1275
 139  483.0854
 140  407.2676
 141  395.2499
 142  482.8695
 143  552.2523
 144  491.4878
 145  529.0259
 146  514.7794
 147  439.8532
 148  414.1156
 149  444.4814
 150  466.5233
 151  535.9741
 152  512.905
 153  425.6014
 154  457.1696
 155  457.7196
 156  405.7718
 157  539.4381
 158  565.4178
 159  499.7444
 160  446.7172
 161  476.2903
 162  381.8226
 163  338.8044
 164  553.2147
 165  474.6699
 166  418.8241
 167  428.1346
 168  398.2019
 169  409.5281
 170  392.1845
 171  475.4257
 172  425.3307
 173  359.7202
 174  384.4655
 175  474.5269
 176  472.7159
 177  446.6771
 178  411.5025
 179  496.9829
 180  470.9861
 181  461.5089
 182  471.1332
 183  457.717
 184  408.3818
 185  387.5344
 186  419.0638
 187  326.2873
 188  328.5533
 189  414.2282
 190  365.7793
 191  421.1974
 192  379.5323
 193  432.1723
 194  359.7966
 195  313.9077
 196  269.6433
 197  292.6729
 198  317.1905
 199  401.9134
 200  585.2149
 201  453.154
 202  285.4993
 203  307.3573
 204  359.2762
 205  388.9999
 206  401.8387
 207  440.3507
 208  473.5762
 209  431.8612
 210  407.2599
 211  436.9023
 212  418.6459
 213  489.1426
 214  436.5664
 215  421.7785
 216  391.5855
 217  425.038
 218  557.9838
 219  548.3337
 220  405.4144
 221  434.4315
 222  324.501
 223  328.1448
 224  379.8618
 225  396.1419
 226  518.8235
 227  424.0654
 228  454.8378
 229  455.832
 230  460.1298
 231  456.9377
 232  480.204
 233  469.9649
 234  519.6034
 235  489.545
 236  390.3122
 237  454.73
 238  460.1455
 239  404.7312
 240  424.2966
 241  401.9699
 242  445.8001
 243  554.2618
 244  596.5772
 245  522.4852
 246  353.2816
 247  324.7332
 248  339.8015
 249  349.313
 250  353.9886
 251  476.4829
 252  600.5087
 253  440.8271
 254  413.5848
 255  400.2324
 256  437.0551
 257  429.9507
 258  313.7379
 259  397.1995
 260  505.6542
 261  513.9679
 262  418.9723
 263  431.2841
 264  475.6
 265  309.1237
 266  331.8688
 267  397.6691
 268  359.1364
 269  398.4315
 270  332.3745
 271  409.6069
 272  414.9364
 273  371.0503
 274  384.7397
 275  358.5903
 276  533.6541
 277  579.8298
 278  476.6826
 279  402.5836
 280  348.3693
 281  497.112
 282  514.0193
 283  547.0992
 284  492.1225
 285  500.096
 286  552.2759
 287  505.2576
 288  497.7438
 289  553.1584
 290  592.0612
 291  560.1249
 292  616.5581
 293  697.0151
 294  732.7983
 295  785.1868
 296  770.9419
 297  954.2715
 298  1199.526
 299  1334.93
 300  1178.674
 301  941.9603
 302  655.2495
 303  567.0664
 304  554.7267
 305  491.6684
 306  339.3044
 307  452.9962
 308  489.7873
 309  424.4596
 310  347.2604
 311  417.6388
 312  530.0218
 313  591.8073
 314  543.4352
 315  564.6823
 316  518.6049
 317  456.6827
 318  446.2285
 319  504.0493
 320  466.1482
 321  405.7614
 322  386.3532
 323  386.4168
 324  330.7133
 325  412.1097
 326  497.668
 327  534.0714
 328  411.1735
 329  362.4011
 330  445.1364
 331  338.0539
 332  367.81
 333  352.499
 334  393.1358
 335  401.5162
 336  341.6889
 337  408.8009
 338  461.4423
 339  381.2282
 340  401.2726
 341  404.0137
 342  317.357
 343  287.6222
 344  333.2099
 345  476.4462
 346  451.3849
 347  303.195
 348  451.5604
 349  553.2335
 350  454.1212
 351  307.2767
 352  343.8307
 353  400.4219
 354  312.1118
 355  308.6035
 356  404.7383
 357  440.6336
 358  484.7572
 359  469.5537
 360  313.58
 361  423.7732
 362  572.9361
 363  552.2136
 364  455.7318
 365  426.7337
 366  475.2646
 367  473.6807
 368  507.5161
 369  585.4286
 370  469.5847
 371  383.0897
 372  431.916
 373  505.3365
 374  492.6925
 375  422.982
 376  471.3505
 377  501.1914
 378  503.0659
 379  360.6706
 380  252.4245
 381  328.2348
 382  537.9874
 383  522.6128
 384  438.3867
 385  507.5322
 386  431.5224
 387  407.3363
 388  450.8896
 389  545.8185
 390  576.0009
 391  432.5725
 392  454.3463
 393  593.1691
 394  499.8926
 395  500.1875
 396  465.2701
 397  466.1825
 398  452.497
 399  347.1825
 400  428.7104
 401  493.5497
 402  462.2958
 403  429.6291
 404  491.9034
 405  494.8217
 406  463.2771
 407  409.7813
 408  427.6672
 409  412.529
 410  447.7743
 411  458.0695
 412  400.3725
 413  317.0415
 414  419.2611
 415  403.2332
 416  441.1244
 417  293.8198
 418  378.0644
 419  389.4876
 420  403.6724
 421  507.9848
 422  598.7927
 423  504.9152
 424  418.6512
 425  496.0687
 426  472.3308
 427  465.8883
 428  408.9384
 429  354.2003
 430  449.3586
 431  397.7586
 432  446.3829
 433  495.6605
 434  483.1094
 435  556.8609
 436  559.783
 437  526.6907
 438  475.7031
 439  429.1737
 440  432.3312
 441  449.0056
 442  475.2944
 443  608.8492
 444  540.5088
 445  410.7754
 446  466.4521
 447  528.7551
 448  504.8359
 449  468.7014
 450  511.4014
 451  655.7244
 452  446.1504
 453  419.8979
 454  541.9854
 455  485.7169
 456  610.5605
 457  503.3562
 458  444.5782
 459  445.9045
 460  433.094
 461  416.4761
 462  488.0296
 463  457.508
 464  453.7563
 465  474.1554
 466  502.0772
 467  537.8664
 468  455.236
 469  485.5903
 470  499.8093
 471  449.5458
 472  473.8839
 473  490.3904
 474  458.7663
 475  450.136
 476  430.7108
 477  510.5897
 478  445.138
 479  399.2919
 480  454.5897
 481  465.4613
 482  496.3954
 483  480.1818
 484  518.3458
 485  447.7007
 486  398.7644
 487  508.2809
 488  445.6139
 489  515.1415
 490  458.0945
 491  387.1777
 492  417.4854
 493  432.0464
 494  487.4826
 495  538.0867
 496  522.1091
 497  545.5787
 498  518.4264
 499  549.038
 500  500.663
 501  527.7542
 502  438.2086
 503  460.8293
 504  549.1077
 505  461.9781
 506  500.8531
 507  613.6646
 508  609.3939
 509  571.7629
 510  525.0045
 511  486.529
