# Input file       =  1184731253.101969_cleaned.dat
# Candidate        =  PSR_0332+5434
# Telescope        =  AR
# Epoch_topo       =  57956.167501180200
# Epoch_bary       =  N/A
# T_sample         =  0.002
# Data Folded      =  7340032
# Data Avg         =  0.0298849167435483
# Data StdDev      =  1.00002676799039 
# Profile Bins     =  512
# Profile Avg      =  428.221658868334 
# Profile StdDev   =  119.736241389533 
# Reduced chi-sqr  =  1.669
# Prob(Noise)      <  1.51e-19   (~9.0 sigma)
# P_topo (ms)      =  714.4744561871    +/- 0.000335
# P'_topo (s/s)    =  -0                +/- 1.77e-10
# P''_topo (s/s^2) =  0                 +/- 7.81e-14
# P_bary (ms)      =  N/A
# P'_bary (s/s)    =  N/A
# P''_bary (s/s^2) =  N/A
# P_orb (s)        =  N/A
# asin(i)/c (s)    =  N/A
# eccentricity     =  N/A
# w (rad)          =  N/A
# T_peri           =  N/A
######################################################
   0  1183.843
   1  1090.831
   2  894.4652
   3  812.451
   4  657.397
   5  560.2626
   6  526.1968
   7  415.2946
   8  357.436
   9  412.9771
  10  476.5931
  11  450.2305
  12  460.2708
  13  467.1223
  14  491.0129
  15  496.4545
  16  414.6776
  17  441.9028
  18  407.2312
  19  388.3969
  20  340.224
  21  456.0332
  22  365.3333
  23  418.1131
  24  536.3019
  25  494.7911
  26  507.422
  27  429.7004
  28  432.9457
  29  504.2842
  30  421.498
  31  324.6244
  32  327.8357
  33  255.3341
  34  368.0925
  35  388.2883
  36  365.2031
  37  310.5049
  38  303.5002
  39  312.3187
  40  328.2016
  41  407.9421
  42  358.706
  43  394.1773
  44  358.9785
  45  356.4873
  46  341.8312
  47  395.692
  48  422.4431
  49  282.0089
  50  265.3272
  51  282.7339
  52  319.8797
  53  364.8293
  54  469.4581
  55  432.1862
  56  407.662
  57  301.5395
  58  370.292
  59  442.4096
  60  471.3077
  61  378.6428
  62  357.7643
  63  422.2173
  64  451.1711
  65  411.8506
  66  379.0386
  67  359.1531
  68  401.4192
  69  466.5306
  70  370.4966
  71  442.1994
  72  437.277
  73  489.7273
  74  468.5598
  75  332.6837
  76  373.9766
  77  462.6371
  78  439.0505
  79  521.1613
  80  491.6404
  81  467.346
  82  484.5819
  83  498.0349
  84  488.4817
  85  484.4688
  86  346.7161
  87  356.596
  88  445.6283
  89  442.3682
  90  512.7691
  91  483.95
  92  454.9622
  93  448.6086
  94  422.9431
  95  407.3155
  96  340.327
  97  267.9858
  98  303.8343
  99  393.274
 100  342.7195
 101  295.7576
 102  368.112
 103  304.7459
 104  362.5632
 105  393.0972
 106  435.1647
 107  436.5758
 108  353.928
 109  225.1685
 110  218.3395
 111  282.7891
 112  344.2777
 113  440.6457
 114  402.8105
 115  350.4684
 116  340.2655
 117  377.501
 118  393.7427
 119  452.3795
 120  516.5688
 121  345.612
 122  356.3904
 123  474.63
 124  452.1188
 125  409.6703
 126  380.1714
 127  367.2103
 128  373.1757
 129  323.8975
 130  431.9926
 131  409.7409
 132  350.5026
 133  279.4073
 134  326.0389
 135  523.265
 136  341.7404
 137  399.6153
 138  350.5739
 139  409.9272
 140  497.1091
 141  387.5912
 142  371.7576
 143  436.9451
 144  405.2838
 145  356.3318
 146  440.0079
 147  419.5665
 148  343.7492
 149  390.499
 150  428.0083
 151  333.5887
 152  325.6217
 153  306.5769
 154  397.8727
 155  489.9511
 156  511.9685
 157  326.4682
 158  349.1369
 159  477.0295
 160  522.7187
 161  458.0579
 162  551.399
 163  480.5004
 164  372.9779
 165  450.8256
 166  648.1595
 167  599.1398
 168  512.1512
 169  468.4835
 170  447.4069
 171  509.2711
 172  535.6688
 173  572.6937
 174  613.608
 175  524.0313
 176  544.2283
 177  537.5926
 178  652.0092
 179  640.129
 180  502.6313
 181  504.6044
 182  553.5784
 183  462.8995
 184  539.4686
 185  517.8105
 186  585.2897
 187  508.5654
 188  423.7415
 189  434.7158
 190  453.9535
 191  384.6914
 192  333.0375
 193  449.4654
 194  374.2818
 195  318.3015
 196  344.6345
 197  491.705
 198  472.7712
 199  424.6198
 200  382.7545
 201  397.2033
 202  393.3569
 203  237.4099
 204  339.5027
 205  385.0196
 206  392.0155
 207  293.1159
 208  305.3255
 209  428.8949
 210  378.5664
 211  344.2578
 212  269.5957
 213  271.5282
 214  454.4614
 215  483.9486
 216  381.4174
 217  346.383
 218  320.1997
 219  326.8738
 220  357.2159
 221  314.8636
 222  225.9586
 223  242.7066
 224  390.0585
 225  360.2415
 226  386.964
 227  413.9239
 228  337.552
 229  189.0102
 230  362.8206
 231  392.1891
 232  377.1181
 233  319.5292
 234  303.6128
 235  425.9692
 236  477.4765
 237  437.3983
 238  344.2815
 239  354.2365
 240  401.4427
 241  366.5595
 242  280.9594
 243  330.5448
 244  352.0747
 245  348.9602
 246  387.2584
 247  446.6523
 248  258.2443
 249  363.0552
 250  384.8849
 251  411.3633
 252  379.6088
 253  340.7792
 254  378.1682
 255  329.7191
 256  330.7589
 257  298.8534
 258  294.4735
 259  321.9485
 260  251.8385
 261  248.3451
 262  298.3704
 263  429.2645
 264  372.7484
 265  287.368
 266  346.1691
 267  340.9087
 268  315.3859
 269  218.337
 270  301.597
 271  518.6777
 272  390.2869
 273  305.7119
 274  374.9629
 275  401.6694
 276  396.1089
 277  373.0416
 278  452.9869
 279  432.455
 280  359.5803
 281  238.4416
 282  425.028
 283  433.4102
 284  350.3484
 285  437.1711
 286  340.4115
 287  323.6779
 288  253.9898
 289  461.8312
 290  498.7887
 291  507.489
 292  526.395
 293  592.8839
 294  477.7388
 295  325.4924
 296  302.4133
 297  331.0884
 298  413.8349
 299  373.3586
 300  381.1132
 301  421.5766
 302  373.1979
 303  350.935
 304  506.8182
 305  397.5869
 306  278.0021
 307  417.1073
 308  242.6198
 309  356.8241
 310  415.5401
 311  378.2155
 312  361.1175
 313  322.5968
 314  452.4685
 315  455.5984
 316  473.5999
 317  437.5904
 318  494.1478
 319  480.8121
 320  405.7868
 321  295.5905
 322  498.1796
 323  523.6709
 324  377.7487
 325  398.3319
 326  493.3483
 327  473.1548
 328  375.4951
 329  346.2646
 330  448.193
 331  425.4633
 332  348.2679
 333  350.5454
 334  322.2073
 335  213.7575
 336  250.1295
 337  411.0538
 338  406.9443
 339  248.6877
 340  286.9073
 341  439.6161
 342  407.413
 343  380.9661
 344  283.6643
 345  416.818
 346  470.7529
 347  356.3669
 348  426.404
 349  389.0005
 350  343.8974
 351  337.5235
 352  277.6311
 353  227.48
 354  290.9789
 355  349.6228
 356  488.4542
 357  563.7623
 358  376.8887
 359  331.6822
 360  406.8328
 361  390.3981
 362  390.3464
 363  365.0464
 364  406.8596
 365  546.7797
 366  422.7508
 367  437.7492
 368  392.8822
 369  422.2222
 370  476.2955
 371  412.9827
 372  491.9936
 373  564.6854
 374  509.0549
 375  534.1067
 376  554.8221
 377  554.6427
 378  429.1362
 379  486.5608
 380  514.7672
 381  524.6438
 382  575.0499
 383  540.0605
 384  528.458
 385  499.9089
 386  550.0357
 387  626.3206
 388  437.4633
 389  510.5735
 390  441.1764
 391  469.102
 392  507.5885
 393  565.6603
 394  479.4507
 395  413.9059
 396  449.8623
 397  406.6548
 398  532.0691
 399  624.1385
 400  522.9217
 401  388.1558
 402  411.3092
 403  460.7744
 404  462.8435
 405  431.6498
 406  507.2874
 407  484.4664
 408  450.4481
 409  357.4598
 410  513.3436
 411  475.626
 412  392.8442
 413  390.5243
 414  493.5264
 415  410.9341
 416  487.0598
 417  582.2991
 418  449.265
 419  373.3701
 420  491.2423
 421  461.216
 422  444.3843
 423  439.3606
 424  482.4268
 425  455.1879
 426  401.7042
 427  540.8292
 428  521.3354
 429  428.9957
 430  376.4569
 431  459.3864
 432  503.0152
 433  477.6645
 434  472.875
 435  507.4216
 436  411.4331
 437  313.2267
 438  410.6808
 439  326.0993
 440  418.1772
 441  510.4489
 442  544.555
 443  566.2672
 444  604.4627
 445  589.2318
 446  545.7894
 447  490.4035
 448  477.2365
 449  398.4539
 450  455.4879
 451  453.6778
 452  341.0738
 453  455.3905
 454  527.7006
 455  451.1422
 456  517.595
 457  410.3348
 458  319.8919
 459  278.3134
 460  450.3949
 461  472.592
 462  381.4904
 463  398.3004
 464  351.5924
 465  474.5026
 466  501.8862
 467  447.4159
 468  405.378
 469  402.2796
 470  383.4458
 471  457.4185
 472  543.7698
 473  592.1025
 474  544.2574
 475  444.7962
 476  448.7518
 477  542.1974
 478  419.3889
 479  391.8046
 480  609.5714
 481  560.2032
 482  520.6478
 483  562.6727
 484  645.9884
 485  540.968
 486  488.7854
 487  436.6543
 488  513.4432
 489  513.5846
 490  476.789
 491  397.991
 492  421.3625
 493  434.1951
 494  461.3211
 495  526.1934
 496  414.1176
 497  403.6131
 498  444.1396
 499  371.6075
 500  513.4542
 501  714.2903
 502  609.6921
 503  407.7635
 504  522.702
 505  542.1492
 506  557.7968
 507  625.0497
 508  717.7869
 509  886.7976
 510  994.8986
 511  1193.717
