# Input file       =  1184817381.103401-PSRB0329-2ms-sampling-dd.dat
# Candidate        =  PSR_0332+5434
# Telescope        =  AR
# Epoch_topo       =  57957.164353048625
# Epoch_bary       =  N/A
# T_sample         =  0.002
# Data Folded      =  7340032
# Data Avg         =  -1.02099203632337e-09
# Data StdDev      =  4.28229713484917 
# Profile Bins     =  512
# Profile Avg      =  -0.0517160720511489
# Profile StdDev   =  512.732438623017 
# Reduced chi-sqr  =  0.825
# Prob(Noise)      <  0.998   (~0.0 sigma)
# P_topo (ms)      =  714.473887921991  +/- 0.000938
# P'_topo (s/s)    =  -0                +/- 4.95e-10
# P''_topo (s/s^2) =  0                 +/- 2.18e-13
# P_bary (ms)      =  N/A
# P'_bary (s/s)    =  N/A
# P''_bary (s/s^2) =  N/A
# P_orb (s)        =  N/A
# asin(i)/c (s)    =  N/A
# eccentricity     =  N/A
# w (rad)          =  N/A
# T_peri           =  N/A
######################################################
   0  -137.2074
   1  -187.4876
   2  -219.2955
   3  -331.3591
   4  -230.6737
   5  -228.7162
   6  -51.62301
   7  -101.7903
   8  78.89951
   9  489.3694
  10  71.09903
  11  -479.0419
  12  -559.676
  13  -226.5924
  14  -67.88467
  15  30.01767
  16  197.7357
  17  120.1924
  18  95.82109
  19  -189.9259
  20  -92.44252
  21  -484.0905
  22  -224.6307
  23  175.7574
  24  -4.784077
  25  -154.6432
  26  -54.01005
  27  -30.95249
  28  -522.4708
  29  -652.2821
  30  -689.6063
  31  -747.0735
  32  -461.9155
  33  -430.7571
  34  -45.99161
  35  232.5302
  36  -28.4407
  37  -389.4798
  38  -416.317
  39  -247.7057
  40  -246.159
  41  9.748024
  42  282.729
  43  105.5264
  44  -35.5881
  45  -198.5359
  46  -245.472
  47  -9.777482
  48  13.66495
  49  -87.67249
  50  85.53002
  51  -113.8851
  52  -339.6611
  53  -421.6942
  54  -340.4857
  55  -73.00892
  56  -143.5315
  57  -479.842
  58  -415.3522
  59  -204.0328
  60  -50.88883
  61  -288.3475
  62  -386.1986
  63  -275.7335
  64  -459.5816
  65  -580.5602
  66  -219.0255
  67  86.19098
  68  -70.0267
  69  -154.5856
  70  -124.6387
  71  -462.8762
  72  -270.6406
  73  -106.9053
  74  -238.6987
  75  -88.97736
  76  -45.51096
  77  -8.929181
  78  -257.4756
  79  -488.306
  80  -355.0484
  81  -359.291
  82  -116.1862
  83  -9.125406
  84  71.36799
  85  216.7911
  86  94.52461
  87  -81.48157
  88  94.53555
  89  194.9901
  90  -122.1593
  91  -363.1298
  92  -218.7194
  93  -117.2362
  94  34.05572
  95  -77.62681
  96  38.76315
  97  -12.95358
  98  87.22056
  99  343.3184
 100  44.34904
 101  54.59087
 102  -75.79838
 103  -309.1561
 104  -235.1213
 105  -572.8438
 106  127.5799
 107  53.71957
 108  -88.58633
 109  -502.1038
 110  -288.9261
 111  -12.05956
 112  57.96484
 113  -161.0717
 114  9.332387
 115  -296.647
 116  -342.7187
 117  -110.0566
 118  121.7762
 119  139.0678
 120  -32.27068
 121  5.184721
 122  1.756003
 123  -86.30327
 124  241.9716
 125  290.0856
 126  226.2094
 127  106.7817
 128  -199.6768
 129  -46.15279
 130  198.5703
 131  29.48833
 132  -126.6529
 133  -13.81075
 134  -40.00814
 135  -331.9469
 136  -205.8413
 137  -281.0179
 138  -316.5949
 139  -204.267
 140  -188.5227
 141  -49.2273
 142  -15.33763
 143  -158.2548
 144  -512.4448
 145  -130.4334
 146  40.89245
 147  -14.97778
 148  -98.83887
 149  62.63199
 150  -109.3583
 151  -473.1287
 152  -344.9583
 153  -361.5656
 154  -492.8877
 155  -551.6874
 156  -395.5526
 157  -179.4469
 158  -157.0903
 159  -101.7015
 160  -175.0613
 161  -200.1628
 162  -264.9897
 163  -298.6598
 164  -492.2619
 165  -589.7857
 166  -702.24
 167  -356.0503
 168  -298.6058
 169  -493.0023
 170  -484.3958
 171  -466.8513
 172  -513.4209
 173  -481.5291
 174  -599.4688
 175  -542.6774
 176  -524.0454
 177  -364.9926
 178  -414.5904
 179  -197.0607
 180  153.3887
 181  16.92151
 182  -32.0422
 183  72.30287
 184  -259.3445
 185  -268.6454
 186  -179.834
 187  -69.05056
 188  -221.3124
 189  -362.7641
 190  -378.4204
 191  -319.8272
 192  -179.8425
 193  -164.6223
 194  -173.1479
 195  79.50163
 196  262.4242
 197  353.8974
 198  176.1547
 199  -72.48008
 200  -154.5215
 201  -61.56438
 202  -31.0616
 203  112.036
 204  226.9391
 205  304.8267
 206  347.5721
 207  321.1536
 208  163.5577
 209  279.0213
 210  542.6635
 211  541.082
 212  86.44943
 213  108.9754
 214  99.17779
 215  149.7147
 216  338.4445
 217  245.8121
 218  183.8717
 219  55.48772
 220  -60.23776
 221  19.02468
 222  260.0022
 223  201.2629
 224  294.2784
 225  802.3737
 226  1355.616
 227  1861.537
 228  2335.621
 229  2274.641
 230  2035.113
 231  1539.078
 232  912.4426
 233  154.3511
 234  94.13103
 235  476.7795
 236  439.406
 237  230.3141
 238  271.0623
 239  360.3915
 240  237.5309
 241  289.7302
 242  178.5595
 243  163.8882
 244  -10.70223
 245  -29.61284
 246  -67.14082
 247  57.80535
 248  139.4549
 249  31.23386
 250  -47.86304
 251  -49.54868
 252  59.03653
 253  281.9043
 254  521.0756
 255  543.3875
 256  336.9415
 257  264.5953
 258  134.3426
 259  166.2251
 260  -72.30786
 261  37.8151
 262  280.297
 263  257.1403
 264  290.9534
 265  110.3937
 266  286.0393
 267  282.4936
 268  72.51519
 269  88.39711
 270  266.9449
 271  173.0608
 272  -164.4538
 273  85.91257
 274  411.2193
 275  416.6795
 276  356.7643
 277  343.3524
 278  179.4789
 279  350.5656
 280  297.4625
 281  322.4223
 282  164.676
 283  388.484
 284  182.2776
 285  346.5377
 286  484.5612
 287  178.6674
 288  420.3983
 289  346.1827
 290  220.1799
 291  361.0117
 292  416.8275
 293  577.4963
 294  393.4564
 295  282.1028
 296  346.472
 297  256.1161
 298  33.67561
 299  259.5632
 300  520.605
 301  354.1638
 302  231.126
 303  210.0581
 304  198.2159
 305  63.15009
 306  111.3684
 307  244.9488
 308  3.960064
 309  -26.34551
 310  277.3792
 311  192.0733
 312  122.9267
 313  -81.67933
 314  -7.984734
 315  60.66919
 316  124.2753
 317  -14.67031
 318  50.14705
 319  69.18658
 320  159.541
 321  247.3537
 322  256.6924
 323  428.4465
 324  273.4735
 325  149.768
 326  35.0777
 327  75.878
 328  58.71783
 329  355.0486
 330  559.3575
 331  408.5363
 332  98.14864
 333  14.96791
 334  -79.13353
 335  93.52306
 336  191.8942
 337  287.5242
 338  203.1703
 339  27.74071
 340  101.9954
 341  32.24192
 342  245.9925
 343  250.8271
 344  148.2979
 345  -16.6517
 346  210.236
 347  87.52196
 348  166.6294
 349  337.2278
 350  274.0872
 351  251.0027
 352  149.6375
 353  82.29339
 354  264.1729
 355  391.0295
 356  674.4403
 357  601.0823
 358  344.8756
 359  133.7345
 360  -121.2733
 361  -91.12306
 362  -73.93755
 363  -216.31
 364  33.31224
 365  81.21918
 366  56.13677
 367  130.9988
 368  112.6239
 369  179.5199
 370  282.4163
 371  111.6314
 372  -279.6685
 373  15.65712
 374  342.2665
 375  -51.33816
 376  19.25173
 377  -93.16438
 378  126.0149
 379  -48.59593
 380  139.6207
 381  371.7487
 382  2.00078
 383  -225.303
 384  -113.2372
 385  -97.743
 386  -81.07769
 387  -129.0327
 388  -120.574
 389  81.77927
 390  67.45991
 391  -44.33447
 392  -95.37879
 393  -148.1424
 394  53.33981
 395  -76.64255
 396  78.49966
 397  -53.34027
 398  -1.773493
 399  -180.0115
 400  -78.97208
 401  -405.4944
 402  -161.9703
 403  195.7613
 404  20.73805
 405  102.4996
 406  29.40418
 407  -154.0979
 408  -558.9911
 409  -269.4741
 410  -226.7993
 411  -76.6883
 412  -44.56577
 413  -26.17103
 414  -154.9614
 415  197.9775
 416  -37.63475
 417  -99.801
 418  -260.2424
 419  14.62545
 420  10.34007
 421  356.0326
 422  468.292
 423  182.0546
 424  7.454994
 425  -209.043
 426  -422.3266
 427  -336.084
 428  -497.3444
 429  -238.6698
 430  123.8366
 431  -172.3327
 432  -346.8508
 433  -186.3749
 434  56.31905
 435  -1.206135
 436  -121.4986
 437  -124.2768
 438  136.4445
 439  519.5174
 440  318.7894
 441  -72.64205
 442  -33.76219
 443  113.9731
 444  212.1728
 445  278.4304
 446  249.5078
 447  467.1342
 448  298.0318
 449  182.8188
 450  151.0008
 451  490.9108
 452  389.7964
 453  -8.302913
 454  -194.665
 455  -305.3307
 456  -42.44094
 457  135.5304
 458  103.3559
 459  -59.52433
 460  -217.9222
 461  -185.6184
 462  -229.0231
 463  -303.6201
 464  -366.1573
 465  -136.4412
 466  -176.214
 467  52.1489
 468  -202.2456
 469  -441.407
 470  5.402468
 471  83.78691
 472  -121.9578
 473  -305.9978
 474  -261.0762
 475  -242.8611
 476  -428.4761
 477  -430.3601
 478  -366.3814
 479  -213.8459
 480  -116.5231
 481  -350.5312
 482  -538.3855
 483  -523.1692
 484  -474.2092
 485  -162.847
 486  18.04416
 487  68.24221
 488  -257.9826
 489  -345.8298
 490  -301.8516
 491  -296.1422
 492  -251.8531
 493  -207.7661
 494  -160.6418
 495  -267.0543
 496  -232.4772
 497  -181.9678
 498  -233.9045
 499  -230.1942
 500  -161.2351
 501  -230.6954
 502  -137.6438
 503  -138.4834
 504  -159.113
 505  -218.6067
 506  52.58881
 507  -238.1176
 508  -414.7692
 509  -315.9282
 510  -186.1385
 511  -66.46744
