# Input file       =  1184630491.118226_cleaned.dat
# Candidate        =  PSR_0332+5434
# Telescope        =  AR
# Epoch_topo       =  57955.001274516508
# Epoch_bary       =  N/A
# T_sample         =  0.002
# Data Folded      =  7208960
# Data Avg         =  0.0346188262076994
# Data StdDev      =  1.00017823122745 
# Profile Bins     =  512
# Profile Avg      =  487.448709620932 
# Profile StdDev   =  118.68032456408  
# Reduced chi-sqr  =  1.253
# Prob(Noise)      <  8.2e-05   (~3.8 sigma)
# P_topo (ms)      =  714.475126859232  +/- 0.000159
# P'_topo (s/s)    =  -0                +/- 8.53e-11
# P''_topo (s/s^2) =  0                 +/- 3.83e-14
# P_bary (ms)      =  N/A
# P'_bary (s/s)    =  N/A
# P''_bary (s/s^2) =  N/A
# P_orb (s)        =  N/A
# asin(i)/c (s)    =  N/A
# eccentricity     =  N/A
# w (rad)          =  N/A
# T_peri           =  N/A
######################################################
   0  420.3646
   1  466.3524
   2  555.6826
   3  543.6317
   4  453.5646
   5  393.129
   6  389.5731
   7  370.1157
   8  446.2287
   9  502.7492
  10  414.2928
  11  431.8638
  12  503.4123
  13  410.9894
  14  466.933
  15  456.3869
  16  559.1762
  17  553.7075
  18  440.2955
  19  360.0704
  20  402.3552
  21  531.2874
  22  496.3452
  23  539.5703
  24  513.9687
  25  535.1207
  26  470.8817
  27  451.1626
  28  431.8808
  29  573.6912
  30  615.4872
  31  436.2481
  32  386.5776
  33  526.6125
  34  518.78
  35  470.9598
  36  520.5156
  37  503.41
  38  479.2604
  39  497.7386
  40  462.0291
  41  473.7928
  42  547.5663
  43  450.7185
  44  444.8951
  45  492.5707
  46  512.5255
  47  426.1773
  48  486.3857
  49  590.4936
  50  561.0282
  51  551.4019
  52  608.2476
  53  502.5931
  54  468.0099
  55  378.874
  56  572.6168
  57  595.6627
  58  613.9161
  59  550.6823
  60  550.5809
  61  580.1997
  62  513.6281
  63  488.8323
  64  480.3744
  65  500.7781
  66  560.1693
  67  510.0912
  68  460.5756
  69  511.6891
  70  441.7386
  71  492.042
  72  456.037
  73  480.1758
  74  640.306
  75  544.7894
  76  548.4207
  77  554.4967
  78  577.0906
  79  469.5066
  80  481.8093
  81  603.0731
  82  438.6889
  83  357.1104
  84  489.3096
  85  576.4354
  86  638.1091
  87  553.2592
  88  476.9952
  89  508.1726
  90  631.3434
  91  509.6794
  92  679.7766
  93  960.1283
  94  1154.424
  95  1239.828
  96  1145.006
  97  994.826
  98  817.5311
  99  595.8239
 100  553.9799
 101  628.4851
 102  539.8531
 103  516.9644
 104  505.1939
 105  587.9024
 106  648.9648
 107  570.4017
 108  608.1819
 109  606.8978
 110  704.8057
 111  709.2106
 112  527.2758
 113  447.6088
 114  422.3983
 115  485.4285
 116  448.0918
 117  428.7037
 118  457.5474
 119  451.5051
 120  423.5255
 121  478.3153
 122  464.2139
 123  546.04
 124  540.6584
 125  528.903
 126  641.9946
 127  486.6108
 128  513.6003
 129  544.5596
 130  553.436
 131  538.3339
 132  601.8472
 133  590.0624
 134  624.6684
 135  594.9996
 136  618.3906
 137  564.0563
 138  510.9161
 139  413.318
 140  377.5411
 141  372.0738
 142  386.4767
 143  536.4165
 144  561.387
 145  420.0903
 146  370.5087
 147  469.0346
 148  540.3321
 149  619.1885
 150  583.5806
 151  575.4297
 152  513.2399
 153  585.959
 154  659.8243
 155  555.7227
 156  463.3897
 157  337.3198
 158  386.7984
 159  531.94
 160  632.6348
 161  516.4633
 162  360.3511
 163  409.809
 164  516.3836
 165  362.5833
 166  432.2454
 167  461.8528
 168  400.0522
 169  485.3279
 170  513.3667
 171  480.5011
 172  397.3993
 173  347.7817
 174  286.9705
 175  444.0225
 176  555.2371
 177  508.0338
 178  449.8282
 179  561.3045
 180  541.6722
 181  368.6434
 182  389.3814
 183  476.9481
 184  427.8426
 185  551.864
 186  504.3652
 187  413.9972
 188  536.5973
 189  439.8977
 190  419.0569
 191  483.3776
 192  577.5465
 193  434.0582
 194  480.7396
 195  481.8786
 196  526.0373
 197  519.2245
 198  532.4659
 199  608.1322
 200  523.4911
 201  499.9904
 202  435.1361
 203  413.9242
 204  488.1665
 205  446.2917
 206  509.135
 207  428.8034
 208  514.0983
 209  498.3509
 210  443.3797
 211  483.8777
 212  445.8437
 213  475.3838
 214  501.2201
 215  527.2281
 216  509.4785
 217  495.7666
 218  495.7806
 219  518.9039
 220  497.6717
 221  402.8061
 222  445.4684
 223  426.7538
 224  363.334
 225  320.8805
 226  447.9992
 227  467.0814
 228  484.8682
 229  474.7462
 230  426.2692
 231  398.4785
 232  295.5611
 233  434.5919
 234  528.5735
 235  598.1322
 236  453.0048
 237  364.7131
 238  274.9019
 239  336.3889
 240  424.5023
 241  472.9307
 242  413.8058
 243  310.9785
 244  471.2375
 245  481.6786
 246  456.886
 247  408.502
 248  423.2672
 249  424.4599
 250  418.1713
 251  503.6494
 252  551.3453
 253  551.9216
 254  520.5681
 255  531.0198
 256  511.301
 257  507.5083
 258  422.4977
 259  430.9322
 260  450.1528
 261  473.1573
 262  519.0386
 263  509.5049
 264  386.3377
 265  482.9901
 266  499.7519
 267  472.1582
 268  464.9507
 269  553.0771
 270  488.3251
 271  407.363
 272  415.4549
 273  401.6848
 274  443.7541
 275  455.5581
 276  392.2626
 277  467.2721
 278  534.999
 279  463.5277
 280  418.5703
 281  446.5007
 282  470.7429
 283  486.2436
 284  471.5473
 285  404.2717
 286  406.0621
 287  479.5043
 288  464.4116
 289  530.264
 290  499.1687
 291  519.8616
 292  430.8292
 293  434.2039
 294  594.9122
 295  559.1525
 296  597.2792
 297  522.6511
 298  399.2089
 299  463.9406
 300  582.3842
 301  460.1909
 302  368.655
 303  330.6631
 304  316.4269
 305  454.1523
 306  527.7377
 307  461.833
 308  362.728
 309  433.8966
 310  400.7759
 311  411.6713
 312  492.2261
 313  460.1837
 314  373.7289
 315  365.3574
 316  456.675
 317  491.598
 318  480.6293
 319  492.2343
 320  428.1124
 321  375.3282
 322  358.8913
 323  388.933
 324  406.5886
 325  487.5068
 326  518.2662
 327  564.0526
 328  586.6122
 329  437.8495
 330  404.4901
 331  457.8415
 332  470.1866
 333  414.621
 334  490.9514
 335  531.848
 336  486.46
 337  480.2711
 338  430.2502
 339  340.9432
 340  422.7695
 341  432.2256
 342  448.7725
 343  524.7635
 344  477.214
 345  503.6352
 346  490.6588
 347  498.6326
 348  639.1957
 349  465.0471
 350  459.0985
 351  501.8935
 352  409.1662
 353  454.4756
 354  450.2388
 355  487.4532
 356  457.9594
 357  413.0594
 358  453.5914
 359  495.0525
 360  399.995
 361  451.2503
 362  499.7975
 363  498.0476
 364  401.74
 365  442.5663
 366  476.9689
 367  502.2089
 368  438.418
 369  492.6045
 370  631.0891
 371  497.4865
 372  464.9361
 373  488.7437
 374  442.0556
 375  343.2974
 376  382.1185
 377  433.8336
 378  447.6266
 379  491.937
 380  501.7691
 381  408.3179
 382  370.2883
 383  426.022
 384  371.9666
 385  353.0891
 386  354.7451
 387  473.914
 388  548.5598
 389  500.7779
 390  423.0407
 391  412.6187
 392  497.4561
 393  581.9459
 394  491.8214
 395  417.066
 396  429.7334
 397  442.5884
 398  319.0429
 399  459.082
 400  552.616
 401  431.5325
 402  341.8306
 403  505.7498
 404  505.1803
 405  479.6087
 406  434.4064
 407  447.378
 408  550.9813
 409  537.2453
 410  537.7513
 411  508.3728
 412  558.6616
 413  520.5248
 414  481.4129
 415  459.1089
 416  517.8175
 417  556.1155
 418  517.3226
 419  341.676
 420  261.2533
 421  395.0647
 422  392.344
 423  549.9557
 424  525.1185
 425  440.1512
 426  424.9495
 427  497.5749
 428  518.105
 429  478.9923
 430  491.8716
 431  506.6874
 432  500.6933
 433  536.9794
 434  518.9885
 435  528.8693
 436  608.4099
 437  488.0288
 438  332.5522
 439  434.8557
 440  494.9029
 441  454.2514
 442  367.9676
 443  551.8016
 444  519.2081
 445  496.971
 446  547.2713
 447  449.4691
 448  428.1958
 449  459.1148
 450  416.8103
 451  587.4371
 452  537.7382
 453  479.3537
 454  396.1107
 455  545.1205
 456  581.5462
 457  610.462
 458  528.1668
 459  465.4395
 460  375.1166
 461  471.4632
 462  554.7756
 463  540.8494
 464  463.6185
 465  462.451
 466  500.5143
 467  488.6812
 468  395.1021
 469  465.8646
 470  461.4734
 471  600.2576
 472  590.5394
 473  384.2757
 474  371.3757
 475  462.397
 476  529.6503
 477  573.1436
 478  634.9067
 479  565.269
 480  496.7074
 481  453.8542
 482  525.9902
 483  536.388
 484  537.1682
 485  651.7869
 486  453.5186
 487  475.8025
 488  457.8245
 489  547.0903
 490  607.6008
 491  533.3818
 492  442.8411
 493  424.3713
 494  516.9939
 495  399.6234
 496  307.1701
 497  468.8134
 498  582.0239
 499  463.64
 500  440.7381
 501  503.4514
 502  443.3884
 503  452.5684
 504  342.4931
 505  333.6303
 506  355.2553
 507  493.2613
 508  527.0054
 509  472.5272
 510  504.3293
 511  449.8006
