# Input file       =  1184285753.10695_cleaned.dat
# Candidate        =  PSR_0332+5434
# Telescope        =  AR
# Epoch_topo       =  57951.011251237847
# Epoch_bary       =  N/A
# T_sample         =  0.002
# Data Folded      =  7208960
# Data Avg         =  0.151338850541718
# Data StdDev      =  5.18867919885548 
# Profile Bins     =  256
# Profile Avg      =  4261.41822516745 
# Profile StdDev   =  870.709224652166 
# Reduced chi-sqr  =  0.569
# Prob(Noise)      <  1   (~0.0 sigma)
# P_topo (ms)      =  714.477596389396  +/- 0.00613
# P'_topo (s/s)    =  -0                +/- 3.29e-09
# P''_topo (s/s^2) =  0                 +/- 1.48e-12
# P_bary (ms)      =  N/A
# P'_bary (s/s)    =  N/A
# P''_bary (s/s^2) =  N/A
# P_orb (s)        =  N/A
# asin(i)/c (s)    =  N/A
# eccentricity     =  N/A
# w (rad)          =  N/A
# T_peri           =  N/A
######################################################
   0  4275.033
   1  4214.178
   2  3884.154
   3  3946.653
   4  4260.801
   5  3779.405
   6  4188.12
   7  4631.654
   8  4364.948
   9  3823.412
  10  3721.518
  11  3928.229
  12  4632.683
  13  4033.595
  14  3835.653
  15  4230.929
  16  3794.239
  17  3717.548
  18  3920.741
  19  4085.256
  20  4118.105
  21  4028.325
  22  4524.544
  23  4420.284
  24  4121.509
  25  3488.242
  26  3676.13
  27  4029.812
  28  5041.533
  29  3901.504
  30  4374.778
  31  4430.549
  32  4714.327
  33  4009.394
  34  4446.386
  35  3912.216
  36  3839.568
  37  4487.595
  38  4715.539
  39  3832.66
  40  3575.899
  41  4158.356
  42  4328.339
  43  4368.118
  44  4024.597
  45  4008.341
  46  3366.406
  47  3867.166
  48  4345.826
  49  4915.644
  50  3879.857
  51  3943.107
  52  3677.242
  53  3809.085
  54  3698.024
  55  4340.1
  56  4625.322
  57  3394.457
  58  3248.505
  59  3890.785
  60  4528.05
  61  3907.629
  62  3641.83
  63  4378.217
  64  4698.39
  65  4131.969
  66  3744.573
  67  3992.441
  68  4436.792
  69  3708.442
  70  3595.2
  71  4276.981
  72  4229.746
  73  4458.038
  74  4812.646
  75  3767.474
  76  4384.77
  77  3858.392
  78  3986.886
  79  3632.412
  80  4465.022
  81  4020.976
  82  4264.134
  83  4186.282
  84  3898.629
  85  3210.443
  86  4645.398
  87  4282.237
  88  3043.734
  89  3506.915
  90  3664.472
  91  3600.81
  92  4178.176
  93  3961.662
  94  3786.541
  95  3635.6
  96  4166.956
  97  4851.996
  98  4181.85
  99  3536.264
 100  4304.007
 101  4844.843
 102  4464.555
 103  4391.686
 104  4206.654
 105  4090.847
 106  4461.561
 107  4538.594
 108  4172.188
 109  4751.586
 110  4386.945
 111  4072.091
 112  3709.717
 113  4364.942
 114  4737.04
 115  5018.37
 116  4367.852
 117  4040.558
 118  4423.564
 119  4668.848
 120  4331.871
 121  4168.275
 122  3796.84
 123  4022.134
 124  4220.558
 125  4256.171
 126  2887.927
 127  4214.713
 128  4777.019
 129  4702.323
 130  4145.361
 131  3773.087
 132  3765.168
 133  3721.385
 134  4466.089
 135  4156.525
 136  4596.882
 137  4368.86
 138  5127.042
 139  4898.638
 140  4148.596
 141  4095.447
 142  4333.806
 143  4078.368
 144  4209.534
 145  4323.132
 146  4896.375
 147  4545.924
 148  4778.616
 149  4130.302
 150  4694.969
 151  3935.539
 152  3985.952
 153  3864.904
 154  4090.196
 155  4126.794
 156  4301.723
 157  4633.339
 158  4090.353
 159  3998.239
 160  4620.463
 161  5933.667
 162  7560.116
 163  8013.976
 164  5695.487
 165  4833.771
 166  4933.083
 167  4070.257
 168  4265.323
 169  5303.709
 170  5123.76
 171  4711.752
 172  3570.599
 173  4444.921
 174  4672.025
 175  4230.654
 176  3979.011
 177  4094.681
 178  4807.479
 179  4959.578
 180  4322.664
 181  5287.012
 182  4687.873
 183  5493.86
 184  4134.075
 185  4375.114
 186  4592.087
 187  5000.753
 188  4265.457
 189  4934.21
 190  4192.691
 191  4137.083
 192  3656.197
 193  4122.885
 194  3469.445
 195  3442.644
 196  4463.147
 197  4424.685
 198  4580.207
 199  3750.956
 200  3855.187
 201  3504.449
 202  3927.363
 203  4470.979
 204  4503.755
 205  4165.954
 206  4035.405
 207  4047.472
 208  4416.56
 209  4821.877
 210  4547.433
 211  5066.705
 212  4547.916
 213  4388.645
 214  4487.007
 215  4903.027
 216  5305.287
 217  3396.896
 218  4780.2
 219  4675.217
 220  5288.463
 221  3638.812
 222  3846.019
 223  4543.482
 224  4271.633
 225  3630.54
 226  4699.323
 227  4098.483
 228  4203.838
 229  4848.068
 230  3737.976
 231  3982.283
 232  3961.552
 233  4360.538
 234  4330.68
 235  3644.181
 236  3367.037
 237  3763.959
 238  4401.466
 239  4076.022
 240  3882.056
 241  4676.48
 242  4328.982
 243  3153.709
 244  3726.856
 245  4819.708
 246  4907.943
 247  4376.484
 248  4057.731
 249  4546.556
 250  3823.522
 251  4173.611
 252  4899.423
 253  5411.833
 254  4094.002
 255  4563.81
