# Input file       =  1184315356.111366-PSRB0329-2ms-sampling-dd.dat
# Candidate        =  PSR_0332+5434
# Telescope        =  AR
# Epoch_topo       =  57951.353878603775
# Epoch_bary       =  N/A
# T_sample         =  0.002
# Data Folded      =  7340032
# Data Avg         =  2.73654397101777e-10
# Data StdDev      =  9.01273135743451 
# Profile Bins     =  512
# Profile Avg      =  -0.0769107002413705
# Profile StdDev   =  1079.12169147373 
# Reduced chi-sqr  =  0.692
# Prob(Noise)      <  1   (~0.0 sigma)
# P_topo (ms)      =  714.477723692926  +/- 0.000174
# P'_topo (s/s)    =  -0                +/- 9.17e-11
# P''_topo (s/s^2) =  0                 +/- 4.05e-14
# P_bary (ms)      =  N/A
# P'_bary (s/s)    =  N/A
# P''_bary (s/s^2) =  N/A
# P_orb (s)        =  N/A
# asin(i)/c (s)    =  N/A
# eccentricity     =  N/A
# w (rad)          =  N/A
# T_peri           =  N/A
######################################################
   0  -108.1688
   1  -581.6652
   2  -481.4699
   3  -769.3519
   4  -469.4529
   5  -213.8517
   6  -368.6818
   7  24.08113
   8  264.4427
   9  77.39773
  10  -90.96609
  11  -598.8442
  12  -921.4183
  13  -889.6981
  14  -1307.356
  15  -497.8553
  16  -42.34824
  17  88.75889
  18  -457.9346
  19  -991.3383
  20  -1263.801
  21  -999.3002
  22  -950.5355
  23  -280.8495
  24  202.4003
  25  44.06503
  26  101.8053
  27  -31.46756
  28  -689.3889
  29  -1029.064
  30  -185.5149
  31  -146.6634
  32  -27.21122
  33  629.7858
  34  335.7745
  35  -35.45445
  36  -333.2064
  37  -383.0303
  38  -104.1029
  39  -546.8536
  40  -43.44227
  41  -223.8695
  42  -224.7256
  43  -405.4325
  44  -990.6327
  45  -864.1038
  46  -781.5468
  47  -713.848
  48  -768.9171
  49  -357.1859
  50  -654.3264
  51  -1091.756
  52  -1161.452
  53  -1502.292
  54  -1304.528
  55  -1231.846
  56  -901.8793
  57  213.5851
  58  168.9882
  59  -351.9037
  60  -693.1048
  61  -452.9911
  62  -216.5336
  63  250.1729
  64  32.18194
  65  -175.9328
  66  -528.1151
  67  410.3684
  68  726.9966
  69  188.6242
  70  -82.02412
  71  -540.549
  72  -550.9811
  73  13.01978
  74  216.0827
  75  229.5125
  76  603.68
  77  99.45602
  78  -441.781
  79  -436.2473
  80  -1131.822
  81  -1353.599
  82  -634.803
  83  69.79775
  84  -9.489945
  85  255.906
  86  159.9989
  87  -779.4594
  88  -669.6527
  89  -249.0343
  90  192.3941
  91  709.8036
  92  809.2023
  93  999.5186
  94  80.079
  95  -54.19907
  96  -268.374
  97  -15.55552
  98  659.791
  99  759.4608
 100  204.973
 101  111.3852
 102  -310.8579
 103  143.2367
 104  -257.4218
 105  -504.4879
 106  -204.8676
 107  -243.0429
 108  -427.8362
 109  -507.7206
 110  -756.7819
 111  -773.0383
 112  -802.3226
 113  -604.1871
 114  -244.1322
 115  -435.0895
 116  -216.8742
 117  -1064.889
 118  -1026.284
 119  -523.7747
 120  -631.7498
 121  -504.5668
 122  -863.0678
 123  -776.1496
 124  -708.5263
 125  -539.4344
 126  -249.4762
 127  -330.4497
 128  -460.4344
 129  -555.5313
 130  -742.2343
 131  -677.7178
 132  -417.6943
 133  146.1427
 134  208.593
 135  120.0376
 136  -447.9005
 137  -382.9201
 138  -681.054
 139  -1457.834
 140  -1262.01
 141  233.5063
 142  1024.332
 143  1328.654
 144  1133.556
 145  -62.09406
 146  -760.736
 147  -1283.272
 148  -131.4726
 149  -135.5012
 150  -86.19871
 151  377.8729
 152  657.2111
 153  330.8172
 154  -435.959
 155  -895.2879
 156  -765.5698
 157  -248.5302
 158  131.5989
 159  230.1727
 160  -164.0717
 161  -530.3387
 162  -560.2368
 163  -417.0564
 164  -229.2849
 165  192.5319
 166  403.7508
 167  582.3328
 168  622.7162
 169  715.8809
 170  844.5209
 171  1208.707
 172  1432.661
 173  1337.583
 174  1274.082
 175  1023.575
 176  1139.266
 177  555.3152
 178  297.5861
 179  -152.8582
 180  168.3277
 181  268.9288
 182  -87.87671
 183  -355.9171
 184  -283.5685
 185  243.1972
 186  392.377
 187  -260.1961
 188  -575.2702
 189  -439.5809
 190  -58.45132
 191  -749.9408
 192  -393.884
 193  54.32353
 194  -135.8107
 195  -520.7599
 196  -701.8268
 197  35.54435
 198  -404.2896
 199  -763.4433
 200  -723.3387
 201  -614.7527
 202  -436.9792
 203  152.3139
 204  211.647
 205  327.8977
 206  -230.7182
 207  -789.4417
 208  -918.436
 209  -220.1524
 210  9.700275
 211  810.2062
 212  1988.031
 213  2018.028
 214  2067.506
 215  2220.146
 216  787.8536
 217  407.4433
 218  1492.61
 219  2107.451
 220  1722.909
 221  1715.67
 222  2111.674
 223  1823.891
 224  641.2519
 225  1116.941
 226  919.988
 227  434.4857
 228  69.68634
 229  147.5963
 230  -6.372845
 231  -88.96286
 232  -245.6734
 233  -167.4564
 234  -106.5279
 235  -223.9099
 236  -178.4714
 237  -271.1702
 238  32.70722
 239  17.50785
 240  -66.89116
 241  -28.4427
 242  -5.987757
 243  -138.0256
 244  -674.6849
 245  -848.2169
 246  -947.3352
 247  -264.1243
 248  68.03757
 249  -327.8707
 250  -205.9183
 251  155.2323
 252  25.46802
 253  -314.5775
 254  -453.6574
 255  -297.1729
 256  -159.8253
 257  218.0353
 258  57.17047
 259  461.7165
 260  481.2406
 261  -14.35278
 262  41.04032
 263  634.1843
 264  1413.192
 265  1147.476
 266  1025.172
 267  531.3633
 268  530.6688
 269  830.1129
 270  1014.482
 271  906.1213
 272  813.1091
 273  665.7816
 274  683.9691
 275  706.8086
 276  633.9152
 277  518.1685
 278  539.6743
 279  789.988
 280  1062.655
 281  1122.655
 282  514.3517
 283  471.8162
 284  563.4631
 285  355.6537
 286  371.648
 287  73.87128
 288  228.2148
 289  360.3882
 290  -190.7988
 291  61.69287
 292  143.6129
 293  271.2961
 294  705.5267
 295  861.6274
 296  426.4157
 297  397.6852
 298  312.2598
 299  246.236
 300  255.3837
 301  302.4814
 302  371.7236
 303  412.6951
 304  717.6571
 305  1204.725
 306  1131.407
 307  835.3945
 308  1122.306
 309  1149.526
 310  982.6711
 311  1331.104
 312  1433.588
 313  1341.18
 314  1185.793
 315  1146.516
 316  811.1894
 317  403.2809
 318  960.6461
 319  972.7537
 320  645.8591
 321  1195.306
 322  1347.513
 323  572.59
 324  -448.206
 325  -567.9831
 326  -308.7355
 327  -253.4901
 328  -505.4117
 329  -183.0023
 330  327.7883
 331  143.6959
 332  -40.6256
 333  224.4456
 334  537.2817
 335  349.1842
 336  -443.9544
 337  -763.4982
 338  -425.5671
 339  -56.33367
 340  401.1081
 341  876.0432
 342  1266.289
 343  946.6828
 344  57.41514
 345  -167.1546
 346  -631.1163
 347  43.49724
 348  678.1906
 349  814.615
 350  530.0937
 351  631.7953
 352  309.8236
 353  -165.376
 354  235.1693
 355  510.5784
 356  -245.349
 357  -258.269
 358  -186.5528
 359  100.5809
 360  562.8705
 361  -98.56732
 362  65.13577
 363  284.432
 364  885.0398
 365  713.5504
 366  506.6725
 367  119.4229
 368  -150.8734
 369  179.68
 370  104.5215
 371  138.4829
 372  -17.32018
 373  115.4163
 374  -65.08878
 375  -62.2508
 376  448.8575
 377  616.4859
 378  569.0175
 379  -23.4174
 380  -129.4474
 381  -46.86926
 382  -292.4621
 383  -398.168
 384  276.6769
 385  536.2132
 386  224.842
 387  338.7458
 388  -239.6524
 389  -553.1157
 390  -786.0099
 391  -365.6917
 392  41.78762
 393  88.62374
 394  211.2307
 395  232.0933
 396  -48.37407
 397  -167.518
 398  -1261.107
 399  -1177.68
 400  -737.2425
 401  122.681
 402  -99.99597
 403  -308.3126
 404  -196.7362
 405  -520.1097
 406  -626.0058
 407  -694.9157
 408  -675.086
 409  -386.0376
 410  1.406911
 411  -4.356087
 412  -76.10757
 413  209.0189
 414  74.38045
 415  -75.02845
 416  -59.37058
 417  784.4097
 418  315.6758
 419  50.18366
 420  445.7299
 421  745.3837
 422  347.8071
 423  -179.1809
 424  -496.993
 425  -904.2335
 426  -1055.687
 427  -818.0554
 428  -242.1986
 429  232.4159
 430  657.2957
 431  -359.818
 432  -1328.692
 433  -1339.648
 434  -1061.024
 435  -712.4943
 436  -194.715
 437  332.6542
 438  655.5507
 439  -282.4153
 440  -1024.605
 441  -865.5255
 442  -1176.943
 443  -567.4636
 444  -297.8795
 445  -88.74026
 446  -150.4873
 447  242.4528
 448  302.1073
 449  -257.9559
 450  -129.5333
 451  -271.4347
 452  -255.7083
 453  771.3115
 454  1187.985
 455  958.4832
 456  725.588
 457  113.5493
 458  -634.515
 459  -179.5864
 460  213.3811
 461  577.3652
 462  615.8842
 463  541.2585
 464  -563.6024
 465  -1063.543
 466  -868.944
 467  -521.7057
 468  53.74505
 469  -155.0211
 470  -238.7179
 471  -940.5054
 472  -1064.679
 473  -780.5914
 474  -830.9115
 475  -130.506
 476  -76.05368
 477  63.19429
 478  212.8546
 479  484.0299
 480  576.8489
 481  -333.4248
 482  -144.5786
 483  -7.343712
 484  21.52985
 485  -323.751
 486  49.86556
 487  164.6341
 488  430.7376
 489  188.5778
 490  401.4208
 491  -261.7739
 492  -280.0162
 493  -85.99923
 494  -396.4472
 495  -26.2527
 496  162.3594
 497  -93.47109
 498  -355.9067
 499  -855.4234
 500  -563.7896
 501  -1170.094
 502  -970.9952
 503  -398.6995
 504  -511.6157
 505  -464.4692
 506  -175.3305
 507  -296.8363
 508  -1038.989
 509  -456.2933
 510  -141.0168
 511  -288.2243
