# Input file       =  1184716687.098535_cleaned.dat
# Candidate        =  PSR_0332+5434
# Telescope        =  AR
# Epoch_topo       =  57955.998913177486
# Epoch_bary       =  N/A
# T_sample         =  0.002
# Data Folded      =  7143424
# Data Avg         =  0.0266800263540202
# Data StdDev      =  1.00011840909109 
# Profile Bins     =  512
# Profile Avg      =  372.244097772732 
# Profile StdDev   =  118.132570796097 
# Reduced chi-sqr  =  1.252
# Prob(Noise)      <  8.92e-05   (~3.7 sigma)
# P_topo (ms)      =  714.474540423534  +/- 0.000345
# P'_topo (s/s)    =  -0                +/- 1.87e-10
# P''_topo (s/s^2) =  0                 +/- 8.47e-14
# P_bary (ms)      =  N/A
# P'_bary (s/s)    =  N/A
# P''_bary (s/s^2) =  N/A
# P_orb (s)        =  N/A
# asin(i)/c (s)    =  N/A
# eccentricity     =  N/A
# w (rad)          =  N/A
# T_peri           =  N/A
######################################################
   0  1132.85
   1  1078.588
   2  715.6158
   3  554.9459
   4  448.7726
   5  504.9569
   6  534.8246
   7  469.8654
   8  392.1483
   9  415.0235
  10  381.1692
  11  353.8145
  12  415.7018
  13  493.7565
  14  545.7227
  15  455.3567
  16  358.7904
  17  335.0612
  18  430.9506
  19  417.1575
  20  427.8936
  21  453.66
  22  411.5107
  23  417.6846
  24  415.0669
  25  408.7708
  26  408.4205
  27  364.6772
  28  417.1699
  29  328.8615
  30  314.5762
  31  238.0909
  32  349.9223
  33  415.4492
  34  335.9111
  35  297.8298
  36  211.6748
  37  314.9242
  38  309.7836
  39  273.7867
  40  343.2676
  41  364.4569
  42  422.2613
  43  399.1649
  44  368.5104
  45  320.9272
  46  371.5666
  47  418.4669
  48  382.9626
  49  333.5573
  50  337.3062
  51  417.7754
  52  355.0984
  53  370.1992
  54  417.6405
  55  345.658
  56  432.9182
  57  335.2198
  58  307.0843
  59  412.7566
  60  326.3426
  61  334.4981
  62  461.9961
  63  419.831
  64  295.9401
  65  361.7086
  66  458.1915
  67  342.2972
  68  411.2157
  69  390.5129
  70  418.7293
  71  325.5636
  72  210.8096
  73  336.9223
  74  401.7178
  75  425.7463
  76  313.8652
  77  339.0347
  78  373.9649
  79  343.9714
  80  330.0694
  81  387.8838
  82  319.6844
  83  384.0395
  84  425.0203
  85  343.7617
  86  358.0175
  87  439.2459
  88  452.5205
  89  399.6012
  90  348.1001
  91  497.7516
  92  543.7491
  93  407.5683
  94  418.1082
  95  413.284
  96  326.8029
  97  458.2589
  98  353.2274
  99  336.0725
 100  361.565
 101  317.1506
 102  207.3298
 103  213.4928
 104  348.4443
 105  271.6386
 106  364.117
 107  397.521
 108  446.7323
 109  454.1391
 110  402.1675
 111  276.6589
 112  310.4393
 113  379.6286
 114  308.5696
 115  263.3518
 116  231.7892
 117  358.3655
 118  406.5099
 119  339.8269
 120  408.682
 121  349.6537
 122  391.3683
 123  319.1948
 124  322.3524
 125  276.2935
 126  245.5809
 127  340.3626
 128  279.1555
 129  296.7544
 130  390.9608
 131  403.1462
 132  464.156
 133  352.9573
 134  297.615
 135  395.9571
 136  286.3482
 137  304.484
 138  340.2513
 139  363.2049
 140  361.5823
 141  456.7107
 142  385.5029
 143  305.9194
 144  360.4204
 145  446.3656
 146  480.8156
 147  425.4582
 148  308.433
 149  284.1247
 150  462.4018
 151  476.7231
 152  375.1148
 153  379.794
 154  417.7787
 155  495.6436
 156  460.6233
 157  296.8564
 158  345.7108
 159  442.4531
 160  515.5465
 161  364.5756
 162  304.2103
 163  406.2302
 164  326.0464
 165  144.5355
 166  193.356
 167  294.0493
 168  378.0341
 169  380.255
 170  443.9821
 171  524.8547
 172  358.094
 173  352.6382
 174  357.1126
 175  357.8491
 176  268.2679
 177  181.42
 178  379.6558
 179  406.6067
 180  216.0836
 181  286.2492
 182  375.3075
 183  319.3933
 184  287.0723
 185  378.888
 186  405.2404
 187  459.5649
 188  323.1506
 189  228.9214
 190  448.5392
 191  466.9034
 192  387.6659
 193  377.5639
 194  429.894
 195  317.9369
 196  234.0044
 197  264.543
 198  477.9726
 199  304.3233
 200  293.652
 201  303.3357
 202  253.0204
 203  360.7032
 204  392.6418
 205  426.5587
 206  372.942
 207  400.2314
 208  360.2764
 209  414.0667
 210  389.0237
 211  331.3437
 212  359.5497
 213  345.8773
 214  463.7545
 215  348.2989
 216  227.1405
 217  290.9871
 218  291.4438
 219  249.9384
 220  277.9611
 221  362.0516
 222  358.2064
 223  381.7032
 224  422.1012
 225  334.5095
 226  377.3242
 227  414.7624
 228  374.1497
 229  436.1929
 230  468.255
 231  286.3311
 232  268.9887
 233  331.533
 234  297.57
 235  336.572
 236  447.5818
 237  425.916
 238  446.2693
 239  417.7614
 240  292.1228
 241  217.3704
 242  259.3351
 243  298.6144
 244  352.62
 245  500.5718
 246  403.5957
 247  373.2578
 248  402.5262
 249  330.3253
 250  297.4452
 251  383.1212
 252  350.8401
 253  271.9033
 254  226.3125
 255  241.4732
 256  433.5305
 257  396.6172
 258  332.489
 259  345.7111
 260  399.9911
 261  338.889
 262  464.0916
 263  389.0691
 264  367.0397
 265  306.5476
 266  344.0183
 267  366.3224
 268  332.3348
 269  436.601
 270  365.4667
 271  324.8875
 272  294.8374
 273  298.7711
 274  299.3698
 275  303.7899
 276  385.36
 277  377.1281
 278  352.441
 279  370.4677
 280  319.4515
 281  401.1993
 282  329.5113
 283  294.4186
 284  329.8691
 285  463.5583
 286  372.0557
 287  247.8204
 288  293.2854
 289  403.4546
 290  376.7387
 291  332.4758
 292  378.9736
 293  457.4752
 294  382.1296
 295  354.4377
 296  282.4536
 297  390.4669
 298  224.2872
 299  244.5186
 300  293.1388
 301  188.7395
 302  258.8364
 303  262.8715
 304  421.2773
 305  396.1982
 306  404.7536
 307  345.5494
 308  193.7588
 309  205.5338
 310  329.2938
 311  310.5734
 312  319.1241
 313  381.1352
 314  416.9732
 315  284.2186
 316  166.7701
 317  284.809
 318  335.6013
 319  366.2335
 320  358.9072
 321  474.1613
 322  434.2964
 323  257.9906
 324  243.4005
 325  304.5667
 326  324.534
 327  249.0807
 328  287.3046
 329  364.972
 330  292.8233
 331  394.0378
 332  437.4967
 333  436.2765
 334  367.6441
 335  382.0606
 336  485.7397
 337  336.1769
 338  306.6968
 339  338.6886
 340  189.9986
 341  233.6575
 342  375.7407
 343  421.1425
 344  424.7668
 345  414.3628
 346  279.5302
 347  353.1195
 348  398.4639
 349  334.1334
 350  239.2096
 351  376.3631
 352  314.0038
 353  279.0787
 354  301.6314
 355  412.8829
 356  474.4826
 357  475.1574
 358  535.5333
 359  391.5687
 360  379.8962
 361  361.1237
 362  255.6794
 363  284.6974
 364  373.3107
 365  472.1987
 366  403.9949
 367  342.2745
 368  322.95
 369  366.8852
 370  415.9943
 371  377.1367
 372  396.2382
 373  401.1771
 374  365.2255
 375  359.5179
 376  317.4926
 377  337.0443
 378  330.2348
 379  253.1462
 380  205.8989
 381  287.7351
 382  365.1258
 383  270.639
 384  359.7005
 385  389.3088
 386  430.9406
 387  438.7155
 388  311.3221
 389  337.3602
 390  298.6978
 391  389.5208
 392  448.3267
 393  404.2312
 394  324.9372
 395  292.3444
 396  356.6549
 397  415.6991
 398  435.6343
 399  531.4923
 400  364.1606
 401  347.5116
 402  461.7528
 403  352.9585
 404  237.8018
 405  387.1167
 406  384.257
 407  366.2051
 408  389.7342
 409  371.6049
 410  368.6637
 411  241.8592
 412  292.3394
 413  335.0598
 414  314.3585
 415  406.29
 416  371.8828
 417  339.5687
 418  340.3719
 419  278.0673
 420  324.5296
 421  359.2014
 422  423.767
 423  395.3719
 424  378.3758
 425  419.0413
 426  394.9481
 427  393.8804
 428  390.9911
 429  312.1226
 430  334.199
 431  471.3004
 432  503.2601
 433  347.1419
 434  376.0555
 435  486.9717
 436  507.5385
 437  390.9763
 438  349.6375
 439  255.8781
 440  370.2517
 441  347.5866
 442  426.7117
 443  488.1536
 444  419.3587
 445  419.9255
 446  441.6305
 447  488.4564
 448  321.6904
 449  275.1707
 450  325.817
 451  302.323
 452  445.3842
 453  475.0071
 454  456.9477
 455  376.1501
 456  320.0772
 457  291.6721
 458  283.0898
 459  292.8986
 460  311.0142
 461  382.5837
 462  488.6328
 463  388.7404
 464  207.4203
 465  242.5138
 466  293.7664
 467  361.9516
 468  387.9617
 469  504.5952
 470  516.6708
 471  454.5257
 472  468.963
 473  420.5539
 474  380.9517
 475  303.2127
 476  278.8085
 477  342.782
 478  394.2774
 479  462.1803
 480  384.6276
 481  293.1582
 482  452.3106
 483  466.2114
 484  407.3507
 485  362.8842
 486  424.6707
 487  449.8123
 488  487.4482
 489  378.501
 490  453.581
 491  412.3246
 492  453.2014
 493  364.6826
 494  473.783
 495  425.7086
 496  400.5729
 497  419.1144
 498  327.5757
 499  303.6229
 500  343.9356
 501  405.8116
 502  430.9167
 503  450.6846
 504  529.6268
 505  619.5745
 506  581.1995
 507  609.4984
 508  530.3937
 509  631.5533
 510  836.2927
 511  1001.249
