# Input file       =  1184731253.101969-PSRB0329-2ms-sampling-dd.dat
# Candidate        =  PSR_0332+5434
# Telescope        =  AR
# Epoch_topo       =  57956.167501180200
# Epoch_bary       =  N/A
# T_sample         =  0.002
# Data Folded      =  7340032
# Data Avg         =  -1.07708139122972e-10
# Data StdDev      =  12.1308123109641 
# Profile Bins     =  512
# Profile Avg      =  0.00958003553513942
# Profile StdDev   =  1452.45899170838 
# Reduced chi-sqr  =  1.276
# Prob(Noise)      <  2.28e-05   (~4.1 sigma)
# P_topo (ms)      =  714.474457140744  +/- 0.000997
# P'_topo (s/s)    =  -0                +/- 5.26e-10
# P''_topo (s/s^2) =  0                 +/- 2.32e-13
# P_bary (ms)      =  N/A
# P'_bary (s/s)    =  N/A
# P''_bary (s/s^2) =  N/A
# P_orb (s)        =  N/A
# asin(i)/c (s)    =  N/A
# eccentricity     =  N/A
# w (rad)          =  N/A
# T_peri           =  N/A
######################################################
   0  903.3029
   1  1671.741
   2  1350.229
   3  1317.481
   4  1030.709
   5  -450.3224
   6  -646.0731
   7  677.584
   8  1600.164
   9  1824.543
  10  1766.772
  11  1142.839
  12  -1.454461
  13  1271.398
  14  1541.396
  15  1575.747
  16  2353.159
  17  2188.42
  18  1181.296
  19  1424.084
  20  1317.527
  21  1451.715
  22  523.6085
  23  587.9354
  24  1361.615
  25  778.0574
  26  490.639
  27  1243.485
  28  1827.751
  29  2309.408
  30  793.4711
  31  575.5753
  32  1277.431
  33  3193.176
  34  2592.531
  35  1641.666
  36  2486.425
  37  3066.554
  38  2236.344
  39  1406.22
  40  1340.4
  41  202.2208
  42  201.5177
  43  1384.475
  44  1404.903
  45  966.3805
  46  -121.0708
  47  -484.8291
  48  277.4665
  49  1184.838
  50  963.2724
  51  559.1952
  52  383.4309
  53  104.5408
  54  120.9485
  55  439.7945
  56  1126.9
  57  284.5856
  58  1310.91
  59  2170.992
  60  3162.251
  61  1578.57
  62  1356.604
  63  972.8462
  64  1129.127
  65  2233.287
  66  3380.49
  67  2476.455
  68  1804.337
  69  1221.929
  70  1191.247
  71  1098.368
  72  1652.413
  73  1580.041
  74  897.4366
  75  781.3007
  76  837.3408
  77  912.5024
  78  851.5779
  79  604.8369
  80  114.8328
  81  335.9896
  82  937.76
  83  720.7264
  84  813.4075
  85  101.9481
  86  -1024.198
  87  -645.1775
  88  -653.4292
  89  -269.347
  90  -535.8162
  91  240.0303
  92  -551.3455
  93  -502.9055
  94  -754.4081
  95  -498.3049
  96  -536.9974
  97  -498.7151
  98  -154.92
  99  739.0286
 100  875.6979
 101  1088.058
 102  859.6617
 103  -148.7949
 104  -809.6188
 105  -1518.516
 106  -635.1625
 107  23.13854
 108  1156.439
 109  1134.77
 110  -163.9577
 111  -380.4237
 112  -1343.184
 113  -1498.253
 114  -1428.341
 115  -1166.443
 116  -336.6903
 117  232.6843
 118  385.6552
 119  -179.428
 120  -926.8746
 121  -334.7205
 122  -1375.583
 123  -309.8034
 124  306.7264
 125  169.3521
 126  -479.1256
 127  -351.509
 128  586.2735
 129  526.2645
 130  782.5817
 131  -582.577
 132  -1764.789
 133  -2056.573
 134  -1282.555
 135  -233.099
 136  -833.4122
 137  -534.8304
 138  -1355.543
 139  -1816.329
 140  -2174.984
 141  -1980.232
 142  -1978.207
 143  -1110.347
 144  -745.0327
 145  -1468.431
 146  -1704.711
 147  -2750.913
 148  -1267.265
 149  -1337.716
 150  -1699.76
 151  -2103.051
 152  -1873.577
 153  -2095.101
 154  -2418.337
 155  -1738.163
 156  -1110.523
 157  -402.7521
 158  -1448.288
 159  -2450.979
 160  -2986.458
 161  -2690.864
 162  -1847.296
 163  -1556.446
 164  -478.7824
 165  17.09941
 166  -593.5186
 167  -1772.13
 168  -2519.481
 169  -2717.041
 170  -1820.032
 171  -408.5252
 172  446.7197
 173  -325.2393
 174  -1088.707
 175  -1967.571
 176  -1927.139
 177  -1456.275
 178  -853.6263
 179  -863.15
 180  -1738.052
 181  -1883.085
 182  -912.8192
 183  249.9793
 184  900.7381
 185  -748.9003
 186  -1329.71
 187  217.6406
 188  464.087
 189  810.7472
 190  911.9753
 191  -242.838
 192  -876.0204
 193  -1427.134
 194  158.4664
 195  1998.471
 196  1080.768
 197  229.126
 198  -668.4481
 199  -836.4279
 200  -613.4764
 201  67.29959
 202  582.4572
 203  1574.709
 204  -305.3603
 205  -715.0483
 206  -1070.125
 207  -399.0011
 208  677.4365
 209  761.5861
 210  -389.8933
 211  -490.2018
 212  111.9476
 213  151.9195
 214  -79.96097
 215  -20.41839
 216  168.0199
 217  -1550.941
 218  -643.1855
 219  118.7562
 220  618.4773
 221  -194.4838
 222  -1334.099
 223  -2322.943
 224  -1364.047
 225  -1403.103
 226  -1041.19
 227  -237.087
 228  -755.4493
 229  -1649.829
 230  -787.4659
 231  361.6804
 232  -850.0726
 233  -1666.668
 234  -1690.413
 235  -2058.537
 236  -1208.223
 237  -1018.25
 238  -1124.332
 239  -175.2187
 240  -1141.137
 241  -1331.839
 242  -1125.07
 243  -803.1537
 244  -1651.478
 245  -2137.677
 246  -1463.199
 247  -2017.609
 248  -1520.868
 249  -1348.18
 250  350.4624
 251  -714.1797
 252  -1985.675
 253  -1527.071
 254  -1811.203
 255  -1526.725
 256  -1427.823
 257  -1152.713
 258  -767.4384
 259  -419.3191
 260  -383.3282
 261  31.53275
 262  -763.7521
 263  -1531.729
 264  -1461.35
 265  -1764.928
 266  -141.5256
 267  456.2435
 268  997.1047
 269  460.6091
 270  -896.2485
 271  -1366.211
 272  -1488.988
 273  -765.2218
 274  -190.5617
 275  -8.290741
 276  -826.9122
 277  -1526.11
 278  -1466.24
 279  -1368.042
 280  -109.609
 281  544.9923
 282  -165.8196
 283  -619.6888
 284  -786.8776
 285  -821.3161
 286  -290.8564
 287  59.16969
 288  683.0877
 289  470.3746
 290  -331.1914
 291  -380.628
 292  -206.0596
 293  -794.6865
 294  -879.2974
 295  -1673.558
 296  -1833.551
 297  -1380.695
 298  -1376.47
 299  -1282.743
 300  -1820.518
 301  -1703.721
 302  -1939.443
 303  -1935.773
 304  -1541.816
 305  -1150.874
 306  -1207.973
 307  -951.8701
 308  -379.0833
 309  -974.8971
 310  -595.7795
 311  -257.7028
 312  -650.2272
 313  -907.6095
 314  -526.5043
 315  -624.5763
 316  -1195.405
 317  -1486.652
 318  -245.1815
 319  -291.129
 320  -329.6656
 321  -485.8678
 322  -740.053
 323  -1032.719
 324  -803.9122
 325  -641.1971
 326  -788.2028
 327  -385.5555
 328  1179.592
 329  1185.01
 330  189.1292
 331  -6.439479
 332  -741.0978
 333  -989.3378
 334  -464.0204
 335  1246.906
 336  1942.821
 337  1382.033
 338  1610.763
 339  710.7672
 340  -834.0181
 341  -17.65627
 342  215.3165
 343  243.5531
 344  836.8584
 345  523.0656
 346  859.7656
 347  842.4794
 348  902.3194
 349  -10.46682
 350  -545.1482
 351  -490.1668
 352  -1426.377
 353  -1469.986
 354  260.9719
 355  754.41
 356  34.5061
 357  -725.6332
 358  -1672.321
 359  -1719.41
 360  -1166.257
 361  -876.3574
 362  -784.4832
 363  -1112.493
 364  -1470.209
 365  -486.5505
 366  75.13949
 367  621.6072
 368  772.8632
 369  412.2888
 370  859.4062
 371  497.722
 372  37.55672
 373  1040.598
 374  554.0669
 375  248.1073
 376  765.4473
 377  1265.269
 378  976.1958
 379  126.6431
 380  223.3011
 381  -51.2712
 382  -510.3138
 383  476.8792
 384  568.7234
 385  -135.262
 386  527.8811
 387  1568.782
 388  572.3917
 389  450.6611
 390  788.119
 391  1551.56
 392  1255.702
 393  1387.434
 394  2643.741
 395  1806.265
 396  1915.397
 397  2220.884
 398  2779.515
 399  1634.712
 400  1650.943
 401  1394.451
 402  1450.892
 403  2383.492
 404  2523.742
 405  2627.745
 406  1898.582
 407  2277.832
 408  2152.383
 409  1539.907
 410  1285.034
 411  286.189
 412  157.3918
 413  1221.787
 414  1186.714
 415  896.3715
 416  1379.6
 417  1444.897
 418  600.1202
 419  464.0038
 420  1230.286
 421  1526.273
 422  1295.915
 423  594.3229
 424  -317.9905
 425  -1079.686
 426  -359.3751
 427  919.1025
 428  878.7973
 429  623.1643
 430  349.409
 431  292.2724
 432  691.2663
 433  1086.994
 434  1868.125
 435  799.6815
 436  539.3268
 437  974.0328
 438  1150.223
 439  1598.978
 440  1806.332
 441  60.3628
 442  167.1078
 443  931.5562
 444  1021.11
 445  1130.06
 446  1993.652
 447  1244.284
 448  282.1822
 449  794.7205
 450  421.4859
 451  196.879
 452  198.7253
 453  799.5964
 454  -203.6996
 455  -1526.248
 456  -581.0975
 457  -202.9112
 458  -244.9104
 459  205.8699
 460  -257.366
 461  -382.1012
 462  -501.317
 463  -1305.578
 464  -968.527
 465  -854.506
 466  -617.9514
 467  -1314.232
 468  -419.6307
 469  -286.6549
 470  -182.1505
 471  -391.6457
 472  -1351.3
 473  -1737.826
 474  -2315.792
 475  -1568.638
 476  -879.8849
 477  154.5891
 478  32.86666
 479  -279.237
 480  -758.5876
 481  -1197.59
 482  -864.1473
 483  -102.3151
 484  454.9459
 485  845.8528
 486  853.2335
 487  467.1998
 488  755.6141
 489  779.7215
 490  773.5558
 491  146.3304
 492  244.7852
 493  517.3481
 494  370.7249
 495  1265.625
 496  1802.5
 497  1889.413
 498  1204.7
 499  356.6868
 500  9.818905
 501  -416.0925
 502  909.3804
 503  971.6724
 504  1515.658
 505  1376.398
 506  636.7354
 507  -74.16451
 508  146.5755
 509  1102.574
 510  1636.299
 511  1074.098
