# Input file       =  1184315356.111366_cleaned.dat
# Candidate        =  PSR_0332+5434
# Telescope        =  AR
# Epoch_topo       =  57951.353878603775
# Epoch_bary       =  N/A
# T_sample         =  0.002
# Data Folded      =  7340032
# Data Avg         =  0.282767522227783
# Data StdDev      =  5.40260070974888 
# Profile Bins     =  512
# Profile Avg      =  4053.61706045624 
# Profile StdDev   =  646.869787309506 
# Reduced chi-sqr  =  0.837
# Prob(Noise)      <  0.997   (~0.0 sigma)
# P_topo (ms)      =  714.477723419247  +/- 0.000249
# P'_topo (s/s)    =  -0                +/- 1.32e-10
# P''_topo (s/s^2) =  0                 +/- 5.81e-14
# P_bary (ms)      =  N/A
# P'_bary (s/s)    =  N/A
# P''_bary (s/s^2) =  N/A
# P_orb (s)        =  N/A
# asin(i)/c (s)    =  N/A
# eccentricity     =  N/A
# w (rad)          =  N/A
# T_peri           =  N/A
######################################################
   0  4024.805
   1  3983.486
   2  3813.971
   3  3995.95
   4  4189.245
   5  4483.69
   6  4394.342
   7  4375.682
   8  4082.24
   9  4256.54
  10  4547.035
  11  4482.624
  12  4583.066
  13  4530.296
  14  4555.819
  15  4245.276
  16  4157.085
  17  4403.289
  18  4291.846
  19  4461.897
  20  4354.463
  21  3974.134
  22  4329.812
  23  4132.883
  24  4034.493
  25  4476.728
  26  4580.903
  27  4946.156
  28  4765.171
  29  4455.417
  30  4224.408
  31  4186.101
  32  4005.854
  33  3959.22
  34  4047.182
  35  4248.847
  36  4234.59
  37  4106.07
  38  3925.339
  39  3400.138
  40  3417.234
  41  3516.573
  42  3857.523
  43  3879.404
  44  3863.108
  45  3837.679
  46  3476.658
  47  3124.691
  48  3108.254
  49  3742.185
  50  4306.379
  51  4576.448
  52  4477.183
  53  4411.733
  54  4476.317
  55  3882.718
  56  4153.843
  57  3808.66
  58  4493.566
  59  4389.667
  60  4484.603
  61  4826.172
  62  4442.348
  63  4177.462
  64  3923.426
  65  3865.96
  66  3574.222
  67  3308.342
  68  3507.476
  69  3877.498
  70  4556.13
  71  4493.865
  72  3404.006
  73  3375.775
  74  3544.832
  75  3445.241
  76  3703.487
  77  4113.931
  78  4442.821
  79  4491.832
  80  4063.855
  81  3753.801
  82  3869.871
  83  3345.028
  84  3381.592
  85  3707.383
  86  3992.909
  87  3969.767
  88  4052.252
  89  3936.417
  90  3887.379
  91  4288.472
  92  3933.577
  93  4013.439
  94  4564.412
  95  4346.137
  96  4201.562
  97  4387.842
  98  4173.754
  99  3649.454
 100  3811.561
 101  4021.106
 102  4280.447
 103  4636.895
 104  4579.21
 105  3945.031
 106  3826.346
 107  4205.46
 108  4430.388
 109  4427.277
 110  4108.409
 111  4113.035
 112  3847.624
 113  3923.501
 114  4154.994
 115  4249.839
 116  4445.538
 117  4091.471
 118  4016.929
 119  4289.466
 120  4340.624
 121  4166.592
 122  3708.371
 123  3887.664
 124  3851.357
 125  3424.153
 126  3434.049
 127  3751
 128  4065.102
 129  3993.885
 130  4297.75
 131  4588.936
 132  4038.005
 133  4018.854
 134  4359.546
 135  4022.633
 136  3716.233
 137  3946.934
 138  3854.771
 139  3664.708
 140  3882.534
 141  4139.458
 142  3735.111
 143  4006.982
 144  4125.318
 145  3875.809
 146  3887.411
 147  4200.399
 148  3878.416
 149  3824.944
 150  4008.234
 151  3881.81
 152  3918.406
 153  3959.794
 154  3953.17
 155  4412.168
 156  4004.018
 157  4173.952
 158  4280.974
 159  3854.523
 160  4000.706
 161  4180.497
 162  4415.571
 163  4005.157
 164  3795.396
 165  3792.679
 166  3414.713
 167  3397.828
 168  3787.286
 169  4301.134
 170  4066.791
 171  3575.614
 172  3595.977
 173  3361.749
 174  3546.405
 175  3608.153
 176  4095.049
 177  4367.703
 178  4174.021
 179  4425.379
 180  4362.768
 181  3781.411
 182  3919.45
 183  4388.672
 184  4215.385
 185  4291.726
 186  4550.879
 187  4196.384
 188  4004.149
 189  4360.579
 190  4642.738
 191  4773.725
 192  4691.796
 193  4387.257
 194  3954.957
 195  4229.418
 196  4142.655
 197  3486.532
 198  3756.384
 199  3831.35
 200  3456.883
 201  3317.881
 202  3559.198
 203  3244.409
 204  3107.604
 205  3067.443
 206  2841.995
 207  2980.07
 208  3204.772
 209  3790.037
 210  4621.148
 211  4119.821
 212  3539.43
 213  3519.574
 214  3534.716
 215  3599.064
 216  3827.058
 217  4388.866
 218  3994.19
 219  3656.782
 220  4428.019
 221  4546.566
 222  4024.763
 223  4087.955
 224  3843.047
 225  3973.512
 226  4163.242
 227  3954.708
 228  3939.279
 229  4329.516
 230  3527.18
 231  3771.31
 232  3922.934
 233  3607.46
 234  3177.551
 235  3257.771
 236  4008.024
 237  3724.352
 238  3984.353
 239  3828.258
 240  3539.388
 241  3713.283
 242  3983.503
 243  4263.898
 244  4295.577
 245  4329.374
 246  4580.192
 247  4083.446
 248  4128.207
 249  4197.782
 250  4293.447
 251  4571.414
 252  4408.561
 253  3972.957
 254  3728.193
 255  3725.136
 256  3691.929
 257  3495.805
 258  3519.703
 259  3825.856
 260  3750.949
 261  3736.95
 262  3639.803
 263  3454.613
 264  3573.312
 265  3400.439
 266  3740.016
 267  3617.67
 268  3774.142
 269  4094.482
 270  3611.967
 271  4028.166
 272  3991.185
 273  3749.64
 274  3893.63
 275  3832.828
 276  3837.12
 277  4168.694
 278  4462.126
 279  4144.62
 280  4016.919
 281  3828.858
 282  3772.884
 283  3675.821
 284  3615.897
 285  3894.975
 286  4051.772
 287  4048.917
 288  4075.546
 289  3670.992
 290  4020.588
 291  3939.418
 292  3324.923
 293  3352.743
 294  3595.657
 295  3342.645
 296  3411.276
 297  3643.153
 298  3498.948
 299  3279.321
 300  3469.17
 301  3551.177
 302  3164.683
 303  3347.259
 304  4032.166
 305  4433.252
 306  4037.049
 307  4079.147
 308  3657.288
 309  3683.025
 310  3691.403
 311  4125.624
 312  4240.856
 313  3709.403
 314  3720.884
 315  3956.976
 316  4300.958
 317  4045.935
 318  4161.01
 319  4548.961
 320  4490.279
 321  4771.033
 322  4986.614
 323  5206.675
 324  5628.021
 325  6167.653
 326  6056.564
 327  6011.934
 328  5507.355
 329  5128.999
 330  4607.764
 331  4055.029
 332  3697.977
 333  4105.706
 334  4438.077
 335  4052.397
 336  3570.906
 337  3237.932
 338  3537.636
 339  3810.379
 340  3654.746
 341  3627.112
 342  4036.289
 343  4279.559
 344  3875.81
 345  4122.547
 346  4339.192
 347  4033.291
 348  3993.077
 349  4106.733
 350  4636.035
 351  4064.537
 352  3877.855
 353  3803.401
 354  3715.967
 355  3763.616
 356  3852.654
 357  4344.18
 358  4235.285
 359  3938.141
 360  3712.349
 361  3652.314
 362  3800.514
 363  3208.897
 364  3689.268
 365  3474.497
 366  3462.718
 367  4325.199
 368  4275.134
 369  4146.64
 370  4177.717
 371  4425.567
 372  3910.683
 373  3557.651
 374  3899.201
 375  3937.496
 376  4393.478
 377  4367.208
 378  4325.561
 379  4178.551
 380  3671.547
 381  4030.745
 382  4083.094
 383  3827.867
 384  3656.473
 385  3608.699
 386  3741.165
 387  3764.246
 388  3606.91
 389  3648.781
 390  4030.219
 391  4376.622
 392  4062.653
 393  4107.672
 394  4424.183
 395  4338.247
 396  4158.042
 397  3921.831
 398  3807.962
 399  3708.489
 400  4130.013
 401  4497.712
 402  3914.97
 403  4221.816
 404  4434.519
 405  4206.62
 406  4042.474
 407  3822.732
 408  3891.3
 409  4091.117
 410  4116.312
 411  3746.779
 412  3840.794
 413  4102.808
 414  3753.712
 415  3653.793
 416  3976.764
 417  4372.9
 418  4242.379
 419  4235.095
 420  4405.897
 421  4343.197
 422  4435.539
 423  4617.553
 424  4411.123
 425  4117.385
 426  4037.564
 427  4616.447
 428  4880.817
 429  4546.747
 430  4629.003
 431  4627.714
 432  4781.872
 433  5140.032
 434  4864.163
 435  4315.937
 436  4368.833
 437  4106.096
 438  4333.468
 439  4623.074
 440  4706.249
 441  5122.259
 442  4794.655
 443  4548.817
 444  4615.448
 445  4519.124
 446  4631.505
 447  4894.218
 448  4896.707
 449  4496.773
 450  4457.358
 451  4395.49
 452  4270.408
 453  4035.569
 454  4062.092
 455  4439.714
 456  4210.885
 457  4211.046
 458  4375.521
 459  4457.171
 460  4004.85
 461  3851.321
 462  4181.311
 463  4000.48
 464  4083.842
 465  4560.062
 466  4571.636
 467  4266.062
 468  4361.568
 469  4475.232
 470  4267.771
 471  4349.305
 472  3989.709
 473  4138.872
 474  4848.035
 475  4441.688
 476  4324.043
 477  3884.62
 478  3761.874
 479  3755.966
 480  3884.418
 481  3688.516
 482  3897.039
 483  4110.4
 484  4235.126
 485  4136.635
 486  4280.719
 487  4438.188
 488  4195.528
 489  3553.489
 490  3643.313
 491  4341.757
 492  4448.171
 493  4564.475
 494  4527.748
 495  4782.315
 496  4318.792
 497  4072.74
 498  3957.539
 499  3664.66
 500  3767.658
 501  3990.87
 502  3732.105
 503  3598.467
 504  3741.327
 505  4024.243
 506  4067.318
 507  3982.592
 508  3956.511
 509  3352.574
 510  3479.967
 511  3517.732
