# Input file       =  1184199632.104209-PSRB0329-2ms-sampling-dd.dat
# Candidate        =  PSR_0332+5434
# Telescope        =  AR
# Epoch_topo       =  57950.014480372789
# Epoch_bary       =  N/A
# T_sample         =  0.002
# Data Folded      =  7208960
# Data Avg         =  7.46775772935343e-10
# Data StdDev      =  6.00276812153251 
# Profile Bins     =  512
# Profile Avg      =  0.0312645767663333
# Profile StdDev   =  712.283517780727 
# Reduced chi-sqr  =  0.649
# Prob(Noise)      <  1   (~0.0 sigma)
# P_topo (ms)      =  714.478241726161  +/- 0.000206
# P'_topo (s/s)    =  -0                +/- 1.11e-10
# P''_topo (s/s^2) =  0                 +/- 4.97e-14
# P_bary (ms)      =  N/A
# P'_bary (s/s)    =  N/A
# P''_bary (s/s^2) =  N/A
# P_orb (s)        =  N/A
# asin(i)/c (s)    =  N/A
# eccentricity     =  N/A
# w (rad)          =  N/A
# T_peri           =  N/A
######################################################
   0  -63.29
   1  -149.6182
   2  -116.838
   3  -174.7701
   4  -79.08233
   5  -113.7617
   6  19.67352
   7  269.8079
   8  -114.6703
   9  -481.1913
  10  -499.4324
  11  -232.1453
  12  -143.9293
  13  -379.7364
  14  286.4766
  15  339.5016
  16  80.49844
  17  -38.2199
  18  168.1661
  19  220.8074
  20  127.7111
  21  28.24243
  22  372.9951
  23  473.8531
  24  396.1633
  25  198.0683
  26  165.4106
  27  288.1171
  28  -63.85175
  29  -227.1316
  30  162.2328
  31  103.1982
  32  60.94352
  33  -177.4389
  34  -433.869
  35  -622.01
  36  -398.4788
  37  -186.4362
  38  -194.2703
  39  -526.2614
  40  -520.1389
  41  -425.0551
  42  -1016.049
  43  -1142.08
  44  -907.5876
  45  -295.3192
  46  -178.9355
  47  0.5822976
  48  -118.0442
  49  -329.942
  50  -748.2633
  51  -1028.48
  52  -828.322
  53  -611.847
  54  -7.256886
  55  233.0127
  56  436.0038
  57  368.6208
  58  -167.0806
  59  -539.4262
  60  -385.1924
  61  -545.2321
  62  -444.0952
  63  -458.8983
  64  -192.7046
  65  -155.3739
  66  -307.6388
  67  -475.9063
  68  -199.8065
  69  -234.9877
  70  -621.5988
  71  -183.4515
  72  13.468
  73  -154.0812
  74  -571.0021
  75  -530.865
  76  -574.5796
  77  -532.4928
  78  82.87716
  79  -408.3747
  80  -566.2806
  81  -242.473
  82  82.11732
  83  179.1453
  84  -13.9171
  85  -21.5001
  86  -380.4934
  87  -94.6405
  88  256.2285
  89  638.6946
  90  580.2479
  91  266.1106
  92  -185.9373
  93  -34.2662
  94  -208.119
  95  -435.2965
  96  -469.6745
  97  -466.9641
  98  28.19335
  99  -108.4997
 100  -142.7703
 101  -462.5909
 102  -505.049
 103  -209.0015
 104  -509.6209
 105  -265.9047
 106  -740.589
 107  -942.2203
 108  -497.9955
 109  -646.3375
 110  -643.5039
 111  -592.5336
 112  -580.3254
 113  -680.7777
 114  -405.7647
 115  -696.0981
 116  -593.7545
 117  -744.0272
 118  -768.7436
 119  -756.1882
 120  151.5836
 121  -44.8905
 122  6.531962
 123  156.4818
 124  -24.81757
 125  -364.0395
 126  -1003.081
 127  -751.7491
 128  -539.3118
 129  19.73237
 130  -119.7992
 131  -621.1538
 132  -655.8787
 133  -572.2271
 134  -460.4066
 135  -537.0289
 136  -232.5935
 137  -163.0121
 138  21.57328
 139  -143.754
 140  -490.8176
 141  -879.6039
 142  -825.8228
 143  -482.258
 144  -238.7821
 145  -217.3164
 146  -641.4865
 147  -389.6405
 148  -203.759
 149  85.8982
 150  -116.7538
 151  -152.2439
 152  -139.3851
 153  154.7268
 154  507.4705
 155  301.5038
 156  593.3027
 157  138.5487
 158  -155.6262
 159  80.60478
 160  52.76484
 161  303.6628
 162  302.9642
 163  10.85037
 164  215.5383
 165  809.292
 166  837.6689
 167  1028.439
 168  1467.206
 169  1610.514
 170  1760.6
 171  1520.595
 172  1342.398
 173  948.6191
 174  642.4043
 175  208.9496
 176  -9.904025
 177  -518.7205
 178  -569.2966
 179  -543.7338
 180  -776.5995
 181  -326.2984
 182  -305.4647
 183  350.3191
 184  6.983761
 185  -242.211
 186  -89.33821
 187  -205.2447
 188  -68.99665
 189  -113.4226
 190  -244.9497
 191  -223.6506
 192  -265.547
 193  -42.67437
 194  -322.2063
 195  -272.2255
 196  -279.4806
 197  -270.457
 198  -132.6923
 199  -303.9359
 200  -519.4904
 201  -118.621
 202  -437.1126
 203  -190.4181
 204  -166.7261
 205  373.1333
 206  115.6567
 207  136.9588
 208  -8.737322
 209  -539.8082
 210  -456.4318
 211  -803.9237
 212  -217.9123
 213  -161.9066
 214  48.02547
 215  261.4258
 216  402.2888
 217  -41.48318
 218  -88.36916
 219  100.4064
 220  -143.4333
 221  -193.2226
 222  -193.1011
 223  74.59979
 224  39.80587
 225  177.6794
 226  201.675
 227  198.3273
 228  44.78603
 229  -239.4859
 230  125.6591
 231  91.62151
 232  577.3096
 233  400.017
 234  535.3389
 235  281.511
 236  20.0874
 237  223.5324
 238  -16.19123
 239  141.7713
 240  420.13
 241  441.6059
 242  78.18249
 243  -428.0443
 244  -142.2258
 245  -304.2436
 246  201.5843
 247  659.9548
 248  869.0797
 249  308.686
 250  301.1771
 251  251.8948
 252  417.937
 253  626.5547
 254  257.6606
 255  594.5839
 256  433.5994
 257  -72.08163
 258  -264.9091
 259  216.1243
 260  137.5847
 261  -240.6794
 262  -277.2854
 263  -570.0505
 264  -340.0319
 265  101.7306
 266  -80.96678
 267  -173.8164
 268  59.30658
 269  464.7593
 270  141.1968
 271  33.76826
 272  237.6555
 273  -136.8821
 274  -158.2908
 275  -439.0097
 276  -337.9391
 277  -454.4293
 278  -344.6562
 279  -261.7928
 280  -347.4487
 281  -495.7669
 282  -374.7534
 283  14.41013
 284  -335.7366
 285  -333.7119
 286  -149.5662
 287  -165.1605
 288  -329.3698
 289  -101.3384
 290  71.1959
 291  -523.5638
 292  -211.0069
 293  -499.2707
 294  147.4454
 295  -188.3937
 296  -64.07942
 297  389.9973
 298  -141.7189
 299  14.21648
 300  -245.1079
 301  527.4237
 302  138.3812
 303  710.3851
 304  817.5875
 305  262.836
 306  66.93449
 307  -102.2967
 308  253.5552
 309  2.435718
 310  199.1175
 311  199.5054
 312  -154.8178
 313  4.4119
 314  -86.24103
 315  125.0949
 316  136.2509
 317  -164.5423
 318  -314.351
 319  133.2016
 320  -140.5798
 321  -463.5374
 322  -37.42857
 323  90.69368
 324  -301.2426
 325  -439.9254
 326  -459.9565
 327  75.88362
 328  -114.9518
 329  47.41347
 330  190.4237
 331  280.8075
 332  -366.132
 333  -168.127
 334  404.451
 335  231.6749
 336  185.0552
 337  217.8046
 338  539.9891
 339  -110.1355
 340  -271.2145
 341  9.212926
 342  41.70749
 343  280.843
 344  -341.6762
 345  -610.5201
 346  -552.2932
 347  -12.64481
 348  22.44186
 349  210.8556
 350  -113.4313
 351  -424.9977
 352  211.3165
 353  50.94815
 354  -97.06155
 355  -47.52994
 356  16.93489
 357  -44.44634
 358  -226.3575
 359  -131.5695
 360  -96.28094
 361  34.87482
 362  86.54413
 363  80.00798
 364  -325.5707
 365  31.10629
 366  331.1867
 367  649.7637
 368  1088.77
 369  872.6829
 370  696.5085
 371  398.2154
 372  457.5037
 373  278.0978
 374  -71.22918
 375  305.3473
 376  484.7867
 377  619.0776
 378  447.5288
 379  307.399
 380  97.00319
 381  -208.2287
 382  9.03181
 383  -10.93072
 384  283.7743
 385  667.7987
 386  584.4633
 387  739.0108
 388  153.6641
 389  90.36553
 390  -105.2597
 391  -563.9449
 392  -463.1958
 393  -265.908
 394  68.02268
 395  -165.5578
 396  -272.5022
 397  -118.0433
 398  -227.4176
 399  -125.4986
 400  -203.2068
 401  70.60582
 402  167.9921
 403  430.0605
 404  414.1377
 405  88.57455
 406  -207.5934
 407  19.32639
 408  -135.0752
 409  145.1457
 410  319.6359
 411  -243.4651
 412  -70.77854
 413  -128.2386
 414  304.053
 415  235.1619
 416  235.2098
 417  182.7976
 418  350.0588
 419  489.1141
 420  159.4171
 421  223.3724
 422  -87.71727
 423  92.05637
 424  -8.715481
 425  -88.48875
 426  -66.72448
 427  -99.27486
 428  -143.3578
 429  -70.30948
 430  580.5994
 431  503.7938
 432  454.8876
 433  478.2972
 434  321.2172
 435  124.1164
 436  178.2618
 437  382.7369
 438  -154.5023
 439  220.3103
 440  350.6468
 441  556.2558
 442  462.6908
 443  494.1873
 444  882.6042
 445  534.7255
 446  283.485
 447  -208.8714
 448  198.4208
 449  623.0005
 450  701.0555
 451  1001.566
 452  1069.827
 453  491.2813
 454  143.8371
 455  293.4461
 456  410.4887
 457  420.0858
 458  434.5269
 459  878.6945
 460  475.734
 461  746.8117
 462  705.4205
 463  792.0716
 464  648.0998
 465  342.5767
 466  524.0114
 467  333.3155
 468  209.1024
 469  431.6633
 470  770.2787
 471  427.9432
 472  46.43008
 473  -189.4267
 474  54.98381
 475  119.2332
 476  398.6667
 477  244.6197
 478  178.1161
 479  207.7604
 480  -270.4005
 481  -357.2788
 482  -378.7424
 483  288.5656
 484  440.6462
 485  251.7698
 486  424.6535
 487  -321.0683
 488  -574.6116
 489  -1181.792
 490  -476.0458
 491  -242.9001
 492  82.37807
 493  318.8375
 494  489.5732
 495  -68.65179
 496  -23.77912
 497  361.0146
 498  31.98201
 499  111.7658
 500  138.1529
 501  437.2567
 502  538.7658
 503  629.97
 504  441.8518
 505  135.9712
 506  374.6729
 507  113.4038
 508  82.67242
 509  116.9325
 510  27.21409
 511  93.6894
