# Input file       =  1184113454.097065_cleaned.dat
# Candidate        =  PSR_0332+5434
# Telescope        =  AR
# Epoch_topo       =  57949.017049734546
# Epoch_bary       =  N/A
# T_sample         =  0.002
# Data Folded      =  7208960
# Data Avg         =  0.0331089464858121
# Data StdDev      =  1.0000729856281  
# Profile Bins     =  512
# Profile Avg      =  466.178855613418 
# Profile StdDev   =  118.667836208006 
# Reduced chi-sqr  =  1.346
# Prob(Noise)      <  2.59e-07   (~5.0 sigma)
# P_topo (ms)      =  714.478898462318  +/- 0.000234
# P'_topo (s/s)    =  -0                +/- 1.26e-10
# P''_topo (s/s^2) =  0                 +/- 5.65e-14
# P_bary (ms)      =  N/A
# P'_bary (s/s)    =  N/A
# P''_bary (s/s^2) =  N/A
# P_orb (s)        =  N/A
# asin(i)/c (s)    =  N/A
# eccentricity     =  N/A
# w (rad)          =  N/A
# T_peri           =  N/A
######################################################
   0  1195.868
   1  1045.832
   2  849.5143
   3  671.8785
   4  559.1442
   5  540.8843
   6  543.1591
   7  600.4677
   8  649.5576
   9  436.4401
  10  412.7482
  11  533.2025
  12  585.5471
  13  545.4998
  14  523.0507
  15  505.9594
  16  484.0493
  17  562.7049
  18  550.3229
  19  561.4591
  20  516.7257
  21  394.7353
  22  466.6649
  23  466.7732
  24  523.7052
  25  471.8895
  26  382.0217
  27  444.9307
  28  453.5772
  29  492.1476
  30  436.3701
  31  361.7734
  32  453.58
  33  380.3629
  34  449.1678
  35  454.8302
  36  517.2822
  37  452.6563
  38  531.3345
  39  418.6789
  40  452.1547
  41  382.9354
  42  382.9024
  43  491.204
  44  469.3734
  45  456.4615
  46  461.5337
  47  363.0311
  48  328.1253
  49  362.8813
  50  448.2069
  51  458.6926
  52  258.2561
  53  359.0074
  54  421.9518
  55  390.6081
  56  403.4025
  57  453.2273
  58  361.3948
  59  375.1085
  60  488.0513
  61  504.2421
  62  427.3088
  63  419.7692
  64  521.4031
  65  523.9581
  66  480.7078
  67  517.7568
  68  533.535
  69  466.2127
  70  498.9313
  71  606.0883
  72  570.2797
  73  549.7579
  74  454.4183
  75  423.9566
  76  444.1161
  77  547.8608
  78  645.7993
  79  598.6124
  80  470.5165
  81  559.2017
  82  617.0071
  83  576.6602
  84  550.1805
  85  501.3121
  86  506.4725
  87  589.8336
  88  567.2399
  89  561.8274
  90  519.1657
  91  515.6367
  92  649.6276
  93  711.0266
  94  593.563
  95  557.197
  96  573.8773
  97  596.8712
  98  619.97
  99  516.6712
 100  474.1843
 101  442.6577
 102  609.1788
 103  598.4905
 104  533.1458
 105  483.1336
 106  483.0749
 107  517.1457
 108  556.7144
 109  569.3528
 110  528.9904
 111  554.0426
 112  560.4265
 113  532.0541
 114  506.7866
 115  563.9672
 116  496.2425
 117  466.3777
 118  435.5008
 119  506.0621
 120  489.4068
 121  327.1642
 122  415.2371
 123  569.4282
 124  464.943
 125  520.687
 126  466.1998
 127  518.7767
 128  557.2334
 129  473.7514
 130  463.7608
 131  463.0087
 132  555.2892
 133  551.2109
 134  495.5335
 135  455.2439
 136  453.1355
 137  441.6974
 138  409.508
 139  507.8196
 140  501.4365
 141  517.0496
 142  470.4091
 143  414.6138
 144  311.7126
 145  477.8222
 146  527.923
 147  558.1364
 148  485.2258
 149  453.4205
 150  437.7363
 151  374.3794
 152  456.4133
 153  517.2197
 154  525.0405
 155  583.8682
 156  670.2206
 157  507.6065
 158  512.9089
 159  488.1526
 160  524.1019
 161  591.6775
 162  592.5697
 163  527.8879
 164  516.477
 165  529.9706
 166  465.4747
 167  460.5264
 168  462.4854
 169  486.4923
 170  389.0086
 171  355.159
 172  401.2998
 173  432.3388
 174  500.9619
 175  367.5367
 176  398.5814
 177  433.8955
 178  414.278
 179  479.3796
 180  404.2514
 181  352.8213
 182  348.0796
 183  378.631
 184  399.977
 185  374.147
 186  275.522
 187  351.8586
 188  373.9547
 189  437.1894
 190  380.552
 191  420.4261
 192  463.1478
 193  449.3812
 194  422.6898
 195  435.8089
 196  379.9672
 197  413.5107
 198  318.4653
 199  291.0233
 200  321.7012
 201  405.8446
 202  435.4568
 203  472.3639
 204  544.8251
 205  538.3696
 206  515.8376
 207  468.3636
 208  337.9916
 209  419.075
 210  491.9178
 211  508.3666
 212  420.6681
 213  502.7982
 214  389.2427
 215  431.3889
 216  550.1553
 217  544.2253
 218  506.9798
 219  496.9667
 220  509.2703
 221  450.9196
 222  618.6935
 223  542.8519
 224  509.9681
 225  533.693
 226  544.6242
 227  468.8816
 228  492.1153
 229  568.1738
 230  639.5895
 231  471.6778
 232  521.4723
 233  401.2344
 234  346.8087
 235  480.1686
 236  543.226
 237  418.7896
 238  465.3869
 239  633.8239
 240  537.2827
 241  335.4023
 242  398.484
 243  394.8559
 244  381.0139
 245  495.3772
 246  549.054
 247  486.7034
 248  463.5721
 249  381.8427
 250  380.3604
 251  353.9938
 252  377.8527
 253  392.806
 254  427.2633
 255  517.9235
 256  488.9225
 257  416.7333
 258  423.5349
 259  439.3567
 260  350.7437
 261  418.4482
 262  437.62
 263  418.2947
 264  375.0878
 265  390.4583
 266  389.3985
 267  377.5565
 268  346.7333
 269  375.1982
 270  408.262
 271  497.024
 272  423.7584
 273  433.433
 274  435.0477
 275  527.5153
 276  506.3843
 277  467.6663
 278  345.5076
 279  452.1758
 280  576.0194
 281  489.1372
 282  412.716
 283  461.4471
 284  594.3305
 285  514.3073
 286  483.5851
 287  474.1716
 288  466.6615
 289  443.6239
 290  420.7244
 291  494.4378
 292  578.3022
 293  667.202
 294  470.2921
 295  417.4091
 296  565.7902
 297  534.1585
 298  472.2433
 299  445.9203
 300  585.4422
 301  538.132
 302  507.893
 303  451.6787
 304  547.4722
 305  594.9064
 306  531.3629
 307  526.8694
 308  498.9066
 309  391.8178
 310  335.9416
 311  359.1502
 312  442.2319
 313  516.8046
 314  559.0253
 315  625.6652
 316  571.8266
 317  479.8606
 318  412.4843
 319  378.4298
 320  453.2827
 321  596.1428
 322  517.0831
 323  422.0996
 324  405.2761
 325  463.1649
 326  495.6473
 327  484.0544
 328  562.8107
 329  486.5291
 330  375.6178
 331  382.6085
 332  371.873
 333  410.1785
 334  462.2965
 335  315.5448
 336  339.1786
 337  378.5788
 338  462.2868
 339  481.2
 340  475.3164
 341  409.1802
 342  336.1943
 343  466.3929
 344  451.1634
 345  458.062
 346  427.3626
 347  431.3746
 348  381.9554
 349  341.5807
 350  445.585
 351  493.8636
 352  549.025
 353  585.0596
 354  520.0167
 355  506.8706
 356  431.0383
 357  294.0342
 358  340.8478
 359  504.655
 360  455.3777
 361  360.8891
 362  422.7354
 363  509.0842
 364  406.7489
 365  412.7978
 366  458.5167
 367  500.7842
 368  520.4429
 369  464.4282
 370  485.3153
 371  406.5607
 372  421.5587
 373  530.0159
 374  417.0648
 375  425.6078
 376  470.3298
 377  460.8238
 378  462.7187
 379  346.4333
 380  454.3073
 381  441.5083
 382  466.5282
 383  517.1392
 384  479.9702
 385  518.4612
 386  452.0794
 387  462.5241
 388  589.2817
 389  541.4539
 390  387.8216
 391  427.2416
 392  458.4205
 393  369.3459
 394  415.5695
 395  444.9292
 396  518.8389
 397  411.4411
 398  473.8481
 399  448.5988
 400  414.177
 401  364.2672
 402  291.1815
 403  365.2163
 404  399.7622
 405  439.7878
 406  450.7378
 407  390.07
 408  381.8243
 409  370.7144
 410  413.0965
 411  352.7818
 412  388.3959
 413  402.4894
 414  420.9572
 415  298.1311
 416  307.9659
 417  230.992
 418  266.232
 419  363.6339
 420  384.1257
 421  387.9243
 422  411.9933
 423  261.7491
 424  242.1004
 425  390.731
 426  481.4818
 427  388.5318
 428  302.7262
 429  379.3007
 430  391.8052
 431  294.5963
 432  294.2059
 433  426.6177
 434  457.5662
 435  420.9385
 436  501.0136
 437  483.7369
 438  486.2292
 439  539.8484
 440  513.3399
 441  439.677
 442  525.7293
 443  551.5156
 444  430.4119
 445  421.073
 446  504.7121
 447  508.0218
 448  490.5665
 449  574.0242
 450  622.436
 451  621.3187
 452  495.9659
 453  331.6028
 454  329.4379
 455  452.2863
 456  499.8159
 457  438.8611
 458  387.1676
 459  386.4959
 460  365
 461  422.2165
 462  447.2894
 463  414.3564
 464  290.5911
 465  372.9023
 466  450.2674
 467  427.3815
 468  497.8742
 469  451.9128
 470  430.9491
 471  384.7863
 472  301.8662
 473  365.5718
 474  447.83
 475  384.3514
 476  434.1938
 477  432.6032
 478  399.957
 479  377.437
 480  434.9029
 481  404.001
 482  360.6474
 483  389.6607
 484  339.2821
 485  455.0618
 486  500.6476
 487  524.047
 488  404.4952
 489  351.8524
 490  333.9558
 491  428.1588
 492  475.0162
 493  419.9156
 494  502.0748
 495  434.6643
 496  451.9922
 497  400.73
 498  393.0424
 499  424.6953
 500  348.9117
 501  312.5408
 502  395.3814
 503  511.8575
 504  503.7857
 505  488.601
 506  493.1082
 507  526.4659
 508  728.5162
 509  820.153
 510  1028.1
 511  1087.417
