# Input file       =  1184300437.121662-PSRB0329-2ms-sampling-dd.dat
# Candidate        =  PSR_0332+5434
# Telescope        =  AR
# Epoch_topo       =  57951.181205111825
# Epoch_bary       =  N/A
# T_sample         =  0.002
# Data Folded      =  7340032
# Data Avg         =  -1.92839473018285e-09
# Data StdDev      =  4.82255901374308 
# Profile Bins     =  512
# Profile Avg      =  2.14363760821351 
# Profile StdDev   =  577.419633821602 
# Reduced chi-sqr  =  0.540
# Prob(Noise)      <  1   (~0.0 sigma)
# P_topo (ms)      =  714.477499136693  +/- 0.000586
# P'_topo (s/s)    =  -0                +/- 3.09e-10
# P''_topo (s/s^2) =  0                 +/- 1.37e-13
# P_bary (ms)      =  N/A
# P'_bary (s/s)    =  N/A
# P''_bary (s/s^2) =  N/A
# P_orb (s)        =  N/A
# asin(i)/c (s)    =  N/A
# eccentricity     =  N/A
# w (rad)          =  N/A
# T_peri           =  N/A
######################################################
   0  -305.4
   1  13.88809
   2  -62.56309
   3  33.53101
   4  -113.0431
   5  -314.4753
   6  -58.67105
   7  -30.01787
   8  -91.23516
   9  -183.2425
  10  -95.93351
  11  139.3592
  12  -68.76739
  13  -222.7158
  14  -119.6346
  15  -143.0945
  16  -269.9767
  17  -322.071
  18  -145.5339
  19  -302.8317
  20  -290.2592
  21  -123.6503
  22  -217.4294
  23  5.328906
  24  51.91133
  25  -314.1631
  26  -312.2522
  27  -409.5467
  28  -60.04312
  29  148.3267
  30  118.8922
  31  -110.0793
  32  -282.2282
  33  -96.75981
  34  -46.94081
  35  51.9897
  36  223.4159
  37  236.7745
  38  -152.7258
  39  -387.8158
  40  -92.68226
  41  135.1023
  42  -28.96396
  43  51.23706
  44  -6.745619
  45  447.3856
  46  211.5425
  47  -147.4022
  48  -5.494174
  49  60.69512
  50  -33.999
  51  -137.5621
  52  31.23638
  53  60.26258
  54  169.7595
  55  324.4167
  56  366.4851
  57  241.9731
  58  -11.14683
  59  -314.4879
  60  76.4592
  61  224.1958
  62  392.9205
  63  266.0891
  64  158.1317
  65  57.53509
  66  -41.70687
  67  228.0334
  68  234.8789
  69  392.9334
  70  179.5374
  71  423.7206
  72  387.2812
  73  271.384
  74  -24.01438
  75  -117.4452
  76  42.128
  77  144.4107
  78  -9.259138
  79  -160.9752
  80  -128.5451
  81  -320.2654
  82  -229.7874
  83  -23.20063
  84  -49.71698
  85  -199.8309
  86  -99.56272
  87  32.78033
  88  -241.9717
  89  -66.2047
  90  -23.09555
  91  66.95433
  92  28.28592
  93  -142.0973
  94  385.4552
  95  273.2351
  96  32.72928
  97  -305.3114
  98  -418.0389
  99  -492.4176
 100  -377.337
 101  -135.1798
 102  78.52304
 103  -145.2534
 104  -238.6866
 105  -12.46718
 106  -160.9881
 107  -235.7802
 108  -292.0661
 109  -90.78244
 110  87.56336
 111  -55.50574
 112  -394.5711
 113  -387.6387
 114  -481.2863
 115  18.31248
 116  183.4341
 117  181.6805
 118  134.1582
 119  367.3091
 120  269.4931
 121  -25.825
 122  44.53451
 123  233.2803
 124  28.86827
 125  -412.6195
 126  -94.28741
 127  -35.26167
 128  109.0387
 129  219.3979
 130  78.65063
 131  173.7836
 132  203.1218
 133  -78.67317
 134  -55.56369
 135  172.9656
 136  376.2855
 137  444.2471
 138  470.8917
 139  443.3733
 140  68.29814
 141  25.39984
 142  -211.0779
 143  189.4337
 144  250.9797
 145  76.55003
 146  -44.42199
 147  301.3244
 148  45.73298
 149  -15.88373
 150  -87.49552
 151  6.821735
 152  58.02299
 153  187.5688
 154  95.79475
 155  -270.175
 156  -137.8467
 157  201.415
 158  699.072
 159  1162.246
 160  1767.57
 161  2068.658
 162  1921.358
 163  1404.032
 164  415.5196
 165  -118.5973
 166  -431.1463
 167  -289.9637
 168  -222.5542
 169  -209.7661
 170  -403.224
 171  -502.4861
 172  -253.6143
 173  -304.7787
 174  -421.1209
 175  55.60532
 176  464.8954
 177  344.2085
 178  -158.7909
 179  -169.3126
 180  -8.912825
 181  192.6944
 182  112.3752
 183  5.536861
 184  -215.4634
 185  -78.68864
 186  -309.613
 187  -436.8702
 188  -372.2301
 189  -92.46615
 190  5.550556
 191  73.44149
 192  -64.17048
 193  -262.6499
 194  -329.2118
 195  -15.40246
 196  154.8045
 197  66.77471
 198  260.599
 199  -30.01846
 200  101.8546
 201  -39.56255
 202  252.7334
 203  386.6997
 204  249.4259
 205  179.6046
 206  196.6239
 207  62.25514
 208  -471.4764
 209  -29.5721
 210  386.7432
 211  302.1028
 212  424.3929
 213  163.6323
 214  -39.28274
 215  -13.0377
 216  223.1337
 217  132.845
 218  109.8906
 219  77.65955
 220  -162.8335
 221  -475.735
 222  -173.033
 223  -41.3461
 224  -148.3273
 225  98.7061
 226  22.84839
 227  -168.6622
 228  -167.7652
 229  -322.0538
 230  11.14224
 231  -169.5402
 232  -198.1118
 233  194.7173
 234  483.2169
 235  54.65214
 236  -292.7668
 237  -303.5968
 238  18.98309
 239  58.73008
 240  74.08141
 241  21.37357
 242  230.7507
 243  505.9979
 244  711.9709
 245  632.0946
 246  100.718
 247  78.92664
 248  114.6891
 249  269.5837
 250  184.9545
 251  601.5665
 252  653.2834
 253  254.4785
 254  -105.3332
 255  -224.9168
 256  -329.4803
 257  -262.771
 258  -282.9811
 259  -139.4099
 260  -156.4401
 261  111.8569
 262  -247.7358
 263  -112.9747
 264  0.8126974
 265  -65.26559
 266  -473.0568
 267  -519.1831
 268  -359.206
 269  -248.5995
 270  -54.13357
 271  -103.9287
 272  158.5558
 273  85.04447
 274  170.3005
 275  55.08105
 276  4.052769
 277  186.1663
 278  307.7579
 279  212.7749
 280  143.0124
 281  221.3767
 282  374.1602
 283  478.3257
 284  275.603
 285  209.4426
 286  136.4043
 287  191.1329
 288  203.45
 289  46.63503
 290  89.16312
 291  164.8554
 292  162.2339
 293  187.7601
 294  390.4466
 295  315.7113
 296  12.76026
 297  60.02603
 298  -27.63281
 299  -370.1679
 300  -131.0092
 301  -363.8336
 302  -604.7849
 303  -233.8746
 304  -80.4444
 305  -53.63528
 306  -87.69613
 307  -185.1637
 308  2.737533
 309  -238.1154
 310  -299.4199
 311  -401.9216
 312  -96.34259
 313  50.17067
 314  -76.623
 315  -311.7597
 316  -230.8999
 317  -220.8137
 318  -111.7508
 319  -85.81415
 320  -95.92265
 321  84.69888
 322  -78.05989
 323  -334.6216
 324  -283.7296
 325  -136.4895
 326  -176.1707
 327  -368.0748
 328  -274.0796
 329  -573.8527
 330  -484.483
 331  -589.9944
 332  -777.4241
 333  -782.3482
 334  -786.5662
 335  -520.4028
 336  -520.3428
 337  -469.637
 338  -480.064
 339  -467.4073
 340  -480.3844
 341  -630.4178
 342  -682.7737
 343  -381.1676
 344  -231.2689
 345  -204.5761
 346  66.97002
 347  -166.615
 348  -335.282
 349  -503.3806
 350  -206.7962
 351  -188.3432
 352  -180.3353
 353  -86.88742
 354  62.96747
 355  -218.9114
 356  -351.7635
 357  -161.2258
 358  38.11945
 359  248.9282
 360  -75.72719
 361  -221.9442
 362  -332.9738
 363  -283.2057
 364  -285.1906
 365  -133.3405
 366  99.90952
 367  -9.032386
 368  -240.4108
 369  -344.5032
 370  -499.2455
 371  -28.55127
 372  192.831
 373  -28.62972
 374  -156.9616
 375  -382.5885
 376  -57.68565
 377  7.179384
 378  76.50269
 379  235.8886
 380  256.1846
 381  234.6196
 382  286.9039
 383  78.89932
 384  147.7477
 385  79.01197
 386  238.2179
 387  184.5311
 388  -41.51917
 389  -99.90844
 390  -199.3192
 391  -206.2265
 392  -90.87917
 393  -181.87
 394  -240.5455
 395  -25.36986
 396  -363.0819
 397  -638.1404
 398  -549.4737
 399  -75.96912
 400  231.0024
 401  353.3562
 402  315.2027
 403  -7.214498
 404  49.89925
 405  433.7196
 406  311.1032
 407  384.9421
 408  565.2187
 409  519.905
 410  153.1915
 411  66.0236
 412  -28.6664
 413  111.1991
 414  259.562
 415  66.51281
 416  -71.17298
 417  4.535404
 418  -89.29109
 419  130.6275
 420  148.7798
 421  -40.16143
 422  -40.64843
 423  115.8284
 424  340.7895
 425  322.0471
 426  34.86392
 427  12.35607
 428  22.37656
 429  -18.55098
 430  126.0348
 431  209.0018
 432  447.5897
 433  334.5669
 434  103.9546
 435  124.5173
 436  265.3692
 437  7.621669
 438  -545.1069
 439  1.227349
 440  309.2591
 441  392.0037
 442  169.8443
 443  452.3067
 444  350.164
 445  180.3883
 446  36.10865
 447  58.59375
 448  453.5166
 449  395.6299
 450  74.47095
 451  -135.3816
 452  18.65437
 453  -163.2032
 454  -46.43819
 455  -113.8085
 456  -189.7259
 457  -82.94074
 458  23.05665
 459  58.95293
 460  175.9285
 461  292.9084
 462  345.0106
 463  29.61944
 464  -142.7997
 465  42.12915
 466  82.85975
 467  -239.8146
 468  -477.9366
 469  55.889
 470  -20.66458
 471  -500.0431
 472  -199.1481
 473  176.0663
 474  384.8287
 475  557.0015
 476  577.0303
 477  207.6665
 478  -14.69251
 479  94.95214
 480  235.6898
 481  343.3832
 482  592.9781
 483  504.3703
 484  -69.11542
 485  78.03352
 486  96.77157
 487  -227.4476
 488  -216.2313
 489  -79.15314
 490  89.1433
 491  174.5431
 492  116.5385
 493  -51.85927
 494  -79.64038
 495  -57.46673
 496  -165.7809
 497  -284.6897
 498  -57.52085
 499  43.7387
 500  199.155
 501  89.32021
 502  -58.9175
 503  -200.1846
 504  -324.3203
 505  -51.99842
 506  220.0523
 507  443.1518
 508  190.3887
 509  -119.8319
 510  -252.9265
 511  -283.0867
