# Input file       =  1184401549.105242_cleaned.dat
# Candidate        =  PSR_0332+5434
# Telescope        =  AR
# Epoch_topo       =  57952.351482699560
# Epoch_bary       =  N/A
# T_sample         =  0.002
# Data Folded      =  7340032
# Data Avg         =  0.227264021073227
# Data StdDev      =  4.8526879192194  
# Profile Bins     =  256
# Profile Avg      =  6515.43774418539 
# Profile StdDev   =  821.696347165569 
# Reduced chi-sqr  =  1.271
# Prob(Noise)      <  0.00221   (~2.8 sigma)
# P_topo (ms)      =  714.477092827956  +/- 0.000307
# P'_topo (s/s)    =  -0                +/- 1.62e-10
# P''_topo (s/s^2) =  0                 +/- 7.16e-14
# P_bary (ms)      =  N/A
# P'_bary (s/s)    =  N/A
# P''_bary (s/s^2) =  N/A
# P_orb (s)        =  N/A
# asin(i)/c (s)    =  N/A
# eccentricity     =  N/A
# w (rad)          =  N/A
# T_peri           =  N/A
######################################################
   0  6377.401
   1  6339.57
   2  5856.754
   3  6673.81
   4  6927.318
   5  6289.688
   6  6885.709
   7  6379.422
   8  5913.102
   9  6264.165
  10  6254.473
  11  6378.478
  12  6165.859
  13  6031.23
  14  5728.838
  15  5964.62
  16  5688.297
  17  4927.344
  18  5679.086
  19  5362.838
  20  5182.125
  21  5401.029
  22  5635.411
  23  5972.542
  24  6504.63
  25  6087.959
  26  5479.089
  27  5195.251
  28  5890.298
  29  6250.628
  30  5777.167
  31  5958.176
  32  6493.172
  33  6010.059
  34  5209.845
  35  4653.675
  36  4623.238
  37  4796.085
  38  5540.632
  39  5731.16
  40  6704.375
  41  6423.487
  42  6001.625
  43  6541.729
  44  6856.9
  45  7083.417
  46  6359.842
  47  6360.402
  48  7142.578
  49  7094.137
  50  6385.508
  51  5542.025
  52  6345.242
  53  5522.075
  54  5563.996
  55  5628.976
  56  5686.929
  57  6238.158
  58  6349.386
  59  6698.779
  60  6218.842
  61  5906.259
  62  5674.777
  63  5623.92
  64  6604.106
  65  6598.366
  66  6815.394
  67  5562.355
  68  6173.07
  69  5899.176
  70  5292.253
  71  6161.158
  72  6188.29
  73  6143.308
  74  5821.925
  75  5890.736
  76  5868
  77  6840.469
  78  6507.374
  79  6222.585
  80  7182.603
  81  6906.239
  82  6995.051
  83  7186.345
  84  7304.391
  85  6881.121
  86  7776.55
  87  7012.788
  88  6663.204
  89  7252.517
  90  7157.06
  91  7250.224
  92  7020.079
  93  6576.085
  94  6991.632
  95  6835.127
  96  7096.759
  97  7683.938
  98  7701.584
  99  7885.501
 100  7971.361
 101  7506.369
 102  8251.712
 103  9100.365
 104  8246.479
 105  7303.89
 106  7380.124
 107  6750.5
 108  6539.226
 109  7413.522
 110  7377.418
 111  7931.601
 112  8965.754
 113  7315.257
 114  7544.032
 115  6835.459
 116  7543.115
 117  7127.021
 118  6333.933
 119  7162.902
 120  6833.547
 121  5689.55
 122  6160.216
 123  5724.404
 124  6554.992
 125  5462.154
 126  6348.753
 127  7097.812
 128  6376.904
 129  7019.007
 130  6769.513
 131  7014.2
 132  6350.286
 133  6084.478
 134  6561.049
 135  7149.029
 136  7051.151
 137  6785.399
 138  6936.705
 139  6726.367
 140  5797.261
 141  5782.766
 142  6461.199
 143  6564.329
 144  6029.116
 145  6775.988
 146  6111.167
 147  5880.925
 148  6176.97
 149  6495.792
 150  6151.271
 151  6235.419
 152  6562.528
 153  7347.061
 154  7179.669
 155  6482.799
 156  6309.554
 157  7304.706
 158  6450.859
 159  6577.427
 160  7274.76
 161  7910.061
 162  9860.307
 163  10968.08
 164  9469.675
 165  7749.196
 166  6418.512
 167  6197.764
 168  6319.213
 169  6263.88
 170  5834.774
 171  6067.671
 172  6001.894
 173  6728.813
 174  7077.094
 175  6436.608
 176  6769.248
 177  7168.179
 178  7553.837
 179  7657.96
 180  7627.337
 181  8576.751
 182  6965.883
 183  7353.394
 184  7239.265
 185  5705.074
 186  7040.052
 187  6484.993
 188  6586.996
 189  6306.949
 190  6679.579
 191  7129.267
 192  6085.402
 193  6184.232
 194  5831.873
 195  6173.832
 196  6117.175
 197  6136.347
 198  5724.538
 199  6447.508
 200  6672.493
 201  6149.512
 202  6396.225
 203  6558.155
 204  6005.544
 205  6248.076
 206  5976.426
 207  5833.426
 208  6328.972
 209  5715.966
 210  5925.805
 211  5486.155
 212  5387.46
 213  5897.824
 214  6355.86
 215  6469.297
 216  6545.202
 217  6468.233
 218  6530.798
 219  6110.651
 220  6435.029
 221  5993.362
 222  6493.596
 223  6691.489
 224  6649.285
 225  6746.804
 226  7087.788
 227  7039.127
 228  6013.092
 229  5826.354
 230  5258.068
 231  5578.152
 232  5708.091
 233  6008.571
 234  5960.331
 235  6049.368
 236  7045.831
 237  6215.192
 238  6627.209
 239  6787.365
 240  6829.786
 241  6872.135
 242  6451.802
 243  7043.461
 244  6793.867
 245  6885.304
 246  6114.328
 247  6298.511
 248  6383.972
 249  5953.403
 250  5862.669
 251  7252.802
 252  6465.601
 253  6132.432
 254  6401.567
 255  6457
