# Input file       =  1184386621.103557_cleaned.dat
# Candidate        =  PSR_0332+5434
# Telescope        =  AR
# Epoch_topo       =  57952.178704902282
# Epoch_bary       =  N/A
# T_sample         =  0.002
# Data Folded      =  7340032
# Data Avg         =  0.0286178062813864
# Data StdDev      =  1.00028805860452 
# Profile Bins     =  512
# Profile Avg      =  409.587029174871 
# Profile StdDev   =  119.76752650814  
# Reduced chi-sqr  =  1.711
# Prob(Noise)      <  1.8e-21   (~9.4 sigma)
# P_topo (ms)      =  714.476865783695  +/- 0.000251
# P'_topo (s/s)    =  -0                +/- 1.32e-10
# P''_topo (s/s^2) =  0                 +/- 5.85e-14
# P_bary (ms)      =  N/A
# P'_bary (s/s)    =  N/A
# P''_bary (s/s^2) =  N/A
# P_orb (s)        =  N/A
# asin(i)/c (s)    =  N/A
# eccentricity     =  N/A
# w (rad)          =  N/A
# T_peri           =  N/A
######################################################
   0  1230.794
   1  1044.317
   2  836.8485
   3  715.0243
   4  476.1812
   5  362.4312
   6  248.4318
   7  219.1151
   8  260.3999
   9  251.1002
  10  283.39
  11  332.0466
  12  355.1828
  13  399.4235
  14  391.4812
  15  359.6504
  16  267.0128
  17  351.1529
  18  269.7888
  19  290.3905
  20  374.3562
  21  395.14
  22  309.3649
  23  403.0153
  24  432.8976
  25  279.7068
  26  335.12
  27  284.742
  28  370.8571
  29  362.3013
  30  274.4024
  31  182.6337
  32  198.1629
  33  260.9695
  34  307.8937
  35  390.7612
  36  411.9244
  37  386.5832
  38  308.6552
  39  322.8369
  40  233.4138
  41  316.7985
  42  377.5284
  43  343.8093
  44  401.3319
  45  341.2259
  46  365.2224
  47  437.7888
  48  272.8214
  49  271.1125
  50  279.8775
  51  390.1926
  52  407.69
  53  300.3367
  54  291.7339
  55  345.0979
  56  336.4379
  57  224.269
  58  194.7016
  59  362.8352
  60  287.7075
  61  315.1317
  62  299.835
  63  322.8902
  64  335.2156
  65  310.8684
  66  194.574
  67  258.4752
  68  310.6169
  69  297.2213
  70  294.3664
  71  344.8448
  72  376.2314
  73  435.2918
  74  252.2757
  75  314.541
  76  340.7357
  77  307.5595
  78  261.9419
  79  333.8069
  80  326.9016
  81  335.8288
  82  390.9736
  83  445.6855
  84  354.2195
  85  359.0602
  86  229.7171
  87  265.0639
  88  307.0404
  89  393.0642
  90  390.3683
  91  361.2947
  92  326.5448
  93  232.067
  94  160.5948
  95  227.6866
  96  301.7546
  97  217.9197
  98  214.881
  99  135.3289
 100  108.0455
 101  99.8474
 102  229.9247
 103  335.035
 104  292.8984
 105  198.2503
 106  243.2748
 107  272.8375
 108  271.1919
 109  313.7611
 110  355.2295
 111  353.022
 112  289.8685
 113  349.8456
 114  392.3617
 115  386.8548
 116  264.3308
 117  335.1043
 118  370.7957
 119  387.9912
 120  331.0744
 121  427.0861
 122  404.5545
 123  364.3349
 124  439.795
 125  417.2198
 126  343.7962
 127  394.0258
 128  330.7493
 129  287.7927
 130  341.1576
 131  420.934
 132  410.9358
 133  341.7356
 134  389.1245
 135  471.1829
 136  369.3916
 137  471.6307
 138  400.0241
 139  367.5553
 140  445.1216
 141  368.5617
 142  272.1888
 143  353.8751
 144  511.4226
 145  348.7257
 146  328.9778
 147  438.2799
 148  437.9565
 149  392.6359
 150  422.4453
 151  425.7059
 152  458.9098
 153  475.7371
 154  400.0768
 155  555.9264
 156  531.6723
 157  450.5045
 158  384.5188
 159  289.8958
 160  373.8108
 161  286.0159
 162  313.0176
 163  311.5522
 164  299.2086
 165  330.5369
 166  345.9692
 167  357.0499
 168  225.2897
 169  249.1135
 170  350.7541
 171  514.0126
 172  435.4878
 173  438.8012
 174  389.6954
 175  382.9709
 176  316.072
 177  349.8378
 178  364.7609
 179  401.5485
 180  477.4384
 181  428.664
 182  367.9032
 183  398.0492
 184  323.7141
 185  434.1667
 186  349.9854
 187  381.7029
 188  355.7594
 189  402.1938
 190  387.758
 191  391.2141
 192  510.6029
 193  567.7349
 194  542.5718
 195  470.9571
 196  453.1556
 197  495.0472
 198  421.2663
 199  483.7752
 200  555.2943
 201  497.4576
 202  460.568
 203  389.4646
 204  344.1202
 205  361.5257
 206  283.7817
 207  388.5459
 208  395.6654
 209  384.1688
 210  412.1513
 211  453.6593
 212  354.205
 213  379.62
 214  505.0912
 215  264.5994
 216  331.4917
 217  290.0502
 218  378.535
 219  345.8043
 220  310.6805
 221  450.2315
 222  494.635
 223  411.4554
 224  337.9038
 225  333.1606
 226  540.718
 227  497.6861
 228  457.9528
 229  331.4066
 230  324.764
 231  440.7963
 232  542.8654
 233  402.9749
 234  454.3979
 235  506.3648
 236  417.026
 237  375.96
 238  431.3677
 239  495.2344
 240  482.8704
 241  512.0261
 242  527.8315
 243  490.3546
 244  504.2415
 245  506.4724
 246  506.2444
 247  384.9565
 248  449.3847
 249  428.7517
 250  448.0743
 251  509.3455
 252  528.3495
 253  409.1268
 254  469.9304
 255  494.025
 256  487.7506
 257  418.9488
 258  298.5758
 259  387.8666
 260  487.6282
 261  468.7523
 262  493.2341
 263  443.6298
 264  500.14
 265  429.2169
 266  333.4769
 267  408.5522
 268  502.2695
 269  471.5682
 270  451.9831
 271  442.3749
 272  503.3329
 273  504.2515
 274  432.0375
 275  360.0239
 276  427.1895
 277  412.1923
 278  441.197
 279  376.1063
 280  310.8595
 281  415.7632
 282  503.7176
 283  523.6531
 284  550.5665
 285  455.0287
 286  522.269
 287  448.4277
 288  554.0055
 289  596.356
 290  473.2535
 291  450.3427
 292  429.877
 293  346.6982
 294  215.3488
 295  259.0113
 296  422.0004
 297  381.1727
 298  404.9873
 299  416.1534
 300  396.2322
 301  330.9249
 302  384.2693
 303  349.5157
 304  341.7341
 305  415.1825
 306  412.7245
 307  452.8291
 308  513.8029
 309  403.4233
 310  488.8564
 311  572.4851
 312  562.214
 313  491.5257
 314  452.1682
 315  437.8569
 316  461.7076
 317  391.3819
 318  331.3859
 319  493.5786
 320  476.9399
 321  345.3098
 322  308.8515
 323  300.1262
 324  272.4886
 325  285.4803
 326  415.0243
 327  421.8118
 328  397.7402
 329  413.6296
 330  408.7773
 331  465.2238
 332  533.4569
 333  539.1414
 334  420.9419
 335  385.9399
 336  398.8698
 337  514.2541
 338  398.4597
 339  331.7329
 340  380.903
 341  448.7006
 342  377.1118
 343  366.4596
 344  405.3458
 345  338.6168
 346  436.7322
 347  529.3925
 348  501.0266
 349  444.9517
 350  485.6863
 351  404.8536
 352  331.274
 353  312.1029
 354  347.0042
 355  371.95
 356  297.4855
 357  349.9484
 358  382.302
 359  495.3656
 360  424.3735
 361  421.1007
 362  321.1269
 363  286.0689
 364  394.8059
 365  403.7254
 366  324.916
 367  476.1711
 368  509.2904
 369  388.7418
 370  412.7514
 371  467.1877
 372  496.0249
 373  454.7359
 374  322.1674
 375  360.6655
 376  339.6241
 377  451.1895
 378  449.3875
 379  459.3062
 380  413.5188
 381  407.8254
 382  487.2913
 383  449.7929
 384  458.9325
 385  466.3184
 386  451.5135
 387  442.7158
 388  466.0888
 389  583.7123
 390  591.8268
 391  555.0821
 392  524.0209
 393  484.9582
 394  440.0919
 395  497.6133
 396  391.0275
 397  314.8138
 398  378.2763
 399  456.4977
 400  498.6258
 401  474.354
 402  418.603
 403  440.3961
 404  459.9676
 405  495.6988
 406  476.262
 407  393.2625
 408  443.7078
 409  463.6039
 410  465.1185
 411  406.2562
 412  405.032
 413  424.75
 414  420.5199
 415  548.0067
 416  502.8347
 417  486.3528
 418  451.5458
 419  550.6033
 420  536.6348
 421  541.7139
 422  408.069
 423  325.2741
 424  361.5067
 425  295.9864
 426  329.2017
 427  224.7764
 428  312.9482
 429  382.543
 430  339.8268
 431  253.9758
 432  378.7669
 433  506.4829
 434  418.0481
 435  413.376
 436  451.9936
 437  463.9606
 438  473.8456
 439  368.9262
 440  350.7169
 441  449.9316
 442  458.3431
 443  439.6949
 444  463.167
 445  414.5674
 446  435.5834
 447  285.4118
 448  527.5201
 449  521.7676
 450  419.7146
 451  524.179
 452  542.799
 453  451.2605
 454  409.7824
 455  465.5393
 456  456.6561
 457  453.2865
 458  454.1184
 459  391.4777
 460  413.8807
 461  536.2037
 462  610.7167
 463  526.1138
 464  437.2465
 465  447.2833
 466  384.4066
 467  444.2581
 468  432.9152
 469  435.5808
 470  401.7272
 471  441.6451
 472  475.6093
 473  457.8994
 474  399.6057
 475  457.251
 476  445.3348
 477  347.1377
 478  325.108
 479  448.6336
 480  457.2286
 481  462.5743
 482  476.9799
 483  548.4274
 484  523.9631
 485  419.0792
 486  372.1904
 487  463.0738
 488  495.4886
 489  500.6106
 490  395.7188
 491  470.7317
 492  568.629
 493  648.1401
 494  695.2752
 495  588.3724
 496  573.1965
 497  616.4202
 498  493.0903
 499  462.4953
 500  509.5797
 501  511.5919
 502  505.8624
 503  443.2601
 504  534.841
 505  467.9151
 506  456.8804
 507  576.7759
 508  612.2869
 509  785.6998
 510  1026.291
 511  1203.095
