# Input file       =  1184229138.101258_cleaned.dat
# Candidate        =  PSR_0332+5434
# Telescope        =  AR
# Epoch_topo       =  57950.355984968264
# Epoch_bary       =  N/A
# T_sample         =  0.002
# Data Folded      =  7340032
# Data Avg         =  0.0355190515277859
# Data StdDev      =  0.999943654318964
# Profile Bins     =  512
# Profile Avg      =  509.190718033888 
# Profile StdDev   =  119.726289937289 
# Reduced chi-sqr  =  1.330
# Prob(Noise)      <  7.8e-07   (~4.8 sigma)
# P_topo (ms)      =  714.478364952825  +/- 0.000325
# P'_topo (s/s)    =  -0                +/- 1.71e-10
# P''_topo (s/s^2) =  0                 +/- 7.56e-14
# P_bary (ms)      =  N/A
# P'_bary (s/s)    =  N/A
# P''_bary (s/s^2) =  N/A
# P_orb (s)        =  N/A
# asin(i)/c (s)    =  N/A
# eccentricity     =  N/A
# w (rad)          =  N/A
# T_peri           =  N/A
######################################################
   0  376.7104
   1  426.8789
   2  519.333
   3  504.0162
   4  389.2225
   5  400.9489
   6  609.9319
   7  574.0237
   8  539.3248
   9  494.5779
  10  492.0801
  11  568.4698
  12  553.63
  13  484.7267
  14  505.8904
  15  587.7779
  16  681.6301
  17  550.929
  18  508.4853
  19  443.7353
  20  407.5601
  21  461.8983
  22  553.8983
  23  564.2957
  24  609.9717
  25  614.4497
  26  662.5029
  27  720.7476
  28  541.6164
  29  597.6161
  30  776.9752
  31  921.2582
  32  1136.134
  33  1148.256
  34  1112.308
  35  1109.203
  36  904.1204
  37  779.8558
  38  573.1014
  39  545.1561
  40  606.8065
  41  588.3881
  42  522.5016
  43  505.7266
  44  579.828
  45  555.6143
  46  576.7012
  47  570.4387
  48  521.6552
  49  601.4001
  50  582.1268
  51  545.2473
  52  553.5207
  53  593.156
  54  545.691
  55  499.1547
  56  567.8358
  57  584.4141
  58  450.5825
  59  358.6027
  60  481.9342
  61  599.8376
  62  494.197
  63  479.7668
  64  454.3322
  65  458.5185
  66  457.3931
  67  306.0473
  68  395.0606
  69  390.9866
  70  403.9521
  71  511.8871
  72  504.1314
  73  604.3329
  74  648.704
  75  637.247
  76  616.9929
  77  561.3145
  78  579.639
  79  557.5243
  80  566.0378
  81  509.4819
  82  475.0756
  83  479.7477
  84  412.9465
  85  512.6716
  86  528.1921
  87  478.9031
  88  419.6509
  89  536.0784
  90  573.9459
  91  624.4494
  92  496.6526
  93  558.3918
  94  619.2088
  95  560.3517
  96  524.5081
  97  517.6382
  98  503.9496
  99  479.7373
 100  569.1085
 101  575.3702
 102  433.5236
 103  476.8144
 104  542.3651
 105  548.62
 106  484.5424
 107  527.3307
 108  570.0574
 109  536.0385
 110  501.2954
 111  425.767
 112  492.903
 113  506.1721
 114  446.9319
 115  401.3936
 116  463.252
 117  439.7427
 118  508.034
 119  536.6093
 120  422.6617
 121  480.0835
 122  559.6702
 123  593.7508
 124  579.9797
 125  527.5927
 126  474.265
 127  494.5612
 128  570.0526
 129  544.8104
 130  441.8665
 131  364.2453
 132  396.3416
 133  419.2787
 134  492.0042
 135  499.2428
 136  457.1588
 137  512.4234
 138  474.2368
 139  422.1652
 140  393.9355
 141  564.4833
 142  596.4184
 143  502.5368
 144  533.3776
 145  624.4395
 146  683.2375
 147  561.7043
 148  498.312
 149  473.1372
 150  508.1458
 151  509.5287
 152  476.3856
 153  440.8053
 154  558.7668
 155  539.1337
 156  363.7814
 157  333.6819
 158  419.4089
 159  394.8397
 160  480.641
 161  496.5266
 162  519.2278
 163  438.514
 164  542.5641
 165  643.464
 166  505.1223
 167  528.0518
 168  572.0628
 169  638.4093
 170  637.8237
 171  616.0435
 172  581.4808
 173  633.6187
 174  593.3639
 175  492.2026
 176  580.1755
 177  616.6663
 178  660.515
 179  688.6141
 180  668.0493
 181  647.2219
 182  655.5916
 183  599.2232
 184  492.223
 185  485.1134
 186  508.869
 187  441.1838
 188  437.8447
 189  396.9677
 190  365.3792
 191  364.1762
 192  507.2176
 193  423.0529
 194  399.2827
 195  504.9675
 196  454.2563
 197  416.929
 198  553.7083
 199  421.1498
 200  451.2075
 201  526.1918
 202  441.6328
 203  454.9501
 204  457.9731
 205  523.4095
 206  540.3574
 207  528.3784
 208  511.5411
 209  410.2392
 210  404.8617
 211  405.0874
 212  437.9532
 213  496.8447
 214  327.9514
 215  449.5386
 216  469.0498
 217  520.8663
 218  476.2673
 219  399.4512
 220  500.8528
 221  529.3713
 222  533.5002
 223  492.3913
 224  397.7784
 225  303.5554
 226  377.9656
 227  380.8312
 228  460.0478
 229  391.101
 230  333.0085
 231  364.9619
 232  446.588
 233  434.8913
 234  405.1696
 235  454.8855
 236  513.5076
 237  588.9724
 238  521.657
 239  491.9467
 240  472.8858
 241  492.6774
 242  485.8146
 243  670.0983
 244  743.7533
 245  606.1316
 246  646.5269
 247  608.5203
 248  528.0006
 249  567.5919
 250  524.0249
 251  580.5187
 252  583.3394
 253  617.5144
 254  550.6037
 255  516.9341
 256  532.235
 257  560.214
 258  585.3463
 259  516.3217
 260  526.653
 261  602.3038
 262  600.4445
 263  544.8999
 264  560.2474
 265  531.1307
 266  520.2846
 267  552.8427
 268  496.0667
 269  383.4824
 270  438.7583
 271  517.4689
 272  584.8107
 273  565.9857
 274  511.4556
 275  521.3849
 276  510.738
 277  529.3682
 278  629.7257
 279  534.2878
 280  461.5519
 281  464.1574
 282  515.4427
 283  554.898
 284  540.0499
 285  585.1103
 286  672.001
 287  653.8659
 288  462.8519
 289  476.9476
 290  531.2177
 291  574.4156
 292  489.3603
 293  551.6876
 294  555.7142
 295  578.1612
 296  604.6967
 297  471.974
 298  398.059
 299  393.0629
 300  440.7924
 301  341.4558
 302  389.2001
 303  322.1282
 304  379.1777
 305  393.6054
 306  455.4607
 307  508.827
 308  530.2451
 309  498.2464
 310  410.2553
 311  404.9158
 312  379.0701
 313  451.7766
 314  414.9695
 315  546.6964
 316  432.8987
 317  446.8887
 318  423.3421
 319  531.6225
 320  517.7207
 321  408.2587
 322  509.5762
 323  565.8237
 324  543.2597
 325  499.076
 326  425.9842
 327  525.3229
 328  624.4598
 329  526.3005
 330  449.4875
 331  522.7624
 332  583.8797
 333  548.8618
 334  535.7051
 335  394.8249
 336  431.0909
 337  561.6316
 338  480.2998
 339  493.4393
 340  585.2772
 341  526.1243
 342  543.506
 343  624.5238
 344  482.0312
 345  467.6681
 346  400.0971
 347  484.7768
 348  499.0959
 349  511.9315
 350  523.9056
 351  499.4315
 352  390.817
 353  421.8447
 354  403.3531
 355  546.4279
 356  546.6665
 357  445.6021
 358  497.9173
 359  479.7522
 360  300.3052
 361  377.1396
 362  440.3574
 363  430.8522
 364  509.6134
 365  415.1527
 366  347.2002
 367  392.3969
 368  539.9117
 369  530.4792
 370  378.7788
 371  414.8224
 372  475.0915
 373  490.1595
 374  447.951
 375  448.2668
 376  467.61
 377  425.7252
 378  437.396
 379  517.2509
 380  460.594
 381  406.617
 382  445.8969
 383  507.817
 384  545.8298
 385  375.5454
 386  260.0493
 387  412.298
 388  436.9657
 389  442.3244
 390  424.308
 391  430.6476
 392  411.2528
 393  416.063
 394  469.0852
 395  525.0771
 396  472.2264
 397  520.5804
 398  480.7782
 399  557.6274
 400  586.2719
 401  516.4922
 402  434.3383
 403  441.0341
 404  535.5579
 405  493.0817
 406  514.6743
 407  547.6808
 408  630.2784
 409  562.1121
 410  454.0472
 411  440.6268
 412  572.108
 413  479.6066
 414  569.4122
 415  614.712
 416  425.4666
 417  391.8337
 418  427.7315
 419  476.0171
 420  551.1387
 421  620.792
 422  573.2325
 423  481.7992
 424  419.3625
 425  456.7622
 426  507.2529
 427  587.2132
 428  603.2878
 429  523.6857
 430  497.0524
 431  406.0685
 432  376.3328
 433  451.4611
 434  452.9997
 435  478.2757
 436  470.7598
 437  534.7637
 438  459.2394
 439  364.822
 440  345.3896
 441  415.9628
 442  474.7062
 443  579.2382
 444  585.7155
 445  460.2556
 446  567.7924
 447  655.5173
 448  538.01
 449  453.9794
 450  459.1598
 451  535.874
 452  484.2192
 453  438.3491
 454  470.7278
 455  549.9724
 456  606.3207
 457  527.3785
 458  537.7842
 459  543.5843
 460  471.4344
 461  547.6312
 462  684.1657
 463  620.5571
 464  515.2034
 465  474.301
 466  461.7893
 467  553.2267
 468  461.5146
 469  510.967
 470  531.4652
 471  465.9038
 472  425.4826
 473  436.6997
 474  523.5298
 475  491.5495
 476  398.1575
 477  380.3363
 478  292.1104
 479  427.1293
 480  568.9144
 481  576.0591
 482  531.7542
 483  501.7327
 484  430.1068
 485  423.5497
 486  565.475
 487  578.8835
 488  578.7635
 489  631.1537
 490  524.9518
 491  587.2463
 492  687.3626
 493  689.3328
 494  469.5809
 495  311.2463
 496  492.8221
 497  613.6437
 498  474.2916
 499  457.1442
 500  568.7037
 501  554.6774
 502  457.4459
 503  489.213
 504  414.5046
 505  429.9631
 506  375.9325
 507  484.9178
 508  498.7766
 509  419.2973
 510  472.3759
 511  471.9861
