# Input file       =  1184802742.097903-PSRB0329-2ms-sampling-dd.dat
# Candidate        =  PSR_0332+5434
# Telescope        =  AR
# Epoch_topo       =  57956.994920114616
# Epoch_bary       =  N/A
# T_sample         =  0.002
# Data Folded      =  7208960
# Data Avg         =  1.52127562731048e-09
# Data StdDev      =  7.66564064726738 
# Profile Bins     =  512
# Profile Avg      =  -0.0321188889053329
# Profile StdDev   =  909.598601134134 
# Reduced chi-sqr  =  0.476
# Prob(Noise)      <  1   (~0.0 sigma)
# P_topo (ms)      =  714.473972115484  +/- 5.8e-05
# P'_topo (s/s)    =  -0                +/- 3.12e-11
# P''_topo (s/s^2) =  0                 +/- 1.4e-14
# P_bary (ms)      =  N/A
# P'_bary (s/s)    =  N/A
# P''_bary (s/s^2) =  N/A
# P_orb (s)        =  N/A
# asin(i)/c (s)    =  N/A
# eccentricity     =  N/A
# w (rad)          =  N/A
# T_peri           =  N/A
######################################################
   0  -226.538
   1  -298.5511
   2  -610.5304
   3  -856.6186
   4  -478.8486
   5  -237.1389
   6  43.14499
   7  143.3838
   8  259.0875
   9  -75.94734
  10  -404.7464
  11  -476.9002
  12  -363.7397
  13  -258.6028
  14  142.3021
  15  340.9918
  16  462.1645
  17  -63.30738
  18  -490.0129
  19  -754.7627
  20  -600.1448
  21  -731.2543
  22  -733.7632
  23  202.0686
  24  59.43891
  25  -309.4065
  26  -25.73553
  27  -142.7771
  28  -441.9031
  29  -513.7192
  30  7.07015
  31  616.9357
  32  395.9989
  33  -264.7402
  34  -668.5156
  35  -969.4731
  36  -1238.345
  37  -784.9841
  38  417.0465
  39  366.6396
  40  -355.4239
  41  -378.9462
  42  -503.0339
  43  -947.0914
  44  -451.7036
  45  169.221
  46  232.3092
  47  15.09038
  48  -170.2322
  49  64.12468
  50  -30.27801
  51  45.43416
  52  280.3095
  53  -43.61626
  54  -66.16467
  55  -99.08829
  56  -215.2832
  57  51.84919
  58  154.8108
  59  -11.49152
  60  -124.0341
  61  -257.0316
  62  151.3744
  63  725.8227
  64  298.5562
  65  276.6521
  66  309.3604
  67  -240.3605
  68  -521.6133
  69  -710.3188
  70  -590.6851
  71  137.3814
  72  526.2311
  73  170.6997
  74  544.4013
  75  598.3226
  76  298.2384
  77  -446.9212
  78  -163.3397
  79  673.5134
  80  468.3925
  81  969.3951
  82  734.86
  83  737.0727
  84  417.025
  85  -176.4832
  86  18.43445
  87  24.14753
  88  366.1153
  89  253.1862
  90  274.2988
  91  195.1136
  92  231.6905
  93  118.3103
  94  -239.8208
  95  -123.8349
  96  363.7356
  97  528.4237
  98  -25.95488
  99  -402.4308
 100  -423.0827
 101  -498.746
 102  -395.1336
 103  -198.2957
 104  16.36441
 105  140.024
 106  -328.9151
 107  -410.8009
 108  -391.8116
 109  -682.3725
 110  154.6509
 111  296.4894
 112  332.502
 113  176.76
 114  75.35234
 115  -217.5972
 116  29.88708
 117  -185.931
 118  -386.1137
 119  -619.5126
 120  -512.7751
 121  -301.9341
 122  23.19485
 123  138.1296
 124  -133.2157
 125  -383.5185
 126  -374.7111
 127  -134.8628
 128  85.35316
 129  215.9504
 130  240.8217
 131  -3.064092
 132  -624.9636
 133  -723.5297
 134  -787.5775
 135  -1020.502
 136  -711.5459
 137  -692.8325
 138  -614.3718
 139  -584.8923
 140  -452.6328
 141  -113.0022
 142  -518.274
 143  -556.3593
 144  -350.4605
 145  -186.4527
 146  -52.04749
 147  -44.25774
 148  113.1486
 149  136.3245
 150  -263.5368
 151  -392.1919
 152  -600.5894
 153  -484.7657
 154  -721.4824
 155  -518.0145
 156  -125.3622
 157  -77.92461
 158  -132.6128
 159  -504.6482
 160  -295.4959
 161  -163.2795
 162  82.05619
 163  368.2782
 164  73.07613
 165  -168.4657
 166  -312.9366
 167  -522.0262
 168  -916.422
 169  -627.158
 170  -205.9562
 171  -168.725
 172  -306.6443
 173  -584.2332
 174  -653.2546
 175  -464.1917
 176  -595.2725
 177  -290.8488
 178  -135.1165
 179  160.4238
 180  530.8041
 181  -169.2331
 182  26.00448
 183  -147.3282
 184  -548.6424
 185  -294.7812
 186  -117.1295
 187  -234.8182
 188  -55.15847
 189  125.1792
 190  -118.7292
 191  -416.6024
 192  -36.48409
 193  -22.511
 194  -35.79805
 195  346.3276
 196  352.4189
 197  132.0935
 198  -272.9176
 199  -147.1455
 200  -217.9973
 201  -368.14
 202  -422.2166
 203  -195.4142
 204  -29.83834
 205  -62.92399
 206  -94.95035
 207  261.8123
 208  -29.61068
 209  -493.2831
 210  -85.17243
 211  459.2157
 212  426.9967
 213  100.0152
 214  161.0475
 215  106.7212
 216  -118.7011
 217  -712.2626
 218  -695.55
 219  42.50283
 220  149.1928
 221  243.8906
 222  -0.4152052
 223  294.4368
 224  -180.9859
 225  -20.23
 226  233.2368
 227  146.7171
 228  247.01
 229  26.14576
 230  322.8145
 231  -165.701
 232  63.15406
 233  36.7514
 234  126.8199
 235  -52.83206
 236  -340.3989
 237  -11.52476
 238  -61.49561
 239  136.6692
 240  498.7264
 241  137.318
 242  -405.6648
 243  -317.6917
 244  324.9468
 245  1014.5
 246  562.6537
 247  594.6463
 248  152.6979
 249  -293.4203
 250  -738.4564
 251  -698.7742
 252  -108.5104
 253  351.0998
 254  401.7429
 255  511.8294
 256  253.0542
 257  -120.522
 258  -549.2673
 259  -498.9504
 260  -521.3265
 261  -167.0043
 262  -68.14037
 263  211.9668
 264  138.55
 265  92.38803
 266  -129.5799
 267  -349.1108
 268  -183.8463
 269  -55.9351
 270  51.5781
 271  248.1374
 272  -62.70548
 273  -291.8161
 274  257.3965
 275  -184.0211
 276  278.4039
 277  254.0768
 278  617.2314
 279  310.7836
 280  -430.6413
 281  -633.9591
 282  -734.2026
 283  -647.6124
 284  -729.1467
 285  259.7242
 286  108.895
 287  181.3835
 288  455.9236
 289  -87.69895
 290  -25.92712
 291  -90.06863
 292  -195.3586
 293  -327.0529
 294  -682.2469
 295  -323.1083
 296  -440.6099
 297  111.9323
 298  -32.12355
 299  -483.2885
 300  -588.9822
 301  -778.4117
 302  -511.339
 303  208.6638
 304  342.1682
 305  103.9523
 306  -448.8916
 307  -395.1349
 308  -735.1087
 309  -344.1537
 310  211.2515
 311  179.4202
 312  612.1583
 313  111.0504
 314  -281.6233
 315  -281.0861
 316  -175.272
 317  -27.44622
 318  331.1411
 319  358.915
 320  -216.0308
 321  -107.9662
 322  166.3127
 323  -352.1053
 324  -696.079
 325  -828.6714
 326  -307.9222
 327  704.4495
 328  1058.782
 329  623.6796
 330  178.7076
 331  423.2775
 332  413.3175
 333  351.4888
 334  858.8688
 335  1577.831
 336  2059.987
 337  1681.634
 338  779.2216
 339  349.4188
 340  -108.6478
 341  -407.6253
 342  -464.2989
 343  -223.5889
 344  146.9007
 345  10.25738
 346  -595.4761
 347  -1313.039
 348  -893.1127
 349  -682.6403
 350  -685.482
 351  -271.9861
 352  59.72114
 353  -118.4461
 354  -614.5385
 355  -174.4558
 356  -149.6507
 357  -57.80143
 358  -23.41248
 359  146.3996
 360  470.653
 361  525.5286
 362  875.1623
 363  313.1938
 364  -56.7132
 365  -532.7238
 366  -391.476
 367  -405.8872
 368  -367.8761
 369  83.60728
 370  349.1719
 371  257.9002
 372  256.8093
 373  8.851319
 374  346.4818
 375  419.0111
 376  267.3442
 377  278.1581
 378  111.4396
 379  213.045
 380  -203.2761
 381  -1.239384
 382  70.82748
 383  -53.39054
 384  408.5459
 385  286.8479
 386  331.4763
 387  324.3098
 388  5.00315
 389  95.94907
 390  132.5927
 391  108.2723
 392  607.044
 393  929.5064
 394  1053.998
 395  1032.063
 396  1099.045
 397  450.2708
 398  -31.70113
 399  -310.5658
 400  234.434
 401  783.7385
 402  1021.93
 403  1154.328
 404  781.0724
 405  362.494
 406  11.98685
 407  -242.7725
 408  -106.4958
 409  535.4583
 410  1154.069
 411  914.3641
 412  563.1249
 413  239.6154
 414  4.201934
 415  93.31576
 416  -118.6513
 417  334.3296
 418  649.8245
 419  587.4924
 420  513.5857
 421  499.7146
 422  428.4257
 423  165.3657
 424  390.8322
 425  1058.99
 426  1120.785
 427  1263.281
 428  833.0846
 429  549.5828
 430  -118.7908
 431  -443.4185
 432  -63.30492
 433  334.3848
 434  947.528
 435  1033.216
 436  1042.86
 437  578.8891
 438  5.916883
 439  222.3851
 440  262.6045
 441  205.2025
 442  234.7702
 443  689.4261
 444  797.3467
 445  360.432
 446  963.8622
 447  275.1586
 448  110.6822
 449  -381.9269
 450  -642.3998
 451  220.9359
 452  404.1904
 453  285.361
 454  498.858
 455  72.40072
 456  -22.28178
 457  -60.23694
 458  64.26714
 459  121.8729
 460  205.8699
 461  637.2686
 462  113.2907
 463  -210.8096
 464  -624.5137
 465  -780.39
 466  -349.9424
 467  178.925
 468  597.1949
 469  671.9866
 470  559.4533
 471  -205.1292
 472  -550.1185
 473  -391.5135
 474  -488.9488
 475  128.7036
 476  355.9688
 477  -24.6362
 478  -229.4853
 479  -162.3495
 480  -284.4478
 481  -514.136
 482  -761.1211
 483  -556.2233
 484  87.7237
 485  116.8563
 486  17.07511
 487  247.3492
 488  290.4613
 489  -507.2174
 490  -284.9369
 491  115.9543
 492  491.4553
 493  382.9258
 494  39.73052
 495  -52.10338
 496  -395.9447
 497  -345.0219
 498  -287.7924
 499  252.9385
 500  172.9033
 501  139.6919
 502  266.1484
 503  -235.9318
 504  -365.45
 505  -70.47963
 506  87.30848
 507  -161.1612
 508  391.0658
 509  783.046
 510  203.2854
 511  490.8935
