# Input file       =  1184285753.10695_cleaned.dat
# Candidate        =  PSR_0332+5434
# Telescope        =  AR
# Epoch_topo       =  57951.011251237847
# Epoch_bary       =  N/A
# T_sample         =  0.002
# Data Folded      =  7208960
# Data Avg         =  0.0253824795384479
# Data StdDev      =  1.00003876018597 
# Profile Bins     =  512
# Profile Avg      =  357.318111524147 
# Profile StdDev   =  118.663775045251 
# Reduced chi-sqr  =  1.350
# Prob(Noise)      <  2.01e-07   (~5.1 sigma)
# P_topo (ms)      =  714.477596449382  +/- 0.000275
# P'_topo (s/s)    =  -0                +/- 1.47e-10
# P''_topo (s/s^2) =  0                 +/- 6.63e-14
# P_bary (ms)      =  N/A
# P'_bary (s/s)    =  N/A
# P''_bary (s/s^2) =  N/A
# P_orb (s)        =  N/A
# asin(i)/c (s)    =  N/A
# eccentricity     =  N/A
# w (rad)          =  N/A
# T_peri           =  N/A
######################################################
   0  434.8307
   1  363.1557
   2  228.5802
   3  185.6445
   4  218.2924
   5  182.6034
   6  287.2698
   7  463.5131
   8  281.4839
   9  231.7853
  10  406.7916
  11  304.1367
  12  286.8793
  13  387.4512
  14  327.8783
  15  370.9518
  16  300.5681
  17  318.6116
  18  359.0216
  19  320.3301
  20  380.6783
  21  347.1819
  22  410.3883
  23  404.1147
  24  413.4701
  25  297.8592
  26  229.5203
  27  286.7455
  28  291.0864
  29  432.4432
  30  330.0674
  31  261.0365
  32  336.5201
  33  252.3204
  34  312.6179
  35  388.7476
  36  397.4418
  37  388.4735
  38  315.0493
  39  338.8039
  40  459.3579
  41  370.7063
  42  312.4818
  43  357.0031
  44  309.5133
  45  226.453
  46  285.7198
  47  369.1314
  48  416.0758
  49  372.1136
  50  339.0276
  51  339.8758
  52  323.2832
  53  319.2137
  54  353.7624
  55  275.7426
  56  333.5845
  57  244.1987
  58  212.3365
  59  377.3028
  60  345.0256
  61  328.5392
  62  320.9069
  63  253.8112
  64  157.2182
  65  187.8471
  66  277.602
  67  256.7266
  68  152.1375
  69  133.8643
  70  208.3604
  71  247.4588
  72  374.0472
  73  304.3609
  74  308.0929
  75  311.3795
  76  299.4165
  77  254.9115
  78  273.9144
  79  188.9625
  80  259.4974
  81  316.4846
  82  342.0781
  83  366.0081
  84  252.6457
  85  207.9805
  86  247.4255
  87  264.7516
  88  320.3872
  89  490.5858
  90  373.8399
  91  391.7675
  92  351.8123
  93  377.6433
  94  351.2927
  95  297.0803
  96  357.7584
  97  288.6027
  98  259.9438
  99  322.7782
 100  355.6635
 101  375.5942
 102  351.1026
 103  289.651
 104  264.45
 105  404.7706
 106  349.05
 107  333.1197
 108  411.1029
 109  493.0261
 110  288.0325
 111  289.3259
 112  241.256
 113  280.1329
 114  342.0689
 115  357.7797
 116  401.7043
 117  332.1031
 118  391.7286
 119  373.0463
 120  361.1891
 121  328.8192
 122  372.0252
 123  382.8304
 124  451.1632
 125  373.0081
 126  313.7664
 127  299.8156
 128  290.1195
 129  370.2153
 130  359.3601
 131  281.8645
 132  324.7884
 133  315.2604
 134  283.6699
 135  296.88
 136  290.0561
 137  278.6391
 138  396.1133
 139  277.3339
 140  194.7153
 141  233.3728
 142  407.8958
 143  379.6562
 144  369.4283
 145  453.8286
 146  346.8656
 147  265.9846
 148  280.1005
 149  264.906
 150  272.4568
 151  273.3993
 152  262.105
 153  195.2643
 154  151.994
 155  346.4225
 156  407.2929
 157  452.7979
 158  393.4648
 159  397.5789
 160  419.3135
 161  374.6612
 162  341.2465
 163  459.5214
 164  432.8244
 165  456.52
 166  430.549
 167  429.5452
 168  384.5549
 169  329.2268
 170  340.8852
 171  334.6334
 172  372.7375
 173  309.5261
 174  360.9937
 175  380.988
 176  309.5957
 177  334.3093
 178  269.9503
 179  373.5659
 180  345.1805
 181  431.7896
 182  414.3274
 183  395.3398
 184  414.2616
 185  347.9373
 186  373.7039
 187  421.0775
 188  399.7007
 189  368.6014
 190  336.8345
 191  238.2602
 192  249.4279
 193  383.6608
 194  343.8596
 195  275.5592
 196  385.6178
 197  401.9519
 198  301.136
 199  305.9147
 200  331.0577
 201  303.2014
 202  361.9435
 203  482.5016
 204  367.2883
 205  330.957
 206  463.5029
 207  442.6539
 208  560.9221
 209  644.2897
 210  644.7377
 211  721.1023
 212  1014.828
 213  1126.971
 214  1089.056
 215  914.3228
 216  618.6961
 217  396.2524
 218  436.8564
 219  470.4759
 220  376.967
 221  416.1508
 222  325.8683
 223  303.8435
 224  429.0533
 225  542.5563
 226  534.7255
 227  479.0185
 228  467.3805
 229  448.2325
 230  384.4342
 231  239.694
 232  220.3997
 233  290.5758
 234  420.3677
 235  447.1079
 236  371.4338
 237  354.4039
 238  390.6257
 239  286.2514
 240  361.0709
 241  414.909
 242  345.8149
 243  435.3858
 244  379.5401
 245  367.3401
 246  482.9366
 247  470.5329
 248  412.6417
 249  469.5288
 250  551.0627
 251  441.9102
 252  343.5662
 253  386.665
 254  471.4322
 255  417.7501
 256  401.0831
 257  315.9138
 258  424.3299
 259  499.7947
 260  398.631
 261  254.8249
 262  411.596
 263  412.1896
 264  316.9309
 265  409.0117
 266  454.9093
 267  392.3584
 268  342.5215
 269  378.5389
 270  329.2316
 271  308.7195
 272  210.8718
 273  198.8769
 274  325.6831
 275  338.0011
 276  236.3794
 277  144.1542
 278  345.924
 279  363.2433
 280  346.4252
 281  356.5243
 282  326.926
 283  411.3125
 284  413.6844
 285  368.087
 286  325.1908
 287  281.966
 288  279.5103
 289  241.7672
 290  338.0345
 291  330.3893
 292  332.3758
 293  369.5044
 294  377.1833
 295  371.5692
 296  329.5961
 297  302.5459
 298  285.8275
 299  367.6389
 300  411.3838
 301  373.4749
 302  367.3324
 303  388.1306
 304  422.2245
 305  432.55
 306  417.2222
 307  433.5692
 308  390.1093
 309  512.5424
 310  505.0699
 311  502.011
 312  426.7346
 313  388.1676
 314  379.0197
 315  312.9785
 316  397.3379
 317  465.5165
 318  501.9373
 319  583.116
 320  481.7177
 321  302.3488
 322  298.3795
 323  403.3192
 324  439.7567
 325  479.097
 326  381.556
 327  339.1607
 328  441.2978
 329  441.5934
 330  276.3086
 331  243.7287
 332  356.7287
 333  444.8385
 334  436.9042
 335  387.3546
 336  272.4007
 337  287.843
 338  308.9097
 339  442.5169
 340  450.3727
 341  370.8676
 342  351.305
 343  358.1613
 344  334.1201
 345  332.4436
 346  450.4524
 347  368.2739
 348  284.8385
 349  343.7214
 350  380.0878
 351  398.5166
 352  436.655
 353  415.1963
 354  413.5159
 355  322.3075
 356  366.8893
 357  279.9752
 358  206.0636
 359  282.308
 360  333.0804
 361  332.8148
 362  326.199
 363  274.258
 364  328.1066
 365  303.4543
 366  391.566
 367  424.0559
 368  370.5833
 369  353.7988
 370  359.5233
 371  400.4698
 372  342.948
 373  350.1273
 374  259.2833
 375  237.065
 376  353.3268
 377  460.9066
 378  391.7064
 379  480.5681
 380  514.4705
 381  477.7177
 382  480.1445
 383  429.6356
 384  329.3152
 385  383.2038
 386  438.4131
 387  428.3613
 388  360.4868
 389  356.0105
 390  353.848
 391  381.9728
 392  485.8286
 393  591.4599
 394  517.9224
 395  393.2349
 396  340.1614
 397  308.2938
 398  519.2429
 399  468.2311
 400  304.7012
 401  345.9201
 402  311.0078
 403  325.6465
 404  304.6544
 405  296.3653
 406  335.5583
 407  372.6501
 408  415.8326
 409  327.6728
 410  218.4607
 411  225.1359
 412  285.4031
 413  371.4835
 414  443.0039
 415  510.9458
 416  388.553
 417  336.627
 418  363.8268
 419  277.1158
 420  227.7379
 421  246.0432
 422  355.1192
 423  412.3247
 424  412.8405
 425  364.9333
 426  350.1723
 427  309.1894
 428  268.3935
 429  232.3268
 430  351.9361
 431  316.7361
 432  353.481
 433  392.3276
 434  322.2265
 435  340.048
 436  248.8594
 437  306.8774
 438  262.0989
 439  346.6618
 440  336.0488
 441  253.8074
 442  279.8946
 443  447.368
 444  380.3553
 445  455.0129
 446  348.4627
 447  306.2507
 448  349.3327
 449  258.9767
 450  256.3068
 451  310.3502
 452  285.8629
 453  253.605
 454  327.4069
 455  469.7907
 456  505.8823
 457  345.2289
 458  408.3453
 459  339.7173
 460  383.0378
 461  281.7835
 462  226.3693
 463  366.1798
 464  369.8131
 465  438.4436
 466  363.6592
 467  356.826
 468  433.2831
 469  326.2035
 470  335.3423
 471  244.6483
 472  272.0422
 473  262.5583
 474  411.5455
 475  379.1791
 476  367.1247
 477  320.0703
 478  289.4579
 479  325.6124
 480  247.3657
 481  320.2556
 482  346.6701
 483  292.9968
 484  374.7498
 485  350.1447
 486  418.0875
 487  381.331
 488  418.4776
 489  258.8522
 490  303.2547
 491  310.5834
 492  269.4449
 493  274.1039
 494  307.952
 495  290.3253
 496  339.9863
 497  361.175
 498  390.7509
 499  368.0672
 500  344.3716
 501  411.5653
 502  250.2561
 503  183.2302
 504  322.0654
 505  291.5576
 506  356.6322
 507  289.3242
 508  231.7251
 509  326.6306
 510  310.0074
 511  329.5982
