# Input file       =  1184746163.112572_cleaned.dat
# Candidate        =  PSR_0332+5434
# Telescope        =  AR
# Epoch_topo       =  57956.340070747363
# Epoch_bary       =  N/A
# T_sample         =  0.002
# Data Folded      =  7340032
# Data Avg         =  0.0357114303785759
# Data StdDev      =  1.00018474283135 
# Profile Bins     =  512
# Profile Avg      =  511.997058258236 
# Profile StdDev   =  119.755156196913 
# Reduced chi-sqr  =  1.382
# Prob(Noise)      <  2.1e-08   (~5.5 sigma)
# P_topo (ms)      =  714.474691776026  +/- 0.000313
# P'_topo (s/s)    =  -0                +/- 1.65e-10
# P''_topo (s/s^2) =  0                 +/- 7.29e-14
# P_bary (ms)      =  N/A
# P'_bary (s/s)    =  N/A
# P''_bary (s/s^2) =  N/A
# P_orb (s)        =  N/A
# asin(i)/c (s)    =  N/A
# eccentricity     =  N/A
# w (rad)          =  N/A
# T_peri           =  N/A
######################################################
   0  491.1448
   1  609.662
   2  637.3002
   3  539.5491
   4  571.558
   5  530.0577
   6  390.6068
   7  537.8665
   8  475.3067
   9  491.8936
  10  444.2991
  11  442.3438
  12  591.9126
  13  493.6934
  14  453.1805
  15  478.7585
  16  450.7735
  17  604.3618
  18  514.7715
  19  481.3177
  20  460.8774
  21  486.0374
  22  504.5382
  23  461.9816
  24  331.7344
  25  456.9633
  26  499.6008
  27  515.5539
  28  493.59
  29  434.618
  30  493.0131
  31  470.9376
  32  396.8013
  33  396.9048
  34  531.8817
  35  545.9544
  36  478.1686
  37  559.7481
  38  556.7831
  39  547.217
  40  495.2987
  41  574.0532
  42  575.8005
  43  455.0768
  44  531.4033
  45  491.7816
  46  499.0056
  47  543.1832
  48  535.6982
  49  565.752
  50  547.8333
  51  572.0461
  52  483.8457
  53  437.2487
  54  420.8139
  55  434.3456
  56  465.5699
  57  455.3668
  58  484.9202
  59  479.5594
  60  459.5205
  61  506.8303
  62  429.6648
  63  517.4173
  64  534.8176
  65  492.6635
  66  482.6825
  67  431.953
  68  406.1852
  69  472.6025
  70  537.5599
  71  510.3261
  72  456.624
  73  420.8664
  74  368.6185
  75  384.3275
  76  310.2281
  77  340.262
  78  424.4264
  79  396.2758
  80  361.9538
  81  325.5108
  82  416.0106
  83  569.5785
  84  400.7657
  85  371.0946
  86  391.294
  87  347.364
  88  376.8839
  89  453.4249
  90  480.9655
  91  522.9092
  92  436.4713
  93  399.2722
  94  351.6014
  95  467.6415
  96  433.3782
  97  383.2438
  98  465.7614
  99  476.1845
 100  504.2105
 101  448.6796
 102  501.1566
 103  454.5734
 104  366.9823
 105  321.3652
 106  365.2467
 107  488.1032
 108  486.8412
 109  499.9287
 110  513.2145
 111  587.5153
 112  520.1047
 113  541.9825
 114  436.2368
 115  464.5966
 116  505.8311
 117  546.6683
 118  485.5391
 119  478.813
 120  460.4261
 121  472.1204
 122  467.6016
 123  467.3895
 124  483.2766
 125  567.4437
 126  430.0672
 127  363.9712
 128  429.1362
 129  512.587
 130  545.6628
 131  537.4111
 132  367.8206
 133  286.7881
 134  468.6658
 135  567.4732
 136  356.5395
 137  430.9471
 138  527.4011
 139  511.3702
 140  553.0598
 141  490.1331
 142  518.0479
 143  423.709
 144  505.2404
 145  479.3011
 146  544.8086
 147  731.2275
 148  966.5848
 149  1108.174
 150  1186.709
 151  1185.325
 152  1017.138
 153  762.4982
 154  609.8871
 155  455.8268
 156  440.3564
 157  481.691
 158  575.6039
 159  533.2552
 160  541.195
 161  601.2003
 162  649.5319
 163  654.7359
 164  547.7521
 165  489.1255
 166  622.7688
 167  672.1848
 168  572.9362
 169  565.3646
 170  572.277
 171  560.4867
 172  460.7254
 173  454.3427
 174  636.1675
 175  611.3392
 176  701.632
 177  696.6096
 178  696.5862
 179  644.2105
 180  646.1904
 181  586.8436
 182  619.1293
 183  618.6847
 184  561.6682
 185  470.8788
 186  575.5084
 187  603.2351
 188  620.2512
 189  452.2154
 190  545.4824
 191  421.4634
 192  437.6528
 193  426.1806
 194  374.9024
 195  362.757
 196  365.8168
 197  423.0575
 198  563.8737
 199  509.4508
 200  486.7922
 201  713.247
 202  608.6106
 203  525.3436
 204  512.7359
 205  572.3976
 206  711.1412
 207  602.7911
 208  659.6528
 209  603.6871
 210  536.3351
 211  556.1105
 212  530.5512
 213  534.5684
 214  557.631
 215  539.5499
 216  530.0425
 217  560.607
 218  565.8655
 219  583.8875
 220  570.344
 221  557.0867
 222  580.5738
 223  597.6429
 224  623.2037
 225  583.7534
 226  530.9938
 227  497.9525
 228  462.3721
 229  647.4072
 230  737.0085
 231  594.3012
 232  581.284
 233  641.353
 234  691.2433
 235  517.6934
 236  468.5941
 237  569.8383
 238  627.1511
 239  599.7936
 240  608.5988
 241  548.2236
 242  506.5563
 243  599.0538
 244  678.1302
 245  627.2774
 246  541.6742
 247  579.1736
 248  496.7823
 249  496.7386
 250  620.6277
 251  704.0641
 252  720.7656
 253  534.4539
 254  546.3346
 255  688.6323
 256  728.8795
 257  623.6183
 258  537.6481
 259  600.4523
 260  590.7062
 261  538.6997
 262  532.7198
 263  515.4578
 264  496.8239
 265  518.9565
 266  512.5238
 267  491.1248
 268  441.5404
 269  488.4895
 270  536.1415
 271  465.104
 272  497.8453
 273  571.252
 274  485.744
 275  425.145
 276  510.8091
 277  458.9727
 278  381.901
 279  430.7065
 280  517.0015
 281  477.2671
 282  544.8716
 283  597.3502
 284  600.5011
 285  459.1007
 286  495.3952
 287  527.1564
 288  514.4628
 289  439.446
 290  360.4745
 291  433.2176
 292  543.381
 293  481.1045
 294  448.5733
 295  412.5219
 296  417.0158
 297  481.7386
 298  498.3985
 299  449.7867
 300  330.0645
 301  341.9535
 302  359.8855
 303  354.6472
 304  525.1937
 305  479.8107
 306  416.179
 307  476.1374
 308  394.6283
 309  525.2783
 310  564.4435
 311  575.4559
 312  389.5958
 313  476.2382
 314  490.0967
 315  387.6708
 316  444.0508
 317  430.5212
 318  429.9124
 319  377.702
 320  475.4138
 321  486.7541
 322  375.8058
 323  509.2178
 324  507.6092
 325  455.4882
 326  495.6524
 327  501.9169
 328  481.5774
 329  458.3348
 330  481.7847
 331  485.0378
 332  488.6693
 333  495.9728
 334  569.6461
 335  486.3516
 336  481.3403
 337  424.2879
 338  479.7278
 339  457.0828
 340  447.9115
 341  461.9151
 342  531.0294
 343  579.0458
 344  515.6033
 345  404.9913
 346  511.9654
 347  539.4568
 348  513.329
 349  360.8492
 350  382.6445
 351  429.1401
 352  548.661
 353  525.8387
 354  414.7692
 355  321.9902
 356  254.4236
 357  451.0399
 358  445.4826
 359  427.6407
 360  433.0211
 361  408.6468
 362  473.3103
 363  486.2441
 364  384.9585
 365  495.7546
 366  535.2438
 367  421.5881
 368  455.442
 369  455.0155
 370  490.2376
 371  578.6172
 372  498.9318
 373  428.4585
 374  376.4591
 375  572.7831
 376  495.4303
 377  407.3721
 378  417.6548
 379  490.1111
 380  484.2444
 381  430.2164
 382  437.2605
 383  511.7425
 384  534.5468
 385  401.0048
 386  386.77
 387  522.0891
 388  531.5443
 389  516.4478
 390  540.7077
 391  566.4564
 392  538.0363
 393  468.7834
 394  447.9415
 395  518.11
 396  586.9907
 397  618.1717
 398  551.3556
 399  684.3329
 400  612.6798
 401  543.5795
 402  517.832
 403  550.8271
 404  506.579
 405  534.2056
 406  493.3249
 407  448.0951
 408  470.7345
 409  468.7415
 410  414.7404
 411  448.9688
 412  394.0046
 413  466.2933
 414  511.7151
 415  477.7829
 416  430.7058
 417  542.1854
 418  546.4908
 419  409.69
 420  385.9345
 421  367.8804
 422  462.3287
 423  490.0603
 424  627.3973
 425  463.945
 426  469.5396
 427  437.1284
 428  394.5717
 429  472.0386
 430  495.2788
 431  457.4191
 432  480.5509
 433  550.5785
 434  429.3239
 435  397.8973
 436  462.2195
 437  445.2255
 438  540.0618
 439  543.8978
 440  429.9678
 441  447.3537
 442  399.0609
 443  410.6323
 444  427.2123
 445  497.0804
 446  575.6509
 447  497.2896
 448  523.3691
 449  640.9274
 450  416.4589
 451  434.3129
 452  434.6902
 453  543.6761
 454  442.3604
 455  445.8112
 456  440.5329
 457  477.1849
 458  505.8049
 459  542.7104
 460  519.6283
 461  560.5681
 462  537.2529
 463  618.6174
 464  544.1267
 465  466.8844
 466  509.9653
 467  626.7583
 468  602.8552
 469  503.3434
 470  558.3494
 471  571.2917
 472  487.0795
 473  525.9678
 474  542.835
 475  607.8203
 476  667.4211
 477  609.6948
 478  675.1218
 479  707.714
 480  665.4198
 481  681.3348
 482  561.4429
 483  529.2787
 484  740.3716
 485  694.9666
 486  699.6975
 487  592.7164
 488  600.2393
 489  606.9809
 490  606.7925
 491  555.5447
 492  452.8126
 493  428.366
 494  564.9987
 495  578.4625
 496  576.2165
 497  475.4378
 498  461.3564
 499  557.1021
 500  657.5211
 501  664.2153
 502  667.9583
 503  600.2845
 504  598.0133
 505  549.6871
 506  626.713
 507  561.121
 508  566.1915
 509  491.4382
 510  450.8809
 511  482.2379
