# Input file       =  1184746163.112572-PSRB0329-2ms-sampling-dd.dat
# Candidate        =  PSR_0332+5434
# Telescope        =  AR
# Epoch_topo       =  57956.340070747363
# Epoch_bary       =  N/A
# T_sample         =  0.002
# Data Folded      =  7340032
# Data Avg         =  -6.51295646872676e-10
# Data StdDev      =  6.4308384263864  
# Profile Bins     =  512
# Profile Avg      =  0.56202085798953 
# Profile StdDev   =  769.983811239629 
# Reduced chi-sqr  =  0.604
# Prob(Noise)      <  1   (~0.0 sigma)
# P_topo (ms)      =  714.474691776026  +/- 0.000151
# P'_topo (s/s)    =  -0                +/- 7.94e-11
# P''_topo (s/s^2) =  0                 +/- 3.51e-14
# P_bary (ms)      =  N/A
# P'_bary (s/s)    =  N/A
# P''_bary (s/s^2) =  N/A
# P_orb (s)        =  N/A
# asin(i)/c (s)    =  N/A
# eccentricity     =  N/A
# w (rad)          =  N/A
# T_peri           =  N/A
######################################################
   0  -495.0991
   1  -182.6426
   2  -54.17044
   3  -322.3644
   4  -146.8997
   5  -86.83796
   6  -596.5367
   7  -187.8814
   8  -69.86044
   9  283.222
  10  -34.47143
  11  -323.8406
  12  -14.80672
  13  -405.626
  14  -585.3953
  15  -530.2278
  16  -318.5586
  17  171.6927
  18  -190.6251
  19  -462.8451
  20  -860.9706
  21  -892.4127
  22  -787.3338
  23  -530.9125
  24  -479.6152
  25  -161.8124
  26  79.06113
  27  -258.6125
  28  -528.6033
  29  -965.404
  30  -812.6422
  31  -375.561
  32  -634.3423
  33  -280.7415
  34  -158.5613
  35  -295.3031
  36  -672.1677
  37  -590.7721
  38  -599.5082
  39  -382.1447
  40  -123.9925
  41  -69.48509
  42  153.8318
  43  -314.9005
  44  -161.3036
  45  -287.6945
  46  -146.1494
  47  108.5782
  48  -0.8901356
  49  593.1825
  50  472.2595
  51  443.8791
  52  -303.1178
  53  -408.8531
  54  -415.7381
  55  -513.8817
  56  -239.5264
  57  -60.46176
  58  332.3419
  59  213.7524
  60  144.4509
  61  104.3722
  62  -268.0735
  63  -137.5708
  64  177.4861
  65  274.9045
  66  48.94232
  67  203.5432
  68  48.54735
  69  -155.4868
  70  -69.01578
  71  -154.3711
  72  -13.70264
  73  -167.9361
  74  -139.5806
  75  125.2092
  76  -216.2995
  77  -363.9514
  78  -182.9967
  79  -104.6877
  80  -435.0818
  81  -344.7686
  82  136.0912
  83  746.957
  84  83.59423
  85  -437.6554
  86  -282.6955
  87  -551.1663
  88  -538.7437
  89  -283.0064
  90  96.90393
  91  307.6597
  92  -294.7337
  93  -393.2001
  94  -506.9455
  95  -129.1677
  96  -525.9445
  97  -607.0643
  98  -134.5155
  99  -57.3139
 100  85.36774
 101  -222.0819
 102  -156.5117
 103  -410.1705
 104  -662.3456
 105  -743.8809
 106  -697.9474
 107  -339.0006
 108  -164.6791
 109  158.7005
 110  153.3994
 111  421.5803
 112  287.0099
 113  76.06289
 114  -302.3642
 115  -66.46069
 116  296.0123
 117  187.5879
 118  26.85343
 119  -51.46379
 120  -190.8862
 121  -264.784
 122  -226.1007
 123  -166.594
 124  -253.9921
 125  -51.83559
 126  -476.9286
 127  -532.7969
 128  -531.1287
 129  -173.9249
 130  -47.13446
 131  164.8811
 132  -9.407819
 133  -511.8919
 134  -274.4521
 135  -65.14243
 136  -595.2404
 137  -194.7585
 138  243.5934
 139  227.9092
 140  358.4824
 141  10.85139
 142  -1.934689
 143  -87.46656
 144  168.7977
 145  303.8076
 146  459.4285
 147  970.8051
 148  1642.981
 149  2209.834
 150  2250.96
 151  2261.051
 152  1810.986
 153  1074.762
 154  614.2477
 155  102.8675
 156  146.6543
 157  179.73
 158  707.4592
 159  486.7844
 160  518.2047
 161  309.07
 162  429.4688
 163  498.7814
 164  455.1939
 165  640.4985
 166  1044.231
 167  1226
 168  660.082
 169  522.334
 170  278.9413
 171  505.5755
 172  127.896
 173  242.0761
 174  1060.437
 175  657.3287
 176  886.7353
 177  846.0151
 178  646.5495
 179  497.1063
 180  492.0015
 181  325.3715
 182  352.5046
 183  641.3829
 184  851.4874
 185  548.9023
 186  508.5477
 187  408.0346
 188  200.6825
 189  -397.7717
 190  -138.8335
 191  -552.8633
 192  -476.1776
 193  -224.912
 194  -260.3979
 195  -525.6933
 196  -755.7792
 197  -789.6785
 198  -439.3025
 199  -325.9529
 200  -149.0391
 201  643.5958
 202  201.6201
 203  -271.2106
 204  -337.7145
 205  77.10697
 206  469.9729
 207  405.0292
 208  684.8595
 209  586.8305
 210  370.9338
 211  401.349
 212  148.9956
 213  71.28799
 214  181.7216
 215  473.5247
 216  666.5049
 217  371.4025
 218  646.6387
 219  587.7427
 220  416.9397
 221  429.9019
 222  409.4645
 223  390.231
 224  389.9651
 225  401.6176
 226  257.7369
 227  281.9074
 228  -36.67837
 229  307.8812
 230  783.0267
 231  282.7654
 232  252.1317
 233  475.868
 234  823.5699
 235  114.1964
 236  -30.45243
 237  100.1623
 238  76.57908
 239  -63.16797
 240  42.55717
 241  103.1741
 242  -71.47853
 243  457.7377
 244  809.1578
 245  261.2918
 246  -339.6691
 247  0.7917798
 248  -11.64826
 249  -91.50658
 250  630.0962
 251  848.1514
 252  1106.486
 253  218.9202
 254  -5.401985
 255  232.0589
 256  293.4447
 257  -12.09443
 258  69.1325
 259  439.3738
 260  439.6657
 261  29.9228
 262  -274.0583
 263  -418.9378
 264  -606.0176
 265  -275.8802
 266  -6.90613
 267  137.9938
 268  16.77225
 269  111.0895
 270  99.80605
 271  -288.1404
 272  -262.6152
 273  -80.29398
 274  -3.231265
 275  -129.8386
 276  357.6685
 277  76.85308
 278  -129.266
 279  -149.1629
 280  52.52729
 281  14.44697
 282  276.1081
 283  436.2501
 284  714.0541
 285  658.7759
 286  371.9612
 287  251.8732
 288  73.34193
 289  -37.33493
 290  -143.0171
 291  -5.44923
 292  488.386
 293  201.6516
 294  -4.319645
 295  -210.7456
 296  -121.6721
 297  174.0678
 298  15.90854
 299  -134.9777
 300  -191.0116
 301  40.83492
 302  -79.56998
 303  -46.69831
 304  484.0896
 305  317.0081
 306  20.19616
 307  151.8123
 308  126.7458
 309  625.5617
 310  824.6198
 311  678.1882
 312  -0.4079159
 313  64.35709
 314  98.27647
 315  -302.5302
 316  -71.36434
 317  186.2812
 318  129.4704
 319  130.8794
 320  158.4544
 321  78.91738
 322  -282.345
 323  -40.74704
 324  -134.1551
 325  22.85942
 326  283.9133
 327  215.6952
 328  -31.84219
 329  -423.9268
 330  -445.1464
 331  -453.4048
 332  -280.4142
 333  235.6795
 334  547.8008
 335  267.9732
 336  -30.8784
 337  -284.1628
 338  -422.0045
 339  -337.591
 340  -134.5739
 341  -23.6324
 342  317.3229
 343  656.4521
 344  452.5536
 345  -81.54412
 346  -184.8833
 347  -9.781644
 348  108.2768
 349  -216.5559
 350  191.556
 351  402.0004
 352  723.9774
 353  359.627
 354  -85.99174
 355  -217.8227
 356  -595.5748
 357  220.8599
 358  385.8571
 359  512.2526
 360  19.42214
 361  -66.19073
 362  283.9877
 363  67.23608
 364  -126.8369
 365  13.80689
 366  384.6493
 367  38.22367
 368  -47.74738
 369  -5.293324
 370  84.74546
 371  308.7924
 372  -142.7274
 373  -158.6753
 374  -73.65464
 375  305.4261
 376  181.5054
 377  -39.59415
 378  -286.3551
 379  -71.40162
 380  -93.4898
 381  21.11576
 382  2.250072
 383  24.24916
 384  487.0019
 385  84.82431
 386  62.6074
 387  295.7384
 388  250.6678
 389  82.47383
 390  271.6902
 391  392.801
 392  475.9121
 393  54.4621
 394  -71.93983
 395  148.8804
 396  11.90047
 397  -2.006757
 398  -170.941
 399  388.5263
 400  269.5482
 401  10.56472
 402  -132.5845
 403  -234.3945
 404  -636.178
 405  -712.064
 406  -523.2409
 407  -654.3081
 408  -326.5498
 409  -399.9108
 410  -590.1691
 411  -601.0167
 412  -917.0824
 413  -651.96
 414  -738.7177
 415  -646.7449
 416  -755.9046
 417  -145.2597
 418  -24.13046
 419  -705.6078
 420  -582.7661
 421  -725.9896
 422  -516.1755
 423  -415.531
 424  72.17499
 425  -167.4573
 426  -272.0598
 427  -334.6029
 428  -638.9391
 429  -636.4825
 430  -658.4453
 431  -627.7405
 432  -509.1616
 433  -272.1039
 434  -624.4139
 435  -811.5548
 436  -549.5748
 437  -641.6147
 438  -391.239
 439  -369.1476
 440  -173.9093
 441  -220.5848
 442  -518.8884
 443  -691.6046
 444  -705.3168
 445  -322.6908
 446  -355.4872
 447  -265.2899
 448  -52.24876
 449  63.09076
 450  -364.21
 451  -207.5916
 452  -269.4685
 453  -26.42126
 454  -166.7876
 455  -104.9434
 456  -188.1486
 457  -9.854486
 458  -260.8925
 459  -274.4357
 460  -260.552
 461  -194.0074
 462  91.08399
 463  321.5178
 464  90.9424
 465  -238.5733
 466  -153.3183
 467  -63.03224
 468  -296.9895
 469  -306.8471
 470  209.1807
 471  236.9401
 472  -244.7135
 473  -41.57016
 474  -124.9839
 475  -111.1024
 476  -106.2428
 477  -267.4405
 478  201.7163
 479  338.2092
 480  124.2894
 481  -129.7393
 482  -237.3139
 483  -217.831
 484  466.0439
 485  192.793
 486  227.5817
 487  222.1712
 488  167.085
 489  398.0812
 490  335.0338
 491  251.0537
 492  -276.6528
 493  -581.5493
 494  -161.4191
 495  -292.6413
 496  -218.2156
 497  -614.8245
 498  -650.0161
 499  -215.7308
 500  143.6564
 501  140.4582
 502  109.3938
 503  -4.78255
 504  -28.18439
 505  -98.83244
 506  164.047
 507  -52.6421
 508  -141.9761
 509  -477.1221
 510  -580.3538
 511  -483.4713
