# Input file       =  1184989753.099401_cleaned.dat
# Candidate        =  PSR_0332+5434
# Telescope        =  AR
# Epoch_topo       =  57959.159399298624
# Epoch_bary       =  N/A
# T_sample         =  0.002
# Data Folded      =  7340032
# Data Avg         =  0.196988764951779
# Data StdDev      =  4.11630201363752 
# Profile Bins     =  512
# Profile Avg      =  2823.59474486352 
# Profile StdDev   =  492.857338736617 
# Reduced chi-sqr  =  1.028
# Prob(Noise)      <  0.32   (~0.5 sigma)
# P_topo (ms)      =  714.472794114062  +/- 0.000148
# P'_topo (s/s)    =  -0                +/- 7.82e-11
# P''_topo (s/s^2) =  0                 +/- 3.45e-14
# P_bary (ms)      =  N/A
# P'_bary (s/s)    =  N/A
# P''_bary (s/s^2) =  N/A
# P_orb (s)        =  N/A
# asin(i)/c (s)    =  N/A
# eccentricity     =  N/A
# w (rad)          =  N/A
# T_peri           =  N/A
######################################################
   0  2845.712
   1  2654.16
   2  2846.994
   3  2534.8
   4  2961.932
   5  2960.866
   6  2603.268
   7  2472.972
   8  2757.165
   9  3041.194
  10  2859.312
  11  2799.911
  12  3135.325
  13  3225.054
  14  3022.471
  15  2984.361
  16  3154.257
  17  3108.854
  18  2865.945
  19  2699.056
  20  2575.152
  21  3169.164
  22  3283.744
  23  3372.69
  24  3457.552
  25  3020.05
  26  2704.602
  27  2559.611
  28  2910.458
  29  3566.984
  30  3057.211
  31  2716.706
  32  2673.849
  33  2516.25
  34  2507.233
  35  2403.562
  36  2349.503
  37  2459.715
  38  2881.471
  39  2404.25
  40  2580.688
  41  2373.504
  42  2400.654
  43  2636.136
  44  2198.053
  45  2349.368
  46  2457.886
  47  2479.426
  48  2688.066
  49  2542.043
  50  2213.227
  51  2218.974
  52  2490.448
  53  2517.812
  54  2330.731
  55  2218.736
  56  2386.751
  57  2124.109
  58  2523.355
  59  3096.551
  60  2766.66
  61  3046.77
  62  3709.01
  63  3791.27
  64  4381.987
  65  4522.649
  66  4458.588
  67  3407.993
  68  2522.661
  69  2126.777
  70  2442.613
  71  2631.1
  72  2767.531
  73  2778.158
  74  2897.636
  75  2806.602
  76  2746.158
  77  2749.067
  78  2993.608
  79  3105.819
  80  2893.858
  81  2341.206
  82  2744.48
  83  2793.829
  84  3062.836
  85  2993.654
  86  2730.271
  87  2560.648
  88  2824.519
  89  2545.249
  90  2747.151
  91  3191.324
  92  2837.206
  93  2685.613
  94  2648.968
  95  3093.849
  96  3184.075
  97  3000.785
  98  2724.156
  99  2926.871
 100  3074.377
 101  3103.111
 102  3342.14
 103  3254.827
 104  2800.951
 105  2707.147
 106  2970.034
 107  2858.371
 108  3222.907
 109  3287.275
 110  2885.568
 111  2816.32
 112  3245.487
 113  3311.735
 114  3442.026
 115  3140.432
 116  2862.835
 117  2831.117
 118  2785.233
 119  2825.296
 120  2972.638
 121  3041.504
 122  2824.846
 123  2868.711
 124  3281.022
 125  3576.663
 126  3026.324
 127  2634.802
 128  2593.376
 129  3062.655
 130  3496.133
 131  3577.178
 132  3326.619
 133  3321.736
 134  3408.686
 135  3126.291
 136  3398.821
 137  3616.113
 138  3402.51
 139  3329.017
 140  2938.193
 141  2935.273
 142  3348.372
 143  3571.917
 144  3147.53
 145  3253.666
 146  3148.324
 147  2550.165
 148  2926.25
 149  3208.482
 150  3029.108
 151  2619.271
 152  2855.022
 153  3290.84
 154  3044.424
 155  3503.888
 156  3495.285
 157  3282.6
 158  3202.827
 159  3373.572
 160  3440.384
 161  3585.156
 162  3170.525
 163  2714.641
 164  2610.523
 165  2638.756
 166  2875.781
 167  3057.095
 168  2924.318
 169  2534.602
 170  2788.36
 171  2872.134
 172  2696.784
 173  3033.369
 174  3020.086
 175  2846.527
 176  2825.363
 177  2862.07
 178  3171.133
 179  2877.028
 180  2622.244
 181  2916.35
 182  3165.064
 183  3643.357
 184  3586.456
 185  3395.73
 186  3213.1
 187  3248.372
 188  2770.157
 189  3078.938
 190  2859.105
 191  2624.317
 192  2695.686
 193  2985.733
 194  2563.77
 195  2799.097
 196  2428.084
 197  2326.354
 198  2421.475
 199  2459.095
 200  2745.815
 201  2671.136
 202  2790.616
 203  2612.558
 204  2464.931
 205  2589.308
 206  2641.834
 207  2780.47
 208  2845.508
 209  2657.595
 210  2676.312
 211  2579.557
 212  2651.051
 213  2895.583
 214  2680.468
 215  2278.496
 216  2299.594
 217  2801.307
 218  2834.744
 219  2927.291
 220  2660.926
 221  2360.822
 222  1908.829
 223  2316.798
 224  2588.661
 225  2690.349
 226  2271.2
 227  2325.347
 228  2061.745
 229  2259.283
 230  2266.279
 231  2239.094
 232  2525.146
 233  2554.824
 234  2759.5
 235  2619.662
 236  2504.282
 237  2513.145
 238  2552.583
 239  2386.908
 240  2548.018
 241  2901.469
 242  3073.453
 243  3111.675
 244  3140.556
 245  2953.708
 246  2719.055
 247  2905.594
 248  3238.532
 249  3369.72
 250  3146.729
 251  2978.905
 252  2935.194
 253  2913.414
 254  3374.459
 255  3202.574
 256  3322.148
 257  2479.865
 258  2404.808
 259  2773.267
 260  2622.238
 261  2941.583
 262  2789.422
 263  2551.203
 264  2515.764
 265  2553.218
 266  2853.182
 267  2641.317
 268  2675.192
 269  2473.502
 270  2571.508
 271  2847.402
 272  3011.751
 273  2837.42
 274  2774.667
 275  2622.088
 276  2619.685
 277  2644.348
 278  2277.748
 279  2065.641
 280  2237.304
 281  2205.596
 282  1890.714
 283  2522.541
 284  2626.065
 285  2296.75
 286  2237.653
 287  2172.463
 288  2130.885
 289  2294.545
 290  2662.254
 291  3012.103
 292  2479.079
 293  2149.737
 294  2285.544
 295  2523.978
 296  2521.757
 297  2969.119
 298  2601.008
 299  2433.948
 300  2545.838
 301  2648.628
 302  2992.201
 303  3041.626
 304  2854.305
 305  2638.159
 306  2862.927
 307  2901.307
 308  2581.514
 309  2945.617
 310  2841.067
 311  2464.023
 312  2634.671
 313  2810.104
 314  2655.18
 315  2383.774
 316  2476.847
 317  2379.623
 318  2464.623
 319  2950.999
 320  3183.131
 321  2968.311
 322  2968.355
 323  2965.092
 324  3133.959
 325  3258.641
 326  3231
 327  3105.023
 328  3217.721
 329  3218.941
 330  3165.529
 331  3117.757
 332  2762.266
 333  3085.636
 334  3328.482
 335  3280.602
 336  3064.349
 337  3159.306
 338  3208.928
 339  2836.8
 340  2975.966
 341  2782.547
 342  2695.51
 343  2563.62
 344  2805.71
 345  3075.11
 346  3122.797
 347  3099.362
 348  3259.974
 349  3393.814
 350  3332.641
 351  3082.049
 352  3013.835
 353  3095.827
 354  3446.698
 355  3265.768
 356  3042.296
 357  3396.5
 358  3530.469
 359  3280.205
 360  3225.125
 361  3063.255
 362  2574.14
 363  2788.873
 364  2982.307
 365  2919.979
 366  2946.487
 367  2958.32
 368  3103.268
 369  2890.625
 370  2896.084
 371  3264.42
 372  3476.052
 373  3240.163
 374  2945.351
 375  3159.808
 376  3324.507
 377  2819.482
 378  2625.051
 379  2711
 380  3080.253
 381  2827.028
 382  3145.006
 383  2968.111
 384  3258.085
 385  3119.867
 386  2622.061
 387  2890.23
 388  2876.238
 389  3184.562
 390  3378.537
 391  3057.543
 392  2910.073
 393  2956.914
 394  3006.355
 395  2988.576
 396  2820.212
 397  3087.768
 398  2968.006
 399  2898.369
 400  2954.908
 401  2845.946
 402  2879.143
 403  2783.966
 404  2707.379
 405  2727.342
 406  2059.95
 407  1935.522
 408  2258.739
 409  2577.657
 410  2616.079
 411  2652.03
 412  2428.687
 413  2585.841
 414  2986.666
 415  3086.317
 416  3134.773
 417  2765.275
 418  2617.89
 419  2715.316
 420  2698.354
 421  2948.958
 422  3065.505
 423  2631.929
 424  2799.477
 425  2952.299
 426  2761.636
 427  3225.243
 428  3189.05
 429  2556.003
 430  2597.805
 431  2989.905
 432  2568.657
 433  2894.505
 434  2857.435
 435  2553.274
 436  2320.388
 437  2328.535
 438  2438.222
 439  2856.317
 440  2842.807
 441  2896.992
 442  2573.069
 443  2443.864
 444  2220.494
 445  2271.502
 446  2905.676
 447  2892.513
 448  2608.101
 449  2580.544
 450  2700.323
 451  2739.332
 452  2818.292
 453  2707.576
 454  2783.152
 455  2892.615
 456  2580.404
 457  2969.035
 458  3075.203
 459  3056.675
 460  2863.99
 461  2743.452
 462  2785.569
 463  2942.295
 464  3039.757
 465  3085.036
 466  2738.216
 467  2279.622
 468  2299.881
 469  2653.164
 470  2572.723
 471  2786.303
 472  2676.913
 473  2206.001
 474  2340.433
 475  2781.003
 476  2976.95
 477  2582.806
 478  2510.879
 479  2235.474
 480  2607.592
 481  2601.15
 482  2841.947
 483  2905.711
 484  3102.625
 485  3093.19
 486  2370.809
 487  2564.098
 488  2737.444
 489  2703.476
 490  2400.486
 491  2205.632
 492  2250.738
 493  2857.035
 494  2948.88
 495  2603.535
 496  2414.196
 497  2081.329
 498  2219.633
 499  2358.637
 500  2814.304
 501  3035.764
 502  2734.009
 503  2676.858
 504  2616.821
 505  2339.36
 506  2164.645
 507  2472.848
 508  2694.711
 509  2421.456
 510  2253.954
 511  2541.75
