# Input file       =  1184214230.099528_cleaned.dat
# Candidate        =  PSR_0332+5434
# Telescope        =  AR
# Epoch_topo       =  57950.183438651948
# Epoch_bary       =  N/A
# T_sample         =  0.002
# Data Folded      =  7340032
# Data Avg         =  0.030037056947298
# Data StdDev      =  0.999933410891408
# Profile Bins     =  512
# Profile Avg      =  430.549473023545 
# Profile StdDev   =  119.725063460605 
# Reduced chi-sqr  =  1.210
# Prob(Noise)      <  0.000752   (~3.2 sigma)
# P_topo (ms)      =  714.478142665338  +/- 0.000217
# P'_topo (s/s)    =  -0                +/- 1.14e-10
# P''_topo (s/s^2) =  0                 +/- 5.04e-14
# P_bary (ms)      =  N/A
# P'_bary (s/s)    =  N/A
# P''_bary (s/s^2) =  N/A
# P_orb (s)        =  N/A
# asin(i)/c (s)    =  N/A
# eccentricity     =  N/A
# w (rad)          =  N/A
# T_peri           =  N/A
######################################################
   0  1077.407
   1  912.3969
   2  723.4109
   3  585.8193
   4  402.7053
   5  420.2373
   6  377.3959
   7  359.9349
   8  374.4835
   9  404.9948
  10  559.1729
  11  535.8021
  12  563.2333
  13  579.2177
  14  498.1284
  15  455.3002
  16  516.7319
  17  550.1135
  18  491.6795
  19  486.1707
  20  484.2366
  21  511.0162
  22  413.7307
  23  269.4914
  24  333.556
  25  417.4391
  26  423.0726
  27  440.1392
  28  419.2504
  29  485.671
  30  500.3773
  31  518.4105
  32  497.4073
  33  489.0843
  34  428.1452
  35  478.4555
  36  440.7998
  37  486.1659
  38  445.1641
  39  360.9104
  40  498.4385
  41  557.0709
  42  508.1266
  43  484.4791
  44  457.2332
  45  382.1563
  46  499.2331
  47  558.3358
  48  450.2954
  49  447.8229
  50  413.1201
  51  403.8474
  52  389.2996
  53  460.134
  54  530.7396
  55  492.9092
  56  387.2703
  57  491.1285
  58  337.7046
  59  456.9442
  60  581.7795
  61  498.4353
  62  521.4394
  63  432.3588
  64  412.92
  65  400.0603
  66  435.9147
  67  512.0962
  68  452.1981
  69  427.5562
  70  381.7894
  71  360.1404
  72  313.5161
  73  422.4112
  74  448.3318
  75  494.8534
  76  504.826
  77  454.7437
  78  353.3929
  79  402.0211
  80  364.5766
  81  407.4531
  82  512.5801
  83  534.0591
  84  445.4934
  85  381.1405
  86  377.857
  87  305.7839
  88  321.6352
  89  371.3406
  90  363.1968
  91  339.032
  92  402.3875
  93  387.5938
  94  295.5354
  95  417.2803
  96  391.9179
  97  348.0235
  98  393.8452
  99  392.4482
 100  355.156
 101  478.5395
 102  514.2234
 103  635.0233
 104  535.085
 105  411.6796
 106  406.1387
 107  438.1885
 108  498.0236
 109  481.0097
 110  464.1877
 111  492.5104
 112  416.0041
 113  488.1514
 114  490.7812
 115  371.7534
 116  416.0013
 117  524.4239
 118  408.6632
 119  390.5265
 120  355.1993
 121  382.7913
 122  391.886
 123  416.5817
 124  358.6556
 125  347.731
 126  376.2065
 127  313.3374
 128  401.2671
 129  286.2851
 130  237.5354
 131  346.3731
 132  332.158
 133  380.3716
 134  365.0314
 135  335.7633
 136  453.7658
 137  558.5292
 138  502.7588
 139  352.6247
 140  326.1641
 141  369.5255
 142  518.1115
 143  502.8614
 144  449.3113
 145  536.2962
 146  384.3454
 147  450.518
 148  427.2619
 149  431.9825
 150  485.2029
 151  490.771
 152  408.9232
 153  376.3992
 154  421.7496
 155  316.4484
 156  363.8353
 157  368.3936
 158  369.5399
 159  225.7452
 160  355.9084
 161  466.726
 162  356.5752
 163  409.774
 164  422.7375
 165  425.3009
 166  482.7222
 167  483.7751
 168  372.5996
 169  287.3048
 170  350.4451
 171  358.9798
 172  435.7356
 173  530.7224
 174  417.7093
 175  398.6638
 176  281.0937
 177  342.2211
 178  328.9744
 179  324.8391
 180  434.4413
 181  440.0665
 182  527.4112
 183  355.0138
 184  412.442
 185  462.629
 186  342.3157
 187  406.2081
 188  484.69
 189  416.2726
 190  399.6403
 191  556.595
 192  514.7711
 193  529.9493
 194  451.3607
 195  552.7892
 196  445.1257
 197  384.665
 198  347.3759
 199  454.9568
 200  513.5236
 201  458.9272
 202  395.3496
 203  426.1659
 204  380.9743
 205  346.489
 206  465.7372
 207  408.4624
 208  319.7867
 209  331.6824
 210  424.7283
 211  426.9661
 212  401.526
 213  365.7177
 214  305.5179
 215  362.5362
 216  449.026
 217  456.0941
 218  457.4316
 219  445.8722
 220  402.9035
 221  438.2892
 222  376.9937
 223  321.3634
 224  345.3089
 225  365.8442
 226  374.9318
 227  426.3146
 228  408.7906
 229  497.1374
 230  352.1944
 231  384.0992
 232  405.0995
 233  360.1362
 234  380.0854
 235  380.5815
 236  408.9916
 237  435.0106
 238  430.6465
 239  355.6163
 240  422.4001
 241  462.5495
 242  471.9286
 243  334.1216
 244  263.5637
 245  265.2486
 246  352.3102
 247  420.799
 248  412.4585
 249  519.3275
 250  487.5682
 251  458.4652
 252  500.9138
 253  384.191
 254  512.9896
 255  532.1091
 256  490.2257
 257  479.327
 258  411.3872
 259  450.5038
 260  439.8896
 261  393.5503
 262  397.1664
 263  366.89
 264  352.0338
 265  422.0124
 266  390.1028
 267  429.261
 268  488.3193
 269  530.7773
 270  523.5476
 271  513.9009
 272  605.2648
 273  491.0361
 274  459.3378
 275  494.756
 276  501.6183
 277  407.9494
 278  391.4742
 279  408.0052
 280  368.4938
 281  376.3602
 282  452.8898
 283  435.3546
 284  392.948
 285  525.3287
 286  470.3942
 287  359.958
 288  400.6822
 289  352.0534
 290  409.2851
 291  439.9872
 292  331.3291
 293  412.0702
 294  367.6768
 295  345.9576
 296  452.922
 297  442.2633
 298  420.1656
 299  352.6172
 300  349.7173
 301  380.5699
 302  375.4597
 303  361.5495
 304  390.4532
 305  406.2727
 306  372.8735
 307  288.5528
 308  363.3971
 309  288.5536
 310  249.768
 311  385.2741
 312  495.5664
 313  531.4807
 314  493.1392
 315  501.9026
 316  453.9709
 317  416.3426
 318  467.9202
 319  578.2777
 320  417.2507
 321  366.0067
 322  440.1276
 323  312.7506
 324  451.3106
 325  563.3917
 326  551.3692
 327  559.3601
 328  569.0837
 329  514.8124
 330  572.4399
 331  565.2114
 332  494.7551
 333  522.1297
 334  502.4866
 335  517.2587
 336  490.8853
 337  363.7242
 338  470.4529
 339  371.8048
 340  431.0307
 341  375.3127
 342  301.7543
 343  258.4688
 344  405.4633
 345  428.2711
 346  451.6378
 347  388.1268
 348  319.0717
 349  427.0921
 350  526.8901
 351  346.0128
 352  412.3559
 353  335.0477
 354  361.9446
 355  391.5974
 356  316.182
 357  304.5374
 358  511.4191
 359  530.6306
 360  478.5491
 361  436.7092
 362  338.9005
 363  429.233
 364  517.3153
 365  514.0538
 366  412.8965
 367  409.5561
 368  455.9222
 369  374.2741
 370  332.3524
 371  409.7072
 372  476.0685
 373  393.1908
 374  398.4169
 375  392.6754
 376  355.4298
 377  373.8206
 378  300.0028
 379  311.2817
 380  360.868
 381  276.9596
 382  310.1009
 383  337.4431
 384  293.6483
 385  447.997
 386  435.7741
 387  399.372
 388  334.8455
 389  411.4018
 390  334.9812
 391  371.5757
 392  365.1324
 393  330.8609
 394  409.6117
 395  440.9362
 396  425.5774
 397  468.8961
 398  431.4015
 399  471.5591
 400  560.0395
 401  444.7633
 402  389.8704
 403  323.7137
 404  368.247
 405  410.4448
 406  376.6035
 407  416.087
 408  453.3328
 409  434.1534
 410  433.72
 411  393.7348
 412  395.2395
 413  517.1426
 414  527.7076
 415  416.6497
 416  381.1636
 417  410.8341
 418  456.8186
 419  454.8368
 420  416.187
 421  373.3065
 422  347.305
 423  313.1452
 424  391.6113
 425  494.6532
 426  486.5643
 427  328.9689
 428  293.2323
 429  418.7715
 430  541.735
 431  406.7379
 432  312.2439
 433  362.1996
 434  456.4449
 435  380.9276
 436  259.4339
 437  279.0643
 438  330.9212
 439  334.4054
 440  365.46
 441  512.7906
 442  484.2512
 443  393.9344
 444  373.6804
 445  538.6679
 446  463.7147
 447  444.5737
 448  394.8144
 449  294.6669
 450  273.0931
 451  289.9709
 452  379.3692
 453  451.4345
 454  356.2687
 455  308.6309
 456  309.459
 457  322.9272
 458  353.5243
 459  355.5474
 460  467.926
 461  465.6627
 462  477.034
 463  435.6985
 464  386.7755
 465  304.0251
 466  293.5214
 467  440.815
 468  490.9677
 469  449.0522
 470  399.8326
 471  412.9517
 472  418.0718
 473  446.3051
 474  505.4221
 475  487.9679
 476  505.5497
 477  504.1805
 478  433.2028
 479  543.712
 480  500.2919
 481  486.1837
 482  507.3636
 483  472.0824
 484  452.0536
 485  412.3785
 486  346.6288
 487  440.853
 488  477.3781
 489  581.7016
 490  580.751
 491  440.5271
 492  513.4284
 493  544.8704
 494  573.1875
 495  543.2184
 496  485.5797
 497  446.3161
 498  407.4612
 499  488.2488
 500  498.4492
 501  448.0052
 502  455.9497
 503  480.2233
 504  445.5031
 505  530.0137
 506  609.1017
 507  543.5449
 508  774.5135
 509  910.6315
 510  1004.734
 511  1138.122
