# Input file       =  1184645147.110282_cleaned.dat
# Candidate        =  PSR_0332+5434
# Telescope        =  AR
# Epoch_topo       =  57955.170904054190
# Epoch_bary       =  N/A
# T_sample         =  0.002
# Data Folded      =  7340032
# Data Avg         =  0.0238731574251607
# Data StdDev      =  1.00021386356292 
# Profile Bins     =  512
# Profile Avg      =  342.053850822638 
# Profile StdDev   =  119.758642910525 
# Reduced chi-sqr  =  2.491
# Prob(Noise)      <  1.05e-66   (~17.2 sigma)
# P_topo (ms)      =  714.47503941438   +/- 0.000256
# P'_topo (s/s)    =  -0                +/- 1.35e-10
# P''_topo (s/s^2) =  0                 +/- 5.95e-14
# P_bary (ms)      =  N/A
# P'_bary (s/s)    =  N/A
# P''_bary (s/s^2) =  N/A
# P_orb (s)        =  N/A
# asin(i)/c (s)    =  N/A
# eccentricity     =  N/A
# w (rad)          =  N/A
# T_peri           =  N/A
######################################################
   0  1521.12
   1  1379.136
   2  1096.193
   3  736.1008
   4  613.7334
   5  507.8707
   6  469.0786
   7  457.3585
   8  395.1023
   9  398.647
  10  548.9833
  11  567.8895
  12  486.254
  13  471.2975
  14  416.6125
  15  467.1986
  16  544.3094
  17  506.9408
  18  496.7
  19  546.9088
  20  496.8562
  21  422.099
  22  431.243
  23  350.674
  24  361.6073
  25  381.5789
  26  369.8767
  27  326.655
  28  460.1786
  29  478.2088
  30  446.0785
  31  388.8469
  32  505.7148
  33  420.7317
  34  298.3413
  35  287.6854
  36  315.4042
  37  275.168
  38  219.1897
  39  139.7577
  40  303.0717
  41  358.8164
  42  365.3195
  43  356.7575
  44  343.5371
  45  332.0378
  46  292.1246
  47  418.7757
  48  332.357
  49  375.4823
  50  358.1032
  51  302.0029
  52  345.94
  53  349.425
  54  385.1058
  55  385.732
  56  303.5588
  57  330.8877
  58  406.3179
  59  484.135
  60  428.3075
  61  359.58
  62  326.7401
  63  312.6507
  64  311.6217
  65  322.7197
  66  342.7881
  67  404.3666
  68  345.6049
  69  426.5093
  70  305.6107
  71  286.0243
  72  413.5187
  73  390.5182
  74  346.381
  75  248.9658
  76  377.0094
  77  369.8088
  78  390.2226
  79  351.3722
  80  340.044
  81  289.4563
  82  313.5624
  83  287.0962
  84  261.799
  85  220.2426
  86  236.9463
  87  119.2187
  88  162.5774
  89  201.6292
  90  199.4658
  91  316.4523
  92  291.5421
  93  229.781
  94  297.2162
  95  327.1994
  96  260.0753
  97  198.9414
  98  276.7335
  99  255.015
 100  308.2734
 101  276.0384
 102  329.8706
 103  239.0434
 104  149.2563
 105  197.1198
 106  173.4386
 107  194.4666
 108  295.5234
 109  399.7815
 110  244.6322
 111  181.2091
 112  134.6782
 113  194.5807
 114  184.2564
 115  317.1848
 116  365.239
 117  333.217
 118  179.5215
 119  127.8372
 120  322.708
 121  281.4577
 122  287.4222
 123  335.1957
 124  334.2354
 125  467.6368
 126  441.6483
 127  395.5843
 128  308.4869
 129  354.1605
 130  380.0964
 131  344.4462
 132  395.7677
 133  403.1035
 134  342.6356
 135  308.3601
 136  345.2545
 137  346.6429
 138  233.4947
 139  344.2695
 140  310.0649
 141  210.6703
 142  239.579
 143  249.9736
 144  280.5312
 145  371.321
 146  378.0878
 147  444.4441
 148  457.8901
 149  408.6558
 150  240.996
 151  208.6044
 152  280.481
 153  370.7471
 154  283.8874
 155  324.2178
 156  318.0677
 157  352.7786
 158  362.0024
 159  302.0861
 160  267.8069
 161  239.0081
 162  267.3884
 163  229.8125
 164  244.5645
 165  196.5067
 166  224.2422
 167  327.2988
 168  413.3887
 169  323.688
 170  488.8486
 171  371.6602
 172  382.5322
 173  334.716
 174  394.5279
 175  413.8122
 176  430.8814
 177  381.2012
 178  372.1379
 179  231.2176
 180  387.1732
 181  449.7083
 182  393.4707
 183  415.4285
 184  373.3228
 185  395.9668
 186  414.4151
 187  407.8453
 188  390.3157
 189  314.0215
 190  215.004
 191  270.4079
 192  360.2999
 193  256.0388
 194  211.5126
 195  454.9183
 196  429.8228
 197  427.5935
 198  376.9919
 199  367.5237
 200  308.0588
 201  295.466
 202  402.6032
 203  413.2556
 204  368.7126
 205  240.2504
 206  322.3462
 207  432.7796
 208  378.3268
 209  259.0087
 210  345.1235
 211  274.2583
 212  272.2864
 213  356.0809
 214  372.726
 215  247.9292
 216  240.2968
 217  258.4066
 218  333.5835
 219  356.0287
 220  446.4083
 221  429.6983
 222  372.7759
 223  453.1328
 224  409.9714
 225  481.0001
 226  419.4955
 227  421.3139
 228  403.9465
 229  411.0133
 230  206.7817
 231  223.1665
 232  313.8622
 233  402.9847
 234  368.9082
 235  239.4348
 236  192.776
 237  408.3653
 238  471.2817
 239  294.9001
 240  310.9075
 241  353.8575
 242  360.557
 243  326.3547
 244  345.3441
 245  411.0721
 246  344.8029
 247  302.3636
 248  363.9211
 249  451.1736
 250  396.9999
 251  393.3366
 252  523.6185
 253  322.3125
 254  321.0277
 255  282.4664
 256  341.1924
 257  273.8003
 258  210.3633
 259  270.1809
 260  346.7064
 261  406.8857
 262  331.1201
 263  199.4013
 264  177.118
 265  311.2664
 266  346.7603
 267  244.6868
 268  216.1989
 269  375.0212
 270  234.9446
 271  159.5952
 272  253.2971
 273  238.55
 274  209.2429
 275  224.6061
 276  344.4806
 277  303.9377
 278  345.4508
 279  418.3718
 280  448.466
 281  394.0636
 282  295.7481
 283  361.2216
 284  279.0525
 285  315.7044
 286  332.9134
 287  284.9151
 288  223.8592
 289  230.8244
 290  369.5034
 291  348.1541
 292  356.1903
 293  354.8282
 294  322.7673
 295  291.2041
 296  265.9085
 297  339.2367
 298  251.5562
 299  302.0021
 300  273.5587
 301  258.8517
 302  245.6335
 303  335.0266
 304  360.626
 305  320.1314
 306  474.9765
 307  488.7599
 308  382.7049
 309  302.2068
 310  325.5761
 311  289.7497
 312  205.6971
 313  345.9961
 314  361.9922
 315  253.1964
 316  218.7444
 317  277.471
 318  399.0017
 319  340.0643
 320  327.0587
 321  261.8575
 322  300.5885
 323  407.5432
 324  457.967
 325  359.2648
 326  314.8012
 327  364.0262
 328  209.3644
 329  232.6934
 330  267.5252
 331  321.0371
 332  319.2581
 333  233.8809
 334  287.3515
 335  339.3477
 336  319.686
 337  261.177
 338  241.1127
 339  307.736
 340  363.7884
 341  355.4637
 342  324.3651
 343  191.453
 344  211.4019
 345  271.1571
 346  233.4928
 347  315.7756
 348  154.9123
 349  299.8323
 350  262.7043
 351  191.7026
 352  236.0754
 353  143.4869
 354  283.9294
 355  297.2505
 356  180.1389
 357  230.7681
 358  232.6525
 359  251.9023
 360  278.1212
 361  205.4749
 362  355.0559
 363  297.9335
 364  288.7717
 365  336.7165
 366  250.2329
 367  266.0521
 368  242.243
 369  216.4913
 370  212.1044
 371  184.369
 372  233.0781
 373  236.7408
 374  213.8258
 375  173.6811
 376  163.0104
 377  197.4854
 378  208.8916
 379  169.3725
 380  84.56667
 381  117.2855
 382  247.1586
 383  245.7047
 384  253.7618
 385  236.7572
 386  197.5905
 387  320.6702
 388  411.5543
 389  246.4291
 390  232.9877
 391  275.4374
 392  161.4211
 393  158.3346
 394  321.2482
 395  395.0947
 396  350.7967
 397  367.4763
 398  337.5328
 399  187.7346
 400  214.5473
 401  256.8872
 402  237.3244
 403  220.6596
 404  225.303
 405  279.0166
 406  356.3916
 407  206.9632
 408  182.5925
 409  239.0973
 410  181.8008
 411  210.8124
 412  236.0033
 413  203.7238
 414  274.1152
 415  216.832
 416  254.0374
 417  301.6271
 418  335.9131
 419  344.2052
 420  323.155
 421  319.8936
 422  337.8145
 423  338.9323
 424  300.5842
 425  352.3892
 426  466.5862
 427  438.7724
 428  306.4592
 429  242.3532
 430  264.6284
 431  362.2766
 432  321.5974
 433  334.6422
 434  342.4288
 435  421.3449
 436  379.5121
 437  350.6495
 438  238.0828
 439  346.6806
 440  349.237
 441  215.0636
 442  112.0146
 443  282.4994
 444  422.9193
 445  427.6797
 446  293.2242
 447  292.9505
 448  305.0462
 449  392.2437
 450  272.6415
 451  259.0128
 452  251.4655
 453  259.1395
 454  312.8779
 455  350.4716
 456  318.603
 457  327.3852
 458  441.157
 459  362.6321
 460  337.2497
 461  359.4749
 462  422.0656
 463  415.2605
 464  355.1658
 465  448.2037
 466  471.4977
 467  430.8578
 468  355.5419
 469  358.1129
 470  385.8013
 471  435.0251
 472  363.6176
 473  285.9747
 474  317.2492
 475  421.046
 476  501.6028
 477  516.6882
 478  511.6054
 479  338.8539
 480  356.3634
 481  429.9309
 482  490.4061
 483  499.7645
 484  467.8731
 485  285.1355
 486  397.0882
 487  470.7538
 488  453.9966
 489  432.1832
 490  504.2885
 491  552.1213
 492  510.3135
 493  588.2057
 494  494.339
 495  459.5297
 496  447.7223
 497  429.6167
 498  526.3835
 499  568.9381
 500  548.7372
 501  491.9993
 502  408.3207
 503  411.4867
 504  483.0742
 505  622.7844
 506  516.3489
 507  664.6917
 508  716.0497
 509  816.5803
 510  1022.955
 511  1384.929
