# Input file       =  1184731253.101969_cleaned.dat
# Candidate        =  PSR_0332+5434
# Telescope        =  AR
# Epoch_topo       =  57956.167501180200
# Epoch_bary       =  N/A
# T_sample         =  0.002
# Data Folded      =  7340032
# Data Avg         =  0.236352305645205
# Data StdDev      =  7.17616389826472 
# Profile Bins     =  512
# Profile Avg      =  3387.32578837405 
# Profile StdDev   =  859.223893076565 
# Reduced chi-sqr  =  1.510
# Prob(Noise)      <  6.41e-13   (~7.1 sigma)
# P_topo (ms)      =  714.474457140744  +/- 0.000224
# P'_topo (s/s)    =  -0                +/- 1.18e-10
# P''_topo (s/s^2) =  0                 +/- 5.23e-14
# P_bary (ms)      =  N/A
# P'_bary (s/s)    =  N/A
# P''_bary (s/s^2) =  N/A
# P_orb (s)        =  N/A
# asin(i)/c (s)    =  N/A
# eccentricity     =  N/A
# w (rad)          =  N/A
# T_peri           =  N/A
######################################################
   0  2903.5
   1  3199.251
   2  2926.676
   3  2979.217
   4  3365.43
   5  2683.184
   6  2337.114
   7  2961.809
   8  3952.702
   9  4282.294
  10  3716.956
  11  3608.942
  12  2659.667
  13  3340.756
  14  4250.226
  15  3640.695
  16  4120.066
  17  4221.038
  18  4204.926
  19  4116.346
  20  3214.521
  21  3319.894
  22  2999.099
  23  3056.537
  24  3712.465
  25  3666.276
  26  2934.446
  27  2861.133
  28  3467.448
  29  3941.227
  30  3435.465
  31  3190.394
  32  2909.249
  33  4116.963
  34  4039.359
  35  4036.711
  36  4408.847
  37  4023.586
  38  3847.012
  39  3580.395
  40  3798.155
  41  3315.479
  42  4034.626
  43  4803.207
  44  3531.201
  45  2056.403
  46  2727.853
  47  3093.201
  48  4083.231
  49  4216.354
  50  3486.516
  51  2703.4
  52  3158.631
  53  3517.573
  54  3819.197
  55  4094.816
  56  4239.571
  57  2545.733
  58  2849.971
  59  3381.626
  60  4484.372
  61  4419.1
  62  3474.186
  63  3408.278
  64  3197.932
  65  3692.648
  66  4237.859
  67  4378.028
  68  4207.702
  69  3960.763
  70  4054.665
  71  3919.415
  72  4595.634
  73  4718.319
  74  4121.3
  75  3610.033
  76  3872.691
  77  3907.757
  78  4103.445
  79  3853.682
  80  2915.918
  81  2788.051
  82  3129.252
  83  3770.779
  84  3811.016
  85  3591.656
  86  2794.673
  87  3069.557
  88  2867.055
  89  3036.771
  90  3097.665
  91  3757.85
  92  3163.062
  93  2797.617
  94  3174.74
  95  3080.416
  96  2365.912
  97  2783.509
  98  3096.682
  99  3443.143
 100  3115.007
 101  2959.588
 102  2805.71
 103  2712.881
 104  2036.342
 105  2286.737
 106  2307.23
 107  2091.09
 108  2804.093
 109  3237.125
 110  3039.508
 111  3073.92
 112  2519.005
 113  1996.926
 114  1817.264
 115  1991.619
 116  2480.688
 117  3541.035
 118  3538.881
 119  3421.126
 120  3107.237
 121  3384.339
 122  2600.529
 123  2911.552
 124  4163.62
 125  4097.589
 126  2909.904
 127  2504.242
 128  3716.913
 129  4445.804
 130  4688.154
 131  3477.873
 132  2514.288
 133  2532.044
 134  2667.566
 135  3448.51
 136  2873.547
 137  3141.833
 138  2718.05
 139  2057.514
 140  2537.574
 141  2689.445
 142  2589.794
 143  2996.602
 144  2886.683
 145  2994.413
 146  2760.546
 147  2206.387
 148  2810.567
 149  3352.701
 150  2931.761
 151  2752.318
 152  3075.844
 153  2628.582
 154  2611.444
 155  2803.977
 156  3518.357
 157  3457.185
 158  2824.643
 159  2817.343
 160  2449.106
 161  2144.786
 162  2165.641
 163  1922.643
 164  2694.559
 165  3127.134
 166  2794.026
 167  2364.706
 168  1868.993
 169  2036.018
 170  2637.452
 171  2585.886
 172  3066.852
 173  2109.084
 174  1568.513
 175  2011.371
 176  2525.436
 177  2929.481
 178  3092.399
 179  2695.324
 180  2203.745
 181  1729.727
 182  2816.431
 183  3463.322
 184  3495.005
 185  3260.855
 186  3254.118
 187  4012.039
 188  3982.892
 189  3431.804
 190  3212.215
 191  3256.819
 192  3119.681
 193  2891.264
 194  3546.997
 195  4143.85
 196  3613.041
 197  3352.244
 198  2721.917
 199  2216.087
 200  2904.948
 201  3675.876
 202  3271.854
 203  3522.148
 204  2585.397
 205  2797.429
 206  2708.271
 207  3238.372
 208  3219.623
 209  3239.005
 210  2849.714
 211  2756.377
 212  3302.131
 213  3143.177
 214  2520.436
 215  2553.665
 216  3222.283
 217  3054.947
 218  2908.176
 219  2851.11
 220  2656.187
 221  2426.077
 222  2154.223
 223  2179.369
 224  2615.914
 225  2334.664
 226  2176.102
 227  2245.5
 228  2009.761
 229  1727.598
 230  2206.2
 231  2694.77
 232  1914.234
 233  2324.391
 234  2771.081
 235  2375.504
 236  2694.624
 237  2593.106
 238  2549.818
 239  3664.37
 240  2883.356
 241  2597.345
 242  1985.942
 243  2141.931
 244  2018.193
 245  1834.407
 246  2356.302
 247  2350.402
 248  2394.75
 249  2881.223
 250  3623.141
 251  2762.235
 252  1534.904
 253  1928.426
 254  2274.957
 255  2792.492
 256  2760.96
 257  2846.512
 258  3043.377
 259  2845.397
 260  2706.218
 261  3185.254
 262  2770.39
 263  2924.531
 264  3382.357
 265  3211.194
 266  4399.628
 267  4289.496
 268  4282.843
 269  4123.88
 270  3645.361
 271  3914.281
 272  3818.124
 273  3935.067
 274  3690.668
 275  3926.975
 276  3423.058
 277  2934.238
 278  2944.875
 279  3442.33
 280  4673.52
 281  4237.624
 282  3363.85
 283  2889.912
 284  2659.495
 285  3245.958
 286  3845.334
 287  3940.872
 288  3636.465
 289  3803.397
 290  3650.287
 291  3750.168
 292  4357.638
 293  3727.121
 294  3288.997
 295  2530.282
 296  2615.03
 297  3491.082
 298  3281.853
 299  3368.244
 300  2876.501
 301  2539.615
 302  2436.22
 303  2859.889
 304  3155.902
 305  3253.25
 306  2885.359
 307  2380.703
 308  3209.425
 309  3328.293
 310  3540.012
 311  3423.239
 312  3704.911
 313  3774.071
 314  3512.16
 315  3287.65
 316  3124.198
 317  3029.233
 318  3825.484
 319  3237.414
 320  3592.971
 321  3559.525
 322  3705.827
 323  3314.345
 324  2704.877
 325  2597.338
 326  3076.856
 327  3519.608
 328  3827.182
 329  3799.176
 330  2732.879
 331  2402.583
 332  2296.448
 333  3023.058
 334  3861.855
 335  4205.387
 336  4627.684
 337  4002.371
 338  4227.588
 339  3907.314
 340  2948.483
 341  3211.675
 342  3371.039
 343  3707.404
 344  3898.328
 345  3853.841
 346  3836.35
 347  3981.586
 348  4434.603
 349  3596.946
 350  2943.788
 351  2539.174
 352  2252.806
 353  2566.937
 354  3773.44
 355  3833.528
 356  3416.844
 357  2907.754
 358  2692.137
 359  3203.62
 360  3679.131
 361  3830.756
 362  3424.174
 363  3211.937
 364  3251.289
 365  3660.232
 366  4394.419
 367  5190.155
 368  4838.49
 369  4191.896
 370  4631.79
 371  4992.697
 372  3643.143
 373  4188.905
 374  4804.989
 375  4575.831
 376  4837.897
 377  4789.287
 378  4037.986
 379  3051.94
 380  3357.271
 381  3425.262
 382  3786.017
 383  4323.464
 384  4083.557
 385  3329.927
 386  4270.898
 387  4023.669
 388  4929.938
 389  4603.379
 390  3781.122
 391  4155.704
 392  4497.95
 393  4077.946
 394  5399.779
 395  5127.701
 396  3818.48
 397  3768.757
 398  4455.949
 399  3887.084
 400  3492.49
 401  3811.742
 402  4809.846
 403  5516.918
 404  5990.865
 405  6392.567
 406  5998.36
 407  5326.126
 408  5030.073
 409  4590.049
 410  5030.821
 411  4424.741
 412  3482.449
 413  4192.689
 414  4121.932
 415  3965.396
 416  4698.49
 417  4872.127
 418  4059.975
 419  3594.031
 420  4349.858
 421  4886.536
 422  4669.216
 423  4497.839
 424  3771.271
 425  3157.177
 426  4090.568
 427  5009.882
 428  4335.151
 429  4575.549
 430  3527.585
 431  3769.765
 432  4454.863
 433  4291.995
 434  4695.652
 435  4208.809
 436  3741.417
 437  3320.776
 438  3901.937
 439  4794.351
 440  5041.157
 441  3500.778
 442  3269.989
 443  3757.3
 444  4076.445
 445  3797.87
 446  4525.064
 447  4607.213
 448  4273.531
 449  3450.311
 450  2996.983
 451  3305.413
 452  2909.423
 453  3451.487
 454  3466.668
 455  2838.052
 456  2416.399
 457  3035.378
 458  3114.781
 459  4170.779
 460  3811.454
 461  3325.097
 462  3321.739
 463  2694.104
 464  2908.986
 465  3002.096
 466  3604.112
 467  3394.526
 468  4324.072
 469  3879.2
 470  3057.778
 471  3012.07
 472  2518.616
 473  2882.357
 474  3118.106
 475  3252.916
 476  3392.053
 477  3554.78
 478  3496.421
 479  3321.243
 480  2945.735
 481  3620.292
 482  3970.804
 483  3739.357
 484  3745.495
 485  3581.542
 486  3579.264
 487  3552.061
 488  4667.321
 489  4461.594
 490  3687.163
 491  3401.211
 492  3314.325
 493  3920.9
 494  3778.78
 495  4269.855
 496  3997.924
 497  3821.86
 498  3651.432
 499  3247.884
 500  3356.383
 501  3611.803
 502  3782.784
 503  3234.991
 504  3394.85
 505  2946.944
 506  2881.478
 507  2906.421
 508  3001.746
 509  3364.029
 510  3356.173
 511  2779.507
