# Input file       =  1184903540.128384_cleaned.dat
# Candidate        =  PSR_0332+5434
# Telescope        =  AR
# Epoch_topo       =  57958.161563985930
# Epoch_bary       =  N/A
# T_sample         =  0.002
# Data Folded      =  7340032
# Data Avg         =  0.032819082628953
# Data StdDev      =  1.00014556496707 
# Profile Bins     =  512
# Profile Avg      =  470.297913217246 
# Profile StdDev   =  119.750465312263 
# Reduced chi-sqr  =  1.373
# Prob(Noise)      <  3.91e-08   (~5.4 sigma)
# P_topo (ms)      =  714.473332655537  +/- 0.000499
# P'_topo (s/s)    =  -0                +/- 2.64e-10
# P''_topo (s/s^2) =  0                 +/- 1.16e-13
# P_bary (ms)      =  N/A
# P'_bary (s/s)    =  N/A
# P''_bary (s/s^2) =  N/A
# P_orb (s)        =  N/A
# asin(i)/c (s)    =  N/A
# eccentricity     =  N/A
# w (rad)          =  N/A
# T_peri           =  N/A
######################################################
   0  1311.867
   1  1100.765
   2  832.548
   3  590.8407
   4  549.9674
   5  561.1072
   6  417.3034
   7  364.8491
   8  496.344
   9  461.3708
  10  391.6002
  11  348.9445
  12  466.1916
  13  572.4842
  14  575.2227
  15  557.7737
  16  545.4385
  17  503.0462
  18  430.8357
  19  463.7236
  20  506.1631
  21  440.9829
  22  387.7252
  23  394.5225
  24  364.5995
  25  342.9724
  26  453.7588
  27  521.2809
  28  514.5355
  29  364.6288
  30  394.5982
  31  414.9543
  32  326.0212
  33  380.7328
  34  355.8905
  35  405.2848
  36  384.6666
  37  331.5751
  38  457.1119
  39  436.8056
  40  373.5654
  41  430.7668
  42  352.5831
  43  315.503
  44  275.9984
  45  392.5694
  46  496.9234
  47  377.5937
  48  334.4625
  49  502.859
  50  563.939
  51  365.3483
  52  303.2667
  53  373.8481
  54  375.8539
  55  299.5727
  56  342.2664
  57  439.3721
  58  437.0457
  59  514.6505
  60  397.3427
  61  322.4168
  62  488.4579
  63  573.5527
  64  514.0209
  65  436.0989
  66  445.1669
  67  489.6211
  68  470.6963
  69  549.2899
  70  561.4595
  71  412.3933
  72  402.731
  73  449.4166
  74  532.2204
  75  445.7617
  76  443.0876
  77  483.4615
  78  505.794
  79  473.9135
  80  296.1584
  81  262.8375
  82  407.4238
  83  569.9906
  84  466.0345
  85  467.4328
  86  485.8203
  87  413.1284
  88  414.2025
  89  484.9141
  90  571.3582
  91  534.4535
  92  405.2414
  93  524.0524
  94  569.7557
  95  484.2192
  96  503.0744
  97  451.5095
  98  483.58
  99  404.3704
 100  361.7597
 101  457.9676
 102  499.0928
 103  431.4653
 104  454.8865
 105  484.7958
 106  506.5691
 107  438.862
 108  403.8897
 109  426.9295
 110  417.515
 111  456.9353
 112  455.3821
 113  341.3508
 114  359.6936
 115  421.5943
 116  414.7143
 117  414.7652
 118  272.0336
 119  430.9063
 120  352.1386
 121  460.3458
 122  546.0121
 123  593.0215
 124  435.4894
 125  437.5398
 126  509.3329
 127  468.034
 128  451.4079
 129  370.9873
 130  385.5351
 131  450.7166
 132  383.2982
 133  484.8476
 134  487.0257
 135  505.79
 136  561.9961
 137  557.3431
 138  509.3154
 139  456.9994
 140  425.2119
 141  428.3454
 142  459.4051
 143  508.3586
 144  640.8936
 145  459.396
 146  431.0805
 147  485.2773
 148  532.7111
 149  495.8239
 150  448.1995
 151  594.2979
 152  595.3789
 153  410.724
 154  464.5316
 155  529.9615
 156  503.2698
 157  610.2079
 158  455.7916
 159  449.148
 160  457.118
 161  398.6461
 162  455.4262
 163  483.7029
 164  449.3295
 165  464.5583
 166  483.9875
 167  528.7167
 168  514.7299
 169  441.662
 170  508.5367
 171  484.1916
 172  450.0633
 173  489.0613
 174  464.6548
 175  468.2332
 176  412.036
 177  482.7369
 178  497.7847
 179  413.515
 180  417.9713
 181  472.007
 182  463.5211
 183  498.4575
 184  471.627
 185  517.0056
 186  415.8745
 187  440.5235
 188  503.6174
 189  448.4597
 190  520.6601
 191  405.1199
 192  412.7806
 193  414.8331
 194  460.0399
 195  488.6657
 196  548.4885
 197  521.7328
 198  546.3895
 199  521.5251
 200  545.9258
 201  503.0898
 202  520.5405
 203  400.3786
 204  515.097
 205  517.5594
 206  460.3857
 207  540.3046
 208  630.3071
 209  591.8765
 210  559.854
 211  501.292
 212  489.3277
 213  425.5687
 214  410.3493
 215  561.7694
 216  568.9324
 217  623.4338
 218  546.3359
 219  572.972
 220  507.7811
 221  515.5945
 222  466.9279
 223  349.4191
 224  342.3123
 225  354.2867
 226  457.2591
 227  488.8317
 228  506.4778
 229  516.4459
 230  433.8645
 231  451.3242
 232  492.205
 233  511.5009
 234  641.4375
 235  583.7487
 236  535.538
 237  523.6663
 238  514.7475
 239  607.7417
 240  492.6587
 241  503.3536
 242  499.0827
 243  504.2691
 244  587.5645
 245  454.8772
 246  519.2689
 247  508.6862
 248  461.699
 249  366.6125
 250  430.4323
 251  493.464
 252  512.8844
 253  478.5444
 254  348.9332
 255  307.5757
 256  395.0928
 257  479.9866
 258  453.3388
 259  499.3507
 260  426.8813
 261  395.3015
 262  425.8657
 263  462.3586
 264  529.5955
 265  456.5038
 266  501.7094
 267  433.5398
 268  491.3097
 269  459.2509
 270  485.7002
 271  498.4993
 272  535.2857
 273  533.9377
 274  470.2399
 275  583.9909
 276  495.5899
 277  449.6087
 278  480.8546
 279  606.3015
 280  615.0486
 281  550.8992
 282  583.8717
 283  598.5747
 284  592.491
 285  638.0251
 286  606.1778
 287  622.0463
 288  558.6386
 289  509.675
 290  480.2339
 291  477.5973
 292  430.7842
 293  451.809
 294  475.9756
 295  569.8511
 296  537.6946
 297  563.581
 298  503.0188
 299  387.7349
 300  488.0006
 301  507.0995
 302  476.458
 303  475.4666
 304  419.6329
 305  451.1699
 306  447.7084
 307  421.1498
 308  459.7089
 309  439.5659
 310  468.8281
 311  422.3054
 312  415.3037
 313  449.5438
 314  453.3038
 315  455.5898
 316  518.6894
 317  612.0439
 318  531.6511
 319  430.6068
 320  511.1281
 321  536.931
 322  471.0426
 323  413.8694
 324  495.8044
 325  547.2015
 326  462.3819
 327  446.757
 328  480.5309
 329  465.5259
 330  591.6158
 331  531.6361
 332  416.4973
 333  415.3181
 334  450.1087
 335  467.3346
 336  465.5765
 337  513.6851
 338  540.8856
 339  480.6242
 340  475.4743
 341  491.5146
 342  586.6134
 343  439.2353
 344  344.4835
 345  526.8922
 346  535.8785
 347  478.0811
 348  454.4686
 349  477.5384
 350  539.2231
 351  581.0914
 352  442.9498
 353  410.6555
 354  401.9174
 355  530.7477
 356  529.2111
 357  493.5186
 358  540.6742
 359  486.8665
 360  419.5792
 361  423.285
 362  448.9516
 363  499.5794
 364  528.9633
 365  496.8654
 366  399.6898
 367  497.4749
 368  410.8445
 369  455.9785
 370  559.925
 371  547.0189
 372  475.5093
 373  443.4792
 374  482.7223
 375  318.2754
 376  420.535
 377  551.9377
 378  437.939
 379  425.519
 380  418.5881
 381  389.2294
 382  406.6497
 383  414.0443
 384  482.2723
 385  390.599
 386  351.8275
 387  426.9308
 388  481.3896
 389  477.1237
 390  422.5024
 391  430.9692
 392  512.6565
 393  452.2937
 394  468.5161
 395  467.2888
 396  435.2505
 397  401.7189
 398  399.7626
 399  396.506
 400  290.8244
 401  373.827
 402  399.2975
 403  385.8216
 404  423.5439
 405  383.3779
 406  426.4586
 407  329.9543
 408  298.0613
 409  277.1916
 410  305.1581
 411  327.8377
 412  470.2122
 413  580.7451
 414  363.6472
 415  285.7352
 416  329.5044
 417  378.5915
 418  387.3829
 419  405.5658
 420  453.2527
 421  463.6821
 422  422.9255
 423  424.2356
 424  425.1091
 425  438.9888
 426  492.0763
 427  407.9764
 428  421.725
 429  384.7048
 430  471.6066
 431  586.0901
 432  490.4615
 433  402.3719
 434  419.5212
 435  291.1985
 436  367.0522
 437  358.0434
 438  459.7963
 439  492.6439
 440  420.0575
 441  476.3668
 442  443.2376
 443  477.3655
 444  451.4226
 445  479.8846
 446  467.0275
 447  539.051
 448  437.9366
 449  402.7063
 450  471.6973
 451  451.3736
 452  400.6741
 453  425.8983
 454  386.6364
 455  497.5782
 456  572.0113
 457  601.5603
 458  450.6193
 459  332.8593
 460  321.7306
 461  353.971
 462  330.4321
 463  395.392
 464  530.244
 465  584.6678
 466  394.8055
 467  421.5362
 468  393.6867
 469  456.8391
 470  381.2168
 471  318.417
 472  447.8001
 473  516.6945
 474  485.9463
 475  402.0548
 476  463.6229
 477  438.5459
 478  279.5342
 479  373.6831
 480  374.7906
 481  380.6925
 482  370.2547
 483  340.6512
 484  438.0192
 485  388.9328
 486  387.2628
 487  360.3088
 488  402.6925
 489  578.3696
 490  544.4076
 491  455.8426
 492  372.8968
 493  394.2089
 494  522.2881
 495  514.5256
 496  548.0934
 497  462.9875
 498  532.8433
 499  533.415
 500  492.6789
 501  503.2244
 502  582.6056
 503  586.6043
 504  572.166
 505  651.5057
 506  704.861
 507  760.4186
 508  769.843
 509  812.1823
 510  1040.694
 511  1283.86
