# Input file       =  1185435458.11371_cleaned.dat
# Candidate        =  PSR_0332+5434
# Telescope        =  AR
# Epoch_topo       =  57964.318022149419
# Epoch_bary       =  N/A
# T_sample         =  0.002
# Data Folded      =  7340032
# Data Avg         =  0.378268417065555
# Data StdDev      =  6.0105873430208  
# Profile Bins     =  256
# Profile Avg      =  10845.3099824966 
# Profile StdDev   =  1017.76123795619 
# Reduced chi-sqr  =  2.464
# Prob(Noise)      <  1.75e-33   (~12.0 sigma)
# P_topo (ms)      =  714.47057393106   +/- 0.000702
# P'_topo (s/s)    =  -0                +/- 3.7e-10
# P''_topo (s/s^2) =  0                 +/- 1.64e-13
# P_bary (ms)      =  N/A
# P'_bary (s/s)    =  N/A
# P''_bary (s/s^2) =  N/A
# P_orb (s)        =  N/A
# asin(i)/c (s)    =  N/A
# eccentricity     =  N/A
# w (rad)          =  N/A
# T_peri           =  N/A
######################################################
   0  9051.372
   1  9626.736
   2  10182.28
   3  11151
   4  10760.23
   5  10195.4
   6  10449.52
   7  11337.59
   8  11700.13
   9  10911.53
  10  10737.63
  11  11056.27
  12  11350.34
  13  11312.68
  14  10992.37
  15  12050.14
  16  11852.23
  17  11445.06
  18  11914.03
  19  12390.43
  20  12025.64
  21  11229.83
  22  11540.5
  23  11493.27
  24  11142.57
  25  10103.76
  26  10030.27
  27  10062.58
  28  8954.496
  29  10182.41
  30  10297.26
  31  10178.74
  32  10447.51
  33  10494.25
  34  10745.31
  35  10820.04
  36  10753.22
  37  9924.125
  38  9138.825
  39  10243.02
  40  9758.131
  41  10134.88
  42  9067.373
  43  9627.807
  44  10014.69
  45  9730.309
  46  9701.298
  47  10024.35
  48  9721.781
  49  10089.81
  50  10414.14
  51  9327.322
  52  10514.51
  53  10880.4
  54  11090.78
  55  10508.32
  56  10415.63
  57  9792.458
  58  9449.129
  59  9501.373
  60  9032.796
  61  9520.143
  62  9922.993
  63  10433.93
  64  10243.53
  65  10063.86
  66  10242.28
  67  10218.68
  68  9462.371
  69  9791.722
  70  9197.021
  71  9152.571
  72  9252.733
  73  9108.331
  74  8926.065
  75  9024.982
  76  9725.073
  77  9331.523
  78  9888.967
  79  9993.461
  80  10342.16
  81  9925.594
  82  10014.49
  83  10312.88
  84  10727.17
  85  10572.05
  86  9295.026
  87  10123.03
  88  10192.46
  89  10202.67
  90  9731.373
  91  9134.629
  92  8127.415
  93  8918.496
  94  8633.334
  95  8659.168
  96  8707.59
  97  8294.842
  98  8791.105
  99  8876.438
 100  8515.834
 101  8283.396
 102  8694.472
 103  8154.18
 104  8076.771
 105  9081.255
 106  9257.452
 107  8516.486
 108  8620.932
 109  8816.506
 110  8388.37
 111  8696.44
 112  8600.349
 113  8410.493
 114  8916.458
 115  8092.316
 116  8484.991
 117  9795.412
 118  9814.436
 119  10234.67
 120  10471.74
 121  10857.69
 122  11157.14
 123  11682.41
 124  11592.98
 125  11621.82
 126  11219.2
 127  11335.51
 128  13411.57
 129  12786.86
 130  12679.63
 131  12799.05
 132  13180.81
 133  12550.79
 134  12409.16
 135  12273.04
 136  11876.35
 137  12294.65
 138  12096.84
 139  12290.5
 140  12358.71
 141  12616.77
 142  12407.99
 143  12560.52
 144  11678.58
 145  11646.38
 146  11257.59
 147  12055.21
 148  11495.11
 149  10994.94
 150  11850.86
 151  12145.53
 152  12372.44
 153  12342.51
 154  12679.4
 155  11488.56
 156  12291.6
 157  13515.69
 158  13653.29
 159  13114.73
 160  13644.52
 161  15369.03
 162  16134.29
 163  15535.82
 164  13884.91
 165  13121.39
 166  13262.17
 167  12755.2
 168  12849.21
 169  12233.85
 170  12465.78
 171  12244.53
 172  12476.47
 173  11653.53
 174  11987.85
 175  11770.38
 176  12041.71
 177  10870.62
 178  11799.16
 179  11781.33
 180  12094.63
 181  11916.77
 182  11682.82
 183  12337.09
 184  11819.89
 185  11690.95
 186  12019.29
 187  12634.99
 188  12772.55
 189  12271.52
 190  12500.34
 191  12961.1
 192  11836.6
 193  11264.72
 194  11432.91
 195  11528.75
 196  12007.07
 197  11319.15
 198  11372.18
 199  12022.79
 200  11943.01
 201  11992.04
 202  12291.85
 203  12676.51
 204  11853.25
 205  10649.67
 206  11347.59
 207  11573.54
 208  11280.3
 209  10726.32
 210  10633.39
 211  9920.762
 212  10541.2
 213  10409.39
 214  9981.552
 215  10880.33
 216  10141.08
 217  9798.916
 218  10310.86
 219  10770.75
 220  9856.188
 221  10885.52
 222  11133.49
 223  10368
 224  10911.87
 225  10750.12
 226  10722.25
 227  10041.14
 228  10542.29
 229  10999.92
 230  11684.66
 231  10359.18
 232  10010.71
 233  11606.59
 234  11495.55
 235  11679.69
 236  11812.84
 237  11515.22
 238  12017.63
 239  11471.45
 240  11179.48
 241  10724.22
 242  11011.64
 243  10124.35
 244  9794.313
 245  10558.39
 246  10571.68
 247  10842.04
 248  10900.36
 249  10197.37
 250  10237.8
 251  10062.62
 252  9903.129
 253  10306.88
 254  9992.814
 255  10318.33
