# Input file       =  1185679067.110193_cleaned.dat
# Candidate        =  PSR_0332+5434
# Telescope        =  AR
# Epoch_topo       =  57967.137570719824
# Epoch_bary       =  N/A
# T_sample         =  0.002
# Data Folded      =  7340032
# Data Avg         =  0.0157592342075077
# Data StdDev      =  2.14541407669572 
# Profile Bins     =  512
# Profile Avg      =  225.913505395417 
# Profile StdDev   =  256.876941688234 
# Reduced chi-sqr  =  1.705
# Prob(Noise)      <  3.16e-21   (~9.4 sigma)
# P_topo (ms)      =  714.469011379659  +/- 0.000164
# P'_topo (s/s)    =  -0                +/- 8.64e-11
# P''_topo (s/s^2) =  0                 +/- 3.81e-14
# P_bary (ms)      =  N/A
# P'_bary (s/s)    =  N/A
# P''_bary (s/s^2) =  N/A
# P_orb (s)        =  N/A
# asin(i)/c (s)    =  N/A
# eccentricity     =  N/A
# w (rad)          =  N/A
# T_peri           =  N/A
######################################################
   0  167.25
   1  64.5777
   2  58.49686
   3  39.5849
   4  55.51101
   5  -228.0786
   6  -11.47256
   7  25.98766
   8  41.40769
   9  53.12358
  10  -97.48653
  11  -85.80434
  12  60.48365
  13  297.8708
  14  448.82
  15  335.4606
  16  331.1527
  17  262.9117
  18  180.5519
  19  290.8497
  20  410.3201
  21  326.5955
  22  264.7227
  23  320.6622
  24  426.3169
  25  198.0415
  26  -57.23838
  27  -36.37947
  28  166.6919
  29  184.9822
  30  113.5183
  31  142.7307
  32  4.628296
  33  57.54934
  34  200.5587
  35  471.3663
  36  464.372
  37  98.64646
  38  102.1237
  39  162.0303
  40  186.8506
  41  132.0327
  42  -124.5064
  43  74.92909
  44  473.6982
  45  186.2456
  46  177.2443
  47  262.6569
  48  169.0937
  49  117.8449
  50  47.52587
  51  -14.7607
  52  -68.60083
  53  435.232
  54  380.6142
  55  196.5489
  56  224.4895
  57  265.5253
  58  361.6804
  59  487.7065
  60  418.5902
  61  73.92139
  62  -17.00159
  63  172.8833
  64  213.8408
  65  111.189
  66  -21.24937
  67  -95.94892
  68  64.42375
  69  311.1796
  70  401.5327
  71  337.853
  72  245.3865
  73  -138.2507
  74  -88.83516
  75  56.82167
  76  332.2751
  77  230.4163
  78  246.8677
  79  178.0096
  80  273.2409
  81  185.1452
  82  205.5172
  83  324.8521
  84  465.679
  85  38.80948
  86  255.5569
  87  435.0956
  88  414.8761
  89  349.6515
  90  192.3154
  91  475.4648
  92  392.1924
  93  217.007
  94  529.3865
  95  556.6193
  96  182.441
  97  382.0146
  98  141.8957
  99  355.2224
 100  366.737
 101  442.0218
 102  348.7872
 103  198.1017
 104  110.0184
 105  172.6155
 106  370.0373
 107  132.2501
 108  -65.72245
 109  112.9116
 110  97.40714
 111  295.8055
 112  156.598
 113  292.8567
 114  281.9849
 115  165.5056
 116  291.3956
 117  363.8234
 118  25.25831
 119  379.4593
 120  313.5898
 121  41.56012
 122  188.9509
 123  386.3053
 124  441.3236
 125  226.3367
 126  188.8796
 127  451.0438
 128  665.824
 129  395.0978
 130  72.60384
 131  324.7616
 132  123.271
 133  325.4103
 134  32.46202
 135  424.8938
 136  389.0336
 137  56.64324
 138  138.6543
 139  467.1458
 140  77.28558
 141  344.1479
 142  179.6152
 143  59.95859
 144  299.6613
 145  434.4924
 146  370.7758
 147  247.2809
 148  36.67183
 149  127.6678
 150  358.9491
 151  120.8161
 152  311.0553
 153  395.8636
 154  114.1973
 155  298.3091
 156  377.7753
 157  393.2701
 158  281.664
 159  220.1755
 160  472.8844
 161  575.9207
 162  418.7891
 163  292.6666
 164  127.3996
 165  128.9883
 166  402.8305
 167  196.3179
 168  308.9424
 169  415.1979
 170  372.0891
 171  247.1991
 172  236.914
 173  335.2936
 174  358.2213
 175  399.0296
 176  239.5901
 177  234.7714
 178  246.0038
 179  600.4129
 180  595.3436
 181  714.8098
 182  787.4304
 183  419.1302
 184  220.5569
 185  524.3644
 186  446.7278
 187  246.4893
 188  433.354
 189  388.0901
 190  277.4792
 191  189.2957
 192  384.8888
 193  476.0305
 194  389.2014
 195  128.0606
 196  74.45128
 197  262.6674
 198  395.5495
 199  293.2094
 200  327.918
 201  617.8762
 202  594.6414
 203  295.4067
 204  -181.252
 205  -472.9543
 206  2.336296
 207  404.3308
 208  512.6789
 209  139.1847
 210  -14.85702
 211  224.3234
 212  460.5027
 213  527.6097
 214  499.6635
 215  158.2909
 216  134.1484
 217  191.1962
 218  64.30123
 219  137.5865
 220  191.1613
 221  177.0774
 222  60.6032
 223  294.809
 224  319.5472
 225  124.5824
 226  84.21455
 227  302.9127
 228  324.4236
 229  104.3963
 230  305.8027
 231  517.3259
 232  473.8618
 233  314.4046
 234  407.0031
 235  505.2918
 236  115.1929
 237  -197.0478
 238  -80.07189
 239  -21.02288
 240  -74.09939
 241  -190.9741
 242  -1.965733
 243  -72.75106
 244  330.3114
 245  402.6154
 246  246.563
 247  116.0489
 248  93.11103
 249  107.1076
 250  202.7305
 251  510.1512
 252  293.1487
 253  249.7937
 254  389.899
 255  584.1117
 256  370.7211
 257  157.7057
 258  359.2216
 259  353.6699
 260  422.4984
 261  160.8817
 262  79.51316
 263  159.0644
 264  296.236
 265  -136.8912
 266  -64.71062
 267  374.5977
 268  70.17712
 269  -352.8436
 270  -179.1587
 271  -9.20749
 272  20.49966
 273  -39.02939
 274  171.6576
 275  372.6236
 276  178.746
 277  165.0447
 278  321.6161
 279  -270.4834
 280  -441.7047
 281  -288.9299
 282  -11.77254
 283  337.331
 284  437.724
 285  412.7259
 286  356.7701
 287  96.68142
 288  -223.0123
 289  -24.58007
 290  89.77689
 291  408.5819
 292  37.56076
 293  -326.0708
 294  22.69434
 295  372.4273
 296  68.43123
 297  87.73464
 298  96.79967
 299  387.096
 300  357.7919
 301  271.4902
 302  299.3214
 303  241.6427
 304  425.2749
 305  341.3659
 306  413.3888
 307  421.581
 308  157.8079
 309  111.8022
 310  223.2604
 311  234.6215
 312  15.75534
 313  197.0805
 314  153.6131
 315  185.4049
 316  301.757
 317  342.4832
 318  605.895
 319  374.798
 320  138.3161
 321  132.7347
 322  438.7682
 323  493.9328
 324  410.9387
 325  331.4054
 326  267.2871
 327  222.4983
 328  213.1627
 329  156.9986
 330  107.7184
 331  55.03846
 332  245.3221
 333  339.1296
 334  434.4003
 335  790.5756
 336  416.2594
 337  158.8729
 338  -154.5199
 339  109.3787
 340  195.2922
 341  373.0959
 342  470.2157
 343  -2.991571
 344  -84.7025
 345  322.7482
 346  325.6077
 347  498.4296
 348  621.499
 349  524.7205
 350  59.6557
 351  58.31907
 352  190.5196
 353  -39.87182
 354  31.10924
 355  376.2064
 356  89.73388
 357  56.66555
 358  259.6181
 359  41.36057
 360  -28.70499
 361  7.132663
 362  44.33356
 363  106.7753
 364  183.3079
 365  -68.88667
 366  82.91856
 367  391.2828
 368  91.07803
 369  -159.4603
 370  44.32185
 371  164.0092
 372  47.65829
 373  228.4778
 374  341.5214
 375  183.4743
 376  36.72392
 377  -119.6513
 378  42.31904
 379  275.7738
 380  395.3531
 381  254.2506
 382  207.6286
 383  147.0251
 384  12.26042
 385  123.2932
 386  189.5224
 387  -8.014137
 388  85.34834
 389  190.6816
 390  247.9345
 391  226.6677
 392  174.9796
 393  1.460024
 394  33.29239
 395  -1.230846
 396  29.54452
 397  446.2723
 398  226.2387
 399  -32.7472
 400  9.283689
 401  25.05854
 402  221.5665
 403  103.9147
 404  221.456
 405  -59.84734
 406  -164.1446
 407  86.09808
 408  332.3728
 409  552.1237
 410  348.8689
 411  217.2378
 412  123.8954
 413  89.69682
 414  284.7377
 415  156.746
 416  -18.64396
 417  -43.47139
 418  199.752
 419  67.18614
 420  172.401
 421  301.0248
 422  244.2527
 423  379.5788
 424  393.6246
 425  247.9208
 426  28.61953
 427  -55.52374
 428  -229.7883
 429  289.2068
 430  357.0179
 431  355.8067
 432  673.3127
 433  506.8987
 434  92.35508
 435  271.5142
 436  419.1839
 437  170.566
 438  165.8976
 439  176.1571
 440  81.55857
 441  82.2273
 442  104.8142
 443  -9.354548
 444  191.4763
 445  153.2841
 446  115.0117
 447  170.6295
 448  127.5013
 449  -57.28131
 450  -311.8063
 451  -166.7805
 452  -123.2173
 453  55.32109
 454  146.451
 455  39.99346
 456  -90.95438
 457  145.5118
 458  -22.21594
 459  279.6305
 460  322.0308
 461  141.0496
 462  68.9044
 463  273.9304
 464  55.57732
 465  -56.80341
 466  51.97638
 467  127.391
 468  141.7611
 469  35.03404
 470  84.79272
 471  314.6127
 472  164.8299
 473  53.26077
 474  54.61859
 475  115.8363
 476  287.3156
 477  261.0752
 478  396.291
 479  927.7346
 480  629.2798
 481  747.1132
 482  1013.082
 483  1292.58
 484  1500.876
 485  1891.396
 486  1960.247
 487  1359.727
 488  858.2808
 489  405.8906
 490  239.4729
 491  77.49043
 492  486.5186
 493  392.8483
 494  333.1538
 495  229.6237
 496  221.8192
 497  -32.52553
 498  -197.4001
 499  63.76349
 500  500.6817
 501  246.3121
 502  153.9424
 503  20.20795
 504  274.8722
 505  328.7935
 506  378.2903
 507  386.345
 508  219.1354
 509  261.7605
 510  332.8214
 511  246.7676
