# Input file       =  1185866322.111711_cleaned.dat
# Candidate        =  PSR_0332+5434
# Telescope        =  AR
# Epoch_topo       =  57969.304873978137
# Epoch_bary       =  N/A
# T_sample         =  0.002
# Data Folded      =  7340032
# Data Avg         =  0.0145599204645675
# Data StdDev      =  2.68325577315246 
# Profile Bins     =  1024
# Profile Avg      =  104.317345794175 
# Profile StdDev   =  227.175279351672 
# Reduced chi-sqr  =  1.437
# Prob(Noise)      <  1.24e-18   (~8.7 sigma)
# P_topo (ms)      =  714.468480651171  +/- 0.000137
# P'_topo (s/s)    =  -0                +/- 7.21e-11
# P''_topo (s/s^2) =  0                 +/- 3.18e-14
# P_bary (ms)      =  N/A
# P'_bary (s/s)    =  N/A
# P''_bary (s/s^2) =  N/A
# P_orb (s)        =  N/A
# asin(i)/c (s)    =  N/A
# eccentricity     =  N/A
# w (rad)          =  N/A
# T_peri           =  N/A
######################################################
   0  -15.3301
   1  -19.97573
   2  -126.2031
   3  -99.36504
   4  -87.45535
   5  71.41746
   6  154.2754
   7  179.9468
   8  72.00226
   9  64.00944
  10  130.5528
  11  192.0447
  12  130.6548
  13  23.09786
  14  65.6894
  15  85.90281
  16  62.85359
  17  29.6093
  18  35.85368
  19  -77.38549
  20  -81.69418
  21  -69.66837
  22  43.71845
  23  93.4398
  24  162.4978
  25  249.8147
  26  174.1538
  27  132.2891
  28  17.82342
  29  -12.49632
  30  -37.23798
  31  8.714087
  32  63.44108
  33  81.54884
  34  -56.66785
  35  -107.8834
  36  -47.49521
  37  69.10771
  38  155.3897
  39  211.8253
  40  258.5076
  41  226.2689
  42  118.2319
  43  150.4927
  44  145.6225
  45  186.889
  46  31.0437
  47  -9.928499
  48  -57.36679
  49  3.840152
  50  53.58121
  51  141.1821
  52  15.00001
  53  -54.3894
  54  -92.0742
  55  -5.181869
  56  11.44945
  57  29.57287
  58  128.6128
  59  181.2842
  60  115.9184
  61  44.94648
  62  32.92384
  63  33.68585
  64  42.76363
  65  -0.2876237
  66  -0.6453896
  67  -55.12103
  68  -5.163029
  69  115.637
  70  243.5887
  71  262.8119
  72  66.30409
  73  -103.9466
  74  -236.0777
  75  -76.19224
  76  -2.496063
  77  88.14086
  78  129.5672
  79  178.5247
  80  208.0369
  81  163.5417
  82  220.83
  83  99.23663
  84  71.70629
  85  21.76419
  86  1.271988
  87  33.24195
  88  72.6566
  89  142.1902
  90  128.6225
  91  123.0014
  92  82.01243
  93  125.1405
  94  234.906
  95  360.7075
  96  315.8725
  97  298.0796
  98  306.3653
  99  304.5887
 100  295.6644
 101  211.6143
 102  197.5279
 103  64.48854
 104  32.4164
 105  117.2322
 106  73.95605
 107  71.55372
 108  -106.1226
 109  -76.13982
 110  25.57126
 111  125.8107
 112  170.4731
 113  171.0327
 114  212.7675
 115  147.6159
 116  -30.22682
 117  -52.60781
 118  -35.87957
 119  55.45326
 120  107.5464
 121  125.6155
 122  78.69772
 123  32.16212
 124  -65.04585
 125  -109.4907
 126  -105.9161
 127  -23.99418
 128  -91.2226
 129  -222.8033
 130  -301.7332
 131  -230.7285
 132  -98.53098
 133  -15.64966
 134  61.46096
 135  63.87033
 136  44.73731
 137  69.73314
 138  102.2011
 139  132.5072
 140  116.5505
 141  105.5322
 142  3.235242
 143  -152.2178
 144  -178.7855
 145  -51.70442
 146  52.64663
 147  107.7479
 148  185.8485
 149  145.1779
 150  88.91198
 151  -2.632359
 152  37.3632
 153  110.9856
 154  88.73658
 155  130.7315
 156  164.2687
 157  158.4876
 158  172.6699
 159  141.8485
 160  153.1815
 161  48.01854
 162  6.126578
 163  -110.4688
 164  -149.905
 165  -36.01954
 166  140.3163
 167  115.5412
 168  -64.16765
 169  -61.71522
 170  128.0914
 171  159.6209
 172  138.2991
 173  106.5436
 174  129.2814
 175  175.0464
 176  78.65296
 177  50.22878
 178  -26.89484
 179  -33.61156
 180  -84.40813
 181  -109.0166
 182  1.031773
 183  107.1933
 184  197.732
 185  171.9775
 186  -13.7059
 187  -21.30592
 188  108.4978
 189  245.9123
 190  130.5373
 191  35.3159
 192  106.7752
 193  217.3074
 194  141.9555
 195  37.04791
 196  -68.77027
 197  -20.86221
 198  50.33815
 199  163.5643
 200  175.0591
 201  48.61285
 202  -41.05056
 203  -25.48788
 204  -28.5333
 205  53.68274
 206  159.3046
 207  324.2491
 208  354.4065
 209  302.0845
 210  137.7074
 211  32.19265
 212  82.94617
 213  85.18019
 214  85.67605
 215  67.77499
 216  57.67165
 217  -102.9566
 218  -117.4709
 219  -103.5798
 220  -107.0786
 221  -167.1794
 222  -113.6734
 223  11.62185
 224  29.75144
 225  204.0456
 226  342.8824
 227  454.2266
 228  451.6563
 229  486.9535
 230  474.4149
 231  268.9523
 232  32.83796
 233  -118.8724
 234  -102.3406
 235  -5.977918
 236  3.90804
 237  -22.65927
 238  35.23624
 239  94.4314
 240  104.558
 241  60.16805
 242  82.16483
 243  -81.07915
 244  -170.8929
 245  -254.2766
 246  -92.32687
 247  -58.37201
 248  131.241
 249  186.6002
 250  262.8037
 251  145.8118
 252  98.34193
 253  26.88394
 254  21.59211
 255  16.66972
 256  122.2212
 257  176.3181
 258  111.2976
 259  67.01723
 260  106.1943
 261  128.2044
 262  154.7882
 263  255.9152
 264  331.32
 265  205.185
 266  66.47725
 267  27.97408
 268  58.32402
 269  -7.025737
 270  -1.10637
 271  9.863604
 272  90.21169
 273  68.24876
 274  41.91116
 275  30.60405
 276  24.85925
 277  23.03804
 278  -36.27497
 279  -73.76128
 280  -164.4335
 281  -63.45282
 282  5.981465
 283  55.87275
 284  9.255537
 285  -30.3199
 286  74.95863
 287  83.14775
 288  113.2552
 289  84.22541
 290  26.43818
 291  -98.55923
 292  -103.1469
 293  -73.65026
 294  -43.19252
 295  -169.1817
 296  -117.9724
 297  -184.3126
 298  -98.33574
 299  5.539643
 300  175.4443
 301  318.4495
 302  303.1053
 303  211.1531
 304  60.09568
 305  87.02911
 306  152.6292
 307  120.8497
 308  -78.12096
 309  -67.88639
 310  -58.66664
 311  -5.556329
 312  1.840395
 313  77.97169
 314  67.02349
 315  41.20629
 316  -18.11036
 317  -8.015948
 318  28.04162
 319  23.30204
 320  -9.489051
 321  -3.481333
 322  5.533701
 323  20.69183
 324  -60.69836
 325  -109.7219
 326  -92.97805
 327  -83.88014
 328  51.17094
 329  96.78653
 330  220.9394
 331  158.2527
 332  133.8409
 333  178.488
 334  206.7932
 335  207.7287
 336  236.642
 337  292.077
 338  360.4009
 339  257.5116
 340  212.1105
 341  12.33275
 342  14.86892
 343  44.82911
 344  169.5987
 345  36.30842
 346  3.654498
 347  -25.17962
 348  84.86052
 349  51.30692
 350  14.64899
 351  -22.43012
 352  -42.79773
 353  -79.56337
 354  -45.40216
 355  14.43538
 356  47.37465
 357  20.26821
 358  -65.27962
 359  -41.35633
 360  -24.51969
 361  47.83655
 362  93.79469
 363  202.1422
 364  328.6557
 365  362.808
 366  237.2193
 367  9.833861
 368  -88.99046
 369  53.82058
 370  223.9594
 371  215.3291
 372  74.17689
 373  -106.1588
 374  -115.087
 375  -86.92245
 376  -17.01658
 377  98.66325
 378  206.9088
 379  172.9489
 380  117.339
 381  66.50682
 382  13.8219
 383  -76.21445
 384  9.87404
 385  186.4652
 386  238.98
 387  249.1652
 388  237.9597
 389  279.934
 390  230.6579
 391  111.5432
 392  -64.8367
 393  -48.60754
 394  -59.31027
 395  -17.13421
 396  -190.6039
 397  -199.2971
 398  -107.6882
 399  116.7622
 400  129.8072
 401  88.70032
 402  129.7068
 403  294.445
 404  282.3975
 405  277.1338
 406  197.6056
 407  231.5973
 408  77.03499
 409  102.3846
 410  63.00489
 411  75.99941
 412  78.85687
 413  124.8661
 414  140.9703
 415  66.42686
 416  31.78642
 417  125.9386
 418  184.8111
 419  151.1304
 420  167.8381
 421  239.9345
 422  252.5826
 423  156.8121
 424  195.7744
 425  202.0147
 426  153.5636
 427  -7.284779
 428  13.79125
 429  51.84974
 430  0.9018948
 431  -53.48846
 432  -123.9382
 433  -206.8259
 434  -279.0866
 435  -183.6802
 436  -28.62369
 437  120.9566
 438  95.12801
 439  117.6909
 440  131.3559
 441  135.6418
 442  70.5666
 443  -12.00652
 444  30.90604
 445  100.0895
 446  180.0358
 447  176.5307
 448  121.5669
 449  137.2971
 450  107.7978
 451  163.9008
 452  167.1471
 453  153.3315
 454  99.1946
 455  -32.14676
 456  29.88493
 457  81.18021
 458  236.8909
 459  301.5039
 460  331.5034
 461  253.9551
 462  151.5139
 463  104.7689
 464  281.8846
 465  293.4165
 466  198.1663
 467  -19.08238
 468  42.2404
 469  158.793
 470  200.5683
 471  118.8233
 472  82.49316
 473  319.542
 474  404.4716
 475  248.7961
 476  76.76065
 477  95.33883
 478  239.1586
 479  219.4386
 480  92.39273
 481  43.89328
 482  120.3357
 483  238.8246
 484  169.4454
 485  141.4864
 486  101.3022
 487  154.9166
 488  157.4893
 489  148.1699
 490  183.6142
 491  164.417
 492  162.3524
 493  183.5159
 494  202.845
 495  160.9456
 496  96.65353
 497  -24.36731
 498  -57.26329
 499  -124.9083
 500  48.14134
 501  73.24895
 502  117.1721
 503  180.1172
 504  186.092
 505  221.654
 506  92.47852
 507  122.1473
 508  117.1952
 509  119.073
 510  31.61766
 511  -21.11219
 512  41.16771
 513  220.2663
 514  275.0267
 515  273.8442
 516  191.7054
 517  216.5095
 518  191.3091
 519  115.6559
 520  47.7965
 521  88.78512
 522  119.0334
 523  47.91475
 524  -4.958836
 525  -8.275359
 526  84.80526
 527  72.88316
 528  167.7545
 529  274.8314
 530  255.9806
 531  149.6121
 532  207.2368
 533  207.3883
 534  290.061
 535  195.3821
 536  238.1278
 537  135.3972
 538  196.5665
 539  270.2649
 540  374.5795
 541  318.9497
 542  212.237
 543  12.3327
 544  21.14497
 545  109.0526
 546  177.8154
 547  180.1534
 548  43.61009
 549  -193.7588
 550  -337.3755
 551  -269.5489
 552  -99.8923
 553  -13.29702
 554  52.49097
 555  128.5825
 556  108.473
 557  191.8818
 558  320.1316
 559  366.8354
 560  291.4444
 561  304.9643
 562  264.1754
 563  191.4329
 564  117.4011
 565  124.2688
 566  57.45627
 567  88.61343
 568  196.7429
 569  195.9939
 570  67.1274
 571  14.72353
 572  41.25708
 573  38.68434
 574  -37.84793
 575  37.34923
 576  -16.44427
 577  -68.55299
 578  -251.8584
 579  -297.0986
 580  -265.3102
 581  -181.8228
 582  -45.0603
 583  37.16674
 584  198.8378
 585  338.2903
 586  323.0325
 587  309.1026
 588  265.0157
 589  372.5927
 590  289.4034
 591  360.1685
 592  358.4113
 593  309.544
 594  212.1056
 595  56.20037
 596  -78.65346
 597  -115.1542
 598  -31.03016
 599  184.1337
 600  318.0916
 601  277.2104
 602  179.7511
 603  52.7927
 604  31.48021
 605  -3.816139
 606  60.22381
 607  177.8241
 608  288.6139
 609  262.61
 610  133.9461
 611  3.770879
 612  -7.449501
 613  -19.13216
 614  44.38166
 615  178.3509
 616  358.3205
 617  297.7072
 618  115.2449
 619  35.31381
 620  121.5446
 621  144.9137
 622  58.64714
 623  38.49674
 624  84.72205
 625  137.5657
 626  236.3084
 627  271.8288
 628  227.7453
 629  143.8793
 630  148.205
 631  177.0403
 632  113.4631
 633  96.08853
 634  134.187
 635  132.8304
 636  127.7066
 637  129.5842
 638  104.0427
 639  115.5116
 640  175.4044
 641  400.4666
 642  450.1873
 643  622.5703
 644  712.9833
 645  796.3542
 646  867.2753
 647  900.5134
 648  971.0833
 649  777.7134
 650  775.5773
 651  714.4242
 652  885.2817
 653  806.5785
 654  747.8425
 655  499.9626
 656  356.2883
 657  333.1603
 658  334.9026
 659  360.121
 660  147.8848
 661  57.30512
 662  -29.49678
 663  -45.15899
 664  46.22058
 665  153.1134
 666  392.8536
 667  426.2105
 668  367.8516
 669  285.3242
 670  258.7346
 671  205.323
 672  178.4241
 673  98.68143
 674  147.2871
 675  75.01215
 676  105.3107
 677  30.36546
 678  -34.54091
 679  9.78585
 680  116.3571
 681  226.4426
 682  154.2561
 683  17.2767
 684  -107.7771
 685  -140.0137
 686  -139.325
 687  68.03461
 688  190.1497
 689  208.8325
 690  93.8511
 691  24.17799
 692  77.81888
 693  101.6314
 694  42.35777
 695  -60.60836
 696  -105.4605
 697  34.27081
 698  132.8918
 699  246.7931
 700  217.4207
 701  93.28136
 702  140.1997
 703  153.3274
 704  270.1693
 705  71.41316
 706  27.63068
 707  -10.27603
 708  -6.77374
 709  32.30089
 710  -56.02332
 711  -89.16254
 712  -184.7683
 713  -85.9913
 714  -73.60157
 715  -35.47121
 716  115.1691
 717  308.1376
 718  321.2203
 719  251.6357
 720  96.50783
 721  72.88639
 722  38.85523
 723  88.22044
 724  58.56781
 725  -40.86286
 726  -45.22847
 727  -55.49749
 728  33.10167
 729  -0.5655503
 730  90.78988
 731  94.34499
 732  130.5314
 733  106.2712
 734  169.8923
 735  273.3467
 736  150.2852
 737  233.7791
 738  291.9485
 739  402.0656
 740  390.8646
 741  269.9011
 742  277.1017
 743  284.2682
 744  280.0871
 745  187.8967
 746  182.1665
 747  261.978
 748  261.4047
 749  158.1183
 750  88.65334
 751  -20.59642
 752  41.38654
 753  50.42959
 754  163.0647
 755  126.2449
 756  197.9773
 757  332.9045
 758  355.1071
 759  201.3162
 760  7.854375
 761  -84.01483
 762  -109.8595
 763  -54.77634
 764  68.19613
 765  242.8703
 766  231.1336
 767  170.673
 768  124.5913
 769  180.7656
 770  272.7018
 771  255.0052
 772  245.2454
 773  251.6867
 774  203.4625
 775  160.9099
 776  42.85572
 777  175.0348
 778  113.8976
 779  2.922376
 780  -126.7
 781  -18.13507
 782  187.5511
 783  195.9586
 784  134.2083
 785  48.92751
 786  143.1847
 787  243.47
 788  282.0525
 789  285.1883
 790  403.8256
 791  371.918
 792  314.2159
 793  145.0942
 794  264.872
 795  117.1228
 796  119.0658
 797  249.9626
 798  335.1952
 799  159.2677
 800  -33.28532
 801  125.4174
 802  107.403
 803  27.60245
 804  -74.13727
 805  37.60718
 806  60.84889
 807  80.94245
 808  89.32144
 809  2.122323
 810  -41.78223
 811  -82.82262
 812  -75.84882
 813  -160.3708
 814  -183.7216
 815  -102.2846
 816  -64.77913
 817  11.75323
 818  85.57091
 819  240.2487
 820  300.6873
 821  259.8936
 822  322.841
 823  277.8744
 824  220.6672
 825  91.23105
 826  -4.830069
 827  -23.78625
 828  7.827964
 829  44.8917
 830  92.84998
 831  77.02443
 832  187.1149
 833  193.8474
 834  194.8454
 835  107.8127
 836  154.031
 837  107.1599
 838  27.65285
 839  -24.51794
 840  5.11907
 841  36.72955
 842  68.14454
 843  163.2323
 844  225.58
 845  237.0168
 846  150.3889
 847  105.2176
 848  132.7595
 849  141.4194
 850  80.71795
 851  -108.892
 852  -40.70318
 853  -3.940943
 854  110.6147
 855  145.5814
 856  184.3732
 857  202.2952
 858  204.426
 859  195.7801
 860  160.632
 861  87.49545
 862  105.49
 863  122.2309
 864  150.1155
 865  194.3775
 866  311.5037
 867  289.3427
 868  249.5543
 869  19.5833
 870  49.5648
 871  33.56031
 872  118.9777
 873  61.37671
 874  -74.23779
 875  -98.63879
 876  -58.19013
 877  106.1143
 878  111.3666
 879  35.75259
 880  -4.54563
 881  69.51364
 882  194.2831
 883  218.5525
 884  227.2081
 885  205.6717
 886  124.9661
 887  110.3066
 888  208.1697
 889  389.618
 890  533.746
 891  565.0941
 892  469.5297
 893  205.4823
 894  103.9294
 895  21.22026
 896  -4.489202
 897  14.72826
 898  91.81235
 899  177.9062
 900  33.5125
 901  39.76145
 902  17.07044
 903  192.7096
 904  197.1627
 905  295.4585
 906  258.1897
 907  252.4857
 908  187.8367
 909  228.7749
 910  273.0318
 911  180.2127
 912  148.0119
 913  -5.379926
 914  57.35989
 915  26.68406
 916  124.1014
 917  147.7722
 918  260.3731
 919  218.8604
 920  148.6768
 921  137.0977
 922  123.2083
 923  181.606
 924  53.28806
 925  57.23622
 926  -4.193504
 927  121.8716
 928  82.44738
 929  62.85765
 930  61.94901
 931  102.8931
 932  166.2011
 933  153.1958
 934  179.055
 935  78.61557
 936  79.68107
 937  32.3097
 938  73.38713
 939  -26.15241
 940  -58.0904
 941  -23.68584
 942  48.56976
 943  46.71613
 944  -10.18927
 945  -19.10403
 946  -5.600872
 947  -40.27773
 948  -47.19459
 949  -2.361381
 950  153.1292
 951  176.1252
 952  183.4607
 953  146.8302
 954  187.584
 955  103.2712
 956  136.9622
 957  143.5005
 958  252.9825
 959  190.651
 960  137.8222
 961  98.74306
 962  19.09649
 963  133.9977
 964  218.1172
 965  310.6141
 966  211.0517
 967  86.77736
 968  37.53656
 969  1.518206
 970  50.85164
 971  133.1164
 972  282.3253
 973  289.5319
 974  309.7205
 975  184.0449
 976  175.0522
 977  61.54544
 978  121.7022
 979  90.69695
 980  90.16676
 981  -17.01358
 982  -18.18625
 983  -27.53067
 984  -33.79006
 985  -95.9864
 986  -97.00263
 987  -13.28365
 988  10.99542
 989  -66.49379
 990  -158.5338
 991  -58.11742
 992  112.5697
 993  181.4924
 994  85.39987
 995  -43.37936
 996  -79.00885
 997  0.983061
 998  64.63114
 999  17.62749
1000  84.37517
1001  196.4815
1002  297.0787
1003  130.7896
1004  58.38491
1005  44.59336
1006  127.6439
1007  140.8754
1008  31.54524
1009  -2.302763
1010  -13.33869
1011  -18.26693
1012  -45.47902
1013  -53.71509
1014  82.05315
1015  161.2468
1016  137.883
1017  8.425532
1018  -17.26637
1019  27.07696
1020  -15.79297
1021  -29.35849
1022  -23.39328
1023  85.19362
