# Input file       =  1185765225.132344_cleaned.dat
# Candidate        =  PSR_0332+5434
# Telescope        =  AR
# Epoch_topo       =  57968.134770050281
# Epoch_bary       =  N/A
# T_sample         =  0.002
# Data Folded      =  7340032
# Data Avg         =  0.0260781412258179
# Data StdDev      =  2.49859469594942 
# Profile Bins     =  512
# Profile Avg      =  374.002389060547 
# Profile StdDev   =  299.164329620907 
# Reduced chi-sqr  =  1.799
# Prob(Noise)      <  1.04e-25   (~10.4 sigma)
# P_topo (ms)      =  714.468604646315  +/- 0.000173
# P'_topo (s/s)    =  -0                +/- 9.13e-11
# P''_topo (s/s^2) =  0                 +/- 4.03e-14
# P_bary (ms)      =  N/A
# P'_bary (s/s)    =  N/A
# P''_bary (s/s^2) =  N/A
# P_orb (s)        =  N/A
# asin(i)/c (s)    =  N/A
# eccentricity     =  N/A
# w (rad)          =  N/A
# T_peri           =  N/A
######################################################
   0  720.5732
   1  592.9927
   2  662.8119
   3  523.5179
   4  410.2568
   5  644.6035
   6  616.0709
   7  737.7698
   8  629.3206
   9  433.0664
  10  405.2544
  11  499.2838
  12  430.792
  13  327.9475
  14  356.5084
  15  246.3347
  16  316.5634
  17  472.4926
  18  500.6702
  19  658.5753
  20  482.8217
  21  526.2359
  22  118.2194
  23  138.0046
  24  160.2906
  25  141.6204
  26  69.53589
  27  584.7636
  28  546.7574
  29  353.6866
  30  309.5475
  31  465.3513
  32  736.9567
  33  682.7324
  34  491.9948
  35  333.2166
  36  456.2705
  37  1007.828
  38  966.421
  39  733.6501
  40  350.7209
  41  216.7967
  42  456.3523
  43  541.7195
  44  261.8527
  45  864.708
  46  279.9161
  47  -263.2547
  48  69.23745
  49  36.76651
  50  221.8887
  51  180.5965
  52  247.2333
  53  149.9263
  54  -128.675
  55  332.4146
  56  375.9426
  57  588.8915
  58  363.7559
  59  -52.95342
  60  46.84657
  61  668.9261
  62  640.7792
  63  252.4531
  64  406.9496
  65  344.9226
  66  209.3116
  67  92.37767
  68  -42.77854
  69  268.1391
  70  162.4409
  71  24.32677
  72  158.2254
  73  303.6692
  74  382.5888
  75  456.1422
  76  595.813
  77  653.7421
  78  335.8
  79  221.0855
  80  37.4771
  81  -48.41356
  82  -21.06291
  83  -150.3669
  84  -66.77367
  85  221.7971
  86  117.3064
  87  -27.00121
  88  147.0359
  89  365.0128
  90  439.9285
  91  93.77793
  92  -80.69724
  93  206.2638
  94  100.8328
  95  420.5677
  96  260.9524
  97  44.78139
  98  214.8464
  99  446.361
 100  50.53769
 101  39.45487
 102  18.83753
 103  253.0197
 104  512.9875
 105  236.9934
 106  521.8685
 107  325.2899
 108  269.9542
 109  634.1577
 110  523.4318
 111  286.5557
 112  396.6256
 113  718.8721
 114  504.2387
 115  186.17
 116  153.816
 117  139.8032
 118  277.237
 119  445.5797
 120  245.9203
 121  321.8441
 122  141.2703
 123  282.4111
 124  263.7007
 125  305.7911
 126  496.9212
 127  527.5924
 128  287.7219
 129  -108.7894
 130  -23.11409
 131  33.52576
 132  497.4909
 133  228.582
 134  232.8373
 135  213.5977
 136  291.7424
 137  526.8633
 138  345.7783
 139  169.3284
 140  283.5222
 141  509.2456
 142  267.2912
 143  111.2048
 144  258.2903
 145  312.0546
 146  298.5862
 147  213.8918
 148  -102.0841
 149  274.3272
 150  -125.1621
 151  368.3985
 152  752.1549
 153  522.2466
 154  5.904715
 155  90.46618
 156  241.492
 157  233.2908
 158  274.7353
 159  478.2727
 160  396.1168
 161  189.6564
 162  232.8056
 163  321.2784
 164  456.6512
 165  446.9591
 166  684.7723
 167  595.929
 168  555.8016
 169  823.9334
 170  351.5381
 171  681.3489
 172  369.2238
 173  574.6057
 174  193.6437
 175  86.96838
 176  405.449
 177  595.7975
 178  815.3196
 179  531.9359
 180  466.0872
 181  405.0574
 182  49.6339
 183  117.3306
 184  553.6336
 185  584.6896
 186  392.5863
 187  30.64369
 188  234.7826
 189  -134.2788
 190  39.0083
 191  280.328
 192  333.6479
 193  344.5774
 194  184.5891
 195  341.8403
 196  522.1288
 197  417.7705
 198  106.4554
 199  240.0097
 200  316.1146
 201  295.2054
 202  650.7189
 203  494.3799
 204  697.5917
 205  472.679
 206  253.3188
 207  431.7173
 208  226.7525
 209  320.5913
 210  469.1202
 211  221.1057
 212  231.0548
 213  147.119
 214  23.95475
 215  57.34364
 216  134.4131
 217  351.4726
 218  649.2818
 219  504.3887
 220  496.8216
 221  177.5958
 222  83.80048
 223  115.8925
 224  131.2018
 225  367.8849
 226  442.4307
 227  241.9294
 228  320.0142
 229  286.3144
 230  299.4968
 231  257.6632
 232  367.7396
 233  301.9098
 234  312.3768
 235  322.1969
 236  379.6934
 237  402.7396
 238  221.3196
 239  -98.33102
 240  -90.95692
 241  145.0666
 242  481.6943
 243  594.1007
 244  523.5587
 245  658.2094
 246  595.8552
 247  489.5363
 248  819.1397
 249  547.3817
 250  288.7558
 251  99.98724
 252  579.6602
 253  542.843
 254  650.6411
 255  394.202
 256  467.5966
 257  -37.16443
 258  474.1932
 259  453.5283
 260  506.8497
 261  421.3222
 262  214.1779
 263  154.2758
 264  61.16193
 265  325.2904
 266  139.6563
 267  102.7371
 268  329.2471
 269  117.6641
 270  -87.91309
 271  466.6619
 272  839.4745
 273  721.0786
 274  401.5451
 275  364.9876
 276  421.8477
 277  523.041
 278  824.6237
 279  378.3575
 280  44.45258
 281  -64.415
 282  231.2435
 283  312.9091
 284  411.2915
 285  270.7698
 286  219.845
 287  585.4336
 288  649.4765
 289  919.0562
 290  579.3553
 291  232.2367
 292  173.1139
 293  89.56131
 294  168.274
 295  325.8523
 296  265.1782
 297  90.65809
 298  348.2676
 299  290.3997
 300  480.1665
 301  384.8036
 302  325.356
 303  453.0344
 304  489.792
 305  526.2298
 306  761.58
 307  452.6497
 308  652.8187
 309  276.9344
 310  284.0217
 311  191.9258
 312  223.5773
 313  351.4215
 314  339.721
 315  587.972
 316  555.7331
 317  488.0774
 318  829.6529
 319  1002.978
 320  839.2241
 321  1070.253
 322  1092.98
 323  1539.328
 324  2185.805
 325  2368.995
 326  2344.366
 327  2063.088
 328  1393.161
 329  989.5835
 330  735.5298
 331  414.1841
 332  265.8485
 333  125.2683
 334  405.2488
 335  382.8551
 336  483.3642
 337  492.3906
 338  470.4992
 339  717.6575
 340  925.3179
 341  559.1915
 342  831.6769
 343  811.6115
 344  537.2197
 345  662.7737
 346  465.1074
 347  642.6362
 348  696.7186
 349  507.0741
 350  288.6577
 351  349.9335
 352  611.9693
 353  716.9705
 354  433.7018
 355  464.7765
 356  440.0801
 357  450.095
 358  370.8041
 359  723.7672
 360  660.696
 361  349.6678
 362  407.8264
 363  568.3217
 364  520.4461
 365  441.1338
 366  395.1093
 367  203.0062
 368  216.8751
 369  315.9721
 370  235.8932
 371  302.4986
 372  324.2655
 373  187.15
 374  313.7296
 375  711.3841
 376  1128.321
 377  767.0262
 378  567.4476
 379  351.3064
 380  178.9044
 381  443.565
 382  311.5641
 383  473.0765
 384  650.4868
 385  432.2504
 386  373.3678
 387  478.6096
 388  558.4662
 389  776.4981
 390  501.339
 391  530.9049
 392  358.093
 393  339.1787
 394  305.0573
 395  194.6979
 396  253.6553
 397  154.8197
 398  292.1049
 399  283.342
 400  170.7162
 401  254.6847
 402  323.1702
 403  271.2993
 404  179.6602
 405  175.7914
 406  353.0479
 407  416.3257
 408  250.3596
 409  58.3223
 410  271.1171
 411  429.8004
 412  627.2658
 413  543.9113
 414  415.6243
 415  184.6738
 416  0.3563085
 417  396.1563
 418  451.081
 419  19.09584
 420  -94.63943
 421  79.25021
 422  157.7694
 423  522.7058
 424  -16.78574
 425  382.4955
 426  460.0839
 427  349.6833
 428  427.4171
 429  619.729
 430  420.5411
 431  249.1635
 432  412.0923
 433  227.0251
 434  263.7312
 435  257.7746
 436  126.8218
 437  178.7366
 438  587.6434
 439  460.3874
 440  283.1106
 441  -127.3072
 442  91.98977
 443  435.9511
 444  -53.65477
 445  232.294
 446  211.1819
 447  -37.75204
 448  354.4193
 449  563.5141
 450  214.4657
 451  -20.0737
 452  137.7423
 453  -13.64006
 454  -94.08291
 455  130.9474
 456  90.11826
 457  179.9942
 458  375.7781
 459  698.2413
 460  692.4132
 461  526.4962
 462  605.7634
 463  302.2622
 464  296.5056
 465  563.3317
 466  300.5444
 467  -5.131146
 468  400.7358
 469  658.3062
 470  629.3512
 471  118.2561
 472  517.7925
 473  386.19
 474  286.9008
 475  367.0046
 476  -50.64561
 477  37.75151
 478  185.3906
 479  387.0841
 480  326.1375
 481  -7.122927
 482  219.2776
 483  371.1932
 484  502.2239
 485  555.3677
 486  264.4549
 487  257.4712
 488  278.9331
 489  102.9231
 490  321.2457
 491  439.5098
 492  474.5208
 493  517.3067
 494  537.0302
 495  213.3163
 496  26.67814
 497  421.1982
 498  192.8626
 499  61.55379
 500  324.9173
 501  331.5255
 502  277.7139
 503  202.564
 504  526.2941
 505  808.8302
 506  700.5375
 507  512.2172
 508  149.0411
 509  224.4601
 510  123.5797
 511  341.3603
