# Input file       =  1185319809.105933_cleaned.dat
# Candidate        =  PSR_0332+5434
# Telescope        =  AR
# Epoch_topo       =  57962.979491966813
# Epoch_bary       =  N/A
# T_sample         =  0.002
# Data Folded      =  7208960
# Data Avg         =  0.0299484047895263
# Data StdDev      =  1.00007837669132 
# Profile Bins     =  512
# Profile Avg      =  421.658682805017 
# Profile StdDev   =  118.668475907124 
# Reduced chi-sqr  =  1.104
# Prob(Noise)      <  0.0515   (~1.6 sigma)
# P_topo (ms)      =  714.47085091327   +/- 0.000225
# P'_topo (s/s)    =  -0                +/- 1.21e-10
# P''_topo (s/s^2) =  0                 +/- 5.44e-14
# P_bary (ms)      =  N/A
# P'_bary (s/s)    =  N/A
# P''_bary (s/s^2) =  N/A
# P_orb (s)        =  N/A
# asin(i)/c (s)    =  N/A
# eccentricity     =  N/A
# w (rad)          =  N/A
# T_peri           =  N/A
######################################################
   0  918.8199
   1  878.3602
   2  692.2731
   3  575.2021
   4  569.9636
   5  540.1029
   6  514.1948
   7  473.4469
   8  479.2794
   9  376.375
  10  241.8001
  11  315.5333
  12  372.3576
  13  445.1715
  14  338.3671
  15  400.8443
  16  488.7361
  17  464.7663
  18  408.4235
  19  442.6737
  20  395.2917
  21  402.0896
  22  304.0001
  23  283.3795
  24  155.4683
  25  243.706
  26  315.3483
  27  289.2147
  28  368.0964
  29  377.712
  30  481.1167
  31  441.9292
  32  396.1272
  33  383.4995
  34  277.6076
  35  393.4738
  36  520.0089
  37  336.1963
  38  335.2627
  39  352.0335
  40  348.3677
  41  361.466
  42  248.6408
  43  342.869
  44  420.3078
  45  338.4081
  46  430.3558
  47  412.0464
  48  471.1626
  49  376.3939
  50  307.1879
  51  390.0858
  52  466.5214
  53  505.7804
  54  450.3831
  55  485.1034
  56  387.9858
  57  364.3363
  58  355.1306
  59  263.5465
  60  297.3277
  61  432.2758
  62  470.0181
  63  383.3177
  64  285.7995
  65  312.8316
  66  423.9121
  67  378.769
  68  423.5292
  69  559.877
  70  547.4105
  71  529.2705
  72  535.1579
  73  403.3926
  74  438.8037
  75  413.579
  76  433.6553
  77  505.5265
  78  422.3746
  79  364.9993
  80  315.3019
  81  427.9898
  82  385.3515
  83  363.8452
  84  359.9545
  85  491.7507
  86  437.2882
  87  417.152
  88  387.3823
  89  356.3841
  90  388.8534
  91  453.3907
  92  487.5429
  93  471.1623
  94  372.3306
  95  453.6745
  96  407.8932
  97  392.5348
  98  474.2346
  99  497.6647
 100  445.1002
 101  418.2125
 102  435.3104
 103  409.3288
 104  331.4946
 105  378.3405
 106  515.992
 107  492.1241
 108  318.4773
 109  449.8412
 110  384.1883
 111  411.7394
 112  380.6566
 113  400.313
 114  497.2618
 115  554.7216
 116  480.5562
 117  428.99
 118  392.3222
 119  366.5266
 120  436.2019
 121  461.3741
 122  504.9008
 123  484.7967
 124  435.7674
 125  408.1853
 126  322.881
 127  501.7137
 128  587.5357
 129  585.7688
 130  405.3618
 131  298.2537
 132  449.8929
 133  411.5909
 134  473.5934
 135  482.8328
 136  439.5344
 137  355.5687
 138  312.7301
 139  376.654
 140  361.3756
 141  427.8456
 142  503.5769
 143  476.0694
 144  438.4783
 145  481.8645
 146  507.9116
 147  525.1635
 148  419.5963
 149  411.547
 150  432.6167
 151  416.2884
 152  615.8243
 153  605.9415
 154  516.795
 155  405.9727
 156  442.6844
 157  428.3641
 158  290.6375
 159  371.408
 160  465.2818
 161  439.782
 162  558.3869
 163  492.728
 164  484.1396
 165  407.1112
 166  429.2413
 167  384.2133
 168  408.0439
 169  386.8664
 170  439.0158
 171  425.3609
 172  300.5258
 173  259.1801
 174  437.092
 175  459.6247
 176  427.5577
 177  371.3661
 178  397.5565
 179  456.8658
 180  473.414
 181  462.4919
 182  361.2309
 183  411.3582
 184  452.102
 185  382.7137
 186  452.462
 187  420.4724
 188  381.6282
 189  443.2905
 190  526.8194
 191  436.4823
 192  499.4924
 193  475.3911
 194  372.1505
 195  449.031
 196  409.5511
 197  458.8564
 198  399.7226
 199  427.754
 200  488.2541
 201  476.4424
 202  491.9341
 203  329.4809
 204  416.6736
 205  420.2373
 206  508.7169
 207  406.1086
 208  469.3724
 209  511.5685
 210  428.6511
 211  404.1777
 212  497.6984
 213  480.9728
 214  512.3333
 215  622.7738
 216  558.7476
 217  601.4745
 218  519.9606
 219  444.8836
 220  306.6811
 221  377.5838
 222  502.5369
 223  505.6641
 224  433.4896
 225  443.1203
 226  411.0799
 227  515.6154
 228  424.9198
 229  409.6924
 230  418.7635
 231  435.0399
 232  367.0292
 233  370.4466
 234  433.5428
 235  375.7103
 236  325.552
 237  226.2739
 238  316.8589
 239  350.1366
 240  365.4291
 241  409.3771
 242  377.9093
 243  416.0684
 244  430.28
 245  462.0745
 246  358.8722
 247  337.7695
 248  320.4682
 249  299.8717
 250  423.1867
 251  319.162
 252  314.8419
 253  419.9535
 254  428.7976
 255  429.3262
 256  483.5828
 257  400.2366
 258  328.159
 259  395.2068
 260  354.3062
 261  321.0214
 262  307.0986
 263  301.5515
 264  324.1805
 265  366.1382
 266  254.218
 267  236.2713
 268  233.8844
 269  298.503
 270  352.8566
 271  443.4748
 272  395.6955
 273  385.6528
 274  363.2403
 275  313.1966
 276  272.5319
 277  320.3319
 278  414.7533
 279  477.2444
 280  567.2042
 281  436.2203
 282  446.0409
 283  339.317
 284  419.5157
 285  365.2889
 286  395.3134
 287  429.9985
 288  512.1952
 289  420.6012
 290  393.9696
 291  469.3389
 292  420.8857
 293  374.4103
 294  420.3643
 295  329.0678
 296  387.4207
 297  501.791
 298  468.4976
 299  396.1947
 300  463.8716
 301  550.3293
 302  413.5636
 303  462.2986
 304  390.8227
 305  375.5072
 306  334.2127
 307  365.7127
 308  443.8521
 309  590.0698
 310  605.6725
 311  522.928
 312  417.0265
 313  349.3813
 314  412.0026
 315  419.5396
 316  437.8897
 317  512.6099
 318  481.9772
 319  474.247
 320  483.6911
 321  505.0197
 322  442.1046
 323  423.5291
 324  474.0966
 325  427.5846
 326  417.5443
 327  450.0287
 328  369.3892
 329  357.1165
 330  423.3766
 331  428.2313
 332  333.1597
 333  408.6945
 334  565.1097
 335  598.0146
 336  419.2979
 337  360.3986
 338  306.348
 339  466.1346
 340  478.4174
 341  398.6753
 342  461.0261
 343  523.2142
 344  479.2411
 345  399.9647
 346  419.063
 347  462.0977
 348  404.8011
 349  433.2049
 350  430.4129
 351  511.9411
 352  518.4489
 353  404.3086
 354  395.326
 355  415.9301
 356  357.9171
 357  443.8394
 358  496.377
 359  482.5733
 360  541.4571
 361  535.4772
 362  410.4243
 363  422.7415
 364  423.6243
 365  422.987
 366  317.6158
 367  339.9301
 368  437.7628
 369  482.5113
 370  497.1623
 371  472.1858
 372  382.4858
 373  445.1162
 374  468.9592
 375  466.2556
 376  626.6812
 377  579.796
 378  447.2086
 379  477.3896
 380  408.0309
 381  347.5243
 382  323.4821
 383  398.4839
 384  421.4663
 385  402.2399
 386  561.3917
 387  436.2309
 388  409.0584
 389  417.8173
 390  414.0627
 391  473.498
 392  477.9945
 393  578.6238
 394  567.1896
 395  488.1191
 396  506.9466
 397  580.1132
 398  476.4703
 399  409.3643
 400  448.6942
 401  521.3235
 402  522.3763
 403  440.25
 404  400.6421
 405  401.931
 406  424.4709
 407  431.379
 408  471.786
 409  482.9838
 410  360.7356
 411  358.149
 412  366.7539
 413  488.4468
 414  531.5027
 415  475.3418
 416  510.5087
 417  546.2701
 418  489.9046
 419  442.702
 420  382.7303
 421  292.2169
 422  365.5639
 423  407.9733
 424  407.3799
 425  423.7671
 426  591.8655
 427  378.8902
 428  403.6394
 429  492.3405
 430  546.1936
 431  457.8475
 432  401.9138
 433  522.0998
 434  526.2871
 435  454.5092
 436  436.4756
 437  518.9967
 438  406.9041
 439  317.6956
 440  428.5794
 441  358.1953
 442  402.3073
 443  357.4455
 444  349.6931
 445  363.0839
 446  426.7983
 447  518.9493
 448  512.6143
 449  494.2382
 450  369.8138
 451  340.9254
 452  459.1345
 453  581.812
 454  566.0938
 455  378.5045
 456  425.6484
 457  482.4775
 458  365.0758
 459  310.15
 460  338.6373
 461  274.9963
 462  308.0134
 463  378.1251
 464  372.9846
 465  411.585
 466  355.014
 467  426.6724
 468  408.4573
 469  313.5042
 470  366.2422
 471  405.529
 472  440.575
 473  324.5426
 474  335.665
 475  346.5699
 476  258.9666
 477  240.3968
 478  263.1852
 479  275.5848
 480  227.3387
 481  261.4872
 482  310.5525
 483  338.055
 484  286.8549
 485  334.2415
 486  382.4344
 487  328.159
 488  187.8164
 489  144.1754
 490  282.0567
 491  322.1246
 492  440.3485
 493  296.567
 494  287.1306
 495  374.2249
 496  382.1707
 497  426.285
 498  378.1805
 499  405.7866
 500  282.6385
 501  234.8448
 502  342.5795
 503  397.5252
 504  454.4335
 505  468.3443
 506  452.4388
 507  392.1372
 508  407.6448
 509  682.031
 510  803.3976
 511  950.6152
