# Input file       =  1185004668.102813_cleaned.dat
# Candidate        =  PSR_0332+5434
# Telescope        =  AR
# Epoch_topo       =  57959.332026652926
# Epoch_bary       =  N/A
# T_sample         =  0.002
# Data Folded      =  7340032
# Data Avg         =  0.195991736495801
# Data StdDev      =  4.38772757645758 
# Profile Bins     =  512
# Profile Avg      =  2809.79752498284 
# Profile StdDev   =  525.355945523335 
# Reduced chi-sqr  =  0.756
# Prob(Noise)      <  1   (~0.0 sigma)
# P_topo (ms)      =  714.473036678054  +/- 0.000503
# P'_topo (s/s)    =  -0                +/- 2.66e-10
# P''_topo (s/s^2) =  0                 +/- 1.17e-13
# P_bary (ms)      =  N/A
# P'_bary (s/s)    =  N/A
# P''_bary (s/s^2) =  N/A
# P_orb (s)        =  N/A
# asin(i)/c (s)    =  N/A
# eccentricity     =  N/A
# w (rad)          =  N/A
# T_peri           =  N/A
######################################################
   0  2884.617
   1  3171.607
   2  3079.376
   3  3248.244
   4  2901.429
   5  2915.411
   6  2938.82
   7  2979.763
   8  2801.114
   9  2964.399
  10  2951.07
  11  2974.676
  12  3047.374
  13  3090.842
  14  2760.955
  15  2836.465
  16  2991.302
  17  2595.186
  18  2390.635
  19  2708.456
  20  2533.061
  21  2419.874
  22  2448.326
  23  2512.108
  24  2957.289
  25  2940.387
  26  3072.224
  27  3019.015
  28  2671.976
  29  2718.98
  30  2335.182
  31  2086.873
  32  2633.519
  33  3171.395
  34  2944.96
  35  2973.726
  36  3157.516
  37  2683.65
  38  2510.772
  39  2639.99
  40  3108.232
  41  3548.407
  42  3250.907
  43  2960.74
  44  3317.43
  45  2951.484
  46  2782.199
  47  3024.441
  48  3208.455
  49  3276.684
  50  3124.881
  51  3213.238
  52  2723.179
  53  2644.254
  54  2865.228
  55  3119.151
  56  3382.013
  57  3539.262
  58  3224.678
  59  3323.88
  60  3134.223
  61  3444.134
  62  3247.471
  63  3051.554
  64  2904.775
  65  3102.562
  66  2882.64
  67  3153.466
  68  3239.386
  69  2895.29
  70  2850.067
  71  3164.502
  72  3379.822
  73  2980.447
  74  3275.357
  75  3231.394
  76  2956.629
  77  2947.544
  78  3326.64
  79  3423.087
  80  2847.75
  81  2933.825
  82  3049.939
  83  2967.824
  84  2844.793
  85  2810.537
  86  3024.693
  87  3136.536
  88  2940.88
  89  2692.921
  90  2403.885
  91  2982.45
  92  3240.863
  93  2969.49
  94  2603.08
  95  2828.697
  96  2742.102
  97  2649.731
  98  3035.212
  99  3186.838
 100  3337.523
 101  3116.89
 102  3009.648
 103  3057.99
 104  3210.838
 105  3105.327
 106  2751.635
 107  3101.365
 108  3104.941
 109  3015.659
 110  2999.623
 111  2737.628
 112  2842.869
 113  2694.354
 114  2994.046
 115  2902.501
 116  2986.429
 117  2998.701
 118  2754.657
 119  2965.533
 120  3114.273
 121  2829.435
 122  2710.031
 123  2598.072
 124  2213.534
 125  2298.115
 126  2668.13
 127  3118.855
 128  3114.464
 129  2650.947
 130  2755.26
 131  2887.489
 132  2928.778
 133  2940.019
 134  2950.371
 135  2853.063
 136  2938.588
 137  3215.828
 138  3286.801
 139  3194.457
 140  2933.185
 141  2904.328
 142  2890.402
 143  2483.699
 144  2682.382
 145  3027.761
 146  3214.772
 147  2904.795
 148  3088.481
 149  2826.342
 150  2513.953
 151  2766.684
 152  3064.912
 153  3125.312
 154  2978.179
 155  2932.993
 156  2843.453
 157  2746.517
 158  3023.998
 159  3059.559
 160  2769.781
 161  2734.812
 162  2992.033
 163  3132.705
 164  2920.594
 165  2731.965
 166  2961.486
 167  3148.087
 168  3174.66
 169  2996.518
 170  2960.615
 171  3285.545
 172  3156.923
 173  3074.532
 174  3404.447
 175  3007.822
 176  3203.781
 177  3221.333
 178  3084.861
 179  2648.685
 180  2856.984
 181  3227.66
 182  3220.177
 183  2607.038
 184  2900.921
 185  2957.927
 186  2504.324
 187  2393.852
 188  2689.887
 189  2890.508
 190  2848.15
 191  2799.029
 192  3052.112
 193  2831.828
 194  2779.632
 195  2582.272
 196  2067.037
 197  2193.276
 198  2458.107
 199  2844.752
 200  2792.509
 201  3075.588
 202  3139.094
 203  2680.786
 204  2579.62
 205  2804.275
 206  2978.87
 207  3102.736
 208  3011.957
 209  2761.185
 210  2858.285
 211  2458.456
 212  2244.316
 213  2289.271
 214  2278.747
 215  2338.345
 216  2780.329
 217  2858.735
 218  2301.511
 219  2478.234
 220  2740.863
 221  2566.572
 222  2793.453
 223  3030.542
 224  3072.65
 225  2949.02
 226  3163.833
 227  2761.049
 228  2503.394
 229  2542.392
 230  2669.051
 231  2290.035
 232  2013.333
 233  2585.057
 234  2966.094
 235  2992.547
 236  2687.294
 237  2758.414
 238  2967.15
 239  2766.969
 240  3044.719
 241  3284.31
 242  3587.045
 243  3184.634
 244  2686.769
 245  2316.79
 246  2086.002
 247  2229.115
 248  2523.08
 249  2683.532
 250  2392.176
 251  2138.446
 252  2360.424
 253  2469.305
 254  2769.66
 255  3061.971
 256  2464.011
 257  2582.444
 258  2836.403
 259  2328.419
 260  2435.474
 261  2504.162
 262  2522.891
 263  2733.452
 264  2998.529
 265  2817.253
 266  2391.353
 267  2500.998
 268  2523.879
 269  2450.722
 270  2313.309
 271  2669.872
 272  2554.155
 273  2656.522
 274  2869.119
 275  2904.096
 276  3018.939
 277  2798.44
 278  2849.503
 279  2895.317
 280  2896.299
 281  2871.446
 282  2962.228
 283  3047.926
 284  3302.365
 285  3096.311
 286  2635.724
 287  2632.429
 288  2746.435
 289  3037.125
 290  3307.782
 291  3292.363
 292  3355.932
 293  2786.155
 294  2335.128
 295  2628.682
 296  2475.547
 297  2482.271
 298  2799.732
 299  2618.682
 300  2534.456
 301  2428.756
 302  2485.448
 303  2587.796
 304  2594.989
 305  2617.688
 306  2983.18
 307  3086.322
 308  3406.185
 309  3352.201
 310  3354.816
 311  2940.748
 312  2979.423
 313  3094.989
 314  3067.692
 315  3090.267
 316  2738.232
 317  3222.344
 318  3484.601
 319  3242.948
 320  3406.857
 321  3230.153
 322  3171.498
 323  3480.063
 324  4042.643
 325  3692.958
 326  3695.707
 327  3777.586
 328  3544.651
 329  2869.584
 330  2291.992
 331  2089.211
 332  2639.304
 333  2751.247
 334  2631.608
 335  2516.785
 336  2584.248
 337  2840.848
 338  2822.294
 339  2480.266
 340  2657.388
 341  2767.965
 342  3104.777
 343  2724.112
 344  2413.941
 345  2552.847
 346  2595.766
 347  2264.924
 348  2290.633
 349  2528.147
 350  2585.053
 351  2690.268
 352  2550.912
 353  2307.478
 354  2065.702
 355  1968.284
 356  1979.1
 357  1999.64
 358  2463.397
 359  2410.31
 360  2382.173
 361  2675.048
 362  2405.104
 363  2535.544
 364  2534.525
 365  2194.923
 366  1976.34
 367  2047.229
 368  2487.166
 369  2530.252
 370  2334.967
 371  2537.373
 372  2299.277
 373  2655.283
 374  2830.508
 375  2551.031
 376  2415.502
 377  2590.334
 378  2669.879
 379  2806.458
 380  2870.043
 381  2890.643
 382  2676.998
 383  2232.976
 384  2309.094
 385  2197.001
 386  2400.095
 387  2568.268
 388  2704.209
 389  3120.907
 390  2899.365
 391  2609.976
 392  2748.228
 393  2797.619
 394  2976.308
 395  3038.127
 396  3186.199
 397  2973.323
 398  2795.309
 399  2840.629
 400  2858.077
 401  2902.975
 402  2900.12
 403  3077.858
 404  2733.198
 405  2574.994
 406  2537.921
 407  2744.078
 408  2922.586
 409  2422.126
 410  2353.228
 411  2237.005
 412  2265.237
 413  2246.021
 414  2090.756
 415  2112.521
 416  2081.192
 417  2004.039
 418  2361.001
 419  1953.458
 420  2137.67
 421  2529.571
 422  2440.916
 423  2648.125
 424  2715.622
 425  2431.888
 426  2891.587
 427  2770.522
 428  3140.599
 429  3144.125
 430  2777.347
 431  2734.018
 432  2726.621
 433  2734.199
 434  3094.473
 435  2984.785
 436  3359.956
 437  3355.412
 438  3012.465
 439  3030.466
 440  2792.043
 441  2712.781
 442  2881.025
 443  2968.064
 444  2794.08
 445  2691.171
 446  2636.406
 447  2852.808
 448  2672.52
 449  2747.438
 450  2938.871
 451  2843.797
 452  2637.156
 453  2608.048
 454  2901.277
 455  2744.102
 456  2891.365
 457  2700.643
 458  3003.26
 459  3053.693
 460  2833.65
 461  3095.573
 462  2886.136
 463  2804.263
 464  2873.937
 465  2531.552
 466  2674.728
 467  2559.303
 468  2710.289
 469  2999.608
 470  2859.122
 471  2679.252
 472  2250.236
 473  2658.748
 474  2812.088
 475  2993.11
 476  2605.957
 477  2778.762
 478  2784.564
 479  2452.391
 480  2774.115
 481  2802.398
 482  2840.312
 483  2790.373
 484  2147.428
 485  2436.104
 486  2575.627
 487  2546.946
 488  2751.291
 489  2918.125
 490  3177.744
 491  3092.569
 492  2953.679
 493  2606.794
 494  2083.204
 495  2555.229
 496  3031.31
 497  3136.437
 498  3117.041
 499  3119.194
 500  3145.299
 501  2620.515
 502  2602.705
 503  3006.646
 504  3220.514
 505  3371.988
 506  3230.27
 507  3112.721
 508  2689.435
 509  2539.375
 510  2494.451
 511  2708.725
