# Input file       =  1185248272.118458-PSRB0329-2ms-sampling-dd.dat
# Candidate        =  PSR_0332+5434
# Telescope        =  AR
# Epoch_topo       =  57962.151517574748
# Epoch_bary       =  N/A
# T_sample         =  0.002
# Data Folded      =  7340032
# Data Avg         =  8.75747969826406e-10
# Data StdDev      =  5.16159253427409 
# Profile Bins     =  512
# Profile Avg      =  4.80203847692932 
# Profile StdDev   =  618.013146668284 
# Reduced chi-sqr  =  0.572
# Prob(Noise)      <  1   (~0.0 sigma)
# P_topo (ms)      =  714.471264672761  +/- 0.000184
# P'_topo (s/s)    =  -0                +/- 9.73e-11
# P''_topo (s/s^2) =  0                 +/- 4.29e-14
# P_bary (ms)      =  N/A
# P'_bary (s/s)    =  N/A
# P''_bary (s/s^2) =  N/A
# P_orb (s)        =  N/A
# asin(i)/c (s)    =  N/A
# eccentricity     =  N/A
# w (rad)          =  N/A
# T_peri           =  N/A
######################################################
   0  -276.7544
   1  -121.6566
   2  -212.7075
   3  -134.8099
   4  -46.49972
   5  -86.47587
   6  -296.5293
   7  -444.4608
   8  -258.4899
   9  -155.5348
  10  46.24777
  11  399.5508
  12  1180.076
  13  1438.267
  14  1431.271
  15  1063.594
  16  405.5014
  17  52.48809
  18  140.9076
  19  -180.8518
  20  -424.1136
  21  -485.6196
  22  -398.3855
  23  -609.9434
  24  -606.8087
  25  -524.1793
  26  -435.0425
  27  -220.1082
  28  18.34923
  29  153.9636
  30  131.774
  31  -111.5645
  32  -417.5135
  33  -764.1105
  34  -720.8583
  35  -709.3549
  36  -187.5832
  37  -58.01918
  38  -262.3704
  39  -152.3064
  40  40.001
  41  -212.1703
  42  -365.3282
  43  -121.4391
  44  -421.2647
  45  -730.1553
  46  -732.2407
  47  -469.6537
  48  -266.116
  49  -492.0876
  50  -394.468
  51  -555.064
  52  -636.571
  53  -721.5432
  54  -347.7457
  55  -35.1384
  56  15.4807
  57  185.0452
  58  21.37969
  59  -43.624
  60  -332.4908
  61  -300.2616
  62  -163.0567
  63  -169.3968
  64  -153.1482
  65  -189.4203
  66  -32.29801
  67  -173.4239
  68  -2.383865
  69  -185.8007
  70  -91.24342
  71  79.08099
  72  221.2305
  73  -485.1847
  74  -567.0867
  75  -455.3042
  76  -462.9465
  77  -495.2337
  78  -249.1825
  79  -616.1282
  80  -577.4001
  81  -474.7433
  82  -655.6764
  83  -581.8135
  84  -158.863
  85  133.517
  86  178.2265
  87  8.08649
  88  -316.9913
  89  -342.8355
  90  -523.1982
  91  -561.6375
  92  -628.1659
  93  -696.4954
  94  -706.4421
  95  -278.3768
  96  277.0806
  97  -51.36596
  98  -297.0323
  99  -368.6571
 100  -300.3491
 101  -301.0154
 102  1.385106
 103  491.5225
 104  7.97861
 105  288.3072
 106  212.3028
 107  244.7824
 108  213.3526
 109  -189.4525
 110  -13.964
 111  -83.14928
 112  -141.2605
 113  -154.5177
 114  -40.52509
 115  -107.2287
 116  -169.9592
 117  -166.8223
 118  -28.58805
 119  54.04572
 120  -244.5569
 121  62.08521
 122  55.52266
 123  355.8271
 124  98.74294
 125  30.01983
 126  183.6553
 127  -158.2402
 128  240.6864
 129  571.9395
 130  427.1103
 131  409.6538
 132  192.4432
 133  131.8062
 134  -2.868811
 135  146.2106
 136  -78.4549
 137  -228.5639
 138  -311.9275
 139  -222.8265
 140  -390.2886
 141  -317.7959
 142  -176.8607
 143  -333.4955
 144  -271.8701
 145  -298.0957
 146  -286.632
 147  1.180553
 148  -52.30959
 149  -403.4583
 150  -528.7757
 151  -377.3215
 152  -258.8241
 153  -461.2211
 154  -269.3309
 155  -97.55859
 156  -535.1016
 157  -491.4495
 158  -274.0252
 159  -167.5618
 160  -262.6309
 161  -173.6738
 162  99.03765
 163  -200.3727
 164  158.3659
 165  42.07957
 166  -126.069
 167  -84.46786
 168  -204.6798
 169  -50.56586
 170  -3.555067
 171  -118.0826
 172  -55.82487
 173  -294.5228
 174  -381.6472
 175  -277.7808
 176  -284.1738
 177  72.08543
 178  -172.5154
 179  -168.4058
 180  -83.96678
 181  -189.4767
 182  -368.9596
 183  -503.8552
 184  -441.9406
 185  -237.1803
 186  160.5615
 187  -233.9462
 188  -440.2314
 189  -135.0041
 190  -66.53179
 191  -283.1893
 192  -481.182
 193  -121.6671
 194  -101.7842
 195  -38.43336
 196  -325.7219
 197  -205.2268
 198  -64.98838
 199  -299.4132
 200  -141.4607
 201  -65.73562
 202  254.2389
 203  620.9982
 204  558.2749
 205  110.9474
 206  52.31472
 207  154.3819
 208  291.981
 209  354.5555
 210  285.0946
 211  102.7028
 212  392.9623
 213  404.1382
 214  379.6674
 215  342.7066
 216  370.6019
 217  415.7049
 218  532.4145
 219  736.1396
 220  596.0252
 221  327.0563
 222  157.4452
 223  52.93187
 224  216.8926
 225  187.9866
 226  -288.0762
 227  -394.7342
 228  -153.3739
 229  -193.1843
 230  -405.5563
 231  -299.5739
 232  -162.5999
 233  -133.1653
 234  -224.7836
 235  -164.52
 236  111.9447
 237  30.02235
 238  -79.69399
 239  -363.628
 240  -125.5462
 241  -34.63673
 242  26.89529
 243  2.657921
 244  42.83794
 245  -35.53307
 246  23.47322
 247  -395.5809
 248  -233.5231
 249  -231.8261
 250  -125.1068
 251  -431.9239
 252  -249.2624
 253  113.8124
 254  321.5872
 255  583.0686
 256  596.7495
 257  241.3345
 258  127.802
 259  290.2758
 260  381.5243
 261  406.6189
 262  135.5461
 263  97.12141
 264  114.6004
 265  97.72832
 266  -113.6724
 267  -34.01305
 268  -10.80393
 269  199.6647
 270  244.326
 271  -24.10276
 272  -170.8497
 273  272.6802
 274  170.4678
 275  117.4962
 276  280.678
 277  160.9787
 278  119.7011
 279  -61.04314
 280  -14.13856
 281  51.28792
 282  66.34177
 283  156.095
 284  334.1904
 285  405.6384
 286  57.11726
 287  110.2165
 288  252.4623
 289  395.9917
 290  696.2532
 291  376.8333
 292  332.616
 293  325.3348
 294  416.3958
 295  559.7443
 296  472.1914
 297  430.1994
 298  649.7159
 299  783.695
 300  612.7339
 301  711.0347
 302  748.8041
 303  686.298
 304  373.5782
 305  330.8259
 306  472.0478
 307  373.6054
 308  112.3881
 309  312.0082
 310  406.0442
 311  492.2064
 312  638.9261
 313  653.0686
 314  628.7899
 315  501.2775
 316  335.0619
 317  262.0939
 318  460.9511
 319  656.0276
 320  988.4696
 321  889.5838
 322  579.1072
 323  368.2644
 324  282.1299
 325  286.8433
 326  468.2938
 327  533.9486
 328  607.025
 329  676.8593
 330  320.0862
 331  129.4985
 332  213.0999
 333  -105.1629
 334  -13.77472
 335  205.5301
 336  419.2378
 337  189.6651
 338  26.0479
 339  85.33755
 340  104.1683
 341  84.09062
 342  112.9475
 343  316.613
 344  410.1595
 345  744.9614
 346  551.394
 347  397.3733
 348  189.5229
 349  260.3108
 350  141.9517
 351  275.6014
 352  406.9802
 353  212.6116
 354  58.34988
 355  64.70177
 356  -49.99524
 357  42.08561
 358  241.1273
 359  354.1458
 360  540.1
 361  475.0517
 362  112.0338
 363  195.0121
 364  -225.127
 365  106.003
 366  522.4868
 367  372.3981
 368  325.054
 369  388.065
 370  266.8611
 371  6.22722
 372  -25.65895
 373  41.6206
 374  69.56402
 375  140.2791
 376  327.9929
 377  273.3849
 378  -71.39532
 379  72.10613
 380  152.1987
 381  359.9621
 382  134.3672
 383  -299.1149
 384  -139.1842
 385  347.5194
 386  218.1205
 387  173.2756
 388  178.0419
 389  -30.26118
 390  55.96363
 391  444.5323
 392  82.64146
 393  -117.3413
 394  273.0792
 395  301.1686
 396  282.3196
 397  356.7577
 398  317.9202
 399  41.76797
 400  -284.4872
 401  338.1994
 402  187.3267
 403  -89.81161
 404  378.2745
 405  636.6552
 406  296.8455
 407  116.0811
 408  25.76464
 409  -86.8653
 410  50.11255
 411  -32.32463
 412  -291.6554
 413  -382.3048
 414  -161.1258
 415  -75.00961
 416  -134.0555
 417  -210.2536
 418  -476.6762
 419  -470.8228
 420  -241.9056
 421  -164.5022
 422  -547.1596
 423  -326.2228
 424  -268.1983
 425  -275.3203
 426  -148.3034
 427  2.509542
 428  63.80129
 429  -193.169
 430  -430.4208
 431  -581.4946
 432  -710.7022
 433  -355.1616
 434  255.5416
 435  229.3625
 436  -333.2009
 437  -564.1979
 438  -568.0536
 439  -633.2795
 440  -327.6364
 441  37.54672
 442  21.15841
 443  -189.4676
 444  -31.99584
 445  89.3813
 446  86.44094
 447  13.32422
 448  148.8919
 449  113.279
 450  93.95136
 451  250.2075
 452  -3.890067
 453  94.84674
 454  -157.1565
 455  -395.3577
 456  -224.4902
 457  -327.9073
 458  -102.8019
 459  99.58769
 460  21.34333
 461  -266.7506
 462  -106.985
 463  -124.4206
 464  -170.0109
 465  -324.5851
 466  38.77417
 467  371.1243
 468  191.3957
 469  -128.6552
 470  15.26878
 471  221.3232
 472  271.0954
 473  315.5537
 474  237.6921
 475  224.8089
 476  176.2248
 477  170.4458
 478  -91.24975
 479  -233.411
 480  -102.2512
 481  -16.94046
 482  -13.323
 483  -37.64101
 484  82.86102
 485  4.19048
 486  15.46437
 487  -521.7715
 488  -434.1103
 489  -253.5812
 490  -107.7276
 491  -160.9592
 492  -244.8102
 493  97.05274
 494  -37.46925
 495  4.385069
 496  -208.9576
 497  -14.72224
 498  55.53649
 499  -49.20361
 500  -68.51801
 501  -69.16931
 502  -186.0162
 503  -457.7988
 504  -308.705
 505  -161.7523
 506  121.116
 507  305.737
 508  230.3675
 509  62.10958
 510  -279.7674
 511  6.200906
