# Input file       =  1185765225.132344_cleaned.dat
# Candidate        =  PSR_0332+5434
# Telescope        =  AR
# Epoch_topo       =  57968.134770050281
# Epoch_bary       =  N/A
# T_sample         =  0.002
# Data Folded      =  7340032
# Data Avg         =  0.0260781412258179
# Data StdDev      =  2.49859469594942 
# Profile Bins     =  256
# Profile Avg      =  748.004778121094 
# Profile StdDev   =  423.082252328142 
# Reduced chi-sqr  =  2.159
# Prob(Noise)      <  8.2e-24   (~10.0 sigma)
# P_topo (ms)      =  714.468604646315  +/- 0.00023
# P'_topo (s/s)    =  -0                +/- 1.21e-10
# P''_topo (s/s^2) =  0                 +/- 5.36e-14
# P_bary (ms)      =  N/A
# P'_bary (s/s)    =  N/A
# P''_bary (s/s^2) =  N/A
# P_orb (s)        =  N/A
# asin(i)/c (s)    =  N/A
# eccentricity     =  N/A
# w (rad)          =  N/A
# T_peri           =  N/A
######################################################
   0  1313.566
   1  1186.33
   2  1054.86
   3  1353.841
   4  1062.387
   5  904.5383
   6  758.7395
   7  602.8431
   8  789.056
   9  1159.245
  10  1009.058
  11  256.2241
  12  301.911
  13  654.2995
  14  900.444
  15  774.8988
  16  1419.689
  17  825.2114
  18  1464.098
  19  1700.071
  20  567.5176
  21  998.0718
  22  1126.561
  23  16.66142
  24  106.004
  25  402.4852
  26  397.1596
  27  203.7396
  28  964.834
  29  310.8025
  30  715.7726
  31  893.2323
  32  751.8721
  33  301.6893
  34  225.3606
  35  186.7677
  36  461.8947
  37  838.7309
  38  1249.555
  39  556.8856
  40  -10.93645
  41  -171.4299
  42  155.0235
  43  90.30518
  44  512.0487
  45  533.7064
  46  125.5666
  47  521.4005
  48  305.7338
  49  661.2073
  50  89.99256
  51  271.8572
  52  749.9809
  53  847.1584
  54  904.1119
  55  809.9875
  56  1115.498
  57  690.4088
  58  293.6192
  59  722.8168
  60  567.7644
  61  423.6814
  62  569.4919
  63  1024.514
  64  178.9326
  65  10.41167
  66  726.0729
  67  446.435
  68  818.6057
  69  515.1066
  70  792.7678
  71  378.4959
  72  570.3448
  73  512.478
  74  172.2431
  75  243.2364
  76  1274.402
  77  96.37089
  78  474.7827
  79  753.008
  80  585.7732
  81  554.0839
  82  903.6104
  83  1280.701
  84  1379.735
  85  1032.887
  86  943.8295
  87  280.6121
  88  1001.247
  89  1347.255
  90  871.1446
  91  166.9645
  92  1138.323
  93  423.23
  94  100.5038
  95  319.3363
  96  678.2253
  97  526.4294
  98  939.8994
  99  346.4651
 100  611.3199
 101  1145.099
 102  1170.271
 103  685.036
 104  547.3439
 105  690.2259
 106  378.1738
 107  81.29839
 108  485.8857
 109  1153.671
 110  674.4174
 111  199.6929
 112  499.0866
 113  684.36
 114  606.3286
 115  557.16
 116  669.6494
 117  634.5737
 118  782.4329
 119  122.9885
 120  54.10968
 121  1075.795
 122  1181.768
 123  1085.391
 124  1366.521
 125  388.7431
 126  1122.503
 127  1044.843
 128  430.4321
 129  927.7214
 130  928.1719
 131  368.4538
 132  386.4524
 133  242.3934
 134  446.9113
 135  378.7488
 136  1560.553
 137  766.5327
 138  944.8887
 139  1202.981
 140  -19.96242
 141  544.1526
 142  682.0614
 143  805.2786
 144  1568.533
 145  811.5921
 146  262.6752
 147  494.1263
 148  355.8363
 149  638.6674
 150  864.9702
 151  778.3904
 152  1016.022
 153  1214.23
 154  929.7531
 155  475.9475
 156  574.9988
 157  927.6931
 158  1043.811
 159  1832.631
 160  1909.477
 161  2632.308
 162  4554.801
 163  4407.454
 164  2382.744
 165  1149.714
 166  391.1169
 167  788.1039
 168  975.7548
 169  1188.157
 170  1484.51
 171  1643.288
 172  1199.993
 173  1107.744
 174  1203.793
 175  638.5912
 176  1328.94
 177  898.4783
 178  890.1751
 179  1094.571
 180  1010.364
 181  976.1481
 182  961.58
 183  598.1155
 184  532.8472
 185  538.3918
 186  511.4156
 187  1025.114
 188  1895.347
 189  918.754
 190  622.4694
 191  784.6406
 192  1082.737
 193  851.9774
 194  1334.964
 195  1032.244
 196  697.2717
 197  499.7552
 198  408.475
 199  575.4469
 200  425.4008
 201  594.4695
 202  355.4516
 203  769.3736
 204  308.6819
 205  700.9175
 206  1171.177
 207  600.2982
 208  396.5126
 209  470.1768
 210  -15.38923
 211  680.4752
 212  365.7097
 213  809.7672
 214  1047.146
 215  669.7046
 216  639.1174
 217  521.5058
 218  305.5585
 219  1048.031
 220  155.8035
 221  527.9409
 222  178.6392
 223  173.4298
 224  917.9333
 225  194.392
 226  124.1022
 227  36.86446
 228  270.1125
 229  1074.019
 230  1218.909
 231  908.0256
 232  859.8372
 233  295.4133
 234  1059.042
 235  747.6072
 236  903.9825
 237  653.9055
 238  -12.89411
 239  572.4748
 240  319.0146
 241  590.4709
 242  1057.592
 243  521.926
 244  381.8561
 245  760.7555
 246  991.8275
 247  750.3465
 248  447.8763
 249  254.4164
 250  656.4429
 251  480.2779
 252  1335.124
 253  1212.755
 254  373.5012
 255  464.9399
