# Input file       =  1185405938.11192_cleaned.dat
# Candidate        =  PSR_0332+5434
# Telescope        =  AR
# Epoch_topo       =  57963.976355462037
# Epoch_bary       =  N/A
# T_sample         =  0.002
# Data Folded      =  7208960
# Data Avg         =  0.0332345584180342
# Data StdDev      =  1.00021552339627 
# Profile Bins     =  512
# Profile Avg      =  467.778161095908 
# Profile StdDev   =  118.684749622097 
# Reduced chi-sqr  =  1.057
# Prob(Noise)      <  0.181   (~0.9 sigma)
# P_topo (ms)      =  714.470384480613  +/- 0.000301
# P'_topo (s/s)    =  -0                +/- 1.62e-10
# P''_topo (s/s^2) =  0                 +/- 7.28e-14
# P_bary (ms)      =  N/A
# P'_bary (s/s)    =  N/A
# P''_bary (s/s^2) =  N/A
# P_orb (s)        =  N/A
# asin(i)/c (s)    =  N/A
# eccentricity     =  N/A
# w (rad)          =  N/A
# T_peri           =  N/A
######################################################
   0  395.6883
   1  542.7416
   2  458.2706
   3  506.5172
   4  522.1586
   5  446.0132
   6  509.5826
   7  368.3114
   8  336.428
   9  409.3809
  10  457.775
  11  458.1621
  12  412.1835
  13  409.1985
  14  342.6599
  15  483.6633
  16  395.7291
  17  280.3489
  18  329.3553
  19  424.1992
  20  345.0263
  21  469.3216
  22  403.3385
  23  432.5519
  24  360.8334
  25  434.4177
  26  487.0184
  27  386.5977
  28  389.1331
  29  494.9984
  30  479.9293
  31  500.6223
  32  409.7303
  33  441.514
  34  501.3275
  35  465.2591
  36  506.8828
  37  477.0485
  38  292.6228
  39  200.5874
  40  400.3643
  41  383.1262
  42  477.5993
  43  494.4541
  44  495.0576
  45  480.7203
  46  374.1653
  47  432.6458
  48  398.1961
  49  416.9749
  50  459.8207
  51  373.2998
  52  346.8592
  53  431.09
  54  468.0871
  55  416.3207
  56  486.233
  57  403.5452
  58  350.6306
  59  469.0227
  60  545.7952
  61  518.6468
  62  491.0664
  63  428.6614
  64  442.5396
  65  401.3891
  66  593.3545
  67  587.6638
  68  530.2625
  69  510.9084
  70  395.0044
  71  363.3541
  72  525.2733
  73  498.538
  74  293.055
  75  417.9927
  76  494.1537
  77  445.1517
  78  445.1961
  79  337.9559
  80  470.1853
  81  445.1493
  82  272.0853
  83  371.2692
  84  414.7643
  85  456.1528
  86  476.3701
  87  512.4888
  88  381.7362
  89  377.21
  90  406.7647
  91  333.2704
  92  321.2444
  93  386.1441
  94  416.9431
  95  419.9698
  96  365.852
  97  404.5238
  98  409.6398
  99  443.5207
 100  518.0213
 101  537.8653
 102  506.5031
 103  438.3477
 104  452.7133
 105  580.5707
 106  465.1245
 107  459.6083
 108  542.0065
 109  502.6912
 110  526.8112
 111  488.5663
 112  475.3017
 113  382.6735
 114  437.3911
 115  483.673
 116  426.7873
 117  441.3044
 118  439.5128
 119  460.9899
 120  421.5851
 121  548.7927
 122  457.735
 123  427.5315
 124  357.9403
 125  435.9474
 126  426.0154
 127  500.511
 128  461.8515
 129  495.0732
 130  464.435
 131  402.9881
 132  340.7175
 133  436.0014
 134  404.731
 135  301.2866
 136  251.5832
 137  379.3593
 138  526.7484
 139  555.5347
 140  441.2715
 141  386.9752
 142  408.4614
 143  528.4358
 144  537.8335
 145  547.5498
 146  426.4665
 147  437.8274
 148  550.1944
 149  489.593
 150  515.2307
 151  546.6971
 152  497.6764
 153  431.3847
 154  342.8716
 155  457.4566
 156  538.6528
 157  376.2157
 158  439.5419
 159  387.1603
 160  256.7334
 161  326.4702
 162  478.6815
 163  392.6274
 164  423.6347
 165  500.2937
 166  458.2881
 167  520.4476
 168  441.5761
 169  490.5045
 170  457.203
 171  459.157
 172  433.1152
 173  395.9689
 174  480.0427
 175  448.2587
 176  291.6612
 177  357.9975
 178  415.678
 179  316.3323
 180  405.1095
 181  530.5538
 182  538.2283
 183  598.9492
 184  489.3379
 185  380.5829
 186  370.6067
 187  458.6459
 188  452.1998
 189  472.0919
 190  449.2315
 191  554.0377
 192  546.9584
 193  420.1606
 194  465.1815
 195  424.4484
 196  332.1006
 197  249.0238
 198  333.0993
 199  403.02
 200  477.3784
 201  514.1557
 202  474.8659
 203  397.0704
 204  428.003
 205  539.3866
 206  412.5371
 207  463.0611
 208  528.9228
 209  478.0339
 210  587.0271
 211  489.0042
 212  492.8179
 213  471.81
 214  499.0491
 215  454.2224
 216  480.8025
 217  539.9171
 218  452.4438
 219  555.0901
 220  562.9285
 221  657.9556
 222  483.9596
 223  566.8448
 224  547.2504
 225  597.9625
 226  695.4165
 227  643.3138
 228  488.8344
 229  519.3427
 230  598.8735
 231  482.5371
 232  423.7437
 233  505.7382
 234  458.6015
 235  445.1359
 236  457.3628
 237  487.088
 238  419.0064
 239  525.6765
 240  547.8143
 241  480.4524
 242  512.2755
 243  574.3494
 244  516.3243
 245  443.5343
 246  330.2194
 247  340.9497
 248  466.9875
 249  446.6113
 250  469.5796
 251  444.8218
 252  327.7078
 253  377.545
 254  494.5092
 255  525.0923
 256  464.3385
 257  479.5658
 258  607.9395
 259  533.066
 260  440.1762
 261  397.5607
 262  492.9347
 263  599.5267
 264  522.3979
 265  491.9743
 266  562.6084
 267  577.073
 268  507.9384
 269  541.439
 270  586.47
 271  457.7292
 272  529.7473
 273  493.4748
 274  475.7514
 275  384.7731
 276  559.9984
 277  569.1537
 278  459.1383
 279  396.7755
 280  433.0364
 281  490.3618
 282  420.678
 283  381.4085
 284  523.4022
 285  510.1132
 286  551.412
 287  554.5684
 288  529.8102
 289  512.6321
 290  383.836
 291  429.5739
 292  472.3526
 293  520.5927
 294  621.3209
 295  598.6478
 296  592.2007
 297  493.4893
 298  501.5911
 299  511.6315
 300  555.4507
 301  594.3953
 302  596.2353
 303  506.9706
 304  453.7325
 305  430.2799
 306  420.7646
 307  460.3772
 308  645.059
 309  574.3145
 310  570.9864
 311  498.9866
 312  456.2771
 313  499.1217
 314  591.4648
 315  568.7367
 316  316.3087
 317  405.1597
 318  475.7601
 319  543.7999
 320  440.2713
 321  413.6707
 322  535.5021
 323  411.6429
 324  446.821
 325  442.616
 326  453.0876
 327  386.1328
 328  459.6299
 329  485.3407
 330  529.616
 331  395.5301
 332  458.4861
 333  462.5573
 334  472.8912
 335  507.7166
 336  368.4334
 337  428.2895
 338  512.751
 339  477.0396
 340  400.3645
 341  409.1912
 342  431.2916
 343  422.6416
 344  413.7877
 345  509.3256
 346  510.0569
 347  408.0051
 348  313.4986
 349  500.8313
 350  499.1114
 351  451.5211
 352  495.1617
 353  529.3955
 354  583.3445
 355  578.2078
 356  508.9109
 357  487.3369
 358  599.2761
 359  454.8756
 360  387.6525
 361  462.6593
 362  455.1194
 363  503.3679
 364  487.9558
 365  526.5385
 366  514.1514
 367  520.9739
 368  424.6454
 369  424.6757
 370  509.4694
 371  466.0356
 372  395.8562
 373  392.39
 374  429.1964
 375  455.7008
 376  542.0715
 377  629.8293
 378  607.1962
 379  509.5621
 380  475.429
 381  488.0265
 382  524.6402
 383  455.9106
 384  517.5153
 385  470.9535
 386  443.2772
 387  395.4169
 388  379.9624
 389  532.174
 390  444.8524
 391  393.3916
 392  385.7649
 393  424.3527
 394  350.8206
 395  399.4144
 396  443.3762
 397  420.54
 398  455.7174
 399  496.6226
 400  465.8975
 401  538.2968
 402  464.1926
 403  460.303
 404  561.3321
 405  561.405
 406  473.2402
 407  476.4258
 408  527.907
 409  483.2269
 410  394.7564
 411  322.5517
 412  359.1804
 413  495.231
 414  570.9012
 415  489.2556
 416  502.0436
 417  576.9804
 418  586.3599
 419  523.2284
 420  629.5146
 421  538.7945
 422  437.1889
 423  391.5418
 424  480.4569
 425  526.4695
 426  396.3445
 427  394.1279
 428  458.0179
 429  433.3442
 430  395.7978
 431  296.2222
 432  293.0141
 433  377.6811
 434  486.9242
 435  492.5662
 436  463.3569
 437  463.5685
 438  433.9217
 439  439.0077
 440  383.9101
 441  402.3295
 442  335.485
 443  461.0163
 444  431.5123
 445  266.005
 446  400.4412
 447  446.2742
 448  439.842
 449  406.1564
 450  515.366
 451  464.8327
 452  334.6521
 453  305.7844
 454  384.3652
 455  406.8653
 456  509.9088
 457  579.8246
 458  612.9016
 459  538.7678
 460  456.2922
 461  407.2226
 462  406.8928
 463  400.9665
 464  412.1211
 465  406.0286
 466  399.8691
 467  502.1498
 468  526.6736
 469  455.6026
 470  509.2376
 471  521.872
 472  526.6696
 473  655.4305
 474  851.5323
 475  932.6895
 476  1030.094
 477  992.0596
 478  817.3306
 479  564.5012
 480  441.922
 481  486.6581
 482  498.529
 483  451.0353
 484  453.3693
 485  502.1414
 486  432.8558
 487  485.4863
 488  546.8316
 489  642.2028
 490  655.3281
 491  601.0078
 492  670.4381
 493  597.7962
 494  415.6273
 495  422.2925
 496  474.8508
 497  580.3618
 498  584.6086
 499  465.3776
 500  445.7151
 501  518.0844
 502  534.6411
 503  578.421
 504  419.3483
 505  434.4264
 506  388.0354
 507  419.8189
 508  442.0283
 509  487.0134
 510  371.4535
 511  379.8
