# Input file       =  1185952524.105534-PSRB0329-2ms-sampling-dd.dat
# Candidate        =  PSR_0332+5434
# Telescope        =  AR
# Epoch_topo       =  57970.302582239980
# Epoch_bary       =  N/A
# T_sample         =  0.002
# Data Folded      =  7340032
# Data Avg         =  -1.11870485456489e-09
# Data StdDev      =  5.57589139499822 
# Profile Bins     =  512
# Profile Avg      =  -0.0120152503639044
# Profile StdDev   =  667.618407230219 
# Reduced chi-sqr  =  0.878
# Prob(Noise)      <  0.978   (~0.0 sigma)
# P_topo (ms)      =  714.468106134517  +/- 0.000117
# P'_topo (s/s)    =  -0                +/- 6.15e-11
# P''_topo (s/s^2) =  0                 +/- 2.72e-14
# P_bary (ms)      =  N/A
# P'_bary (s/s)    =  N/A
# P''_bary (s/s^2) =  N/A
# P_orb (s)        =  N/A
# asin(i)/c (s)    =  N/A
# eccentricity     =  N/A
# w (rad)          =  N/A
# T_peri           =  N/A
######################################################
   0  -256.966
   1  -133.7647
   2  -124.5722
   3  -144.8399
   4  -97.12517
   5  -307.4594
   6  -10.15089
   7  -171.7465
   8  -274.4641
   9  -6.840864
  10  -476.4895
  11  -719.001
  12  -386.8087
  13  -466.715
  14  -460.2901
  15  -369.6126
  16  -108.1351
  17  -566.9645
  18  -1019.408
  19  -907.3634
  20  -482.7218
  21  -580.755
  22  -686.7501
  23  -562.9658
  24  -599.692
  25  -686.9039
  26  -1003.433
  27  -969.7328
  28  -898.6351
  29  -250.8213
  30  -312.9831
  31  -211.095
  32  -459.9225
  33  -633.8694
  34  -511.1307
  35  -598.5798
  36  -466.7437
  37  -247.5745
  38  -280.5656
  39  -316.6465
  40  -130.4187
  41  -91.21478
  42  -213.1265
  43  -401.338
  44  -386.966
  45  -244.7406
  46  275.5451
  47  173.2408
  48  208.9787
  49  -140.5649
  50  -450.0438
  51  -299.5406
  52  -375.5147
  53  -144.118
  54  -298.9976
  55  -391.447
  56  -134.1195
  57  -273.3248
  58  -367.7653
  59  -447.5268
  60  -583.3055
  61  -197.8641
  62  164.5511
  63  184.1835
  64  -379.5437
  65  -196.4692
  66  -180.6681
  67  -302.1779
  68  -235.6515
  69  -306.1376
  70  -458.8756
  71  -418.764
  72  -371.3623
  73  -278.8182
  74  -72.50356
  75  -199.6222
  76  -243.1355
  77  -581.4293
  78  -698.6924
  79  -768.569
  80  -497.6977
  81  -22.64751
  82  -205.0044
  83  167.645
  84  -3.442512
  85  -20.2707
  86  -403.2967
  87  -508.1922
  88  -92.44924
  89  -26.33921
  90  230.5339
  91  244.1407
  92  374.3947
  93  -107.8903
  94  211.9651
  95  511.3204
  96  1048.762
  97  1477.373
  98  1850.06
  99  1513.061
 100  949.3914
 101  204.8316
 102  -449.5775
 103  -268.4824
 104  -465.7281
 105  -75.62476
 106  -674.7575
 107  -579.4554
 108  103.6681
 109  -325.1719
 110  253.5105
 111  305.7569
 112  -17.22621
 113  -664.4821
 114  -1184.801
 115  -423.6865
 116  -321.0957
 117  98.90434
 118  56.86328
 119  86.26348
 120  -33.21461
 121  -620.1713
 122  -563.9708
 123  -576.4045
 124  263.5717
 125  184.2716
 126  -183.6067
 127  -160.7901
 128  -474.7053
 129  -471.1045
 130  197.0658
 131  440.0322
 132  370.8607
 133  69.42274
 134  -626.1705
 135  -500.9764
 136  -653.848
 137  -357.6907
 138  -470.2694
 139  96.63752
 140  -37.1293
 141  -39.50221
 142  -129.0455
 143  -799.3364
 144  -1189.449
 145  -862.4256
 146  -124.2047
 147  -89.52728
 148  223.5462
 149  -152.7219
 150  -732.4922
 151  -1267.601
 152  -821.4454
 153  -194.0098
 154  -225.8027
 155  -253.6143
 156  -272.2549
 157  63.5259
 158  -157.75
 159  -191.8461
 160  9.423964
 161  -86.43839
 162  239.5724
 163  -287.3608
 164  -2.446365
 165  -369.3163
 166  -216.4111
 167  -287.709
 168  -506.7465
 169  -426.9472
 170  -372.3258
 171  -353.7427
 172  -346.1515
 173  231.0032
 174  23.03671
 175  -601.1377
 176  -747.0773
 177  -465.659
 178  -552.3561
 179  -411.1369
 180  -227.8282
 181  -339.1407
 182  -45.94767
 183  63.67124
 184  -173.4552
 185  -605.8472
 186  -413.4275
 187  -417.8867
 188  -921.3588
 189  -591.6064
 190  -156.1466
 191  261.9553
 192  67.40129
 193  15.31209
 194  -694.5975
 195  -1048.119
 196  -803.6153
 197  -211.9376
 198  -114.6384
 199  133.3305
 200  -83.00061
 201  -219.762
 202  -570.1374
 203  -173.9078
 204  178.9542
 205  378.8156
 206  347.9767
 207  345.635
 208  -88.28421
 209  -217.4258
 210  -326.0391
 211  -63.86709
 212  453.0398
 213  529.5931
 214  875.3369
 215  662.3727
 216  467.5103
 217  205.0574
 218  613.7161
 219  386.3591
 220  632.3965
 221  636.0221
 222  952.0069
 223  1025.58
 224  662.299
 225  697.5762
 226  694.2097
 227  706.6069
 228  911.856
 229  1145.199
 230  798.3492
 231  1007.645
 232  1351.304
 233  563.1109
 234  801.4354
 235  1216.167
 236  670.3192
 237  -116.9729
 238  121.2211
 239  592.1802
 240  371.5829
 241  206.6581
 242  148.3617
 243  -550.341
 244  -265.0134
 245  -53.49883
 246  175.2987
 247  -283.1299
 248  -164.6477
 249  354.031
 250  241.1032
 251  -97.11427
 252  -280.2932
 253  -312.6599
 254  -483.0005
 255  -404.2403
 256  -7.021426
 257  -80.53497
 258  -753.1681
 259  -522.9363
 260  -624.1221
 261  -631.0792
 262  -225.7808
 263  74.66586
 264  47.35944
 265  -75.38011
 266  -238.9792
 267  -276.5658
 268  20.27229
 269  317.5637
 270  338.3845
 271  297.924
 272  -52.98448
 273  188.7884
 274  -67.77143
 275  113.1725
 276  621.4534
 277  928.5509
 278  612.6561
 279  -468.3522
 280  -192.7871
 281  -2.296479
 282  164.3252
 283  31.27597
 284  -328.3896
 285  -286.6408
 286  -218.5381
 287  -196.3515
 288  -284.5211
 289  215.5705
 290  563.3011
 291  415.0935
 292  72.0687
 293  -101.0825
 294  -271.9398
 295  327.5307
 296  255.3713
 297  127.5827
 298  278.7241
 299  244.7877
 300  52.90666
 301  -305.984
 302  -114.1343
 303  -120.6046
 304  272.5669
 305  817.244
 306  797.9865
 307  386.6647
 308  67.5336
 309  321.4128
 310  125.9029
 311  461.9453
 312  444.7705
 313  487.307
 314  718.1106
 315  424.1712
 316  434.4137
 317  204.6454
 318  197.6658
 319  223.3774
 320  341.8439
 321  312.5017
 322  402.8904
 323  393.7274
 324  313.4294
 325  41.57681
 326  -309.3435
 327  -249.4752
 328  -313.2368
 329  -181.7578
 330  -298.8875
 331  44.78521
 332  315.6356
 333  249.8578
 334  167.6889
 335  132.8002
 336  198.3639
 337  -120.1525
 338  104.4511
 339  389.7366
 340  147.387
 341  85.74422
 342  219.0475
 343  153.5656
 344  -106.7791
 345  28.73749
 346  -79.52735
 347  -109.3566
 348  71.48502
 349  165.461
 350  161.3789
 351  -318.7533
 352  -358.6722
 353  -145.5657
 354  163.5778
 355  -48.8344
 356  -252.6098
 357  -159.0467
 358  -204.213
 359  144.3317
 360  -23.96682
 361  136.9258
 362  -45.05088
 363  -153.288
 364  -249.4848
 365  -73.63609
 366  329.0978
 367  326.2064
 368  674.5895
 369  366.1806
 370  116.2083
 371  283.6055
 372  -222.1756
 373  9.440684
 374  299.0141
 375  403.5562
 376  641.3112
 377  440.3452
 378  780.3714
 379  488.4394
 380  261.5565
 381  410.2719
 382  208.2427
 383  389.6737
 384  485.3789
 385  183.3119
 386  94.67814
 387  -16.81565
 388  -214.9933
 389  -189.0541
 390  -134.1918
 391  262.3148
 392  679.6685
 393  781.6017
 394  758.3766
 395  54.84374
 396  398.6536
 397  338.3034
 398  279.8678
 399  705.2373
 400  687.3446
 401  337.8754
 402  608.5173
 403  521.5021
 404  484.3571
 405  706.8134
 406  1027.917
 407  730.9171
 408  645.8892
 409  412.9236
 410  679.2462
 411  735.9658
 412  343.0586
 413  390.9391
 414  580.0683
 415  463.1808
 416  322.2133
 417  726.5036
 418  878.3257
 419  451.0725
 420  -82.41801
 421  -114.5508
 422  -59.1395
 423  54.28124
 424  276.0034
 425  447.783
 426  272.9942
 427  262.7453
 428  -229.7313
 429  -95.08991
 430  392.6863
 431  45.51498
 432  409.3106
 433  836.7161
 434  622.4741
 435  445.8183
 436  335.4766
 437  327.6814
 438  331.6472
 439  404.8135
 440  650.014
 441  442.4935
 442  318.6247
 443  130.892
 444  164.9693
 445  101.2768
 446  -155.5533
 447  59.56144
 448  -13.83031
 449  -36.98705
 450  191.3321
 451  61.04629
 452  -18.39152
 453  -25.31363
 454  142.0527
 455  -661.2026
 456  -448.1855
 457  -169.0461
 458  -11.9424
 459  49.15566
 460  43.35096
 461  -65.9959
 462  -653.5985
 463  -866.1797
 464  -749.3454
 465  -194.3984
 466  163.1338
 467  527.1865
 468  135.6799
 469  -640.7198
 470  -531.7697
 471  -307.7414
 472  -164.0465
 473  -209.1591
 474  663.5411
 475  733.3314
 476  579.7281
 477  552.7494
 478  319.5841
 479  422.252
 480  312.6323
 481  336.0764
 482  339.6687
 483  364.5203
 484  845.7319
 485  214.0651
 486  -342.5523
 487  -547.0468
 488  -459.7558
 489  -485.1901
 490  -396.2696
 491  61.32389
 492  -114.9293
 493  -46.49249
 494  -460.0547
 495  -656.319
 496  -885.2315
 497  -1246.731
 498  -711.3241
 499  -58.72405
 500  509.7703
 501  130.9311
 502  -66.77068
 503  -360.1095
 504  -241.9925
 505  -63.53364
 506  -220.2688
 507  -163.8195
 508  28.08514
 509  489.007
 510  146.6844
 511  -29.86534
