# Input file       =  1185506739.105851-PSRB0329-2ms-sampling-dd.dat
# Candidate        =  PSR_0332+5434
# Telescope        =  AR
# Epoch_topo       =  57965.143033632536
# Epoch_bary       =  N/A
# T_sample         =  0.002
# Data Folded      =  7340032
# Data Avg         =  -1.80092142105226e-10
# Data StdDev      =  4.3515314516954  
# Profile Bins     =  512
# Profile Avg      =  -8.22097248834381
# Profile StdDev   =  521.022073600487 
# Reduced chi-sqr  =  0.549
# Prob(Noise)      <  1   (~0.0 sigma)
# P_topo (ms)      =  714.469868515142  +/- 0.000856
# P'_topo (s/s)    =  -0                +/- 4.52e-10
# P''_topo (s/s^2) =  0                 +/- 1.99e-13
# P_bary (ms)      =  N/A
# P'_bary (s/s)    =  N/A
# P''_bary (s/s^2) =  N/A
# P_orb (s)        =  N/A
# asin(i)/c (s)    =  N/A
# eccentricity     =  N/A
# w (rad)          =  N/A
# T_peri           =  N/A
######################################################
   0  -342.2269
   1  -447.0237
   2  -101.6874
   3  179.5249
   4  776.434
   5  1233.998
   6  1465.357
   7  1502.734
   8  1330.042
   9  1288.688
  10  783.5083
  11  211.8838
  12  -89.40084
  13  -377.5143
  14  -587.5078
  15  -340.3505
  16  -72.91373
  17  -27.15067
  18  -294.5515
  19  -46.93486
  20  -269.6774
  21  -183.5503
  22  -33.82395
  23  -26.40591
  24  -100.1571
  25  152.9793
  26  -103.4448
  27  -328.6424
  28  -165.0185
  29  -194.3826
  30  -164.7845
  31  -416.3549
  32  -328.1517
  33  -202.7917
  34  -390.6264
  35  -218.4102
  36  -140.86
  37  23.70068
  38  213.3361
  39  62.51658
  40  -219.106
  41  -116.2795
  42  89.19078
  43  -226.8846
  44  -121.0397
  45  -285.5664
  46  -251.2081
  47  -68.03046
  48  186.0075
  49  -6.049666
  50  -116.3857
  51  150.0609
  52  295.7512
  53  156.9184
  54  -127.3145
  55  1.578968
  56  76.72233
  57  -129.9783
  58  129.8919
  59  -0.07800621
  60  -310.2615
  61  -439.3565
  62  -444.5974
  63  -301.1028
  64  -125.8405
  65  63.93282
  66  -67.88592
  67  -30.95941
  68  -163.1263
  69  -170.0222
  70  -210.5595
  71  3.845494
  72  -66.57249
  73  -137.6255
  74  -117.8548
  75  108.2041
  76  248.1808
  77  550.9258
  78  300.0539
  79  30.23911
  80  -166.472
  81  -276.4175
  82  -134.9753
  83  99.34663
  84  315.9156
  85  304.8365
  86  614.1245
  87  340.8719
  88  176.6621
  89  33.17958
  90  248.6612
  91  412.7031
  92  239.5973
  93  -102.5935
  94  -467.8537
  95  -501.8889
  96  -234.613
  97  -173.552
  98  -0.6594671
  99  -37.99928
 100  -54.70502
 101  -439.4709
 102  -449.2901
 103  -193.4874
 104  -333.9627
 105  -424.575
 106  -320.5074
 107  -1.989443
 108  -36.76694
 109  -137.612
 110  77.32219
 111  98.78838
 112  51.65081
 113  57.14171
 114  169.7906
 115  11.82145
 116  6.054338
 117  -237.2314
 118  -208.342
 119  -192.1696
 120  184.6665
 121  146.071
 122  16.85858
 123  131.6975
 124  -67.50349
 125  -490.4476
 126  -446.6996
 127  -212.2311
 128  -151.1624
 129  -411.5657
 130  -498.1921
 131  -256.8459
 132  -374.9009
 133  -280.5488
 134  -288.905
 135  -269.5676
 136  -116.8081
 137  65.33679
 138  -186.0223
 139  -360.8812
 140  -98.85317
 141  -17.06207
 142  -194.9187
 143  -114.9513
 144  -78.95709
 145  -129.9554
 146  -120.2833
 147  -386.9112
 148  -522.4141
 149  -256.6295
 150  26.73344
 151  84.68201
 152  -120.0533
 153  124.764
 154  225.1767
 155  14.80889
 156  -10.38968
 157  388.4096
 158  234.3885
 159  -90.15239
 160  -307.2763
 161  -261.5961
 162  -243.2861
 163  -96.39413
 164  14.03752
 165  74.60349
 166  -34.14351
 167  -152.6759
 168  15.10437
 169  42.7469
 170  -64.93311
 171  -226.3159
 172  -23.36119
 173  302.6497
 174  158.3299
 175  11.75289
 176  50.63603
 177  102.7694
 178  -211.0017
 179  -234.8497
 180  -199.451
 181  -139.7506
 182  35.51708
 183  -71.47002
 184  -49.83904
 185  -129.2153
 186  -3.796986
 187  178.8259
 188  41.80475
 189  -40.2774
 190  -32.40152
 191  -416.3896
 192  -210.6772
 193  88.74599
 194  245.5929
 195  264.6782
 196  -15.7199
 197  -211.4982
 198  -236.0455
 199  -316.975
 200  -163.6261
 201  -419.2233
 202  70.28679
 203  303.597
 204  219.6662
 205  301.2315
 206  244.1958
 207  212.9785
 208  273.2936
 209  324.1082
 210  259.5844
 211  206.2144
 212  291.5143
 213  342.9643
 214  85.36507
 215  76.25961
 216  335.6562
 217  224.5199
 218  35.23323
 219  -28.12498
 220  49.49632
 221  -128.0478
 222  195.7539
 223  200.2807
 224  169.6933
 225  -135.5589
 226  -118.8499
 227  -28.01824
 228  244.285
 229  31.3344
 230  -316.5163
 231  -269.8746
 232  -135.2737
 233  -292.1277
 234  -59.86198
 235  327.5419
 236  217.5796
 237  291.6071
 238  145.7115
 239  154.5642
 240  163.0375
 241  265.8521
 242  434.3971
 243  387.7234
 244  335.9157
 245  78.80415
 246  207.0052
 247  355.3125
 248  416.3769
 249  917.4898
 250  664.5294
 251  248.5409
 252  341.6074
 253  287.2917
 254  312.9888
 255  442.1205
 256  678.5883
 257  445.9778
 258  736.6138
 259  604.4249
 260  372.3325
 261  91.88115
 262  102.0042
 263  194.8894
 264  -69.81637
 265  -91.4389
 266  85.69577
 267  399.9191
 268  337.0698
 269  172.1978
 270  136.1521
 271  181.1623
 272  192.8817
 273  500.6955
 274  452.1671
 275  259.7863
 276  141.177
 277  282.8583
 278  21.21483
 279  162.606
 280  398.0199
 281  379.8591
 282  315.0607
 283  295.3049
 284  218.0934
 285  165.7135
 286  160.2554
 287  362.4505
 288  345.5792
 289  519.4016
 290  274.7853
 291  391.5438
 292  171.5207
 293  12.57154
 294  -57.38626
 295  88.35509
 296  148.0376
 297  -144.6714
 298  146.4273
 299  397.2775
 300  127.1137
 301  -145.4468
 302  -240.535
 303  -115.6008
 304  170.387
 305  248.3648
 306  -80.07317
 307  -60.77816
 308  -70.59561
 309  -306.3634
 310  -281.4792
 311  -26.42299
 312  -10.96729
 313  -25.45267
 314  161.455
 315  165.8438
 316  123.8624
 317  -81.66711
 318  -296.5862
 319  -226.3599
 320  28.34508
 321  2.592146
 322  -121.5071
 323  -169.2434
 324  -43.41777
 325  -100.6183
 326  -124.4532
 327  180.2535
 328  -9.025654
 329  -31.055
 330  -263.674
 331  -123.4766
 332  -18.54053
 333  44.66018
 334  86.99419
 335  -10.66196
 336  42.99558
 337  -3.912036
 338  -106.067
 339  78.60748
 340  141.7535
 341  41.13913
 342  -514.7635
 343  -343.4486
 344  61.7859
 345  -4.786463
 346  76.35513
 347  13.06633
 348  -10.60965
 349  31.6675
 350  -175.2678
 351  22.0784
 352  -193.8877
 353  37.12819
 354  183.1286
 355  129.2967
 356  -18.47411
 357  -61.12098
 358  -208.0968
 359  -463.5049
 360  -559.1757
 361  -443.2383
 362  -61.66157
 363  -65.73834
 364  -34.02114
 365  -140.0581
 366  -262.47
 367  -315.6174
 368  -328.5821
 369  -347.0457
 370  -218.9117
 371  -280.7187
 372  -162.6691
 373  -120.1187
 374  -208.7339
 375  -176.7907
 376  70.12997
 377  39.00644
 378  -225.1769
 379  -381.7888
 380  -676.3979
 381  -704.3948
 382  -491.9849
 383  -238.4517
 384  -54.80933
 385  2.261169
 386  -261.7462
 387  -88.92833
 388  -67.56036
 389  266.2364
 390  121.7438
 391  -161.9072
 392  -9.453215
 393  -297.3038
 394  -250.8102
 395  -336.3394
 396  103.2807
 397  10.11052
 398  -205.3497
 399  -79.6572
 400  -54.33348
 401  -74.0405
 402  -19.37325
 403  -78.76826
 404  -201.0997
 405  -324.2981
 406  -345.9806
 407  -259.3802
 408  -189.8655
 409  -122.6137
 410  -172.3445
 411  -126.6922
 412  179.3278
 413  61.24254
 414  -150.7807
 415  -354.5025
 416  -371.2282
 417  -285.2406
 418  -95.75596
 419  -163.3906
 420  -490.2894
 421  -558.5693
 422  -260.2373
 423  22.86994
 424  78.01981
 425  -85.07126
 426  -197.0089
 427  -471.8996
 428  -222.3947
 429  60.37926
 430  34.29065
 431  248.3395
 432  96.33427
 433  -163.5034
 434  169.4999
 435  -35.96573
 436  -143.232
 437  46.67811
 438  317.0591
 439  8.519261
 440  -414.6558
 441  -453.5769
 442  -160.9996
 443  -225.05
 444  -216.9055
 445  -281.3126
 446  -246.5342
 447  -267.7663
 448  -507.8983
 449  -648.9328
 450  -428.3885
 451  -203.6414
 452  -160.1371
 453  -145.7285
 454  -119.3063
 455  149.6166
 456  45.81674
 457  282.3924
 458  221.3182
 459  609.7556
 460  323.4997
 461  252.4313
 462  336.4969
 463  221.4057
 464  57.66318
 465  171.1257
 466  44.97919
 467  -56.21058
 468  53.69301
 469  -33.50145
 470  214.9145
 471  257.8321
 472  193.7092
 473  251.0694
 474  82.47036
 475  76.61662
 476  2.870113
 477  -50.08765
 478  154.4823
 479  76.58804
 480  185.887
 481  138.6599
 482  1.665806
 483  -180.9856
 484  -272.9603
 485  -63.46088
 486  -43.75203
 487  -39.15062
 488  60.10972
 489  -229.0034
 490  -211.7457
 491  5.778858
 492  287.869
 493  200.2857
 494  -92.42355
 495  -23.66647
 496  -57.13427
 497  -112.7149
 498  115.5525
 499  -3.040979
 500  70.42113
 501  205.6928
 502  95.62019
 503  -0.4248597
 504  -183.7944
 505  -102.8405
 506  -232.6212
 507  -389.8134
 508  -161.6485
 509  -96.6622
 510  -65.80569
 511  -109.3253
