# Input file       =  1185349336.100742-PSRB0329-2ms-sampling-dd.dat
# Candidate        =  PSR_0332+5434
# Telescope        =  AR
# Epoch_topo       =  57963.321239591925
# Epoch_bary       =  N/A
# T_sample         =  0.002
# Data Folded      =  7340032
# Data Avg         =  -1.46180565886246e-09
# Data StdDev      =  7.74769903911614 
# Profile Bins     =  512
# Profile Avg      =  0.659870044241021
# Profile StdDev   =  927.655530886728 
# Reduced chi-sqr  =  0.343
# Prob(Noise)      <  1   (~0.0 sigma)
# P_topo (ms)      =  714.471037698165  +/- 0.000547
# P'_topo (s/s)    =  -0                +/- 2.89e-10
# P''_topo (s/s^2) =  0                 +/- 1.28e-13
# P_bary (ms)      =  N/A
# P'_bary (s/s)    =  N/A
# P''_bary (s/s^2) =  N/A
# P_orb (s)        =  N/A
# asin(i)/c (s)    =  N/A
# eccentricity     =  N/A
# w (rad)          =  N/A
# T_peri           =  N/A
######################################################
   0  -405.7551
   1  181.6426
   2  327.5776
   3  295.7372
   4  136.3907
   5  161.0899
   6  228.6789
   7  25.63175
   8  202.2393
   9  155.9331
  10  70.70124
  11  658.7263
  12  317.4167
  13  -62.95904
  14  -62.18444
  15  -107.3059
  16  366.6462
  17  -213.6349
  18  -116.8357
  19  -361.4053
  20  -374.4467
  21  -435.795
  22  206.556
  23  300.8904
  24  153.6191
  25  24.19121
  26  -142.3336
  27  -180.9087
  28  -67.37943
  29  -117.5503
  30  156.9819
  31  -140.4561
  32  191.8723
  33  394.2847
  34  -71.99599
  35  -386.7383
  36  -53.87449
  37  -336.9071
  38  -26.21055
  39  129.8275
  40  -171.2453
  41  -386.8816
  42  -517.4476
  43  -592.895
  44  -798.5342
  45  -244.085
  46  -82.70753
  47  85.56148
  48  115.0707
  49  -239.4666
  50  -418.0153
  51  -679.7624
  52  -517.0322
  53  -366.0574
  54  -403.2959
  55  -706.6766
  56  -361.3023
  57  -1.487345
  58  -147.9251
  59  -139.6408
  60  291.8503
  61  341.8272
  62  -128.2892
  63  -80.67229
  64  204.4429
  65  373.9362
  66  58.93033
  67  61.60975
  68  137.3333
  69  404.1678
  70  51.18985
  71  -424.103
  72  -311.6877
  73  -218.7202
  74  -104.7831
  75  273.8441
  76  -153.0755
  77  -163.6051
  78  -230.3665
  79  -306.5769
  80  17.63433
  81  94.4636
  82  571.6301
  83  234.1291
  84  -345.607
  85  50.48951
  86  334.7689
  87  -152.8413
  88  -351.0149
  89  235.5453
  90  355.8636
  91  198.9632
  92  -117.2723
  93  -296.7564
  94  184.9782
  95  -254.5424
  96  -388.4785
  97  21.00078
  98  973.8239
  99  1842.71
 100  1542.855
 101  1588.19
 102  1842.767
 103  1016.166
 104  576.0382
 105  214.1851
 106  -64.82774
 107  362.0726
 108  424.2637
 109  261.7772
 110  206.8489
 111  123.2933
 112  -65.50836
 113  -134.2508
 114  -178.5892
 115  43.99546
 116  -67.37639
 117  50.76347
 118  103.1725
 119  -83.03236
 120  75.12089
 121  316.606
 122  499.9571
 123  116.5957
 124  285.207
 125  218.0395
 126  -310.2756
 127  -210.0487
 128  -236.7281
 129  -316.4203
 130  -354.979
 131  -247.8663
 132  -234.1034
 133  -152.1336
 134  -196.5821
 135  -146.4507
 136  -114.0051
 137  -97.89497
 138  -440.8986
 139  -247.8509
 140  -26.42137
 141  255.6137
 142  126.4428
 143  94.24303
 144  -270.7897
 145  -325.0391
 146  -136.1408
 147  -26.13886
 148  373.237
 149  116.9769
 150  -44.49056
 151  147.3103
 152  208.7948
 153  271.3071
 154  36.2823
 155  103.4551
 156  419.9985
 157  230.2006
 158  117.1098
 159  215.7452
 160  -73.4802
 161  -58.37618
 162  149.3224
 163  -185.8158
 164  -133.4333
 165  80.10022
 166  160.215
 167  190.3753
 168  382.5746
 169  123.7373
 170  -141.717
 171  72.19579
 172  133.9727
 173  557.5565
 174  288.0897
 175  304.9573
 176  273.4558
 177  283.7576
 178  -38.11779
 179  -349.2982
 180  72.54317
 181  376.1921
 182  850.9169
 183  921.3254
 184  263.4528
 185  -125.941
 186  -183.0338
 187  -8.004926
 188  30.33982
 189  390.8856
 190  161.8343
 191  -28.49632
 192  -18.84165
 193  16.01044
 194  72.17275
 195  -218.7361
 196  -410.7007
 197  -128.3042
 198  302.5912
 199  341.7541
 200  -76.40025
 201  236.8993
 202  126.9153
 203  -46.28057
 204  472.3877
 205  544.0228
 206  462.7216
 207  515.2698
 208  504.3524
 209  -167.8912
 210  26.34109
 211  457.0538
 212  383.9545
 213  367.0821
 214  335.0127
 215  169.0096
 216  102.0266
 217  333.917
 218  257.0443
 219  354.0329
 220  225.8761
 221  215.4935
 222  618.2374
 223  575.0891
 224  433.4585
 225  160.0513
 226  463.6931
 227  326.6887
 228  68.42802
 229  101.3721
 230  543.7847
 231  677.5936
 232  226.8772
 233  86.37418
 234  -249.7748
 235  -357.4584
 236  -495.0704
 237  -125.9444
 238  325.4576
 239  283.4366
 240  950.1935
 241  326.6039
 242  -144.8497
 243  -455.7919
 244  144.4961
 245  337.1079
 246  346.296
 247  680.4464
 248  688.8888
 249  474.5078
 250  102.2414
 251  180.2975
 252  113.7223
 253  -95.67043
 254  -240.0984
 255  74.35868
 256  308.8888
 257  -24.67994
 258  263.459
 259  40.76581
 260  -317.8954
 261  -230.0788
 262  -290.2918
 263  -11.48608
 264  -23.3253
 265  30.76791
 266  170.3811
 267  752.5117
 268  770.0497
 269  706.8799
 270  568.4808
 271  711.4347
 272  874.3254
 273  375.6721
 274  442.1736
 275  87.0465
 276  211.7304
 277  351.7173
 278  198.1548
 279  547.8942
 280  343.4879
 281  269.5116
 282  392.8634
 283  287.4102
 284  254.9511
 285  461.6682
 286  166.7514
 287  -676.8199
 288  -483.7039
 289  -40.44231
 290  277.0265
 291  39.97452
 292  -15.33013
 293  -256.0352
 294  -221.6939
 295  -308.175
 296  -309.8377
 297  -7.34239
 298  -95.69491
 299  -220.7968
 300  -253.7508
 301  -177.7551
 302  -66.09908
 303  -10.23771
 304  355.6604
 305  275.585
 306  270.8408
 307  241.9191
 308  246.788
 309  414.6411
 310  518.9863
 311  555.7448
 312  423.1773
 313  485.8876
 314  308.1777
 315  -187.146
 316  52.94151
 317  -127.4101
 318  -533.0872
 319  -477.9842
 320  -693.316
 321  -784.6517
 322  -843.9071
 323  -817.4912
 324  -453.2609
 325  -267.8058
 326  36.83274
 327  -251.9143
 328  -470.1337
 329  -522.8612
 330  -527.4971
 331  -462.4897
 332  -115.7439
 333  597.2872
 334  352.0669
 335  469.2071
 336  300.2419
 337  -51.47747
 338  -99.96574
 339  -183.4031
 340  -175.4913
 341  -188.256
 342  -320.3969
 343  -152.4122
 344  -28.38548
 345  -180.5918
 346  -296.2741
 347  -540.5328
 348  -148.8343
 349  34.62303
 350  105.6284
 351  87.37684
 352  44.87666
 353  326.1086
 354  323.5839
 355  331.0794
 356  -288.5588
 357  116.3054
 358  137.9052
 359  -9.739481
 360  -220.5348
 361  -488.2825
 362  -233.2299
 363  -374.9153
 364  -324.3815
 365  -14.46956
 366  34.45327
 367  197.2955
 368  104.1583
 369  64.4509
 370  25.40493
 371  88.76789
 372  351.2188
 373  830.4617
 374  995.0287
 375  851.1993
 376  434.2278
 377  672.6846
 378  592.9469
 379  330.1041
 380  811.0949
 381  1040.292
 382  629.8152
 383  51.69643
 384  17.79844
 385  -92.87696
 386  -80.80754
 387  154.539
 388  -11.2911
 389  -206.1281
 390  -400.2557
 391  -360.0555
 392  -143.311
 393  -405.3513
 394  -330.08
 395  -362.9466
 396  -354.8058
 397  -214.9786
 398  -316.2503
 399  -113.6575
 400  -177.7446
 401  -413.5322
 402  -153.8759
 403  -150.7188
 404  -186.3474
 405  -52.86916
 406  92.80149
 407  255.2793
 408  389.9016
 409  527.7573
 410  351.2257
 411  -93.75816
 412  51.59368
 413  389.0829
 414  519.9857
 415  684.2654
 416  546.6383
 417  430.3132
 418  38.57156
 419  -184.2799
 420  -169.627
 421  -456.5587
 422  -143.1707
 423  -357.1269
 424  -81.52219
 425  -231.5046
 426  52.92301
 427  10.6962
 428  -534.3723
 429  -912.502
 430  -967.7943
 431  -786.6276
 432  -835.348
 433  -265.3156
 434  -214.7351
 435  -653.7416
 436  -714.2405
 437  -393.267
 438  -536.7979
 439  -415.7719
 440  -89.49067
 441  -440.8377
 442  -49.49277
 443  -392.9322
 444  28.00963
 445  -94.62559
 446  -514.1565
 447  -678.319
 448  -440.9439
 449  -250.8916
 450  -325.2837
 451  -538.6032
 452  -722.5688
 453  -655.3978
 454  -879.684
 455  -901.7922
 456  -262.9923
 457  -584.7856
 458  -301.0405
 459  -344.542
 460  -177.9375
 461  190.665
 462  -107.9796
 463  -227.0608
 464  -519.794
 465  -773.6034
 466  -630.5324
 467  -180.0043
 468  184.634
 469  383.5707
 470  8.320654
 471  -612.3839
 472  -907.1531
 473  -711.5889
 474  -353.7641
 475  -383.4873
 476  -57.86999
 477  -348.1836
 478  -120.2349
 479  -539.5212
 480  -485.6121
 481  -171.4773
 482  -0.2927704
 483  -185.8099
 484  -346.334
 485  -335.5191
 486  -224.5941
 487  -12.19418
 488  109.5195
 489  -110.8298
 490  -169.2552
 491  -161.2254
 492  -426.0107
 493  -483.5247
 494  -495.3686
 495  -443.6342
 496  -494.9532
 497  -517.1143
 498  166.039
 499  111.9353
 500  43.01141
 501  -393.0513
 502  -698.8998
 503  -573.826
 504  -721.0211
 505  -570.51
 506  -191.0583
 507  -138.0406
 508  -259.3799
 509  -496.2371
 510  -273.8745
 511  -185.1773
