# Input file       =  1185937604.112604_cleaned.dat
# Candidate        =  PSR_0332+5434
# Telescope        =  AR
# Epoch_topo       =  57970.129897136620
# Epoch_bary       =  N/A
# T_sample         =  0.002
# Data Folded      =  7340032
# Data Avg         =  0.0138227295215724
# Data StdDev      =  2.29773807446614 
# Profile Bins     =  512
# Profile Avg      =  198.06146227098  
# Profile StdDev   =  275.115156454335 
# Reduced chi-sqr  =  1.781
# Prob(Noise)      <  7.37e-25   (~10.2 sigma)
# P_topo (ms)      =  714.467834997565  +/- 0.000159
# P'_topo (s/s)    =  -0                +/- 8.38e-11
# P''_topo (s/s^2) =  0                 +/- 3.7e-14
# P_bary (ms)      =  N/A
# P'_bary (s/s)    =  N/A
# P''_bary (s/s^2) =  N/A
# P_orb (s)        =  N/A
# asin(i)/c (s)    =  N/A
# eccentricity     =  N/A
# w (rad)          =  N/A
# T_peri           =  N/A
######################################################
   0  496.5031
   1  635.3157
   2  124.0006
   3  -114.3718
   4  -106.3935
   5  -367.2732
   6  -177.301
   7  26.89901
   8  439.9537
   9  -13.05297
  10  -155.179
  11  -8.257717
  12  178.6635
  13  267.3403
  14  282.6449
  15  352.0411
  16  255.43
  17  187.1954
  18  379.0934
  19  140.6898
  20  -89.20079
  21  -27.68484
  22  333.5124
  23  479.0861
  24  280.8487
  25  324.3845
  26  506.463
  27  113.2755
  28  -170.8238
  29  404.6304
  30  109.4312
  31  58.37722
  32  201.4739
  33  74.45064
  34  379.0644
  35  356.8958
  36  394.8539
  37  487.6042
  38  498.352
  39  513.3366
  40  477.0412
  41  359.9237
  42  413.1939
  43  433.1581
  44  551.7544
  45  208.9795
  46  11.96721
  47  108.9742
  48  164.5098
  49  42.61207
  50  171.8128
  51  364.8997
  52  260.5067
  53  264.2145
  54  250.4325
  55  301.3981
  56  -42.81741
  57  160.7431
  58  229.0993
  59  171.0882
  60  273.8386
  61  287.6335
  62  304.6189
  63  70.34504
  64  68.9585
  65  262.2972
  66  485.5544
  67  371.7408
  68  259.7086
  69  405.381
  70  409.2635
  71  400.4065
  72  169.9425
  73  121.9827
  74  208.5548
  75  381.2522
  76  368.9828
  77  286.1401
  78  81.38202
  79  102.7999
  80  263.6974
  81  309.2868
  82  187.6388
  83  534.2504
  84  531.5888
  85  476.0846
  86  316.3094
  87  86.78905
  88  313.2024
  89  448.563
  90  437.6343
  91  114.5935
  92  244.7963
  93  330.7015
  94  613.7372
  95  421.2336
  96  570.7639
  97  602.2686
  98  459.011
  99  221.8602
 100  557.1082
 101  294.7488
 102  221.1913
 103  132.3924
 104  452.5278
 105  216.5973
 106  173.0804
 107  319.4228
 108  480.8572
 109  351.1803
 110  288.0033
 111  462.1012
 112  220.6865
 113  213.2242
 114  283.3349
 115  229.601
 116  177.9891
 117  228.3584
 118  54.29474
 119  -19.43011
 120  124.226
 121  618.2794
 122  472.8864
 123  329.8343
 124  487.9929
 125  387.0461
 126  479.5255
 127  480.6704
 128  403.0703
 129  349.0177
 130  229.97
 131  245.5918
 132  324.644
 133  326.8321
 134  418.5471
 135  188.8298
 136  27.11816
 137  -1.423464
 138  134.6735
 139  -142.4928
 140  60.63599
 141  269.1899
 142  584.9335
 143  251.3964
 144  222.1589
 145  535.3658
 146  327.9645
 147  329.3702
 148  621.2072
 149  474.9865
 150  319.9135
 151  205.9649
 152  5.969337
 153  314.4743
 154  262.4667
 155  119.7913
 156  523.0834
 157  680.2336
 158  377.8063
 159  516.9345
 160  282.853
 161  146.6182
 162  18.3786
 163  285.169
 164  569.2371
 165  -32.98548
 166  -52.70341
 167  106.5767
 168  580.8077
 169  185.0201
 170  39.45322
 171  476.726
 172  547.7031
 173  2.448269
 174  -2.747577
 175  184.7539
 176  209.1819
 177  169.4649
 178  42.80088
 179  420.4319
 180  279.258
 181  271.8436
 182  328.4701
 183  387.9758
 184  -10.81112
 185  22.81343
 186  38.44158
 187  40.28599
 188  -90.86832
 189  183.8195
 190  99.86491
 191  19.85827
 192  341.7101
 193  388.467
 194  -70.71661
 195  -164.9267
 196  59.66069
 197  375.0542
 198  413.2906
 199  230.407
 200  326.084
 201  145.4131
 202  -121.0262
 203  79.90097
 204  118.6989
 205  310.2245
 206  392.4035
 207  489.1567
 208  87.41283
 209  82.78084
 210  105.3556
 211  52.98671
 212  -233.317
 213  -323.9846
 214  190.0171
 215  119.0063
 216  -26.71949
 217  -32.75842
 218  338.5659
 219  180.842
 220  -27.10857
 221  51.40282
 222  -75.27072
 223  192.5194
 224  149.3698
 225  -66.85438
 226  215.7654
 227  -140.2469
 228  -179.1499
 229  -14.06124
 230  -136.0863
 231  172.0782
 232  -3.480871
 233  37.64657
 234  68.21117
 235  -247.8325
 236  -120.0098
 237  192.6308
 238  270.3616
 239  48.68221
 240  -155.6132
 241  -35.68678
 242  299.6127
 243  93.10676
 244  155.0912
 245  -140.6037
 246  -250.5883
 247  -233.5678
 248  -116.5106
 249  -232.2145
 250  25.48343
 251  7.948428
 252  -33.05473
 253  -247.4762
 254  -150.4055
 255  -245.8599
 256  -366.9163
 257  -349.4518
 258  36.85783
 259  274.7301
 260  -298.8961
 261  -107.4578
 262  25.20921
 263  121.3241
 264  5.241314
 265  -121.5304
 266  24.4979
 267  149.685
 268  71.13291
 269  -49.58734
 270  -40.45803
 271  181.4671
 272  -221.1222
 273  -233.1449
 274  -52.47343
 275  -179.3096
 276  8.449652
 277  85.39202
 278  75.05918
 279  95.14067
 280  125.2855
 281  51.40679
 282  87.89492
 283  -103.3397
 284  -307.6902
 285  -60.60283
 286  -99.62026
 287  -242.4089
 288  -255.5876
 289  -146.8603
 290  11.64992
 291  -314.5762
 292  -21.35265
 293  11.16489
 294  -47.29936
 295  -356.5851
 296  -191.439
 297  -46.04584
 298  -41.7548
 299  101.5434
 300  231.2815
 301  265.373
 302  318.3687
 303  148.7012
 304  121.1284
 305  269.8832
 306  151.6673
 307  284.1516
 308  509.8035
 309  150.4334
 310  32.882
 311  -245.0874
 312  88.46864
 313  273.6322
 314  318.3282
 315  351.1335
 316  587.0515
 317  512.493
 318  363.5055
 319  412.7469
 320  661.0332
 321  676.0417
 322  992.613
 323  1422.941
 324  2065.58
 325  2158.417
 326  1444.639
 327  965.3013
 328  422.0297
 329  401.5071
 330  675.183
 331  439.3192
 332  124.8881
 333  123.7826
 334  269.1523
 335  400.125
 336  412.2612
 337  370.5066
 338  834.4872
 339  534.6326
 340  460.9398
 341  533.8276
 342  365.5153
 343  0.1730908
 344  309.0109
 345  201.9097
 346  63.27016
 347  308.4855
 348  6.713543
 349  115.4362
 350  158.5491
 351  -230.0097
 352  -253.5826
 353  -161.3591
 354  139.0829
 355  12.36718
 356  181.7241
 357  610.4703
 358  170.5975
 359  102.0464
 360  463.0805
 361  446.444
 362  114.6777
 363  -162.8204
 364  -145.4117
 365  6.283798
 366  285.6609
 367  53.63864
 368  47.3665
 369  50.03696
 370  -16.65285
 371  173.8429
 372  241.8381
 373  261.976
 374  -18.51607
 375  41.82744
 376  108.0648
 377  253.0958
 378  498.2895
 379  327.0686
 380  462.4981
 381  369.9039
 382  315.3588
 383  317.956
 384  333.888
 385  198.6014
 386  379.0291
 387  236.6099
 388  310.2054
 389  439.7958
 390  377.653
 391  285.5339
 392  401.4656
 393  559.4652
 394  404.9546
 395  254.4913
 396  534.5089
 397  438.8185
 398  303.8004
 399  107.7008
 400  145.9772
 401  523.3557
 402  188.5074
 403  25.35492
 404  122.1434
 405  144.5606
 406  336.7865
 407  332.8558
 408  227.2926
 409  247.8436
 410  155.833
 411  68.24594
 412  114.6303
 413  122.306
 414  173.6492
 415  276.2094
 416  40.78154
 417  -29.1255
 418  -74.46674
 419  -206.0375
 420  -217.8141
 421  -55.56945
 422  -124.5757
 423  49.90815
 424  132.2696
 425  -38.35406
 426  41.32814
 427  470.7114
 428  131.9235
 429  104.2745
 430  318.048
 431  201.0385
 432  -144.1977
 433  -134.2756
 434  205.438
 435  340.1135
 436  -177.2445
 437  522.155
 438  323.9795
 439  317.8286
 440  -74.88107
 441  170.644
 442  137.8507
 443  55.55798
 444  121.8515
 445  99.17503
 446  183.2578
 447  150.076
 448  30.51898
 449  -52.37577
 450  -181.8268
 451  111.5025
 452  152.5916
 453  272.644
 454  115.6993
 455  45.14617
 456  375.8545
 457  174.8995
 458  97.92081
 459  257.6859
 460  65.61526
 461  -218.7753
 462  194.6788
 463  -34.87597
 464  148.5824
 465  198.7834
 466  115.7151
 467  204.3922
 468  139.7626
 469  162.7162
 470  175.7749
 471  -139.5274
 472  -119.8084
 473  -8.267122
 474  135.2002
 475  333.8546
 476  246.5637
 477  510.4977
 478  311.9087
 479  284.4999
 480  342.9533
 481  601.9481
 482  697.1624
 483  381.3013
 484  295.853
 485  321.0457
 486  93.79714
 487  -119.886
 488  -67.45781
 489  376.2166
 490  365.1053
 491  -272.5613
 492  -4.12991
 493  46.29101
 494  104.7122
 495  184.6965
 496  327.3791
 497  623.5695
 498  379.2692
 499  289.3741
 500  184.6448
 501  -148.9031
 502  152.4051
 503  427.9584
 504  298.8354
 505  410.6784
 506  353.744
 507  202.4039
 508  322.5566
 509  126.7842
 510  7.265539
 511  243.6073
