# Input file       =  1185679067.110193_cleaned.dat
# Candidate        =  PSR_0332+5434
# Telescope        =  AR
# Epoch_topo       =  57967.137570719824
# Epoch_bary       =  N/A
# T_sample         =  0.002
# Data Folded      =  7340032
# Data Avg         =  0.0157592342075077
# Data StdDev      =  2.14541407669572 
# Profile Bins     =  256
# Profile Avg      =  451.827010897547 
# Profile StdDev   =  363.278854796424 
# Reduced chi-sqr  =  2.052
# Prob(Noise)      <  1.18e-20   (~9.2 sigma)
# P_topo (ms)      =  714.469011357512  +/- 0.000196
# P'_topo (s/s)    =  -0                +/- 1.03e-10
# P''_topo (s/s^2) =  0                 +/- 4.56e-14
# P_bary (ms)      =  N/A
# P'_bary (s/s)    =  N/A
# P''_bary (s/s^2) =  N/A
# P_orb (s)        =  N/A
# asin(i)/c (s)    =  N/A
# eccentricity     =  N/A
# w (rad)          =  N/A
# T_peri           =  N/A
######################################################
   0  1075.718
   1  582.3008
   2  384.3202
   3  503.3914
   4  823.6953
   5  506.9436
   6  652.5972
   7  722.3967
   8  419.8515
   9  1069.05
  10  1424.968
  11  840.9853
  12  930.5131
  13  636.4168
  14  811.1443
  15  489.875
  16  890.2445
  17  312.1794
  18  521.0754
  19  646.3772
  20  1163.628
  21  500.2452
  22  -696.4995
  23  766.0017
  24  321.8253
  25  476.2304
  26  1042.795
  27  387.391
  28  303.7222
  29  275.1603
  30  352.6237
  31  494.8536
  32  251.7217
  33  566.7164
  34  362.9626
  35  1014.854
  36  656.8313
  37  853.4425
  38  -272.3626
  39  -83.17034
  40  -227.9041
  41  76.45712
  42  751.0355
  43  271.0743
  44  213.04
  45  825.6363
  46  507.4427
  47  1070.333
  48  454.0025
  49  764.212
  50  375.569
  51  358.8042
  52  -96.08077
  53  551.1724
  54  -530.0539
  55  -36.787
  56  -2.117991
  57  661.6014
  58  390.6205
  59  -425.6611
  60  -520.9792
  61  593.7102
  62  831.5595
  63  144.7861
  64  -164.5457
  65  600.2975
  66  -419.7573
  67  503.4525
  68  125.1201
  69  654.6527
  70  600.1329
  71  599.6104
  72  693.7039
  73  755.4661
  74  283.7632
  75  400.9482
  76  292.5204
  77  367.3716
  78  788.2342
  79  751.8925
  80  383.8899
  81  967.1502
  82  673.6443
  83  471.2954
  84  339.4062
  85  181.813
  86  647.0322
  87  1324.238
  88  225.7177
  89  136.4888
  90  734.0889
  91  135.4003
  92  518.4771
  93  941.2021
  94  930.6585
  95  142.698
  96  -46.94723
  97  550.9326
  98  217.4018
  99  133.7821
 100  -7.66245
 101  267.3544
 102  -33.53501
 103  607.9354
 104  -167.8639
 105  269.395
 106  419.761
 107  355.8781
 108  -134.4258
 109  539.9764
 110  544.5851
 111  257.9247
 112  237.3875
 113  86.38944
 114  379.0153
 115  473.9025
 116  71.17742
 117  -17.97579
 118  697.9653
 119  45.81931
 120  136.3201
 121  316.7943
 122  -89.79546
 123  192.4096
 124  953.5282
 125  431.2697
 126  283.7652
 127  316.3321
 128  9.992237
 129  208.3247
 130  531.3672
 131  738.595
 132  447.3846
 133  -185.417
 134  419.5235
 135  814.5107
 136  891.6302
 137  531.2486
 138  434.1628
 139  361.6057
 140  194.497
 141  98.28915
 142  324.1408
 143  334.2659
 144  -206.5994
 145  -388.3949
 146  78.77481
 147  41.89907
 148  109.1125
 149  447.186
 150  272.7458
 151  423.9745
 152  -58.74057
 153  266.8258
 154  93.26736
 155  486.4765
 156  148.0804
 157  272.8901
 158  519.2679
 159  1565.16
 160  1494.601
 161  2595.131
 162  3750.161
 163  2734.872
 164  863.0649
 165  400.8433
 166  861.6311
 167  500.7938
 168  -58.14863
 169  222.8926
 170  607.0366
 171  175.5748
 172  657.8429
 173  722.3503
 174  521.0814
 175  511.4997
 176  165.6926
 177  156.502
 178  -234.1574
 179  32.44382
 180  13.11792
 181  -88.23306
 182  581.1856
 183  652.4461
 184  513.1247
 185  606.1401
 186  652.8594
 187  659.806
 188  418.2298
 189  -24.9614
 190  327.3365
 191  217.2399
 192  134.0498
 193  864.2316
 194  307.2588
 195  319.8671
 196  201.5184
 197  207.9955
 198  504.2202
 199  493.7205
 200  198.7676
 201  -43.17146
 202  672.3783
 203  444.9456
 204  581.943
 205  926.3627
 206  184.9749
 207  291.8216
 208  199.0067
 209  -119.7444
 210  582.6097
 211  725.4305
 212  -138.1653
 213  197.18
 214  525.5635
 215  461.2574
 216  424.982
 217  711.8297
 218  270.5076
 219  818.9521
 220  654.4061
 221  855.4481
 222  580.1425
 223  944.6355
 224  538.9891
 225  655.795
 226  793.376
 227  424.5504
 228  375.8877
 229  254.3557
 230  139.7458
 231  457.058
 232  551.4448
 233  382.4531
 234  534.5809
 235  583.6205
 236  185.2357
 237  792.1064
 238  510.8288
 239  904.79
 240  730.1125
 241  438.9835
 242  412.4399
 243  701.9821
 244  225.6657
 245  601.0694
 246  519.1423
 247  213.8962
 248  803.4209
 249  455.9644
 250  328.4111
 251  406.578
 252  640.2004
 253  550.1765
 254  767.0826
 255  507.4478
