# Input file       =  1185492073.116015_cleaned.dat
# Candidate        =  PSR_0332+5434
# Telescope        =  AR
# Epoch_topo       =  57964.973288379806
# Epoch_bary       =  N/A
# T_sample         =  0.002
# Data Folded      =  7208960
# Data Avg         =  0.0269480835481091
# Data StdDev      =  1.00019745963998 
# Profile Bins     =  512
# Profile Avg      =  379.460383264815 
# Profile StdDev   =  118.682606191664 
# Reduced chi-sqr  =  1.187
# Prob(Noise)      <  0.00221   (~2.8 sigma)
# P_topo (ms)      =  714.46993195836   +/- 0.000128
# P'_topo (s/s)    =  -0                +/- 6.9e-11
# P''_topo (s/s^2) =  0                 +/- 3.1e-14
# P_bary (ms)      =  N/A
# P'_bary (s/s)    =  N/A
# P''_bary (s/s^2) =  N/A
# P_orb (s)        =  N/A
# asin(i)/c (s)    =  N/A
# eccentricity     =  N/A
# w (rad)          =  N/A
# T_peri           =  N/A
######################################################
   0  264.2908
   1  385.1167
   2  354.0873
   3  210.1554
   4  311.149
   5  415.289
   6  433.6916
   7  329.6616
   8  250.4724
   9  325.7926
  10  295.4661
  11  325.7795
  12  456.9888
  13  330.5346
  14  235.2588
  15  262.0667
  16  265.3007
  17  246.322
  18  209.3706
  19  256.1851
  20  346.6098
  21  264.8622
  22  294.3216
  23  427.6194
  24  344.8204
  25  321.7534
  26  396.9584
  27  404.0291
  28  365.0049
  29  336.2779
  30  329.0984
  31  318.1493
  32  492.0577
  33  549.2475
  34  500.2339
  35  479.324
  36  437.2518
  37  407.2534
  38  450.1257
  39  347.4829
  40  275.0981
  41  349.2982
  42  396.0743
  43  453.4447
  44  331.2574
  45  473.2278
  46  398.6702
  47  284.3303
  48  429.9753
  49  502.957
  50  409.4098
  51  465.2875
  52  659.204
  53  827.1216
  54  868.1268
  55  1032.505
  56  1048.743
  57  773.6518
  58  679.051
  59  474.047
  60  432.593
  61  388.2447
  62  427.8587
  63  465.2262
  64  368.8945
  65  356.5174
  66  412.2279
  67  492.2832
  68  389.837
  69  313.6961
  70  385.8882
  71  447.2736
  72  446.8562
  73  447.2026
  74  415.7703
  75  476.7393
  76  449.9559
  77  410.5009
  78  273.2208
  79  302.9761
  80  394.9382
  81  272.1419
  82  255.8225
  83  241.1746
  84  420.4563
  85  323.2776
  86  263.9414
  87  355.8338
  88  304.0377
  89  244.3515
  90  354.9184
  91  481.7783
  92  365.2318
  93  232.3022
  94  226.4333
  95  289.9853
  96  338.4412
  97  370.3326
  98  426.1969
  99  449.4158
 100  419.2061
 101  372.9604
 102  311.9785
 103  247.7589
 104  224.1183
 105  264.9568
 106  462.7205
 107  320.864
 108  282.1228
 109  380.3659
 110  293.2654
 111  394.0582
 112  344.2539
 113  308.4069
 114  288.295
 115  309.5836
 116  387.1544
 117  404.2778
 118  462.7875
 119  403.1978
 120  419.7266
 121  485.8546
 122  426.2293
 123  458.6584
 124  362.273
 125  361.3055
 126  275.0921
 127  317.1946
 128  424.8828
 129  462.608
 130  535.5385
 131  506.9881
 132  383.0886
 133  388.5243
 134  389.0661
 135  468.4824
 136  343.4056
 137  168.6064
 138  205.3125
 139  362.9401
 140  421.7374
 141  374.223
 142  351.896
 143  364.4368
 144  424.0807
 145  396.1571
 146  377.6013
 147  310.4321
 148  362.7759
 149  369.5674
 150  348.4267
 151  308.4109
 152  232.2121
 153  269.9983
 154  317.8847
 155  275.639
 156  368.9495
 157  316.9624
 158  487.1884
 159  420.1568
 160  309.0352
 161  267.5861
 162  476.6637
 163  459.943
 164  369.5295
 165  401.1933
 166  468.5693
 167  411.5374
 168  354.6001
 169  453.9714
 170  571.3516
 171  537.6369
 172  363.6121
 173  422.0811
 174  422.7695
 175  413.7578
 176  301.8392
 177  419.8701
 178  485.1787
 179  495.8424
 180  514.9583
 181  565.0999
 182  558.9246
 183  592.1996
 184  481.1236
 185  262.7807
 186  257.4774
 187  311.9646
 188  335.2456
 189  273.8838
 190  344.8656
 191  409.1378
 192  281.0699
 193  427.612
 194  482.0235
 195  365.2922
 196  311.8362
 197  403.3606
 198  278.7448
 199  367.5939
 200  497.6522
 201  418.0947
 202  476.5863
 203  396.6945
 204  353.9427
 205  432.4835
 206  447.3649
 207  442.5784
 208  394.2972
 209  351.2984
 210  334.404
 211  363.2761
 212  449.4422
 213  414.5033
 214  290.5453
 215  421.2001
 216  487.3874
 217  441.5801
 218  368.5791
 219  383.0185
 220  387.5676
 221  332.1823
 222  326.0691
 223  336.3714
 224  413.2564
 225  508.1824
 226  395.541
 227  409.0594
 228  351.6903
 229  437.3007
 230  461.6564
 231  349.7179
 232  408.9722
 233  391.6992
 234  411.4261
 235  379.8537
 236  385.4383
 237  340.9484
 238  327.9528
 239  368.0327
 240  461.2862
 241  487.4354
 242  438.3028
 243  433.0157
 244  353.6218
 245  436.2151
 246  406.8114
 247  286.0866
 248  382.6448
 249  485.1656
 250  477.1888
 251  388.152
 252  348.2737
 253  392.3684
 254  372.62
 255  458.821
 256  228.4394
 257  375.9928
 258  558.4625
 259  514.3134
 260  355.9843
 261  208.8299
 262  249.0422
 263  264.0167
 264  308.2525
 265  362.1922
 266  366.2566
 267  486.4676
 268  408.6357
 269  366.3726
 270  440.0895
 271  353.2039
 272  254.6977
 273  311.4647
 274  372.2901
 275  323.9226
 276  318.8022
 277  430.328
 278  483.255
 279  381.461
 280  516.5248
 281  432.8505
 282  270.6921
 283  249.4919
 284  363.6544
 285  413.3553
 286  362.9818
 287  392.5692
 288  436.7778
 289  324.0603
 290  277.9676
 291  325.3942
 292  326.767
 293  346.4982
 294  338.3662
 295  243.2015
 296  313.4307
 297  367.8803
 298  406.4859
 299  390.4533
 300  318.6915
 301  258.0684
 302  307.9896
 303  242.3017
 304  438.7498
 305  462.0442
 306  437.0532
 307  406.3194
 308  288.7744
 309  343.558
 310  436.246
 311  352.5931
 312  344.0508
 313  411.2322
 314  378.6959
 315  363.448
 316  447.5377
 317  394.2254
 318  333.9501
 319  255.5067
 320  358.1182
 321  377.6189
 322  333.1641
 323  334.0325
 324  375.4242
 325  366.9948
 326  356.7894
 327  385.2931
 328  392.8985
 329  417.6403
 330  407.6862
 331  456.7869
 332  265.9803
 333  368.8996
 334  435.1765
 335  384.1316
 336  414.0421
 337  477.5072
 338  412.9178
 339  437.8911
 340  460.7606
 341  592.6192
 342  613.7162
 343  346.5608
 344  317.9839
 345  454.5429
 346  285.2135
 347  243.6956
 348  399.996
 349  432.6421
 350  458.7418
 351  311.0727
 352  366.2128
 353  372.2699
 354  384.7183
 355  401.9782
 356  461.3357
 357  335.5247
 358  315.7326
 359  265.4107
 360  317.6951
 361  418.4215
 362  312.7921
 363  302.0012
 364  372.6884
 365  202.4652
 366  195.8864
 367  332.8648
 368  386.6707
 369  274.4902
 370  223.2372
 371  313.0759
 372  360.4465
 373  371.8855
 374  473.2196
 375  418.9088
 376  317.7854
 377  328.0162
 378  388.3228
 379  370.8017
 380  370.1016
 381  406.0292
 382  357.9085
 383  262.832
 384  326.8133
 385  381.7704
 386  277.7208
 387  312.1989
 388  339.1049
 389  317.5401
 390  381.6364
 391  385.9515
 392  319.4352
 393  263.5674
 394  365.2209
 395  450.2788
 396  348.8081
 397  275.0479
 398  298.2281
 399  371.7456
 400  412.256
 401  367.1446
 402  489.7786
 403  441.0726
 404  395.9193
 405  353.1019
 406  417.3393
 407  431.2776
 408  358.1924
 409  390.2917
 410  361.5937
 411  270.8686
 412  291.7659
 413  314.7291
 414  385.7056
 415  439.5631
 416  354.3945
 417  334.1642
 418  376.1493
 419  333.0319
 420  364.5665
 421  373.2964
 422  351.0424
 423  398.3772
 424  327.3624
 425  460.8809
 426  441.3614
 427  330.8221
 428  298.7238
 429  227.7403
 430  380.1868
 431  501.042
 432  437.029
 433  459.5682
 434  350.0985
 435  431.9745
 436  284.1839
 437  206.7655
 438  238.0119
 439  342.5917
 440  402.32
 441  371.6712
 442  393.3735
 443  327.2404
 444  432.1643
 445  482.9801
 446  429.972
 447  329.7043
 448  339.8886
 449  401.246
 450  338.2897
 451  414.6701
 452  581.9838
 453  482.5883
 454  314.649
 455  243.0658
 456  285.7655
 457  370.1016
 458  298.7644
 459  276.2473
 460  332.7578
 461  331.3562
 462  387.2028
 463  401.5431
 464  359.7971
 465  392.3645
 466  475.632
 467  394.1324
 468  381.6017
 469  382.6189
 470  289.9846
 471  363.306
 472  408.2867
 473  487.1946
 474  343.4352
 475  352.4545
 476  399.3677
 477  300.2491
 478  413.6114
 479  497.2795
 480  433.5771
 481  433.673
 482  357.8026
 483  455.1147
 484  419.9753
 485  397.6028
 486  460.9338
 487  391.7004
 488  458.2708
 489  467.5849
 490  394.281
 491  372.7448
 492  316.2789
 493  341.2651
 494  488.9208
 495  384.877
 496  380.9282
 497  351.037
 498  213.5894
 499  360.3698
 500  318.0005
 501  256.6721
 502  315.1667
 503  413.9505
 504  369.6042
 505  353.4027
 506  315.2491
 507  300.6218
 508  321.2744
 509  351.1575
 510  426.1876
 511  334.3439
