# Input file       =  1185435458.113710-PSRB0329-2ms-sampling-dd.dat
# Candidate        =  PSR_0332+5434
# Telescope        =  AR
# Epoch_topo       =  57964.318022149419
# Epoch_bary       =  N/A
# T_sample         =  0.002
# Data Folded      =  7340032
# Data Avg         =  2.07650426545369e-09
# Data StdDev      =  8.23003838628632 
# Profile Bins     =  512
# Profile Avg      =  -0.262632904496826
# Profile StdDev   =  985.407485487401 
# Reduced chi-sqr  =  0.651
# Prob(Noise)      <  1   (~0.0 sigma)
# P_topo (ms)      =  714.470573954548  +/- 0.00182
# P'_topo (s/s)    =  -0                +/- 9.62e-10
# P''_topo (s/s^2) =  0                 +/- 4.25e-13
# P_bary (ms)      =  N/A
# P'_bary (s/s)    =  N/A
# P''_bary (s/s^2) =  N/A
# P_orb (s)        =  N/A
# asin(i)/c (s)    =  N/A
# eccentricity     =  N/A
# w (rad)          =  N/A
# T_peri           =  N/A
######################################################
   0  -79.79339
   1  246.762
   2  191.1141
   3  183.2385
   4  -255.7805
   5  -260.7654
   6  -74.13393
   7  -395.4257
   8  -349.3429
   9  -541.4275
  10  -482.8842
  11  -333.7712
  12  -840.54
  13  -273.4078
  14  -371.3525
  15  -741.1655
  16  -454.9063
  17  -457.5248
  18  -511.201
  19  -530.5279
  20  -543.9073
  21  -587.5952
  22  -259.7317
  23  -415.5084
  24  -572.9458
  25  -227.7495
  26  -311.1375
  27  -440.7937
  28  -676.8796
  29  -451.6078
  30  -238.7154
  31  -232.2153
  32  -269.2182
  33  -193.7276
  34  -262.7664
  35  -459.1159
  36  -809.4601
  37  -762.7777
  38  -640.6138
  39  -1063.796
  40  -718.0754
  41  -782.6917
  42  -1281.192
  43  -1435.247
  44  -976.8807
  45  -430.5243
  46  -279.1665
  47  -179.6225
  48  -132.0582
  49  -346.0529
  50  -431.0065
  51  -239.4452
  52  -227.0392
  53  -243.8921
  54  -417.8948
  55  10.96073
  56  -158.1632
  57  -48.95544
  58  120.9303
  59  15.42444
  60  -298.5507
  61  -563.5425
  62  -371.7653
  63  -601.962
  64  -391.9518
  65  -144.1636
  66  -241.4939
  67  -320.0513
  68  -442.8115
  69  -325.3919
  70  -526.8526
  71  -1119.492
  72  -910.8209
  73  -970.2235
  74  -818.8853
  75  -614.0946
  76  -763.6095
  77  -826.2042
  78  -1036.923
  79  -1100.65
  80  -827.3663
  81  -1029.382
  82  -883.4893
  83  -1069.524
  84  -1332.02
  85  -999.871
  86  -1064.328
  87  -759.5626
  88  -1092.26
  89  -1123.974
  90  -793.8676
  91  -785.4658
  92  -659.9783
  93  -838.6923
  94  -659.2513
  95  -872.7334
  96  -525.3022
  97  -546.0442
  98  -872.8169
  99  -744.8746
 100  -1074.842
 101  -1207.173
 102  -1239.307
 103  -1007.744
 104  -697.7601
 105  -828.9465
 106  -961.7306
 107  -883.7702
 108  -779.4877
 109  -758.9868
 110  -890.7732
 111  -666.3069
 112  -358.4826
 113  -41.51826
 114  1.392529
 115  -153.4759
 116  -557.9156
 117  -376.5601
 118  -125.4308
 119  -390.95
 120  -222.7804
 121  -51.64133
 122  -182.7942
 123  -380.2008
 124  -223.034
 125  -255.9706
 126  -644.6794
 127  -958.1378
 128  -582.0327
 129  -707.3782
 130  -645.3932
 131  -268.5263
 132  -247.4466
 133  -390.9955
 134  -670.7752
 135  -712.6398
 136  -754.1113
 137  -528.499
 138  10.8485
 139  -287.1843
 140  -332.4202
 141  -397.2078
 142  -428.3604
 143  -293.8315
 144  -262.2406
 145  -513.9022
 146  -454.5253
 147  -20.56617
 148  -35.29961
 149  -38.12339
 150  154.9377
 151  -128.5323
 152  -386.0728
 153  100.5012
 154  2.867145
 155  -67.39762
 156  -171.1277
 157  -8.860067
 158  -307.1134
 159  -649.1053
 160  -334.4561
 161  -416.0865
 162  -366.0578
 163  -310.1723
 164  -95.65038
 165  -169.7042
 166  -77.97633
 167  -374.7862
 168  -599.691
 169  -678.6935
 170  -1026.86
 171  -981.5874
 172  -806.7963
 173  -648.7916
 174  -1003.985
 175  -1020.755
 176  -901.5541
 177  -1015.301
 178  -878.7049
 179  -788.3794
 180  -880.8239
 181  -868.8544
 182  -381.484
 183  -507.9892
 184  -451.7051
 185  -256.6825
 186  -124.699
 187  -406.9329
 188  -651.8022
 189  -162.039
 190  -212.4648
 191  -8.884809
 192  -100.7476
 193  -754.8036
 194  -880.4276
 195  -475.9478
 196  -172.2202
 197  72.8187
 198  -21.54084
 199  27.16835
 200  -192.936
 201  -624.3334
 202  -531.7272
 203  -503.1703
 204  -486.1099
 205  -45.13705
 206  -15.33859
 207  -170.694
 208  -361.0912
 209  -259.7527
 210  -200.4883
 211  -227.2609
 212  -773.22
 213  -345.7634
 214  -54.61536
 215  -33.08349
 216  -546.1139
 217  -534.5703
 218  -197.6205
 219  -703.595
 220  -319.5586
 221  210.2016
 222  48.15522
 223  85.14527
 224  30.04955
 225  40.88688
 226  -42.12619
 227  231.4788
 228  387.0967
 229  335.0153
 230  117.1682
 231  601.3823
 232  661.2231
 233  534.6588
 234  440.6341
 235  257.5684
 236  230.3626
 237  203.015
 238  -59.77466
 239  -59.63041
 240  1.074863
 241  -205.3259
 242  179.106
 243  583.7001
 244  321.614
 245  359.1126
 246  491.015
 247  431.906
 248  345.7085
 249  545.5677
 250  861.6233
 251  713.6117
 252  556.2457
 253  608.7915
 254  433.2331
 255  453.6729
 256  585.9418
 257  362.4419
 258  486.6218
 259  313.6913
 260  244.4716
 261  572.835
 262  337.7803
 263  647.7896
 264  452.0422
 265  1001.364
 266  740.6663
 267  486.4399
 268  570.6964
 269  637.2299
 270  1028.369
 271  669.1707
 272  885.6346
 273  1145.806
 274  832.2181
 275  367.5857
 276  41.45374
 277  301.9778
 278  206.8575
 279  234.2561
 280  640.9099
 281  638.748
 282  528.7278
 283  74.11386
 284  -351.36
 285  -252.9228
 286  150.0046
 287  401.3581
 288  459.9242
 289  483.4323
 290  246.1642
 291  503.3575
 292  461.4921
 293  283.1761
 294  666.384
 295  875.8766
 296  629.7012
 297  209.8624
 298  210.2212
 299  474.4898
 300  769.3331
 301  1048.429
 302  1193.908
 303  1201.721
 304  890.617
 305  564.4516
 306  772.809
 307  1032.529
 308  1421.383
 309  1935.048
 310  1885.502
 311  2048.601
 312  1965.721
 313  1734.931
 314  1599.987
 315  999.6611
 316  626.7556
 317  553.3196
 318  438.0284
 319  758.518
 320  499.6687
 321  590.6756
 322  746.5217
 323  741.616
 324  137.7237
 325  25.10443
 326  386.7763
 327  531.9774
 328  545.3812
 329  902.2032
 330  1143.177
 331  942.8486
 332  851.9921
 333  515.6439
 334  480.8979
 335  769.9559
 336  830.8305
 337  671.4279
 338  819.9006
 339  1250.801
 340  825.5903
 341  296.4343
 342  633.6216
 343  624.4388
 344  212.6688
 345  180.2108
 346  359.286
 347  689.8689
 348  698.7992
 349  662.7902
 350  411.9982
 351  434.0084
 352  760.2214
 353  871.6273
 354  802.776
 355  530.2548
 356  428.8801
 357  362.7628
 358  215.7773
 359  383.8785
 360  506.476
 361  953.9626
 362  1155.373
 363  899.9454
 364  945.752
 365  773.4491
 366  738.2293
 367  770.4152
 368  973.054
 369  1344.693
 370  806.884
 371  454.3133
 372  140.2664
 373  -34.90448
 374  81.73297
 375  234.7367
 376  228.4071
 377  325.8395
 378  329.7442
 379  376.7752
 380  55.84317
 381  -172.6571
 382  75.24718
 383  -68.76318
 384  433.3177
 385  256.3319
 386  100.574
 387  59.15921
 388  -70.62984
 389  402.0801
 390  213.1596
 391  289.5901
 392  295.5236
 393  468.6797
 394  177.1331
 395  98.04016
 396  69.47423
 397  142.6956
 398  362.893
 399  592.9042
 400  641.3902
 401  549.9755
 402  749.2783
 403  366.3055
 404  351.8068
 405  118.286
 406  225.5335
 407  134.6964
 408  -472.533
 409  -85.41804
 410  501.8871
 411  261.1184
 412  334.6439
 413  159.1437
 414  -105.8549
 415  67.62975
 416  189.0478
 417  883.5503
 418  653.1604
 419  87.12563
 420  -76.0555
 421  -258.1668
 422  -94.53828
 423  303.8068
 424  487.4445
 425  548.8317
 426  311.5383
 427  -164.6397
 428  85.6742
 429  374.7867
 430  737.1331
 431  443.7122
 432  430.1053
 433  104.6118
 434  8.813896
 435  244.2218
 436  186.7929
 437  344.8595
 438  161.37
 439  297.9724
 440  1.463621
 441  -290.2673
 442  136.7337
 443  335.5077
 444  287.7891
 445  -17.38835
 446  508.7408
 447  443.9602
 448  18.69142
 449  -70.11193
 450  -338.8777
 451  -228.1018
 452  230.2539
 453  501.3376
 454  294.9228
 455  -1.476622
 456  198.2205
 457  346.7146
 458  799.2645
 459  635.7865
 460  233.6805
 461  -153.2799
 462  370.0532
 463  239.393
 464  65.33372
 465  266.3411
 466  383.6769
 467  388.5457
 468  59.69814
 469  -37.71251
 470  160.5589
 471  311.1641
 472  234.8868
 473  -103.0742
 474  -86.81677
 475  22.49566
 476  464.0651
 477  418.899
 478  76.46573
 479  203.994
 480  27.73721
 481  312.183
 482  495.6807
 483  573.6528
 484  330.3624
 485  4.640576
 486  62.10439
 487  -366.9747
 488  -463.2121
 489  -466.5311
 490  -433.316
 491  -223.295
 492  -68.20699
 493  -124.0698
 494  -300.7701
 495  -414.4636
 496  -387.0908
 497  -232.4026
 498  -539.9333
 499  -542.3391
 500  -573.6583
 501  -238.2543
 502  -458.6107
 503  -391.7359
 504  -110.1732
 505  160.5191
 506  -87.71409
 507  26.1543
 508  92.28261
 509  -215.6073
 510  -579.7254
 511  -234.7751
