# Input file       =  1185578274.108979_cleaned.dat
# Candidate        =  PSR_0332+5434
# Telescope        =  AR
# Epoch_topo       =  57965.970985057626
# Epoch_bary       =  N/A
# T_sample         =  0.002
# Data Folded      =  7208960
# Data Avg         =  0.0218793247097544
# Data StdDev      =  1.0000177516643  
# Profile Bins     =  512
# Profile Avg      =  308.104575351874 
# Profile StdDev   =  118.661282191386 
# Reduced chi-sqr  =  1.154
# Prob(Noise)      <  0.00897   (~2.4 sigma)
# P_topo (ms)      =  714.469492157579  +/- 0.00017
# P'_topo (s/s)    =  -0                +/- 9.15e-11
# P''_topo (s/s^2) =  0                 +/- 4.11e-14
# P_bary (ms)      =  N/A
# P'_bary (s/s)    =  N/A
# P''_bary (s/s^2) =  N/A
# P_orb (s)        =  N/A
# asin(i)/c (s)    =  N/A
# eccentricity     =  N/A
# w (rad)          =  N/A
# T_peri           =  N/A
######################################################
   0  998.4627
   1  860.3191
   2  605.9753
   3  398.7115
   4  408.1472
   5  411.6869
   6  387.1659
   7  339.537
   8  240.0159
   9  189.6717
  10  179.4016
  11  199.1256
  12  142.5137
  13  322.4909
  14  379.5172
  15  313.518
  16  275.4352
  17  444.4171
  18  378.52
  19  305.5614
  20  214.851
  21  152.0709
  22  143.7523
  23  272.6548
  24  283.8889
  25  202.0176
  26  255.5689
  27  162.0188
  28  298.4073
  29  351.8695
  30  241.5715
  31  332.3129
  32  207.6061
  33  265.9347
  34  128.9279
  35  225.368
  36  406.5917
  37  285.3197
  38  295.317
  39  334.7993
  40  292.7939
  41  379.2216
  42  321.787
  43  394.1767
  44  252.1959
  45  257.3314
  46  227.1741
  47  208.501
  48  241.6421
  49  268.7251
  50  261.8897
  51  214.864
  52  156.2395
  53  187.7473
  54  221.3655
  55  212.9268
  56  263.4726
  57  294.3578
  58  361.6066
  59  335.8256
  60  272.9629
  61  292.2603
  62  325.2203
  63  141.8905
  64  96.37247
  65  249.4724
  66  284.0869
  67  387.4125
  68  276.5015
  69  278.4695
  70  269.3017
  71  328.02
  72  254.6046
  73  223.7455
  74  177.3002
  75  279.4195
  76  302.2933
  77  297.3611
  78  327.4676
  79  325.7469
  80  244.8831
  81  209.718
  82  239.6
  83  452.1317
  84  391.2551
  85  194.0845
  86  210.1506
  87  405.795
  88  425.4442
  89  265.9709
  90  284.1945
  91  405.5035
  92  343.2321
  93  257.3869
  94  256.177
  95  296.3613
  96  274.941
  97  346.7286
  98  321.1785
  99  339.5571
 100  396.7539
 101  318.9195
 102  320.8758
 103  288.5929
 104  324.9277
 105  282.5835
 106  290.8878
 107  284.8006
 108  255.27
 109  283.0089
 110  283.0803
 111  453.1625
 112  330.9909
 113  338.4261
 114  357.9003
 115  311.5867
 116  264.4964
 117  210.4123
 118  150.9363
 119  328.6813
 120  342.0894
 121  280.8597
 122  356.4695
 123  262.3811
 124  226.4587
 125  298.6779
 126  325.2823
 127  282.4524
 128  181.4587
 129  163.5378
 130  99.51072
 131  262.7847
 132  379.0334
 133  343.5298
 134  195.0646
 135  254.3069
 136  228.9221
 137  312.5737
 138  290.364
 139  241.7834
 140  273.2452
 141  369.9197
 142  302.3249
 143  277.2026
 144  275.3585
 145  284.0379
 146  250.5366
 147  228.9663
 148  328.429
 149  354.8018
 150  379.8943
 151  234.3047
 152  274.4012
 153  261.9614
 154  296.5677
 155  240.2431
 156  202.3074
 157  337.5251
 158  388.3715
 159  326.2301
 160  185.7483
 161  214.9209
 162  183.7502
 163  300.794
 164  349.538
 165  361.5051
 166  312.7603
 167  442.4687
 168  366.0858
 169  333.5406
 170  268.0429
 171  253.4452
 172  306.9221
 173  185.264
 174  166.1604
 175  382.5663
 176  300.9095
 177  290.0517
 178  241.7001
 179  268.6639
 180  252.6665
 181  268.5566
 182  366.2406
 183  443.0451
 184  500.678
 185  352.9172
 186  198.0775
 187  258.8341
 188  215.0149
 189  266.7163
 190  363.1779
 191  404.0473
 192  289.3871
 193  412.611
 194  301.319
 195  158.5018
 196  202.7529
 197  384.504
 198  330.888
 199  312.5677
 200  297.0222
 201  303.7142
 202  325.1039
 203  333.419
 204  392.6872
 205  375.2157
 206  384.436
 207  338.621
 208  319.9348
 209  289.2741
 210  154.3094
 211  18.91022
 212  102.377
 213  199.1922
 214  452.1967
 215  440.5343
 216  366.8254
 217  296.0913
 218  356.9396
 219  332.3416
 220  249.1535
 221  269.9418
 222  373.6454
 223  343.4343
 224  280.0326
 225  286.5586
 226  157.4789
 227  336.7983
 228  325.8376
 229  242.8784
 230  221.1267
 231  311.2576
 232  372.799
 233  421.4608
 234  313.5879
 235  244.3701
 236  230.1278
 237  217.99
 238  293.9068
 239  263.9797
 240  331.5817
 241  351.596
 242  319.9608
 243  281.7364
 244  292.4714
 245  283.0397
 246  225.9268
 247  311.1486
 248  366.9154
 249  356.7503
 250  341.3163
 251  331.8183
 252  279.1832
 253  159.2822
 254  202.8836
 255  318.0113
 256  347.5957
 257  313.169
 258  384.8889
 259  315.7332
 260  203.5617
 261  346.2864
 262  408.3063
 263  290.0395
 264  282.099
 265  316.6352
 266  286.7311
 267  270.6618
 268  288.1117
 269  314.8893
 270  268.9222
 271  282.8385
 272  246.783
 273  317.868
 274  388.5532
 275  398.1749
 276  351.8366
 277  317.2683
 278  247.1016
 279  210.3955
 280  212.0845
 281  235.9926
 282  292.3328
 283  299.242
 284  333.2827
 285  292.0898
 286  266.0759
 287  329.925
 288  377.6157
 289  391.6741
 290  413.5291
 291  350.1037
 292  285.1096
 293  147.5148
 294  233.7208
 295  271.3968
 296  314.2859
 297  343.8881
 298  246.1981
 299  252.6441
 300  431.0501
 301  436.5994
 302  358.5027
 303  247.1895
 304  176.9069
 305  309.3242
 306  248.8839
 307  286.1236
 308  333.2059
 309  306.3275
 310  280.0483
 311  349.1128
 312  397.1016
 313  184.9464
 314  241.9302
 315  337.3755
 316  331.5374
 317  361.5951
 318  429.2372
 319  370.2059
 320  229.7393
 321  322.3459
 322  348.6677
 323  286.5
 324  218.1079
 325  295.0564
 326  365.5482
 327  355.2385
 328  256.7027
 329  256.0446
 330  110.1291
 331  234.6935
 332  269.4789
 333  268.3789
 334  282.2299
 335  365.7842
 336  432.091
 337  336.3768
 338  278.4416
 339  201.2804
 340  279.7468
 341  376.6637
 342  313.9423
 343  345.2054
 344  327.2408
 345  340.2516
 346  394.6884
 347  358.5836
 348  345.1406
 349  379.5883
 350  284.5828
 351  163.4378
 352  129.5108
 353  252.2393
 354  446.9826
 355  401.1704
 356  196.6145
 357  214.8113
 358  312.071
 359  391.619
 360  157.3521
 361  215.0949
 362  312.0674
 363  401.5339
 364  378.7069
 365  431.3752
 366  362.7061
 367  281.6262
 368  218.627
 369  368.1119
 370  287.3537
 371  369.6514
 372  290.7046
 373  206.1998
 374  241.4112
 375  175.8571
 376  153.9699
 377  260.0924
 378  280.2175
 379  301.4823
 380  332.0379
 381  340.6309
 382  408.7801
 383  303.3268
 384  238.7512
 385  337.7517
 386  308.14
 387  217.9334
 388  254.1745
 389  248.0932
 390  271.3325
 391  253.0651
 392  289.4346
 393  414.8096
 394  346.0103
 395  330.9423
 396  319.832
 397  324.9032
 398  475.798
 399  433.5551
 400  368.2615
 401  383.7443
 402  431.5721
 403  320.2323
 404  411.5741
 405  492.6774
 406  484.9585
 407  445.0204
 408  375.046
 409  255.4868
 410  299.2083
 411  398.7131
 412  420.364
 413  315.5899
 414  301.5977
 415  395.5077
 416  417.6861
 417  342.7846
 418  354.9684
 419  297.4866
 420  318.9696
 421  366.9436
 422  422.9956
 423  396.1103
 424  357.1097
 425  250.4555
 426  323.0233
 427  366.6368
 428  354.9186
 429  385.7225
 430  395.4572
 431  428.2905
 432  385.4336
 433  267.817
 434  324.1297
 435  291.1652
 436  273.9329
 437  327.8071
 438  367.489
 439  361.369
 440  381.0589
 441  340.9071
 442  284.2688
 443  385.5027
 444  406.4467
 445  411.5444
 446  363.1588
 447  324.3371
 448  252.4412
 449  284.2879
 450  135.4029
 451  200.856
 452  223.8207
 453  263.3849
 454  364.2728
 455  184.3498
 456  93.39482
 457  255.6801
 458  414.5089
 459  334.9456
 460  192.7609
 461  198.1524
 462  301.7276
 463  387.6224
 464  292.244
 465  278.4024
 466  316.177
 467  326.7593
 468  323.319
 469  259.9721
 470  304.2469
 471  349.3293
 472  327.0371
 473  292.0797
 474  287.1964
 475  273.7555
 476  257.1643
 477  309.8365
 478  330.0686
 479  396.3789
 480  374.2261
 481  312.4933
 482  293.6057
 483  324.3214
 484  330.0955
 485  315.631
 486  284.7369
 487  357.0842
 488  311.8116
 489  407.4657
 490  447.363
 491  409.0523
 492  303.6552
 493  298.1722
 494  330.0768
 495  328.1241
 496  304.4736
 497  380.493
 498  274.423
 499  190.9254
 500  344.9952
 501  275.169
 502  250.9033
 503  317.9924
 504  365.1851
 505  361.6243
 506  276.1488
 507  397.6344
 508  494.2136
 509  578.0226
 510  775.5195
 511  906.0878
