# Input file       =  1185922931.113240-PSRB0329-2ms-sampling-dd.dat
# Candidate        =  PSR_0332+5434
# Telescope        =  AR
# Epoch_topo       =  57969.960070755093
# Epoch_bary       =  N/A
# T_sample         =  0.002
# Data Folded      =  7208960
# Data Avg         =  5.42019561454765e-10
# Data StdDev      =  6.2362599933192  
# Profile Bins     =  512
# Profile Avg      =  0.026495111383036
# Profile StdDev   =  739.989470841425 
# Reduced chi-sqr  =  0.490
# Prob(Noise)      <  1   (~0.0 sigma)
# P_topo (ms)      =  714.467885083095  +/- 8.8e-05
# P'_topo (s/s)    =  -0                +/- 4.73e-11
# P''_topo (s/s^2) =  0                 +/- 2.12e-14
# P_bary (ms)      =  N/A
# P'_bary (s/s)    =  N/A
# P''_bary (s/s^2) =  N/A
# P_orb (s)        =  N/A
# asin(i)/c (s)    =  N/A
# eccentricity     =  N/A
# w (rad)          =  N/A
# T_peri           =  N/A
######################################################
   0  133.8652
   1  -17.04914
   2  -215.2201
   3  -438.7383
   4  -792.3461
   5  -402.4765
   6  70.64899
   7  -174.2078
   8  -102.1413
   9  -687.9747
  10  -479.6258
  11  -480.5101
  12  -689.3647
  13  -239.9933
  14  -201.0226
  15  42.86784
  16  84.80231
  17  547.8008
  18  -512.0381
  19  -381.5009
  20  -119.5923
  21  -856.4168
  22  -342.4966
  23  -14.88847
  24  154.9273
  25  -84.22258
  26  63.93365
  27  -248.3715
  28  -517.7484
  29  -129.2527
  30  -225.255
  31  67.46961
  32  210.3729
  33  67.47475
  34  136.8308
  35  371.5936
  36  -167.7171
  37  -269.0762
  38  -337.45
  39  -165.0051
  40  84.67559
  41  357.954
  42  22.02208
  43  43.5252
  44  69.84577
  45  -760.647
  46  -360.7459
  47  -11.51823
  48  482.6447
  49  745.2532
  50  948.5211
  51  385.4162
  52  -125.2011
  53  -21.87816
  54  -15.01864
  55  -257.5748
  56  325.7043
  57  265.177
  58  397.2115
  59  598.041
  60  153.393
  61  280.9404
  62  70.93142
  63  -406.0479
  64  -484.3492
  65  179.5249
  66  576.3087
  67  28.95954
  68  607.468
  69  219.7793
  70  -47.36293
  71  -161.3813
  72  -435.8708
  73  242.532
  74  241.485
  75  297.9874
  76  591.9044
  77  785.5244
  78  184.1942
  79  184.1956
  80  239.5646
  81  330.8251
  82  1000.312
  83  675.972
  84  741.0219
  85  765.4478
  86  593.8755
  87  -83.58633
  88  336.6838
  89  528.1156
  90  996.9745
  91  1043.253
  92  537.0824
  93  559.1077
  94  172.1885
  95  117.0748
  96  -41.9609
  97  283.5851
  98  686.5266
  99  827.2026
 100  592.6396
 101  223.9978
 102  244.9409
 103  507.3937
 104  246.4759
 105  -104.3773
 106  440.996
 107  394.1819
 108  171.2773
 109  206.2695
 110  -255.9674
 111  -41.99866
 112  174.3905
 113  33.13665
 114  59.1053
 115  221.3409
 116  564.5547
 117  569.3572
 118  413.5682
 119  -1.428433
 120  104.1721
 121  286.8327
 122  244.7339
 123  962.545
 124  1201.022
 125  655.0455
 126  201.4578
 127  264.229
 128  -319.2191
 129  -605.6286
 130  -546.4089
 131  -284.6287
 132  -182.1395
 133  389.2456
 134  239.4658
 135  280.4021
 136  -10.73517
 137  -329.7222
 138  -75.68141
 139  -40.00831
 140  400.9538
 141  -51.81143
 142  325.1763
 143  187.039
 144  47.47489
 145  -233.7521
 146  -578.4801
 147  28.24989
 148  235.1521
 149  575.2446
 150  356.587
 151  67.5263
 152  -36.80359
 153  -167.8658
 154  -336.4648
 155  -317.1903
 156  337.2841
 157  540.3813
 158  762.8893
 159  607.2153
 160  330.3853
 161  -6.718101
 162  257.9067
 163  -134.7452
 164  -108.2781
 165  10.60153
 166  78.12413
 167  281.5763
 168  271.3134
 169  80.78841
 170  40.13866
 171  259.8742
 172  -276.362
 173  -106.4274
 174  -188.8565
 175  -120.5893
 176  -371.4211
 177  -375.4245
 178  -200.1311
 179  -166.2296
 180  112.6876
 181  -10.05101
 182  -59.22634
 183  180.1751
 184  -68.94299
 185  436.0487
 186  675.9212
 187  490.1071
 188  185.1937
 189  -194.8055
 190  -284.4707
 191  -278.9169
 192  -176.7752
 193  -114.2959
 194  44.94032
 195  -307.8411
 196  -478.1361
 197  -141.0008
 198  163.9281
 199  306.7728
 200  206.5153
 201  -196.3631
 202  -41.70207
 203  -189.4616
 204  -206.9785
 205  277.4438
 206  390.0956
 207  374.7541
 208  -166.3009
 209  44.30262
 210  -122.9061
 211  -327.4357
 212  -407.6245
 213  -391.2041
 214  -482.2352
 215  -75.23252
 216  20.54242
 217  -495.1236
 218  -628.1434
 219  -154.542
 220  150.1698
 221  223.7068
 222  292.1918
 223  79.92357
 224  -126.7055
 225  -94.04325
 226  -73.00923
 227  39.40291
 228  -185.2868
 229  49.38916
 230  64.29133
 231  36.82355
 232  123.5449
 233  176.254
 234  260.9934
 235  -125.8659
 236  70.40885
 237  -204.7696
 238  -331.6519
 239  4.956223
 240  297.349
 241  438.3468
 242  397.2452
 243  189.9804
 244  -175.0976
 245  -290.5132
 246  -662.3071
 247  -598.7473
 248  -221.0063
 249  110.2232
 250  384.907
 251  141.3748
 252  23.86353
 253  -282.6859
 254  -493.0154
 255  -533.2707
 256  -828.9157
 257  -130.1101
 258  -152.0544
 259  263.3079
 260  378.2455
 261  401.7585
 262  339.1455
 263  347.4394
 264  -50.53875
 265  -448.9477
 266  -35.70475
 267  61.9196
 268  -136.4855
 269  161.5019
 270  -335.0533
 271  -377.7329
 272  -245.3523
 273  -279.7805
 274  -252.305
 275  101.2775
 276  -56.67357
 277  -209.8475
 278  -383.6795
 279  -523.6009
 280  -259.7158
 281  24.08595
 282  223.499
 283  199.7601
 284  612.2259
 285  254.7976
 286  -266.322
 287  -248.4797
 288  -215.3177
 289  -41.94428
 290  -146.8857
 291  146.1627
 292  14.56353
 293  298.6274
 294  492.992
 295  -42.13478
 296  121.5054
 297  -63.40415
 298  -224.4669
 299  -291.2172
 300  -398.3591
 301  62.62406
 302  225.6431
 303  305.1397
 304  449.038
 305  205.5198
 306  15.15799
 307  -398.7904
 308  -67.92599
 309  -466.3851
 310  -442.5889
 311  -415.7003
 312  -104.7239
 313  -38.93029
 314  286.5197
 315  268.1108
 316  101.1398
 317  5.742942
 318  -568.6972
 319  -577.3872
 320  -238.9416
 321  -252.1108
 322  83.22362
 323  174.9148
 324  191.1069
 325  -65.02843
 326  48.37178
 327  -36.89419
 328  -209.1376
 329  -455.6951
 330  -334.2476
 331  71.75018
 332  33.03523
 333  607.6191
 334  135.4493
 335  -282.8925
 336  -83.89731
 337  -412.8867
 338  -60.78639
 339  -510.452
 340  -881.8838
 341  -478.2324
 342  383.8907
 343  289.8315
 344  459.1562
 345  70.07389
 346  -492.8624
 347  -478.4341
 348  -381.5281
 349  265.3224
 350  284.0832
 351  373.5602
 352  33.1256
 353  -536.465
 354  -116.8727
 355  -118.1296
 356  -97.7849
 357  -129.0438
 358  -260.312
 359  -695.149
 360  -395.2128
 361  -465.6466
 362  -481.0179
 363  115.5846
 364  107.506
 365  -282.881
 366  -275.8978
 367  1.668234
 368  -11.1995
 369  130.4558
 370  -88.84841
 371  -387.1264
 372  -273.0787
 373  -779.1048
 374  -610.7166
 375  90.47606
 376  62.96344
 377  -110.9956
 378  -122.1644
 379  -238.9919
 380  -336.8634
 381  -455.5545
 382  -399.5309
 383  -393.9932
 384  24.44279
 385  -195.0995
 386  21.59994
 387  -4.354555
 388  28.19859
 389  272.8103
 390  -157.4111
 391  -223.8444
 392  -275.9168
 393  -278.3119
 394  -358.5336
 395  151.0597
 396  339.6347
 397  122.4092
 398  -87.5263
 399  109.9956
 400  210.7188
 401  -94.43304
 402  193.5463
 403  72.53472
 404  525.1653
 405  460.473
 406  -41.04301
 407  94.1777
 408  203.0735
 409  322.3659
 410  469.2461
 411  522.5295
 412  541.9792
 413  284.2517
 414  408.4374
 415  585.7452
 416  1096.313
 417  1621.885
 418  1619.371
 419  1473.507
 420  997.7885
 421  75.54469
 422  61.27866
 423  -147.4082
 424  -122.0397
 425  173.1716
 426  538.6221
 427  -60.1931
 428  -198.4981
 429  111.4698
 430  148.6883
 431  -27.16928
 432  -322.6418
 433  58.61672
 434  213.0495
 435  161.0413
 436  226.2529
 437  87.69933
 438  0.9138983
 439  -1015.87
 440  -728.9523
 441  35.89748
 442  83.75842
 443  -293.453
 444  -152.9553
 445  -249.5579
 446  10.60672
 447  99.05634
 448  -387.9056
 449  -466.5579
 450  -620.968
 451  -161.822
 452  130.4117
 453  457.2337
 454  160.3731
 455  -413.3441
 456  -324.8572
 457  -199.7457
 458  -41.56622
 459  -234.3616
 460  -54.29257
 461  -81.10387
 462  224.1168
 463  99.17429
 464  71.54466
 465  56.10767
 466  -461.099
 467  -200.3795
 468  -338.8541
 469  -237.3574
 470  -176.9231
 471  -46.99865
 472  -399.5063
 473  -866.7177
 474  -344.5463
 475  -487.698
 476  -433.7759
 477  -44.13043
 478  574.4729
 479  15.17128
 480  -602.0775
 481  -520.2437
 482  -617.4106
 483  -560.0222
 484  -97.28103
 485  -125.5561
 486  20.62783
 487  -655.053
 488  -305.3585
 489  -188.4825
 490  -440.7726
 491  -299.7234
 492  -368.969
 493  -377.9655
 494  -514.0802
 495  -199.3096
 496  130.1428
 497  -33.69543
 498  -402.5844
 499  -825.0948
 500  -945.6473
 501  -356.2986
 502  -283.8266
 503  -142.1806
 504  172.7076
 505  -59.81165
 506  64.8978
 507  337.9482
 508  151.3614
 509  -104.104
 510  313.0955
 511  604.6301
