# Input file       =  1185937604.112604_cleaned.dat
# Candidate        =  PSR_0332+5434
# Telescope        =  AR
# Epoch_topo       =  57970.129897136620
# Epoch_bary       =  N/A
# T_sample         =  0.002
# Data Folded      =  7340032
# Data Avg         =  0.0138227295215724
# Data StdDev      =  2.29773807446614 
# Profile Bins     =  1024
# Profile Avg      =  99.0307311265732 
# Profile StdDev   =  194.535792736058 
# Reduced chi-sqr  =  1.645
# Prob(Noise)      <  5.57e-35   (~12.3 sigma)
# P_topo (ms)      =  714.46783495832   +/- 0.000138
# P'_topo (s/s)    =  -0                +/- 7.26e-11
# P''_topo (s/s^2) =  0                 +/- 3.21e-14
# P_bary (ms)      =  N/A
# P'_bary (s/s)    =  N/A
# P''_bary (s/s^2) =  N/A
# P_orb (s)        =  N/A
# asin(i)/c (s)    =  N/A
# eccentricity     =  N/A
# w (rad)          =  N/A
# T_peri           =  N/A
######################################################
   0  260.26
   1  297.5489
   2  349.0276
   3  215.2865
   4  40.985
   5  -25.82374
   6  -73.13025
   7  -12.19707
   8  -67.09383
   9  -114.7476
  10  -212.6591
  11  -156.787
  12  -83.64887
  13  -52.46307
  14  -2.89601
  15  146.6422
  16  226.6177
  17  165.929
  18  -8.915949
  19  -134.6288
  20  -37.65379
  21  -48.58356
  22  35.15813
  23  -24.43176
  24  103.4214
  25  142.2898
  26  146.7396
  27  91.70819
  28  144.7525
  29  204.7078
  30  166.5316
  31  167.4192
  32  109.8535
  33  97.4389
  34  66.91389
  35  183.2857
  36  204.944
  37  97.57486
  38  90.74728
  39  32.59121
  40  -32.00563
  41  -143.1549
  42  -14.30873
  43  149.2759
  44  162.7683
  45  198.8547
  46  255.863
  47  207.9621
  48  144.851
  49  63.58405
  50  186.9242
  51  213.5303
  52  279.8748
  53  207.9864
  54  67.67339
  55  -81.08714
  56  -135.1814
  57  99.38934
  58  188.1966
  59  212.8842
  60  25.9495
  61  18.42783
  62  3.488334
  63  81.92604
  64  105.0928
  65  62.09886
  66  16.50283
  67  112.1841
  68  198.0787
  69  232.7238
  70  164.2194
  71  185.4383
  72  169.8298
  73  245.1475
  74  237.3125
  75  241.7042
  76  264.5142
  77  195.6826
  78  280.4902
  79  255.1724
  80  262.9972
  81  174.705
  82  168.8302
  83  238.3906
  84  207.6662
  85  175.7038
  86  210.4439
  87  279.1174
  88  276.1559
  89  214.0399
  90  101.9564
  91  45.978
  92  -22.11062
  93  19.5772
  94  55.24429
  95  75.74336
  96  97.23469
  97  70.94124
  98  14.51849
  99  -4.89624
 100  70.99233
 101  193.2401
 102  189.7649
 103  141.4933
 104  128.9482
 105  146.7023
 106  125.4977
 107  126.7018
 108  108.1384
 109  169.1473
 110  159.3331
 111  85.01179
 112  -54.43457
 113  -27.23842
 114  92.13499
 115  150.2971
 116  111.4136
 117  85.35972
 118  72.6283
 119  121.8455
 120  130.2867
 121  141.7432
 122  158.8047
 123  139.7869
 124  161.7305
 125  100.5126
 126  14.38989
 127  26.25718
 128  23.11983
 129  77.2253
 130  113.8596
 131  237.769
 132  249.9271
 133  227.066
 134  186.8856
 135  148.3853
 136  130.7318
 137  132.4828
 138  238.3973
 139  205.271
 140  184.0564
 141  222.4719
 142  197.6451
 143  151.8226
 144  73.32867
 145  60.3578
 146  60.05415
 147  66.15101
 148  120.9799
 149  121.9223
 150  195.8272
 151  217.6474
 152  175.9169
 153  160.1179
 154  134.5448
 155  128.278
 156  46.58303
 157  -14.26026
 158  57.55764
 159  65.03201
 160  147.5483
 161  181.6821
 162  167.7511
 163  94.0463
 164  78.47299
 165  201.3296
 166  282.119
 167  268.2448
 168  259.4252
 169  245.7231
 170  261.3584
 171  172.8439
 172  175.2951
 173  106.8406
 174  43.99575
 175  41.66636
 176  166.6346
 177  228.1948
 178  211.7849
 179  226.4125
 180  228.6072
 181  132.0025
 182  51.32465
 183  88.57568
 184  109.339
 185  147.4451
 186  120.0633
 187  300.5484
 188  300.9992
 189  256.0555
 190  198.1419
 191  251.1079
 192  279.1729
 193  297.1164
 194  302.9466
 195  324.706
 196  244.6664
 197  102.794
 198  118.8732
 199  180.5552
 200  307.7463
 201  206.5711
 202  151.4916
 203  98.39468
 204  131.0721
 205  56.41875
 206  53.12392
 207  159.8973
 208  247.6933
 209  202.7505
 210  98.69539
 211  88.48918
 212  69.22526
 213  74.37687
 214  176.9766
 215  235.5693
 216  261.3487
 217  197.9626
 218  175.8248
 219  139.9817
 220  149.9499
 221  154.786
 222  257.8086
 223  209.4045
 224  93.81503
 225  63.84221
 226  101.609
 227  151.7681
 228  134.6222
 229  165.4218
 230  113.5956
 231  63.22472
 232  83.67039
 233  119.7695
 234  133.1473
 235  37.33247
 236  60.00615
 237  -13.50284
 238  7.624901
 239  -19.18135
 240  46.22533
 241  197.3965
 242  316.8401
 243  349.8389
 244  226.7056
 245  148.8222
 246  162.1114
 247  245.5233
 248  235.575
 249  226.6404
 250  151.3219
 251  219.5972
 252  235.0951
 253  282.9336
 254  253.3645
 255  195.9328
 256  190.3992
 257  203.2034
 258  173.9023
 259  139.5105
 260  104.7125
 261  108.5486
 262  126.5238
 263  130.3941
 264  171.6074
 265  156.5453
 266  163.1795
 267  193.669
 268  215.5482
 269  204.0934
 270  90.6777
 271  28.65828
 272  -2.387311
 273  0.959314
 274  3.298122
 275  23.73096
 276  113.4192
 277  -43.74837
 278  -61.69571
 279  -63.16625
 280  37.02031
 281  82.50571
 282  117.3261
 283  272.0727
 284  301.1886
 285  222.5939
 286  125.4028
 287  79.33001
 288  125.7878
 289  135.4559
 290  305.0657
 291  275.8691
 292  154.8705
 293  79.1836
 294  168.4334
 295  282.5165
 296  296.2672
 297  335.8607
 298  219.7743
 299  140.3795
 300  154.4072
 301  188.4968
 302  109.2007
 303  7.069806
 304  13.92413
 305  40.6456
 306  198.021
 307  178.6645
 308  147.6111
 309  22.86309
 310  44.30013
 311  147.1658
 312  253.5846
 313  392.0078
 314  348.7473
 315  232.0123
 316  173.4671
 317  210.7006
 318  290.4644
 319  197.6671
 320  143.529
 321  101.1288
 322  75.23989
 323  55.6666
 324  -8.048049
 325  33.28865
 326  128.7621
 327  298.0992
 328  295.5131
 329  137.6959
 330  -39.26187
 331  -53.71136
 332  -37.20275
 333  -7.329828
 334  34.60919
 335  197.3304
 336  291.5565
 337  302.5651
 338  60.64858
 339  -37.53096
 340  4.498679
 341  146.2686
 342  233.4633
 343  338.6166
 344  294.7615
 345  118.1531
 346  -19.59692
 347  -42.42662
 348  12.61822
 349  32.70034
 350  123.1837
 351  87.4679
 352  106.3108
 353  132.4151
 354  84.19157
 355  6.8787
 356  -13.60322
 357  149.9446
 358  211.2556
 359  212.8408
 360  118.1922
 361  138.1489
 362  136.6248
 363  111.4397
 364  197.9695
 365  213.7256
 366  225.8676
 367  32.89838
 368  10.43877
 369  -16.41675
 370  11.58034
 371  24.62521
 372  27.17798
 373  -6.676483
 374  50.88365
 375  -51.56221
 376  -23.45712
 377  -18.90753
 378  129.6406
 379  93.14481
 380  46.06466
 381  9.696154
 382  -8.425101
 383  71.36021
 384  185.1335
 385  233.4852
 386  212.4061
 387  79.13351
 388  -5.317092
 389  -139.4434
 390  -54.75636
 391  -66.10409
 392  48.83268
 393  88.8148
 394  235.2261
 395  159.8759
 396  226.6498
 397  177.6921
 398  111.0518
 399  72.87366
 400  182.9633
 401  196.9877
 402  93.26405
 403  -101.9766
 404  -62.44082
 405  6.14815
 406  42.44754
 407  37.2778
 408  57.01143
 409  135.3965
 410  178.5397
 411  92.93678
 412  223.6602
 413  267.2973
 414  277.6234
 415  81.16061
 416  39.44715
 417  79.77325
 418  35.80192
 419  36.55596
 420  30.59179
 421  85.72762
 422  22.20584
 423  -47.06147
 424  -102.0212
 425  -201.7701
 426  -190.526
 427  -30.72956
 428  101.0439
 429  158.0302
 430  40.30468
 431  22.20028
 432  -17.18916
 433  -61.37895
 434  -5.096302
 435  32.78918
 436  216.0658
 437  182.8813
 438  85.76992
 439  4.489847
 440  -39.78059
 441  40.26638
 442  35.32385
 443  -10.21394
 444  -46.74549
 445  -9.50791
 446  107.9829
 447  145.1745
 448  63.65022
 449  2.064065
 450  -61.91086
 451  50.75637
 452  99.6297
 453  100.2334
 454  -81.29687
 455  -154.1241
 456  -104.8505
 457  6.26582
 458  -3.293231
 459  -53.04311
 460  -90.25047
 461  24.95077
 462  79.7384
 463  81.11353
 464  -4.750288
 465  -27.12332
 466  3.65196
 467  62.95705
 468  46.92234
 469  -42.48678
 470  -140.6108
 471  -119.8075
 472  -60.57242
 473  32.64386
 474  80.11749
 475  148.5431
 476  147.565
 477  95.38822
 478  31.14731
 479  -79.21899
 480  -48.84526
 481  -125.3698
 482  -3.473535
 483  82.91032
 484  170.044
 485  104.1604
 486  13.83853
 487  79.88963
 488  87.64539
 489  69.91759
 490  -79.80077
 491  -155.7811
 492  -113.7767
 493  -132.2959
 494  -129.9623
 495  -99.46947
 496  -35.20507
 497  -100.7595
 498  -116.5176
 499  -79.39632
 500  33.2393
 501  41.09771
 502  3.432193
 503  -21.93345
 504  13.82637
 505  -41.02916
 506  -145.0465
 507  -137.271
 508  -86.02891
 509  -47.95784
 510  -136.8779
 511  -173.8954
 512  -192.1449
 513  -177.8167
 514  -197.5233
 515  -104.2749
 516  1.812094
 517  190.7887
 518  162.0668
 519  -15.73789
 520  -167.2795
 521  -170.6953
 522  -28.80072
 523  -27.57141
 524  44.54644
 525  26.38525
 526  58.87709
 527  49.37885
 528  -1.208112
 529  -34.67913
 530  -73.92862
 531  -43.87868
 532  13.79057
 533  64.18726
 534  88.00323
 535  48.44222
 536  45.68877
 537  22.45577
 538  -28.21623
 539  -73.49065
 540  -1.814807
 541  19.53256
 542  130.6937
 543  3.058632
 544  -85.67706
 545  -216.9761
 546  -102.9649
 547  -28.65792
 548  -14.71425
 549  -79.10133
 550  -93.22351
 551  -60.8058
 552  29.75165
 553  17.6096
 554  75.02617
 555  -11.93749
 556  54.04883
 557  25.6162
 558  69.98758
 559  46.58619
 560  79.38342
 561  65.57325
 562  29.08522
 563  -12.42655
 564  59.37794
 565  48.8371
 566  -28.21399
 567  -206.3635
 568  -146.0898
 569  -77.92209
 570  -32.35257
 571  -32.13221
 572  -40.19889
 573  -81.40571
 574  -117.8519
 575  -124.499
 576  -120.8085
 577  -137.9495
 578  -98.4903
 579  8.364633
 580  24.73308
 581  -88.68814
 582  -174.183
 583  -133.838
 584  -2.854392
 585  52.59919
 586  -12.75499
 587  6.706374
 588  -14.02386
 589  -97.32326
 590  -203.7701
 591  -170.9508
 592  -106.572
 593  -11.71973
 594  -23.96645
 595  -17.96559
 596  -30.5106
 597  11.56474
 598  61.86319
 599  70.23753
 600  123.4049
 601  122.2832
 602  128.257
 603  178.2706
 604  143.8882
 605  162.7722
 606  37.17208
 607  45.64526
 608  26.52926
 609  167.0221
 610  121.3008
 611  93.60912
 612  54.94549
 613  117.8298
 614  133.9354
 615  220.9725
 616  277.1191
 617  154.7462
 618  59.72292
 619  64.69205
 620  39.53109
 621  -93.61692
 622  -145.0543
 623  -34.23653
 624  42.01126
 625  104.0047
 626  140.1569
 627  153.6704
 628  156.189
 629  143.4089
 630  155.5165
 631  269.3576
 632  280.5022
 633  320.5275
 634  255.8088
 635  200.1269
 636  204.0084
 637  144.8878
 638  221.6208
 639  246.5545
 640  333.6428
 641  349.5149
 642  325.4939
 643  399.516
 644  491.2248
 645  591.9354
 646  690.1993
 647  902.2952
 648  1032.308
 649  1147.196
 650  1085.554
 651  947.2847
 652  720.2467
 653  546.2222
 654  501.0853
 655  352.2261
 656  219.3496
 657  78.81476
 658  209.4649
 659  305.0342
 660  375.8669
 661  299.8765
 662  209.4267
 663  131.1053
 664  38.86927
 665  62.91577
 666  39.13787
 667  113.0482
 668  116.0296
 669  190.541
 670  193.5845
 671  199.484
 672  218.9053
 673  173.0376
 674  170.7908
 675  283.0489
 676  447.0897
 677  429.2269
 678  255.4781
 679  199.6463
 680  222.4008
 681  287.5608
 682  268.6293
 683  220.0916
 684  202.1445
 685  70.32329
 686  -41.87846
 687  41.00464
 688  138.2244
 689  244.5648
 690  93.43344
 691  4.915736
 692  7.335644
 693  174.9596
 694  135.5045
 695  83.11216
 696  -29.43708
 697  51.95115
 698  32.68788
 699  117.2631
 700  67.15897
 701  1.294464
 702  -122.8908
 703  -163.536
 704  -112.5405
 705  -118.65
 706  -87.97377
 707  3.885662
 708  67.56898
 709  60.04715
 710  1.93304
 711  -24.37025
 712  84.908
 713  268.1672
 714  309.7718
 715  244.1129
 716  53.95308
 717  48.86282
 718  11.58684
 719  156.7772
 720  223.083
 721  282.2836
 722  212.9263
 723  152.7099
 724  70.95496
 725  -94.92901
 726  -51.80856
 727  -76.39862
 728  -52.48263
 729  -91.04053
 730  26.66819
 731  84.48296
 732  174.1769
 733  96.93824
 734  27.30087
 735  5.562536
 736  12.92013
 737  12.82402
 738  25.35406
 739  27.30315
 740  -19.61803
 741  0.8232809
 742  105.1884
 743  132.3611
 744  120.0955
 745  126.9863
 746  149.1981
 747  52.48734
 748  -5.804716
 749  -19.06718
 750  19.52911
 751  42.29156
 752  36.69089
 753  64.34888
 754  132.6142
 755  214.9355
 756  269.3442
 757  201.1687
 758  162.5755
 759  199.4871
 760  247.0086
 761  168.4775
 762  212.9243
 763  144.7037
 764  203.2814
 765  92.95572
 766  158.7628
 767  203.7133
 768  174.2897
 769  110.6912
 770  102.6285
 771  135.9747
 772  203.0465
 773  140.4829
 774  137.4435
 775  92.0294
 776  171.2487
 777  199.4329
 778  221.6154
 779  213.9619
 780  181.2259
 781  176.2163
 782  153.4635
 783  140.2901
 784  193.287
 785  268.9772
 786  297.7603
 787  243.5952
 788  205.0466
 789  154.5259
 790  101.2336
 791  176.0222
 792  271.6762
 793  287.6982
 794  202.3214
 795  205.9651
 796  132.082
 797  117.8812
 798  26.54163
 799  70.33566
 800  65.92008
 801  158.9519
 802  279.6353
 803  248.3708
 804  89.61657
 805  -27.58665
 806  22.7243
 807  54.51815
 808  76.37356
 809  -0.294931
 810  68.18372
 811  148.4125
 812  178.5707
 813  164.4809
 814  174.923
 815  155.3157
 816  138.673
 817  67.85813
 818  144.6223
 819  95.83669
 820  104.7796
 821  37.87731
 822  38.36309
 823  14.50573
 824  53.57558
 825  88.53085
 826  66.41132
 827  16.18674
 828  104.1465
 829  136.2242
 830  177.2589
 831  42.78174
 832  25.22672
 833  -9.786808
 834  -10.74365
 835  -1.903157
 836  -56.59137
 837  -41.06352
 838  -109.2202
 839  -158.2477
 840  -105.489
 841  -43.82832
 842  7.570323
 843  -123.283
 844  -53.09168
 845  2.815818
 846  48.84824
 847  -1.341788
 848  81.66554
 849  91.10845
 850  -20.93344
 851  -102.0634
 852  18.12165
 853  183.7708
 854  262.6419
 855  175.018
 856  47.83674
 857  22.89151
 858  39.92978
 859  85.78722
 860  166.087
 861  207.2464
 862  118.2325
 863  -72.59837
 864  -67.81528
 865  -25.43592
 866  -70.33937
 867  -77.09019
 868  76.28097
 869  298.9125
 870  174.6424
 871  -50.33884
 872  -115.2962
 873  64.8895
 874  303.1718
 875  279.2923
 876  149.3901
 877  145.3715
 878  177.1366
 879  83.20969
 880  -71.76022
 881  -45.29837
 882  91.5653
 883  154.4838
 884  61.14302
 885  10.72331
 886  21.31962
 887  81.0173
 888  45.65921
 889  78.91444
 890  30.68152
 891  61.48716
 892  75.55987
 893  124.7413
 894  72.03291
 895  42.60448
 896  -14.94008
 897  21.84757
 898  -28.25621
 899  -80.98345
 900  -101.0153
 901  -26.42405
 902  87.90181
 903  50.71572
 904  85.47943
 905  112.1233
 906  150.9784
 907  102.1932
 908  55.52403
 909  22.9654
 910  -5.601664
 911  134.9469
 912  172.0853
 913  206.4567
 914  53.33791
 915  16.47458
 916  59.61477
 917  78.34671
 918  168.0165
 919  112.7031
 920  54.46159
 921  -102.7159
 922  -138.5151
 923  8.289222
 924  117.0977
 925  92.39996
 926  -38.37471
 927  -35.5875
 928  70.44226
 929  130.1798
 930  92.22127
 931  96.25754
 932  43.86656
 933  81.69382
 934  110.4148
 935  66.82159
 936  79.05726
 937  49.1083
 938  88.56084
 939  77.50967
 940  105.2242
 941  34.59929
 942  -83.44887
 943  -100.6358
 944  -70.29788
 945  6.122763
 946  -8.841558
 947  25.23223
 948  46.02123
 949  164.5927
 950  162.4169
 951  118.269
 952  105.1965
 953  219.5052
 954  274.8299
 955  230.5992
 956  157.7683
 957  80.15688
 958  139.9109
 959  174.4381
 960  177.0398
 961  193.1646
 962  303.068
 963  401.6398
 964  356.169
 965  247.0924
 966  178.0982
 967  165.4328
 968  155.7088
 969  150.9542
 970  165.3815
 971  136.2707
 972  43.98149
 973  -46.27073
 974  -39.48843
 975  -104.7679
 976  -19.79095
 977  39.87053
 978  205.0785
 979  284.6804
 980  193.3396
 981  -1.84865
 982  -184.9223
 983  -113.7859
 984  5.916216
 985  65.94292
 986  29.23552
 987  -7.354095
 988  67.48151
 989  107.4788
 990  80.07425
 991  84.47313
 992  153.7278
 993  271.1294
 994  342.7184
 995  250.6213
 996  213.7648
 997  107.3678
 998  162.0915
 999  129.0401
1000  118.1153
1001  -35.28662
1002  -67.84148
1003  -76.55842
1004  108.62
1005  175.3859
1006  235.719
1007  160.0788
1008  123.2449
1009  171.5368
1010  214.8868
1011  248.914
1012  162.2727
1013  144.8921
1014  56.94071
1015  166.0096
1016  126.533
1017  167.6705
1018  23.25012
1019  31.59113
1020  -10.39965
1021  49.99416
1022  143.0945
1023  187.061
