# Input file       =  1185765225.132344_cleaned.dat
# Candidate        =  PSR_0332+5434
# Telescope        =  AR
# Epoch_topo       =  57968.134770050281
# Epoch_bary       =  N/A
# T_sample         =  0.002
# Data Folded      =  7340032
# Data Avg         =  0.00870734506344275
# Data StdDev      =  1.00009465432445 
# Profile Bins     =  512
# Profile Avg      =  124.874802992243 
# Profile StdDev   =  119.744369626439 
# Reduced chi-sqr  =  1.912
# Prob(Noise)      <  1.52e-31   (~11.6 sigma)
# P_topo (ms)      =  714.46860448507   +/- 0.000173
# P'_topo (s/s)    =  -0                +/- 9.11e-11
# P''_topo (s/s^2) =  0                 +/- 4.02e-14
# P_bary (ms)      =  N/A
# P'_bary (s/s)    =  N/A
# P''_bary (s/s^2) =  N/A
# P_orb (s)        =  N/A
# asin(i)/c (s)    =  N/A
# eccentricity     =  N/A
# w (rad)          =  N/A
# T_peri           =  N/A
######################################################
   0  6.746595
   1  122.0918
   2  161.8895
   3  207.4799
   4  216.5115
   5  188.6272
   6  66.04237
   7  21.9634
   8  189.0036
   9  27.60558
  10  16.58611
  11  110.3816
  12  110.0985
  13  87.01816
  14  50.1655
  15  195.0135
  16  292.9423
  17  250.4447
  18  162.8174
  19  30.10842
  20  30.65207
  21  -31.47669
  22  115.8679
  23  262.1078
  24  217.7602
  25  241.2301
  26  139.3174
  27  106.24
  28  217.3743
  29  211.1644
  30  258.1686
  31  195.2773
  32  115.1791
  33  130.6897
  34  172.701
  35  140.5871
  36  65.27858
  37  71.46765
  38  58.93998
  39  127.3731
  40  167.0502
  41  172.3916
  42  193.8929
  43  166.3317
  44  157.3858
  45  9.492981
  46  2.005417
  47  31.75558
  48  13.76273
  49  52.3307
  50  222.2441
  51  203.4814
  52  152.1185
  53  153.1954
  54  183.7693
  55  264.6506
  56  255.2322
  57  137.1926
  58  119.4055
  59  141.2056
  60  362.2626
  61  343.1
  62  237.5538
  63  96.30942
  64  60.42376
  65  190.823
  66  137.8213
  67  146.2289
  68  342.8693
  69  69.80584
  70  -119.9872
  71  4.644517
  72  7.402858
  73  54.19867
  74  65.54059
  75  78.03419
  76  -10.45898
  77  -70.3176
  78  120.7685
  79  142.5873
  80  214.1675
  81  73.47362
  82  -99.55455
  83  -17.70276
  84  223.025
  85  176.7987
  86  43.94963
  87  114.5952
  88  73.45279
  89  4.661872
  90  -36.69931
  91  -69.91128
  92  70.78699
  93  8.451891
  94  1.156571
  95  28.27543
  96  84.18465
  97  71.78855
  98  165.8977
  99  212.8551
 100  218.4053
 101  84.54747
 102  62.73817
 103  -11.21545
 104  -37.95995
 105  -11.21155
 106  -78.7075
 107  -22.89598
 108  23.60549
 109  -11.87214
 110  -34.31028
 111  43.57442
 112  136.4678
 113  159.0549
 114  -27.24764
 115  -57.90093
 116  35.03144
 117  45.07352
 118  160.9112
 119  36.24854
 120  -4.541726
 121  79.6496
 122  141.491
 123  -24.16544
 124  -4.544872
 125  -2.654968
 126  137.5369
 127  167.4922
 128  58.82315
 129  174.9601
 130  56.24453
 131  76.68218
 132  222.3096
 133  188.0841
 134  104.8601
 135  144.7106
 136  246.7502
 137  163.133
 138  61.10228
 139  61.6928
 140  30.9465
 141  117.3593
 142  156.8865
 143  59.90088
 144  78.81387
 145  7.050276
 146  78.96394
 147  69.48666
 148  100.8826
 149  171.6607
 150  168.8776
 151  39.57819
 152  -81.6415
 153  -52.97504
 154  22.66207
 155  181.2629
 156  66.52661
 157  66.55671
 158  62.3613
 159  84.94424
 160  203.0979
 161  105.5233
 162  72.33884
 163  125.0778
 164  206.9679
 165  87.41355
 166  34.33906
 167  95.94017
 168  129.9188
 169  131.2551
 170  81.93669
 171  -26.69008
 172  73.17988
 173  -82.89207
 174  148.2623
 175  293.9865
 176  165.7009
 177  -33.46938
 178  -9.084816
 179  66.98817
 180  56.98453
 181  108.3417
 182  133.4115
 183  119.9646
 184  40.19815
 185  63.35788
 186  126.1526
 187  141.5098
 188  140.468
 189  255.0307
 190  186.3698
 191  160.0888
 192  253.2503
 193  111.3858
 194  244.0183
 195  92.74251
 196  202.2232
 197  29.73893
 198  -9.777309
 199  155.3781
 200  208.4771
 201  311.2279
 202  163.9037
 203  177.7765
 204  111.1898
 205  -25.61805
 206  53.94326
 207  274.0633
 208  230.873
 209  137.1133
 210  -0.9129232
 211  69.29405
 212  -122.0048
 213  10.86913
 214  92.67337
 215  138.7296
 216  102.7813
 217  33.75535
 218  119.0667
 219  202.6921
 220  126.2163
 221  16.04394
 222  101.8532
 223  117.8746
 224  142.566
 225  247.2152
 226  193.5542
 227  285.1349
 228  178.6854
 229  146.0667
 230  169.6511
 231  102.7099
 232  109.0653
 233  142.8956
 234  46.50604
 235  62.2535
 236  11.3603
 237  -13.54327
 238  -5.85711
 239  52.18954
 240  128.7438
 241  180.7946
 242  160.509
 243  173.713
 244  53.05792
 245  15.9582
 246  53.81029
 247  53.35575
 248  166.1587
 249  161.4108
 250  64.34115
 251  121.8209
 252  80.48667
 253  85.47861
 254  89.5526
 255  140.8263
 256  85.90505
 257  115.2735
 258  133.8251
 259  152.9451
 260  153.1952
 261  58.33331
 262  -73.28452
 263  -54.9699
 264  50.41277
 265  166.4166
 266  230.3674
 267  204.1053
 268  263.0101
 269  183.3566
 270  152.9136
 271  273.8073
 272  146.5373
 273  51.79067
 274  46.40079
 275  188.3869
 276  188.7461
 277  188.2844
 278  99.62833
 279  79.80107
 280  -32.77657
 281  179.4925
 282  158.9318
 283  175.2253
 284  150.1741
 285  61.89835
 286  20.96421
 287  25.04937
 288  104.4834
 289  1.126164
 290  -4.763947
 291  118.9111
 292  -5.009024
 293  -37.57999
 294  227.5425
 295  301.288
 296  249.4273
 297  136.4017
 298  152.0506
 299  140.4805
 300  159.8553
 301  263.2403
 302  61.03577
 303  -24.31109
 304  -28.59814
 305  45.72138
 306  117.2292
 307  148.4382
 308  104.2207
 309  64.32682
 310  233.7398
 311  251.7428
 312  336.3355
 313  158.4165
 314  59.69616
 315  35.30689
 316  25.94987
 317  59.63134
 318  81.19765
 319  40.66144
 320  23.87535
 321  124.3741
 322  94.14057
 323  177.3953
 324  140.9704
 325  135.2994
 326  204.1698
 327  201.8128
 328  204.6783
 329  300.986
 330  175.2817
 331  277.6281
 332  92.87502
 333  104.3253
 334  79.74174
 335  51.9122
 336  104.8756
 337  116.1592
 338  240.206
 339  229.207
 340  219.0446
 341  355.594
 342  369.4031
 343  325.8083
 344  428.3599
 345  420.0241
 346  652.6029
 347  891.7623
 348  979.3652
 349  959.7828
 350  799.5105
 351  554.9158
 352  364.2878
 353  269.9149
 354  106.6965
 355  80.4461
 356  14.72089
 357  163.7039
 358  125.1218
 359  182.2851
 360  147.2549
 361  129.375
 362  240.5059
 363  344.5376
 364  204.1108
 365  345.3054
 366  307.4524
 367  219.8603
 368  240.3094
 369  174.6912
 370  238.0924
 371  230.3572
 372  126.6955
 373  60.47655
 374  106.8849
 375  234.2636
 376  245.4413
 377  137.2335
 378  137.667
 379  128.4482
 380  142.5402
 381  92.13252
 382  288.727
 383  213.9207
 384  121.0492
 385  204.9191
 386  209.5994
 387  186.0573
 388  155.9402
 389  127.1943
 390  58.02349
 391  98.19252
 392  111.382
 393  57.30886
 394  105.1991
 395  49.28308
 396  36.60132
 397  98.79029
 398  264.235
 399  405.7769
 400  255.5925
 401  162.6916
 402  60.0985
 403  71.49704
 404  137.4446
 405  97.39589
 406  130.1313
 407  198.4454
 408  103.5026
 409  119.1837
 410  142.2502
 411  208.4057
 412  260.8385
 413  134.3565
 414  151.3164
 415  110.8026
 416  100.0868
 417  64.63361
 418  60.53414
 419  88.79163
 420  48.30141
 421  97.74966
 422  81.22153
 423  39.28331
 424  79.61497
 425  76.03596
 426  70.94028
 427  65.09344
 428  87.2381
 429  146.031
 430  151.1767
 431  65.12481
 432  6.434801
 433  111.634
 434  187.4888
 435  231.4497
 436  194.4921
 437  117.7128
 438  25.28605
 439  -7.974002
 440  158.299
 441  137.6982
 442  -34.29039
 443  -14.55099
 444  21.65349
 445  71.74692
 446  172.217
 447  -22.75313
 448  177.7859
 449  190.8848
 450  139.5433
 451  178.6307
 452  251.3934
 453  123.1441
 454  89.60958
 455  106.4085
 456  61.34988
 457  106.8214
 458  74.84484
 459  31.865
 460  53.36527
 461  233.4614
 462  165.6193
 463  84.38
 464  -102.8114
 465  53.48695
 466  101.0334
 467  -43.1667
 468  106.0336
 469  31.2426
 470  -10.35514
 471  166.6233
 472  220.2368
 473  40.93364
 474  -30.07166
 475  35.95195
 476  -65.48083
 477  -43.34249
 478  69.64923
 479  7.881204
 480  83.69082
 481  167.4133
 482  291.5756
 483  230.9548
 484  191.0011
 485  233.0257
 486  91.14989
 487  117.4541
 488  189.0027
 489  53.35686
 490  -10.16808
 491  166.0583
 492  271.3171
 493  219.2265
 494  52.78891
 495  177.015
 496  95.39478
 497  111.1114
 498  113.5383
 499  -62.84647
 500  17.27277
 501  71.91158
 502  136.7603
 503  88.17033
 504  -39.76142
 505  63.97929
 506  97.50156
 507  176.5589
 508  208.6609
 509  84.43353
 510  101.5114
 511  59.45621
