# Input file       =  1185607824.109255_cleaned.dat
# Candidate        =  PSR_0332+5434
# Telescope        =  AR
# Epoch_topo       =  57966.312998949710
# Epoch_bary       =  N/A
# T_sample         =  0.002
# Data Folded      =  7340032
# Data Avg         =  0.391463496533106
# Data StdDev      =  6.27102658444315 
# Profile Bins     =  256
# Profile Avg      =  11224.0384222529 
# Profile StdDev   =  1061.86091568073 
# Reduced chi-sqr  =  2.153
# Prob(Noise)      <  1.22e-23   (~10.0 sigma)
# P_topo (ms)      =  714.46969329304   +/- 0.000785
# P'_topo (s/s)    =  -0                +/- 4.14e-10
# P''_topo (s/s^2) =  0                 +/- 1.83e-13
# P_bary (ms)      =  N/A
# P'_bary (s/s)    =  N/A
# P''_bary (s/s^2) =  N/A
# P_orb (s)        =  N/A
# asin(i)/c (s)    =  N/A
# eccentricity     =  N/A
# w (rad)          =  N/A
# T_peri           =  N/A
######################################################
   0  9668.445
   1  9489.713
   2  9280.983
   3  8985.457
   4  9726.291
   5  10352.09
   6  10175.26
   7  10628.08
   8  10357.94
   9  9151.358
  10  9358.711
  11  9033.229
  12  9149.047
  13  8746.412
  14  8752.104
  15  9184.112
  16  9890.676
  17  9783.541
  18  10345.71
  19  10269.04
  20  10708.78
  21  10389.85
  22  10091.71
  23  10861.38
  24  10114.96
  25  10220.82
  26  9648.301
  27  9609.279
  28  8873.045
  29  7857.629
  30  8576.212
  31  9156.287
  32  9152.843
  33  9846.94
  34  10528.6
  35  10711.08
  36  10397.91
  37  10917.96
  38  10488.23
  39  10412.1
  40  10732.13
  41  10836.14
  42  10738.51
  43  10844.77
  44  10527.96
  45  10376.84
  46  10577.85
  47  10943.62
  48  9795.568
  49  9811.946
  50  10600.54
  51  10937.21
  52  11889.02
  53  11594.53
  54  11516.1
  55  11728.56
  56  12451.81
  57  11714.49
  58  11491.85
  59  11181.44
  60  11608.39
  61  11513.22
  62  12293.11
  63  11887.83
  64  12066.46
  65  12385.36
  66  11311.55
  67  10628.16
  68  10792.5
  69  11371.94
  70  11471.88
  71  10649.45
  72  11019.58
  73  11552.23
  74  11191.36
  75  10543.32
  76  11136.54
  77  11784.86
  78  12589.43
  79  12214.82
  80  12557.43
  81  13195.82
  82  13052.57
  83  14066.17
  84  13973.01
  85  12576.76
  86  13319.97
  87  14065.35
  88  13115.25
  89  12520.23
  90  12592.21
  91  12859.84
  92  12646.05
  93  12490.05
  94  13154.31
  95  12899.67
  96  12602.95
  97  12018.22
  98  12855.13
  99  12590.26
 100  12716.82
 101  13429.71
 102  13533.62
 103  12043.77
 104  12313.96
 105  12988.43
 106  13553.95
 107  12272.41
 108  13242.24
 109  13903.28
 110  13579.05
 111  12940.77
 112  13438.07
 113  13663.38
 114  14103.08
 115  13047.5
 116  12912.51
 117  13474.31
 118  13560.51
 119  12302.3
 120  12297.12
 121  12225.92
 122  11833.94
 123  11592.14
 124  11679.26
 125  11670.02
 126  12320.85
 127  12241.35
 128  12251.67
 129  11619.14
 130  11256.33
 131  11426.82
 132  11276.47
 133  11022.04
 134  10060.32
 135  10575.81
 136  10240.63
 137  10088.17
 138  10802.79
 139  10915.95
 140  9906.156
 141  9134.144
 142  9790.31
 143  10703.21
 144  10564.13
 145  10380.94
 146  10834.62
 147  10271.92
 148  11085.97
 149  11030.58
 150  10349.35
 151  9914.193
 152  10530.96
 153  10029.37
 154  9856.995
 155  10797.95
 156  10717.12
 157  11210.86
 158  11398.55
 159  12678.85
 160  12626.57
 161  13086.04
 162  14034.74
 163  13610.55
 164  12220.78
 165  10733.67
 166  11404.4
 167  11236.66
 168  11426.86
 169  12193.15
 170  10806.55
 171  10728.44
 172  10755.67
 173  9892.693
 174  9545.512
 175  10732.81
 176  11131.59
 177  10533.39
 178  11381.6
 179  10244.65
 180  11374.4
 181  12619.21
 182  11850.82
 183  12133.82
 184  12505.27
 185  12115.4
 186  12393.39
 187  11917.49
 188  11777.72
 189  12278.72
 190  12459.71
 191  12239.29
 192  12163.23
 193  12701.94
 194  11995
 195  11304.9
 196  12351.25
 197  12442.56
 198  12650.1
 199  12963.83
 200  13119.32
 201  12359.35
 202  12492.02
 203  12177.92
 204  12022.78
 205  12340.77
 206  12098.18
 207  11923.39
 208  11820.44
 209  11558.91
 210  12176.1
 211  11271.07
 212  11253.74
 213  12059.98
 214  11950.46
 215  12103.87
 216  12260.71
 217  11819.19
 218  11598.4
 219  11575.62
 220  11218.5
 221  11101.16
 222  11126.74
 223  11344.41
 224  10513.62
 225  10573.02
 226  11165.99
 227  11087.33
 228  11389.51
 229  11065.43
 230  11562.83
 231  11494.2
 232  10472.74
 233  9913.76
 234  10809.21
 235  9755.762
 236  9394.703
 237  9121.94
 238  9822.403
 239  9954.859
 240  9613.536
 241  9685.953
 242  10350.33
 243  10230.44
 244  9984.697
 245  9382.547
 246  9725.423
 247  8772.374
 248  9756.255
 249  7835.061
 250  8337.109
 251  8699.95
 252  8319.131
 253  7484.405
 254  8250.805
 255  9542.262
