# Input file       =  1185664428.103452_cleaned.dat
# Candidate        =  PSR_0332+5434
# Telescope        =  AR
# Epoch_topo       =  57966.968137771437
# Epoch_bary       =  N/A
# T_sample         =  0.002
# Data Folded      =  7208960
# Data Avg         =  0.0151163567528315
# Data StdDev      =  1.00010248571782 
# Profile Bins     =  512
# Profile Avg      =  212.832429362087 
# Profile StdDev   =  118.671336664337 
# Reduced chi-sqr  =  1.478
# Prob(Noise)      <  1e-11   (~6.7 sigma)
# P_topo (ms)      =  714.469068618807  +/- 0.000193
# P'_topo (s/s)    =  -0                +/- 1.04e-10
# P''_topo (s/s^2) =  0                 +/- 4.66e-14
# P_bary (ms)      =  N/A
# P'_bary (s/s)    =  N/A
# P''_bary (s/s^2) =  N/A
# P_orb (s)        =  N/A
# asin(i)/c (s)    =  N/A
# eccentricity     =  N/A
# w (rad)          =  N/A
# T_peri           =  N/A
######################################################
   0  951.8318
   1  766.9337
   2  671.9787
   3  441.5669
   4  382.0757
   5  198.1765
   6  220.073
   7  195.0092
   8  219.7357
   9  379.3692
  10  303.4486
  11  293.9536
  12  286.7398
  13  334.4244
  14  263.0705
  15  162.9034
  16  209.7737
  17  256.0658
  18  190.5309
  19  232.0458
  20  247.4549
  21  342.6512
  22  244.1067
  23  61.88951
  24  227.9112
  25  211.1655
  26  140.7088
  27  317.126
  28  299.7817
  29  217.264
  30  215.0639
  31  218.2612
  32  228.4888
  33  268.946
  34  293.6625
  35  365.9504
  36  225.6224
  37  159.3802
  38  225.8647
  39  222.4858
  40  374.0057
  41  272.4757
  42  219.9182
  43  308.3236
  44  195.9066
  45  120.3725
  46  178.8068
  47  247.6381
  48  299.4788
  49  162.8803
  50  359.3433
  51  411.7013
  52  271.589
  53  247.4983
  54  278.6375
  55  366.4038
  56  354.0591
  57  267.8894
  58  238.9782
  59  74.31039
  60  96.45424
  61  165.5699
  62  181.1603
  63  210.0092
  64  330.3652
  65  294.3463
  66  203.3549
  67  148.4138
  68  182.3919
  69  231.3038
  70  224.8114
  71  332.0735
  72  263.5547
  73  133.1724
  74  235.4161
  75  188.7379
  76  157.903
  77  282.4011
  78  253.9314
  79  296.8024
  80  215.7173
  81  229.3639
  82  132.5319
  83  137.1946
  84  179.9095
  85  223.4559
  86  325.9594
  87  325.7346
  88  272.1886
  89  173.5547
  90  167.8013
  91  192.9756
  92  281.4697
  93  243.6173
  94  187.4859
  95  195.2296
  96  207.927
  97  371.225
  98  238.4856
  99  174.082
 100  246.1704
 101  260.56
 102  190.9347
 103  140.5111
 104  361.6888
 105  355.5141
 106  250.6066
 107  326.2475
 108  384.8985
 109  149.719
 110  145.4422
 111  158.0159
 112  174.883
 113  103.6626
 114  255.8155
 115  284.5733
 116  277.0002
 117  203.6559
 118  133.0438
 119  253.0852
 120  254.9902
 121  340.4042
 122  188.63
 123  148.012
 124  272.5912
 125  231.4831
 126  155.3699
 127  179.822
 128  206.5173
 129  295.6503
 130  354.9596
 131  220.0615
 132  272.3428
 133  263.4879
 134  181.7364
 135  122.6548
 136  182.9198
 137  134.706
 138  82.37198
 139  223.0867
 140  323.965
 141  368.3745
 142  225.8648
 143  133.6697
 144  132.9022
 145  154.522
 146  261.2606
 147  138.8486
 148  162.5503
 149  333.3614
 150  271.3174
 151  195.7026
 152  155.3478
 153  332.0752
 154  172.023
 155  187.0066
 156  310.2206
 157  264.4447
 158  277.0256
 159  169.0624
 160  30.98278
 161  219.686
 162  249.6771
 163  217.6599
 164  291.36
 165  334.4159
 166  222.3707
 167  248.7519
 168  299.119
 169  201.8781
 170  156.4675
 171  255.4789
 172  298.9109
 173  187.8702
 174  199.6567
 175  343.2148
 176  119.3063
 177  65.04002
 178  164.5333
 179  320.6921
 180  393.8756
 181  226.6469
 182  184.3812
 183  209.7633
 184  152.6274
 185  241.5871
 186  162.6772
 187  63.13948
 188  261.1332
 189  203.9506
 190  99.58295
 191  52.20232
 192  85.15653
 193  166.9424
 194  143.2726
 195  34.4122
 196  180.186
 197  218.9809
 198  227.374
 199  322.8792
 200  101.3354
 201  136.0152
 202  51.39313
 203  95.5946
 204  234.8654
 205  96.24524
 206  291.0864
 207  226.0662
 208  133.0677
 209  127.3095
 210  198.648
 211  248.7433
 212  260.7525
 213  220.1137
 214  158.6235
 215  189.7001
 216  227.3312
 217  245.8121
 218  200.0807
 219  160.9551
 220  270.8406
 221  201.9752
 222  129.0966
 223  271.854
 224  292.5983
 225  137.6694
 226  81.13314
 227  27.0144
 228  152.7386
 229  148.4334
 230  80.70279
 231  241.904
 232  321.4626
 233  203.9118
 234  149.4265
 235  185.0764
 236  248.6703
 237  232.0913
 238  280.9154
 239  332.3413
 240  268.966
 241  302.9139
 242  246.0028
 243  113.251
 244  214.8463
 245  210.9896
 246  145.0707
 247  181.4074
 248  198.3556
 249  295.4895
 250  186.2687
 251  227.0518
 252  160.6953
 253  153.5535
 254  99.45786
 255  168.9359
 256  107.9697
 257  232.341
 258  115.8536
 259  186.279
 260  111.8499
 261  291.121
 262  263.0147
 263  149.6244
 264  291.8997
 265  105.5463
 266  97.17482
 267  205.8169
 268  162.1069
 269  144.2568
 270  134.5604
 271  175.6847
 272  167.1377
 273  267.1653
 274  285.8526
 275  188.6772
 276  181.1
 277  281.8452
 278  253.9906
 279  194.3226
 280  297.9764
 281  282.6776
 282  250.2097
 283  243.7739
 284  235.6839
 285  403.7037
 286  292.9442
 287  269.2173
 288  325.4545
 289  352.9767
 290  264.6133
 291  154.5655
 292  276.875
 293  200.9495
 294  106.8166
 295  127.3243
 296  308.1007
 297  352.5198
 298  255.5153
 299  170.1546
 300  142.7815
 301  209.2299
 302  166.6745
 303  177.6811
 304  283.0808
 305  274.1882
 306  232.0665
 307  125.6927
 308  165.1848
 309  186.5628
 310  219.8497
 311  124.9781
 312  147.0048
 313  229.346
 314  354.7815
 315  244.9093
 316  80.61859
 317  145.9398
 318  295.9994
 319  286.2958
 320  128.8783
 321  126.7523
 322  86.32534
 323  111.6386
 324  267.6092
 325  189.5347
 326  168.0097
 327  60.41633
 328  177.1742
 329  139.0329
 330  158.7959
 331  185.654
 332  144.9543
 333  221.7841
 334  141.299
 335  40.6272
 336  111.7206
 337  203.0265
 338  143.5714
 339  34.47839
 340  78.00881
 341  79.89378
 342  162.5679
 343  96.07185
 344  192.6314
 345  394.5401
 346  244.5436
 347  180.33
 348  285.0995
 349  228.0231
 350  194.4737
 351  137.4589
 352  71.81309
 353  119.9587
 354  191.0826
 355  178.0367
 356  44.85102
 357  98.82545
 358  70.82348
 359  137.9261
 360  112.3691
 361  137.3182
 362  364.4899
 363  242.0912
 364  154.8208
 365  146.6942
 366  172.1668
 367  216.207
 368  186.4124
 369  181.5635
 370  47.50772
 371  42.57525
 372  140.8837
 373  286.199
 374  173.9934
 375  117.9388
 376  89.30842
 377  236.4642
 378  222.1975
 379  198.1226
 380  342.6555
 381  205.9072
 382  174.1667
 383  87.58055
 384  171.9276
 385  101.1089
 386  42.40576
 387  100.9168
 388  153.7857
 389  82.48703
 390  -19.44241
 391  68.98849
 392  130.629
 393  185.9647
 394  132.6706
 395  212.2719
 396  351.0319
 397  328.4212
 398  121.5623
 399  165.4526
 400  198.4466
 401  102.7084
 402  225.7532
 403  195.5436
 404  294.5909
 405  248.7411
 406  101.001
 407  250.607
 408  319.7316
 409  246.5672
 410  270.3637
 411  233.072
 412  110.3119
 413  203.2117
 414  185.2316
 415  244.4976
 416  195.7427
 417  292.5266
 418  282.3976
 419  283.7416
 420  283.5514
 421  257.3439
 422  219.0721
 423  147.5083
 424  207.5224
 425  175.9082
 426  274.2101
 427  272.7531
 428  176.786
 429  212.7574
 430  98.47872
 431  32.64798
 432  139.0538
 433  146.4323
 434  183.0423
 435  151.4791
 436  109.5709
 437  219.3012
 438  187.4325
 439  161.6934
 440  213.4937
 441  108.4529
 442  114.9806
 443  174.0201
 444  140.6179
 445  17.36321
 446  176.1102
 447  288.2118
 448  341.1214
 449  355.4571
 450  310.2898
 451  252.8316
 452  150.1205
 453  176.6419
 454  48.09654
 455  53.87085
 456  181.0779
 457  145.1999
 458  201.577
 459  185.6297
 460  230.799
 461  372.8135
 462  252.6006
 463  148.7266
 464  53.02003
 465  114.76
 466  205.4557
 467  132.3365
 468  137.9185
 469  153.6184
 470  183.8588
 471  110.4039
 472  133.5151
 473  21.38426
 474  101.465
 475  179.4692
 476  145.4634
 477  226.7796
 478  232.9445
 479  173.1471
 480  179.7107
 481  78.30288
 482  138.8907
 483  96.66101
 484  304.3034
 485  335.7741
 486  172.3271
 487  173.0591
 488  294.351
 489  204.4628
 490  245.3105
 491  47.91617
 492  223.5407
 493  221.7085
 494  201.568
 495  297.3438
 496  236.0134
 497  134.6754
 498  158.3989
 499  181.7939
 500  73.06775
 501  301.8164
 502  344.0399
 503  308.455
 504  364.4432
 505  412.6737
 506  370.712
 507  428.6091
 508  356.353
 509  532.0129
 510  748.4284
 511  1024.48
