# Input file       =  1185693974.115253_cleaned.dat
# Candidate        =  PSR_0332+5434
# Telescope        =  AR
# Epoch_topo       =  57967.310105500612
# Epoch_bary       =  N/A
# T_sample         =  0.002
# Data Folded      =  7340032
# Data Avg         =  0.00866847260996501
# Data StdDev      =  2.61599029593335 
# Profile Bins     =  512
# Profile Avg      =  124.22285762799  
# Profile StdDev   =  313.220461264255 
# Reduced chi-sqr  =  1.343
# Prob(Noise)      <  3.11e-07   (~5.0 sigma)
# P_topo (ms)      =  714.469274273327  +/- 0.000195
# P'_topo (s/s)    =  -0                +/- 1.03e-10
# P''_topo (s/s^2) =  0                 +/- 4.53e-14
# P_bary (ms)      =  N/A
# P'_bary (s/s)    =  N/A
# P''_bary (s/s^2) =  N/A
# P_orb (s)        =  N/A
# asin(i)/c (s)    =  N/A
# eccentricity     =  N/A
# w (rad)          =  N/A
# T_peri           =  N/A
######################################################
   0  52.41221
   1  183.6641
   2  238.1441
   3  149.6618
   4  212.717
   5  260.6974
   6  2.53684
   7  -123.0565
   8  281.158
   9  428.163
  10  358.2029
  11  10.94771
  12  -222.3315
  13  24.05011
  14  -39.01622
  15  245.6179
  16  165.1011
  17  102.3826
  18  -36.75478
  19  201.053
  20  75.66279
  21  153.1908
  22  -5.002255
  23  30.02098
  24  33.7047
  25  -164.4599
  26  56.26638
  27  116.5598
  28  28.86517
  29  186.3234
  30  334.8237
  31  -52.29842
  32  -103.4408
  33  -26.81929
  34  -131.3476
  35  32.5934
  36  226.6418
  37  -57.50426
  38  -38.91066
  39  -40.01768
  40  297.5014
  41  100.0699
  42  67.55767
  43  4.193352
  44  269.6346
  45  235.1319
  46  330.052
  47  93.91016
  48  -7.414354
  49  -236.7614
  50  -32.25958
  51  169.9863
  52  -34.7059
  53  -177.9944
  54  275.7146
  55  -71.59411
  56  -267.149
  57  -169.0037
  58  -107.5849
  59  24.2434
  60  397.8516
  61  116.7396
  62  54.11071
  63  -281.6721
  64  -51.0417
  65  330.2239
  66  188.5992
  67  338.1426
  68  580.0628
  69  539.6559
  70  418.6552
  71  -94.63006
  72  56.05962
  73  -3.498775
  74  -132.1967
  75  59.04441
  76  570.2793
  77  335.4066
  78  -287.494
  79  -412.2927
  80  185.3882
  81  533.2562
  82  517.3553
  83  452.0585
  84  571.1831
  85  304.5014
  86  275.7403
  87  227.8302
  88  72.82507
  89  -273.7806
  90  -179.4023
  91  -1.082114
  92  -20.75074
  93  398.1658
  94  320.88
  95  480.9035
  96  82.39529
  97  -107.3874
  98  99.66136
  99  215.2758
 100  285.2748
 101  -117.4064
 102  -250.3941
 103  -9.051782
 104  139.3202
 105  417.9259
 106  265.1071
 107  415.0053
 108  277.8877
 109  110.3346
 110  47.14366
 111  252.9023
 112  288.6829
 113  -11.01727
 114  274.1335
 115  336.9064
 116  139.2937
 117  138.7611
 118  -223.8203
 119  -265.8688
 120  202.6825
 121  35.03163
 122  -177.2541
 123  -315.827
 124  -62.98644
 125  238.8856
 126  -44.52064
 127  159.2435
 128  -24.80874
 129  -167.533
 130  -19.57186
 131  30.96952
 132  159.0534
 133  253.1942
 134  156.9891
 135  25.38815
 136  -14.69298
 137  90.05526
 138  176.2284
 139  19.43931
 140  215.562
 141  -91.45831
 142  83.58138
 143  467.8664
 144  284.3306
 145  -2.689709
 146  49.45097
 147  268.4427
 148  -94.0701
 149  54.10971
 150  40.38322
 151  -49.11237
 152  87.91048
 153  381.6503
 154  443.0324
 155  -59.20048
 156  -66.98418
 157  -181.4268
 158  -299.4821
 159  48.87046
 160  326.7163
 161  47.59187
 162  7.926049
 163  45.9543
 164  -43.34126
 165  112.2192
 166  128.8369
 167  200.9296
 168  -81.30229
 169  18.21535
 170  205.0683
 171  83.31837
 172  137.2786
 173  15.58498
 174  -58.49958
 175  45.12279
 176  5.883374
 177  83.42776
 178  197.9036
 179  352.8196
 180  -202.5612
 181  -322.1433
 182  -76.99011
 183  131.2984
 184  108.1259
 185  88.28323
 186  228.8987
 187  410.1939
 188  87.70023
 189  461.6264
 190  366.0252
 191  253.9215
 192  149.298
 193  15.49538
 194  300.3466
 195  266.2104
 196  -32.55403
 197  -211.0313
 198  311.5746
 199  384.9431
 200  294.5631
 201  230.2044
 202  458.2628
 203  340.0252
 204  -74.35183
 205  -323.3928
 206  129.4077
 207  -193.8873
 208  255.9188
 209  287.3114
 210  258.6399
 211  392.3014
 212  389.5726
 213  -271.8291
 214  -176.2406
 215  198.0175
 216  73.19859
 217  -183.7618
 218  88.34338
 219  45.07894
 220  86.88589
 221  179.8254
 222  8.613735
 223  398.096
 224  390.9513
 225  516.9811
 226  44.68211
 227  50.96612
 228  306.8158
 229  392.7545
 230  299.5477
 231  49.6589
 232  377.8845
 233  186.3124
 234  112.9608
 235  256.1403
 236  -81.64091
 237  -410.3622
 238  -148.159
 239  -113.5385
 240  109.9035
 241  98.58305
 242  107.444
 243  533.2992
 244  169.2008
 245  -214.6723
 246  -192.2332
 247  -28.93555
 248  -125.0614
 249  150.5571
 250  47.62612
 251  -284.4028
 252  -308.1438
 253  122.3782
 254  84.02312
 255  22.12404
 256  175.208
 257  243.9183
 258  -36.29136
 259  -58.8707
 260  504.8135
 261  246.461
 262  76.22033
 263  -113.4786
 264  -307.5297
 265  213.4541
 266  70.35639
 267  -92.19897
 268  217.0583
 269  607.1432
 270  245.9219
 271  304.035
 272  389.5869
 273  333.7407
 274  150.1911
 275  -91.9759
 276  -203.6732
 277  -106.2171
 278  156.7413
 279  -16.41123
 280  163.4549
 281  277.5746
 282  -105.5031
 283  4.439539
 284  74.24689
 285  -17.1896
 286  340.0956
 287  388.1052
 288  314.1526
 289  -157.2156
 290  44.9212
 291  72.23528
 292  -182.4666
 293  122.8452
 294  408.4583
 295  427.9626
 296  256.9829
 297  75.73808
 298  -201.3256
 299  -77.96471
 300  50.73758
 301  -159.5699
 302  112.2072
 303  117.8714
 304  282.525
 305  -80.79595
 306  288.8614
 307  391.9503
 308  81.97276
 309  -101.0367
 310  264.433
 311  302.8057
 312  142.4762
 313  58.05387
 314  220.4212
 315  194.9768
 316  446.9999
 317  560.9199
 318  588.0691
 319  422.7203
 320  984.0139
 321  869.104
 322  1054.871
 323  1270.573
 324  1453.156
 325  1777.003
 326  1719.7
 327  1407.559
 328  718.6577
 329  380.7792
 330  360.8929
 331  153.4062
 332  488.4928
 333  639.1209
 334  121.5598
 335  -146.3199
 336  -356.2694
 337  101.3635
 338  247.7543
 339  -133.6498
 340  -45.43918
 341  92.27451
 342  184.7566
 343  -92.47463
 344  -170.4426
 345  132.1938
 346  277.4711
 347  190.4731
 348  -160.9557
 349  -355.7026
 350  -64.21104
 351  64.73019
 352  143.7644
 353  382.0963
 354  526.2479
 355  111.4399
 356  -320.203
 357  -212.1813
 358  -235.783
 359  -161.1086
 360  -82.78091
 361  59.86825
 362  428.4869
 363  336.7571
 364  -180.271
 365  43.76942
 366  132.6074
 367  135.8075
 368  415.8925
 369  240.6255
 370  -205.205
 371  -79.96188
 372  124.1821
 373  -36.15509
 374  100.3346
 375  516.1706
 376  485.1534
 377  172.5664
 378  138.6275
 379  74.73767
 380  120.1765
 381  247.074
 382  298.2392
 383  97.14403
 384  194.0096
 385  200.3113
 386  273.2084
 387  194.1393
 388  290.6587
 389  -78.11788
 390  -186.6391
 391  380.7431
 392  16.74756
 393  -261.113
 394  20.969
 395  262.7908
 396  279.8322
 397  38.72667
 398  231.7496
 399  165.0361
 400  389.1294
 401  113.0022
 402  -283.9968
 403  -151.4467
 404  251.3132
 405  14.31068
 406  29.47885
 407  104.146
 408  74.69896
 409  389.1342
 410  413.2381
 411  297.4982
 412  159.7209
 413  325.1293
 414  138.2206
 415  71.20583
 416  220.2
 417  282.5276
 418  297.7431
 419  208.0409
 420  256.3495
 421  267.1914
 422  311.3695
 423  -25.94546
 424  -214.0069
 425  58.62086
 426  5.426508
 427  -331.1881
 428  -242.7318
 429  -202.0284
 430  8.122602
 431  111.8202
 432  -199.4499
 433  -3.599146
 434  174.4254
 435  -44.7107
 436  -187.0934
 437  -389.8223
 438  271.4997
 439  283.9414
 440  10.76457
 441  259.461
 442  35.28121
 443  358.1628
 444  280.3883
 445  -12.9402
 446  103.218
 447  29.98718
 448  46.86475
 449  464.5325
 450  401.1786
 451  324.8178
 452  212.7267
 453  158.3964
 454  -201.4084
 455  6.931495
 456  301.469
 457  190.4655
 458  140.7838
 459  -161.6785
 460  100.78
 461  117.4218
 462  142.711
 463  130.6839
 464  -35.1154
 465  73.0703
 466  182.0571
 467  111.1074
 468  18.01985
 469  -232.5801
 470  244.6506
 471  269.2961
 472  -203.8887
 473  -139.5543
 474  -6.338452
 475  147.4544
 476  116.5168
 477  -158.44
 478  208.4011
 479  474.3516
 480  610.6601
 481  154.476
 482  280.2679
 483  612.366
 484  121.4356
 485  -139.4268
 486  -107.8793
 487  -89.27034
 488  259.0303
 489  172.0669
 490  8.245518
 491  80.55919
 492  -46.48686
 493  424.7325
 494  505.9236
 495  50.14838
 496  -180.6321
 497  -75.29326
 498  -405.6284
 499  -393.4512
 500  -347.8999
 501  -391.2712
 502  -267.513
 503  -5.309093
 504  259.7933
 505  71.74261
 506  123.2681
 507  145.0276
 508  219.1056
 509  99.55154
 510  46.60762
 511  148.329
