# Input file       =  1185937604.112604_cleaned.dat
# Candidate        =  PSR_0332+5434
# Telescope        =  AR
# Epoch_topo       =  57970.129897136620
# Epoch_bary       =  N/A
# T_sample         =  0.002
# Data Folded      =  7340032
# Data Avg         =  0.00614944658025236
# Data StdDev      =  1.00000931805393 
# Profile Bins     =  512
# Profile Avg      =  88.1110984972358 
# Profile StdDev   =  119.734152055656 
# Reduced chi-sqr  =  1.772
# Prob(Noise)      <  2.08e-24   (~10.1 sigma)
# P_topo (ms)      =  714.467834277743  +/- 0.000164
# P'_topo (s/s)    =  -0                +/- 8.63e-11
# P''_topo (s/s^2) =  0                 +/- 3.81e-14
# P_bary (ms)      =  N/A
# P'_bary (s/s)    =  N/A
# P''_bary (s/s^2) =  N/A
# P_orb (s)        =  N/A
# asin(i)/c (s)    =  N/A
# eccentricity     =  N/A
# w (rad)          =  N/A
# T_peri           =  N/A
######################################################
   0  991.0143
   1  700.5662
   2  473.8709
   3  230.4088
   4  182.5931
   5  323.7748
   6  208.8787
   7  74.86452
   8  70.5803
   9  126.0835
  10  154.058
  11  168.7598
  12  156.8779
  13  345.8996
  14  246.5354
  15  184.5826
  16  228.1641
  17  196.0735
  18  51.46273
  19  165.2097
  20  146.2655
  21  38.43195
  22  160.8198
  23  28.88352
  24  48.0022
  25  78.99426
  26  -61.72578
  27  -91.23816
  28  -56.55952
  29  57.90882
  30  20.28124
  31  82.16544
  32  274.3387
  33  83.11363
  34  32.68227
  35  188.2582
  36  219.5148
  37  69.57521
  38  -65.42153
  39  -51.35022
  40  9.755324
  41  130.6087
  42  32.71549
  43  14.6073
  44  28.96191
  45  5.616907
  46  58.39469
  47  108.598
  48  108.9848
  49  -3.39267
  50  -4.047138
  51  45.85734
  52  115.2521
  53  202.3253
  54  130.3613
  55  179.0825
  56  170.2544
  57  150.5775
  58  134.6549
  59  140.7596
  60  93.29196
  61  163.5817
  62  118.8286
  63  133.0317
  64  205.8051
  65  190.0714
  66  114.051
  67  133.3346
  68  230.8069
  69  160.9342
  70  97.544
  71  215.3505
  72  186.4987
  73  162.9828
  74  81.29598
  75  69.62772
  76  211.6378
  77  99.70311
  78  -11.22839
  79  46.75647
  80  42.22187
  81  139.6346
  82  131.7816
  83  110.0342
  84  120.1805
  85  87.03854
  86  33.71292
  87  68.80746
  88  70.41409
  89  88.32432
  90  165.2833
  91  48.30744
  92  -27.52729
  93  -29.31346
  94  -81.57983
  95  -112.9307
  96  -15.21105
  97  -39.9726
  98  52.2335
  99  56.01097
 100  -3.083645
 101  -14.43022
 102  207.4873
 103  56.84577
 104  42.8566
 105  155.559
 106  125.8891
 107  -64.82478
 108  -41.83356
 109  59.52066
 110  159.6772
 111  -81.76067
 112  232.3646
 113  176.1565
 114  157.5268
 115  -28.31482
 116  52.47668
 117  93.42921
 118  46.18692
 119  51.76792
 120  55.48054
 121  85.3868
 122  58.23599
 123  -7.309819
 124  -22.04176
 125  -87.63133
 126  54.34755
 127  71.66599
 128  118.136
 129  62.25996
 130  31.25717
 131  179.0951
 132  100.4512
 133  63.71245
 134  140.2287
 135  58.13768
 136  -82.97468
 137  88.46113
 138  -8.869247
 139  49.75288
 140  98.39211
 141  73.65701
 142  94.63966
 143  48.79907
 144  75.93088
 145  96.00689
 146  -46.78699
 147  -77.14333
 148  -15.33498
 149  49.20338
 150  136.9681
 151  94.2859
 152  215.0041
 153  145.7476
 154  96.16969
 155  154.8844
 156  261.0289
 157  344.5367
 158  183.3272
 159  132.6811
 160  135.4338
 161  68.96018
 162  -46.35462
 163  -6.768513
 164  181.7129
 165  185.8292
 166  -101.7831
 167  -8.736062
 168  32.77881
 169  30.67349
 170  75.41211
 171  104.7909
 172  265.2271
 173  175.3709
 174  124.9852
 175  112.8707
 176  -51.03526
 177  46.53651
 178  195.6579
 179  134.5734
 180  170.8695
 181  163.3533
 182  99.20988
 183  160.1995
 184  95.29422
 185  9.89
 186  109.5139
 187  218.0867
 188  259.2745
 189  63.80964
 190  -65.32925
 191  -50.6935
 192  -180.5013
 193  -88.2104
 194  4.474532
 195  190.9167
 196  3.866039
 197  -68.75841
 198  -25.72031
 199  47.55635
 200  94.06203
 201  118.3025
 202  147.4403
 203  125.275
 204  101.0032
 205  193.3522
 206  78.00663
 207  -25.54876
 208  -40.70458
 209  137.7485
 210  211.8528
 211  124.6958
 212  130.7415
 213  224.1028
 214  50.52464
 215  -95.66109
 216  128.7126
 217  18.29647
 218  -20.86714
 219  64.13038
 220  9.484365
 221  136.9243
 222  145.3945
 223  167.0969
 224  205.218
 225  214.9041
 226  227.8654
 227  213.2401
 228  152.3532
 229  171.0638
 230  176.029
 231  229.3519
 232  89.55021
 233  -21.42975
 234  21.4258
 235  43.24664
 236  31.75428
 237  58.99436
 238  144.6443
 239  79.14622
 240  87.46767
 241  74.57661
 242  132.297
 243  1.694679
 244  74.86559
 245  124.1526
 246  72.82909
 247  122.0021
 248  117.7828
 249  97.49641
 250  37.58689
 251  18.20711
 252  69.9378
 253  202.6229
 254  159.7076
 255  80.65327
 256  143.026
 257  159.5132
 258  167.0839
 259  75.63238
 260  45.93752
 261  83.96603
 262  136.7133
 263  130.2617
 264  98.8185
 265  33.40544
 266  17.13978
 267  73.34248
 268  131.4657
 269  48.24795
 270  227.8999
 271  221.6392
 272  203.7009
 273  141.9842
 274  19.7861
 275  84.57524
 276  179.0424
 277  191.1987
 278  45.44532
 279  95.34322
 280  137.5449
 281  258.3906
 282  184.4562
 283  232.692
 284  254.7053
 285  208.3412
 286  84.11053
 287  233.1494
 288  124.8632
 289  98.55099
 290  61.43608
 291  172.0438
 292  92.45238
 293  65.85421
 294  117.1176
 295  214.4602
 296  143.1113
 297  100.5025
 298  189.6014
 299  100.6596
 300  74.04612
 301  111.6476
 302  71.44156
 303  50.68797
 304  81.13202
 305  5.534377
 306  2.537082
 307  49.45725
 308  268.8207
 309  199.9267
 310  110.8161
 311  214.7286
 312  154.2398
 313  170.9267
 314  199.6089
 315  138.7949
 316  133.933
 317  84.17402
 318  84.00656
 319  123.0328
 320  94.92287
 321  149.3547
 322  82.4222
 323  4.704145
 324  2.471862
 325  43.12875
 326  -71.59599
 327  -4.820777
 328  97.4118
 329  254.3785
 330  122.7124
 331  110.933
 332  230.8476
 333  179.5005
 334  134.8351
 335  263.7389
 336  219.1105
 337  118.5459
 338  88.33672
 339  14.85266
 340  159.0551
 341  162.3462
 342  54.76696
 343  188.9943
 344  273.9784
 345  166.3164
 346  222.8751
 347  118.0752
 348  66.01385
 349  28.5231
 350  112.5872
 351  243.3133
 352  -7.689702
 353  -31.62701
 354  38.53442
 355  239.3365
 356  101.1062
 357  -8.987444
 358  184.5924
 359  250.3892
 360  6.320443
 361  -5.566459
 362  74.76517
 363  65.71023
 364  69.02499
 365  2.965546
 366  174.3088
 367  100.8081
 368  112.4482
 369  146.7896
 370  159.4605
 371  -0.8571686
 372  -6.012946
 373  5.422153
 374  12.7053
 375  -33.65719
 376  57.80886
 377  47.5807
 378  -4.837054
 379  109.3033
 380  143.9992
 381  -23.84992
 382  -65.43408
 383  19.78071
 384  152.9435
 385  158.3767
 386  93.98417
 387  147.3524
 388  87.41457
 389  -62.88153
 390  48.43204
 391  75.58062
 392  152.6695
 393  165.3458
 394  207.1436
 395  26.63512
 396  41.60062
 397  43.86536
 398  38.02829
 399  -86.95281
 400  -140.584
 401  63.24103
 402  49.13674
 403  -20.23169
 404  -14.10203
 405  149.6028
 406  118.7238
 407  -9.142429
 408  45.54021
 409  -15.67643
 410  78.64113
 411  74.61666
 412  -43.87665
 413  86.8269
 414  -31.0826
 415  -66.41506
 416  0.7060059
 417  -65.45811
 418  65.96249
 419  5.131637
 420  -0.2821548
 421  49.35943
 422  -76.00372
 423  -53.45432
 424  101.5241
 425  147.259
 426  58.60122
 427  -58.05759
 428  -29.23149
 429  107.1976
 430  30.50843
 431  64.67498
 432  5.579681
 433  -66.06178
 434  -72.58952
 435  -38.25759
 436  -90.7236
 437  16.18143
 438  25.91404
 439  1.69614
 440  -79.97406
 441  -44.53852
 442  -48.33812
 443  -138.4745
 444  -150.9942
 445  8.838644
 446  140.0675
 447  -110.0962
 448  -49.46277
 449  35.82736
 450  37.80813
 451  25.968
 452  -41.11737
 453  33.32341
 454  84.01582
 455  37.33408
 456  12.23357
 457  -2.63764
 458  103.2581
 459  -35.53484
 460  -90.99282
 461  -10.99091
 462  -65.71766
 463  17.17829
 464  73.59506
 465  54.26589
 466  43.54678
 467  74.27544
 468  58.28214
 469  24.22285
 470  -9.873097
 471  -125.6223
 472  -27.34229
 473  -16.70077
 474  -69.00294
 475  -100.1563
 476  -63.69471
 477  41.65748
 478  -89.32486
 479  -7.333227
 480  22.41064
 481  13.85896
 482  -125.6716
 483  -77.92385
 484  -4.682491
 485  -26.41587
 486  63.40319
 487  124.5285
 488  125.1993
 489  164.8856
 490  85.80025
 491  48.71275
 492  156.1176
 493  90.45082
 494  111.6944
 495  232.6343
 496  87.15902
 497  41.72001
 498  -112.2775
 499  34.13118
 500  121.4893
 501  133.6858
 502  140.145
 503  253.6557
 504  237.2805
 505  174.1838
 506  186.3128
 507  289.055
 508  297.2558
 509  445.2267
 510  641.8786
 511  921.6829
