# Input file       =  1185922931.11324_cleaned.dat
# Candidate        =  PSR_0332+5434
# Telescope        =  AR
# Epoch_topo       =  57969.960070755093
# Epoch_bary       =  N/A
# T_sample         =  0.002
# Data Folded      =  7208960
# Data Avg         =  0.0165197339885915
# Data StdDev      =  1.00002511943294 
# Profile Bins     =  512
# Profile Avg      =  232.655109225222 
# Profile StdDev   =  118.66215644474  
# Reduced chi-sqr  =  1.425
# Prob(Noise)      <  7.9e-10   (~6.0 sigma)
# P_topo (ms)      =  714.467884230494  +/- 0.000169
# P'_topo (s/s)    =  -0                +/- 9.07e-11
# P''_topo (s/s^2) =  0                 +/- 4.08e-14
# P_bary (ms)      =  N/A
# P'_bary (s/s)    =  N/A
# P''_bary (s/s^2) =  N/A
# P_orb (s)        =  N/A
# asin(i)/c (s)    =  N/A
# eccentricity     =  N/A
# w (rad)          =  N/A
# T_peri           =  N/A
######################################################
   0  832.1329
   1  694.7882
   2  518.2705
   3  310.7397
   4  254.005
   5  165.4159
   6  241.4891
   7  384.7408
   8  310.1942
   9  95.47952
  10  90.36856
  11  253.3503
  12  295.124
  13  180.1035
  14  157.8396
  15  237.726
  16  229.9357
  17  267.962
  18  363.9161
  19  308.2964
  20  217.0353
  21  54.6259
  22  143.9851
  23  293.3055
  24  202.4255
  25  62.94578
  26  121.8874
  27  166.0677
  28  280.4901
  29  298.994
  30  195.7308
  31  154.2044
  32  212.92
  33  317.144
  34  396.1801
  35  356.9295
  36  228.6146
  37  36.20915
  38  176.9067
  39  257.1389
  40  274.4554
  41  222.4852
  42  258.8166
  43  250.5913
  44  243.4821
  45  301.6194
  46  303.6367
  47  235.7048
  48  152.0672
  49  125.0309
  50  138.6534
  51  207.3177
  52  190.881
  53  115.2278
  54  94.76965
  55  86.53879
  56  261.767
  57  236.8494
  58  245.7886
  59  294.376
  60  284.2943
  61  191.2331
  62  88.89377
  63  226.1698
  64  240.3911
  65  179.7402
  66  225.6477
  67  283.1786
  68  159.0008
  69  128.1978
  70  265.666
  71  295.5824
  72  140.7508
  73  133.1611
  74  122.4383
  75  165.2531
  76  117.6805
  77  136.5935
  78  268.7755
  79  167.7353
  80  74.15891
  81  3.007715
  82  86.69284
  83  269.0439
  84  211.5032
  85  228.9456
  86  261.6458
  87  161.6269
  88  261.744
  89  359.6386
  90  313.2823
  91  268.1702
  92  377.6965
  93  274.0991
  94  194.1749
  95  139.5251
  96  236.2901
  97  250.0943
  98  294.0509
  99  341.707
 100  316.8778
 101  280.546
 102  205.6093
 103  110.6613
 104  255.0074
 105  184.5971
 106  180.294
 107  268.3308
 108  271.8174
 109  284.1814
 110  336.2927
 111  308.0349
 112  114.0331
 113  339.9328
 114  313.5326
 115  267.1551
 116  363.7749
 117  383.5695
 118  273.9607
 119  165.4145
 120  263.0705
 121  272.5275
 122  167.788
 123  289.6602
 124  391.6027
 125  336.0954
 126  325.9932
 127  318.1325
 128  401.9153
 129  392.5564
 130  248.9087
 131  265.6565
 132  227.0505
 133  317.2777
 134  304.5672
 135  285.7875
 136  211.7214
 137  261.6433
 138  183.0922
 139  139.1734
 140  323.0608
 141  391.2556
 142  425.7264
 143  372.1478
 144  388.8889
 145  255.964
 146  157.9124
 147  326.5979
 148  285.1843
 149  294.6743
 150  293.8338
 151  246.7958
 152  271.2497
 153  279.2617
 154  213.3515
 155  173.9237
 156  198.2773
 157  125.7951
 158  112.6451
 159  316.5468
 160  274.1304
 161  171.6252
 162  206.8481
 163  193.3336
 164  238.067
 165  280.5849
 166  240.1322
 167  307.9173
 168  297.7912
 169  227.4144
 170  330.3777
 171  307.6309
 172  151.9245
 173  245.818
 174  312.2087
 175  433.9015
 176  439.8366
 177  324.2763
 178  368.8028
 179  451.7141
 180  215.5013
 181  229.1417
 182  346.1984
 183  362.0428
 184  532.6448
 185  440.6335
 186  312.6185
 187  388.5383
 188  257.5161
 189  225.1188
 190  201.9682
 191  244.2242
 192  265.5782
 193  319.6347
 194  226.3426
 195  196.705
 196  310.8123
 197  271.7907
 198  203.3107
 199  206.6585
 200  279.8882
 201  263.102
 202  224.5931
 203  231.1652
 204  158.5162
 205  294.9005
 206  356.7903
 207  209.8647
 208  257.1013
 209  189.3035
 210  292.1862
 211  277.2736
 212  214.4578
 213  242.6017
 214  336.4093
 215  356.5626
 216  303.6644
 217  477.3618
 218  434.2921
 219  281.31
 220  300.0331
 221  340.5241
 222  106.8563
 223  171.6432
 224  179.4844
 225  185.1382
 226  170.2064
 227  304.4469
 228  286.4585
 229  217.9851
 230  241.5068
 231  258.1703
 232  255.6109
 233  229.5084
 234  321.5904
 235  245.4221
 236  348.6531
 237  273.939
 238  301.965
 239  93.134
 240  107.0905
 241  271.4735
 242  345.5882
 243  426.2437
 244  256.385
 245  233.9866
 246  142.7999
 247  125.9584
 248  117.9447
 249  264.7007
 250  363.4174
 251  354.0777
 252  365.9327
 253  312.6999
 254  244.4984
 255  178.3107
 256  314.8793
 257  292.4893
 258  180.0656
 259  206.974
 260  222.4737
 261  351.0912
 262  213.1476
 263  264.9625
 264  377.4562
 265  316.3745
 266  97.88074
 267  194.0419
 268  205.455
 269  252.4893
 270  225.1185
 271  158.558
 272  171.9069
 273  210.3726
 274  327.908
 275  262.9015
 276  172.5616
 277  148.569
 278  180.0601
 279  360.2296
 280  373.0688
 281  300.0972
 282  227.1634
 283  230.0488
 284  219.7135
 285  289.6388
 286  206.2124
 287  197.5508
 288  187.2495
 289  83.10342
 290  166.0068
 291  203.2822
 292  325.3651
 293  392.7457
 294  289.9226
 295  212.1253
 296  253.5205
 297  189.0891
 298  213.3954
 299  283.0324
 300  338.9885
 301  260.2029
 302  193.4274
 303  203.043
 304  231.3127
 305  181.6446
 306  150.4804
 307  83.41557
 308  123.7117
 309  200.4354
 310  206.1635
 311  76.67625
 312  101.7556
 313  274.5167
 314  338.147
 315  317.0203
 316  321.7911
 317  184.7367
 318  122.4145
 319  209.9974
 320  243.7116
 321  216.9398
 322  178.4832
 323  310.0948
 324  234.3656
 325  273.441
 326  242.39
 327  319.9391
 328  280.2263
 329  254.7697
 330  258.8662
 331  222.9246
 332  188.6548
 333  280.6006
 334  305.6316
 335  325.1725
 336  219.4291
 337  190.0152
 338  190.7482
 339  245.3155
 340  155.5698
 341  153.8445
 342  207.5022
 343  219.3511
 344  301.7795
 345  177.2678
 346  204.9972
 347  84.7433
 348  76.84814
 349  85.78239
 350  109.965
 351  233.0017
 352  193.6125
 353  238.474
 354  167.2748
 355  265.5831
 356  268.6709
 357  313.5935
 358  220.4476
 359  177.8635
 360  196.0036
 361  58.2935
 362  87.94203
 363  196.5172
 364  74.71334
 365  99.31315
 366  180.9745
 367  242.7272
 368  113.5068
 369  83.49926
 370  140.6851
 371  35.71255
 372  68.12705
 373  32.84451
 374  69.74141
 375  180.402
 376  252.4709
 377  235.9899
 378  221.1228
 379  170.7013
 380  112.5834
 381  157.1866
 382  115.9535
 383  64.60853
 384  117.7394
 385  91.02555
 386  180.0159
 387  286.0723
 388  317.4849
 389  193.6592
 390  260.8471
 391  236.9127
 392  220.9701
 393  83.82634
 394  139.4872
 395  221.8683
 396  227.3435
 397  362.5149
 398  345.1
 399  247.7082
 400  177.6279
 401  166.2075
 402  244.3838
 403  125.1633
 404  146.5737
 405  185.7514
 406  243.3547
 407  223.2832
 408  243.955
 409  235.4768
 410  360.9676
 411  178.2325
 412  74.99046
 413  48.8662
 414  176.0017
 415  128.6173
 416  218.2635
 417  276.5716
 418  346.8446
 419  230.3116
 420  222.2084
 421  194.2307
 422  235.8003
 423  231.5507
 424  285.6793
 425  340.4178
 426  271.6921
 427  337.5267
 428  215.309
 429  170.9059
 430  187.3864
 431  139.0647
 432  153.6735
 433  151.4551
 434  174.5106
 435  205.9387
 436  255.3957
 437  170.5117
 438  221.9678
 439  170.1832
 440  136.5003
 441  167.9469
 442  73.41586
 443  195.6098
 444  155.9838
 445  199.8503
 446  89.84594
 447  151.3493
 448  257.351
 449  220.8407
 450  193.2685
 451  290.8388
 452  191.2176
 453  37.51846
 454  218.1817
 455  135.5656
 456  140.7704
 457  235.12
 458  210.2041
 459  214.8171
 460  262.9931
 461  238.9443
 462  124.4266
 463  220.8245
 464  121.086
 465  27.71438
 466  65.98823
 467  -35.46716
 468  114.8722
 469  196.8038
 470  274.6276
 471  278.2239
 472  166.8509
 473  139.2146
 474  103.8709
 475  44.27421
 476  108.4266
 477  185.7694
 478  129.5698
 479  27.21519
 480  88.8716
 481  108.1746
 482  104.8659
 483  229.0934
 484  132.4527
 485  211.1149
 486  153.3203
 487  89.27068
 488  131.4528
 489  177.9019
 490  260.1023
 491  134.8306
 492  154.1298
 493  212.7651
 494  306.3728
 495  216.1696
 496  286.8145
 497  231.9365
 498  355.1196
 499  296.742
 500  217.4095
 501  225.1865
 502  226.4283
 503  294.4565
 504  225.2341
 505  274.433
 506  294.0054
 507  343.3318
 508  399.8482
 509  664.2567
 510  780.3252
 511  881.316
