# Input file       =  1185233632.110816-PSRB0329-2ms-sampling-dd.dat
# Candidate        =  PSR_0332+5434
# Telescope        =  AR
# Epoch_topo       =  57961.982073041851
# Epoch_bary       =  N/A
# T_sample         =  0.002
# Data Folded      =  7208960
# Data Avg         =  6.82238849489241e-10
# Data StdDev      =  6.58523519337225 
# Profile Bins     =  512
# Profile Avg      =  0.188739816638222
# Profile StdDev   =  781.398580452103 
# Reduced chi-sqr  =  0.418
# Prob(Noise)      <  1   (~0.0 sigma)
# P_topo (ms)      =  714.471334331174  +/- 0.00146
# P'_topo (s/s)    =  -0                +/- 7.87e-10
# P''_topo (s/s^2) =  0                 +/- 3.54e-13
# P_bary (ms)      =  N/A
# P'_bary (s/s)    =  N/A
# P''_bary (s/s^2) =  N/A
# P_orb (s)        =  N/A
# asin(i)/c (s)    =  N/A
# eccentricity     =  N/A
# w (rad)          =  N/A
# T_peri           =  N/A
######################################################
   0  -526.5734
   1  -275.6704
   2  121.1173
   3  128.1045
   4  -12.46521
   5  429.3841
   6  90.21452
   7  -375.4792
   8  -407.6786
   9  -207.7205
  10  229.7524
  11  -115.9407
  12  -128.2664
  13  346.4666
  14  134.5952
  15  -45.21046
  16  -38.26762
  17  -342.4526
  18  -363.5138
  19  -55.86472
  20  168.1924
  21  478.2545
  22  333.4536
  23  126.1115
  24  -406.5034
  25  -327.7495
  26  -191.1238
  27  -109.4243
  28  249.0532
  29  -44.38723
  30  -245.879
  31  -496.3951
  32  -120.6921
  33  -282.4707
  34  270.2015
  35  219.5578
  36  -239.8614
  37  27.5987
  38  53.14862
  39  -325.9218
  40  -6.627317
  41  367.0061
  42  259.4595
  43  -18.82463
  44  -375.7904
  45  -262.288
  46  372.571
  47  177.9918
  48  -188.2264
  49  -493.2295
  50  -15.91822
  51  -49.82998
  52  -30.97044
  53  183.1667
  54  105.0167
  55  62.50939
  56  -293.4115
  57  -306.6192
  58  50.70811
  59  245.8334
  60  415.2865
  61  202.9121
  62  -123.448
  63  -137.7881
  64  229.6584
  65  271.6671
  66  -65.21346
  67  -266.3719
  68  -91.99158
  69  7.230778
  70  229.7569
  71  236.289
  72  237.8997
  73  59.60538
  74  -91.71334
  75  -182.4694
  76  -306.2998
  77  -206.8696
  78  -132.004
  79  268.6121
  80  416.9781
  81  -98.74581
  82  -143.1517
  83  168.4101
  84  -113.2834
  85  337.6592
  86  -7.561106
  87  -52.45221
  88  -147.0816
  89  -158.2357
  90  -428.3123
  91  -821.9832
  92  -374.1223
  93  -130.8967
  94  -117.0533
  95  -309.3672
  96  -348.2985
  97  -131.999
  98  -380.4839
  99  -273.628
 100  -502.199
 101  -127.6964
 102  -242.3533
 103  -72.40187
 104  19.35229
 105  -327.4251
 106  -242.8912
 107  -295.3328
 108  -79.99072
 109  -717.5206
 110  -535.5707
 111  -303.7569
 112  43.87228
 113  55.95549
 114  -166.1919
 115  -56.16784
 116  -288.0109
 117  -568.8618
 118  -578.6371
 119  -536.7529
 120  -408.1721
 121  -511.9207
 122  -109.2129
 123  -342.571
 124  -429.7748
 125  31.41745
 126  -103.5287
 127  -219.4713
 128  -477.0912
 129  -594.2764
 130  -229.6215
 131  -107.2076
 132  25.80699
 133  -45.35884
 134  342.3759
 135  159.2015
 136  -99.10187
 137  68.1496
 138  74.88821
 139  -125.0451
 140  -136.6669
 141  -71.10471
 142  93.88619
 143  -14.36811
 144  267.8201
 145  557.7066
 146  299.8002
 147  298.0281
 148  162.3784
 149  128.0267
 150  82.34625
 151  332.7635
 152  209.5959
 153  120.242
 154  333.8887
 155  385.2406
 156  -151.7381
 157  -69.82597
 158  -37.38734
 159  114.5697
 160  35.84341
 161  512.2369
 162  163.4845
 163  268.4192
 164  435.896
 165  121.4251
 166  219.6231
 167  3.193754
 168  85.28098
 169  113.04
 170  375.597
 171  493.3156
 172  314.1536
 173  193.6326
 174  109.5473
 175  222.506
 176  191.8295
 177  664.7976
 178  465.8704
 179  362.0604
 180  98.03727
 181  -19.88514
 182  412.3442
 183  467.7972
 184  653.3538
 185  355.7575
 186  210.8799
 187  144.0938
 188  -85.03553
 189  130.6945
 190  90.78895
 191  299.0839
 192  453.6461
 193  252.547
 194  330.9028
 195  12.6471
 196  -179.8789
 197  112.392
 198  420.9424
 199  209.8127
 200  150.906
 201  203.037
 202  151.7398
 203  145.9939
 204  61.71696
 205  -160.4049
 206  -246.1367
 207  12.74056
 208  365.9544
 209  275.5263
 210  -276.0936
 211  -393.9492
 212  -47.77465
 213  -138.9175
 214  -296.5883
 215  189.865
 216  330.5596
 217  395.4897
 218  319.1916
 219  264.206
 220  143.4138
 221  456.8183
 222  6.558063
 223  115.5283
 224  92.14159
 225  13.45733
 226  26.18749
 227  380.9413
 228  705.6428
 229  427.9913
 230  324.5143
 231  328.0032
 232  -129.9931
 233  302.6835
 234  161.9586
 235  -204.4198
 236  212.333
 237  341.0661
 238  166.1397
 239  71.1273
 240  55.90673
 241  -116.6975
 242  -191.7871
 243  -282.8162
 244  -192.7977
 245  -209.773
 246  -347.5361
 247  -479.039
 248  -335.6197
 249  -565.4271
 250  -115.7703
 251  277.8777
 252  49.96695
 253  -216.4494
 254  -42.86065
 255  -498.81
 256  -375.9717
 257  -180.6408
 258  -253.0791
 259  40.32397
 260  166.2899
 261  -15.14271
 262  -393.6781
 263  -558.3202
 264  -346.5302
 265  -229.0918
 266  -29.98927
 267  191.5739
 268  -108.0134
 269  -539.6922
 270  -673.0164
 271  -712.0336
 272  -371.9798
 273  -282.0764
 274  -145.2953
 275  -358.8453
 276  -802.952
 277  -801.7376
 278  -792.0848
 279  -526.8821
 280  -262.3961
 281  -340.6167
 282  -420.4496
 283  -368.0555
 284  -192.6992
 285  -117.186
 286  133.1091
 287  -147.8639
 288  -234.6869
 289  -427.0099
 290  -189.9961
 291  -208.9331
 292  385.189
 293  30.52161
 294  -181.7625
 295  -305.3283
 296  -181.6935
 297  -543.6132
 298  -283.4412
 299  344.1248
 300  -14.3576
 301  -404.092
 302  -103.6872
 303  -356.6666
 304  -140.2099
 305  -170.3965
 306  -168.02
 307  124.0642
 308  1.544122
 309  -616.8726
 310  -412.5485
 311  -185.7784
 312  -168.3442
 313  -256.2764
 314  -146.1228
 315  -581.5453
 316  -479.2165
 317  -279.3583
 318  71.13199
 319  3.297138
 320  -230.7579
 321  -553.3746
 322  -281.9968
 323  -488.5319
 324  -524.745
 325  -211.4187
 326  144.2504
 327  144.6703
 328  -244.9815
 329  -268.1638
 330  5.811134
 331  -126.7207
 332  -61.21234
 333  452.3314
 334  128.5065
 335  87.09671
 336  174.0959
 337  -305.0298
 338  -315.8217
 339  -644.3718
 340  -326.8587
 341  -252.276
 342  -725.8593
 343  -821.4237
 344  -209.0558
 345  213.4101
 346  197.5031
 347  -263.1141
 348  22.97926
 349  33.14839
 350  6.727093
 351  -150.6175
 352  181.4649
 353  139.5524
 354  32.7184
 355  366.0099
 356  498.6665
 357  260.5291
 358  147.7925
 359  333.8712
 360  298.4513
 361  244.7524
 362  763.5673
 363  1276.239
 364  1682.681
 365  1963.616
 366  2294.699
 367  1628.75
 368  1577.154
 369  1275.949
 370  863.1581
 371  432.1974
 372  10.63731
 373  -356.394
 374  -377.6722
 375  59.10564
 376  158.2823
 377  343.7059
 378  988.7249
 379  602.2289
 380  29.7934
 381  356.8864
 382  285.1762
 383  336.6139
 384  575.4832
 385  698.4352
 386  923.1287
 387  600.4511
 388  388.1841
 389  332.0856
 390  341.487
 391  24.68273
 392  -196.4078
 393  37.65683
 394  474.1102
 395  545.7472
 396  564.0856
 397  632.1005
 398  267.5581
 399  4.895482
 400  264.7743
 401  287.6247
 402  511.005
 403  258.9009
 404  -2.19887
 405  70.87273
 406  -287.2543
 407  -42.18133
 408  257.4421
 409  192.6031
 410  14.53397
 411  -169.3088
 412  -63.28712
 413  72.7704
 414  -118.9433
 415  -136.9969
 416  -260.1514
 417  -8.553546
 418  -119.2613
 419  -283.5454
 420  134.6859
 421  39.75387
 422  -194.3736
 423  -152.7408
 424  -111.3405
 425  -355.6957
 426  -589.154
 427  -481.0273
 428  -468.4734
 429  -384.7261
 430  -139.05
 431  -78.31869
 432  -266.2072
 433  -275.9841
 434  -138.1402
 435  68.08366
 436  54.48043
 437  -175.5352
 438  -316.7095
 439  -352.781
 440  -588.9197
 441  -475.9544
 442  -38.59861
 443  126.492
 444  32.47923
 445  -130.9694
 446  -257.8626
 447  -535.2055
 448  -590.6428
 449  -421.9472
 450  176.1652
 451  218.4106
 452  364.9494
 453  410.396
 454  321.2301
 455  456.9365
 456  -126.3548
 457  -390.093
 458  -535.2975
 459  -260.8266
 460  -51.93945
 461  -163.3129
 462  -144.5532
 463  -118.2984
 464  -228.6768
 465  -587.9599
 466  -436.4623
 467  -565.963
 468  262.8066
 469  290.3106
 470  93.2364
 471  169.7108
 472  -123.7879
 473  -185.7392
 474  -160.7146
 475  164.8335
 476  -55.74665
 477  74.51842
 478  25.91731
 479  112.119
 480  632.0649
 481  175.9844
 482  -32.87077
 483  301.7112
 484  453.4336
 485  427.9895
 486  371.9715
 487  328.053
 488  -143.727
 489  -270.8629
 490  -153.7297
 491  41.55224
 492  -83.42028
 493  -253.4284
 494  -411.5791
 495  -80.1183
 496  -189.3634
 497  7.948952
 498  162.3043
 499  16.57158
 500  51.31686
 501  268.154
 502  341.5826
 503  363.5658
 504  319.4711
 505  206.7892
 506  -23.43694
 507  -143.9522
 508  264.5073
 509  0.996789
 510  122.6957
 511  36.83426
