# Input file       =  1185248272.118458_cleaned.dat
# Candidate        =  PSR_0332+5434
# Telescope        =  AR
# Epoch_topo       =  57962.151517574748
# Epoch_bary       =  N/A
# T_sample         =  0.002
# Data Folded      =  7340032
# Data Avg         =  0.0373415950138734
# Data StdDev      =  1.00016367744216 
# Profile Bins     =  512
# Profile Avg      =  535.26748743539  
# Profile StdDev   =  119.752633973903 
# Reduced chi-sqr  =  1.577
# Prob(Noise)      <  1.36e-15   (~7.9 sigma)
# P_topo (ms)      =  714.471264672761  +/- 0.000298
# P'_topo (s/s)    =  -0                +/- 1.57e-10
# P''_topo (s/s^2) =  0                 +/- 6.94e-14
# P_bary (ms)      =  N/A
# P'_bary (s/s)    =  N/A
# P''_bary (s/s^2) =  N/A
# P_orb (s)        =  N/A
# asin(i)/c (s)    =  N/A
# eccentricity     =  N/A
# w (rad)          =  N/A
# T_peri           =  N/A
######################################################
   0  550.0229
   1  575.6582
   2  561.9919
   3  541.9743
   4  522.7375
   5  506.1494
   6  453.6421
   7  457.4879
   8  538.3114
   9  623.6634
  10  677.0459
  11  778.6086
  12  1018.752
  13  1068.606
  14  1099.893
  15  985.746
  16  770.5529
  17  634.8344
  18  628.5401
  19  517.0703
  20  378.2473
  21  415.5545
  22  473.8773
  23  383.5894
  24  384.9821
  25  440.9409
  26  457.8539
  27  528.0998
  28  642.876
  29  611.9832
  30  551.9323
  31  510.9566
  32  414.193
  33  339.9136
  34  330.8393
  35  325.3426
  36  453.2118
  37  511.3456
  38  452.7041
  39  438.0824
  40  562.3697
  41  539.6871
  42  559.1465
  43  581.3126
  44  471.4457
  45  397.1791
  46  399.0441
  47  419.6886
  48  482.4911
  49  439.9299
  50  459.9572
  51  405.9613
  52  404.576
  53  375.3637
  54  511.4586
  55  563.5166
  56  643.11
  57  639.6817
  58  602.0669
  59  546.5573
  60  524.5512
  61  507.266
  62  487.1013
  63  461.75
  64  487.7148
  65  482.186
  66  509.1355
  67  469.9987
  68  517.7042
  69  459.1848
  70  454.3555
  71  542.7699
  72  664.934
  73  391.3844
  74  439.798
  75  493.8441
  76  527.1896
  77  510.3137
  78  582.9283
  79  475.6788
  80  480.9848
  81  562.8281
  82  527.6801
  83  529.917
  84  646.4751
  85  738.803
  86  716.2483
  87  593.6003
  88  531.8447
  89  487.722
  90  463.432
  91  446.598
  92  453.2676
  93  461.6636
  94  432.7642
  95  535.1295
  96  640.334
  97  551.9064
  98  558.1049
  99  546.1651
 100  550.8068
 101  528.7139
 102  599.3335
 103  664.1003
 104  531.0164
 105  677.7396
 106  670.2899
 107  675.1077
 108  671.8986
 109  552.743
 110  581.223
 111  562.0312
 112  548.5234
 113  526.3586
 114  510.9629
 115  502.6986
 116  535.5259
 117  541.0789
 118  663.7982
 119  589.5132
 120  535.6014
 121  551.1466
 122  507.1757
 123  597.5726
 124  558.1046
 125  515.2709
 126  552.2162
 127  486.2775
 128  569.1726
 129  672.0011
 130  676.9415
 131  687.9117
 132  556.0461
 133  514.0511
 134  483.7276
 135  578.9641
 136  501.6574
 137  450.3712
 138  433.7736
 139  472.7439
 140  376.7796
 141  436.868
 142  498.9774
 143  483.5751
 144  504.5058
 145  491.3528
 146  470.5987
 147  561.201
 148  582.4948
 149  475.9361
 150  414.0808
 151  452.4827
 152  489.1471
 153  442.8582
 154  458.761
 155  508.2021
 156  387.0918
 157  445.8595
 158  465.44
 159  526.6967
 160  507.0327
 161  487.9343
 162  522.2666
 163  427.5698
 164  596.718
 165  526.0143
 166  506.6014
 167  617.6667
 168  535.0101
 169  544.0761
 170  521.8846
 171  483.5554
 172  416.3514
 173  368.1362
 174  444.8767
 175  491.3671
 176  461.6226
 177  524.5859
 178  464.9579
 179  475.4324
 180  489.7509
 181  465.5096
 182  406.8934
 183  345.4254
 184  310.7087
 185  389.5941
 186  475.6731
 187  347.3862
 188  326.4061
 189  455.2766
 190  440.4051
 191  368.8723
 192  331.1385
 193  453.1607
 194  413.5283
 195  392.9434
 196  330.222
 197  367.9623
 198  444.0036
 199  371.1861
 200  406.014
 201  473.5179
 202  540.5328
 203  649.1182
 204  583.2832
 205  470.1746
 206  459.8944
 207  470.1486
 208  570.0383
 209  602.6716
 210  533.4557
 211  458.828
 212  577.7078
 213  536.3539
 214  540.8779
 215  559.1929
 216  539.3454
 217  533.4107
 218  585.7975
 219  685.7891
 220  649.9003
 221  556.2208
 222  560.5175
 223  523.9033
 224  594.1501
 225  563.8094
 226  461.1366
 227  436.7701
 228  505.0984
 229  475.1407
 230  450.2712
 231  440.4387
 232  447.7614
 233  496.074
 234  435.6401
 235  441.9646
 236  554.6768
 237  547.6108
 238  483.9212
 239  403.9287
 240  531.2069
 241  574.8432
 242  566.3683
 243  528.8766
 244  508.7647
 245  445.2319
 246  492.5992
 247  374.1757
 248  389.6895
 249  426.5139
 250  419.5994
 251  290.9002
 252  362.6844
 253  423.0982
 254  503.3358
 255  579.1418
 256  600.9647
 257  507.2971
 258  477.2537
 259  500.8444
 260  508.1403
 261  481.6149
 262  407.8178
 263  435.187
 264  503.8664
 265  516.4779
 266  422.5484
 267  431.5083
 268  419.6709
 269  396.1304
 270  438.6529
 271  413.1286
 272  428.4521
 273  579.1859
 274  526.2072
 275  459.0767
 276  559.5263
 277  545.3994
 278  492.7266
 279  476.6017
 280  488.4787
 281  516.9889
 282  553.0924
 283  607.8657
 284  658.6514
 285  636.675
 286  531.6594
 287  555.1205
 288  637.0062
 289  718.8657
 290  753.2579
 291  626.7244
 292  625.1553
 293  605.0798
 294  634.4616
 295  666.4804
 296  649.9526
 297  629.2189
 298  707.0054
 299  781.0575
 300  703.9551
 301  771.0881
 302  791.4448
 303  748.2334
 304  602.5776
 305  632.1296
 306  646.9989
 307  649.3928
 308  589.4047
 309  687.7063
 310  671.4363
 311  645.7291
 312  739.992
 313  707.2738
 314  660.5668
 315  682.0546
 316  618.3774
 317  587.941
 318  626.6234
 319  657.2286
 320  766.6218
 321  763.6234
 322  687.5319
 323  613.6707
 324  542.5314
 325  595.2068
 326  613.4898
 327  559.4838
 328  615.074
 329  645.0986
 330  575.9794
 331  521.9135
 332  562.1516
 333  529.2091
 334  534.9486
 335  600.0957
 336  636.3107
 337  544.1845
 338  501.4304
 339  580.7416
 340  634.8944
 341  608.2319
 342  547.9468
 343  586.3788
 344  611.5303
 345  712.1119
 346  663.08
 347  643.3846
 348  622.1647
 349  662.4356
 350  584.4623
 351  584.6933
 352  624.2136
 353  608.4105
 354  571.9589
 355  599.5128
 356  589.0606
 357  656.9178
 358  712.1686
 359  653.9324
 360  683.2297
 361  697.3754
 362  653.9539
 363  728.2749
 364  531.47
 365  634.5032
 366  800.8333
 367  711.3055
 368  675.4774
 369  678.752
 370  617.7734
 371  550.1475
 372  574.1299
 373  611.699
 374  699.4711
 375  720.4514
 376  766.8693
 377  696.8092
 378  572.7422
 379  591.3077
 380  646.2896
 381  789.3876
 382  728.7519
 383  567.4804
 384  595.1541
 385  706.7499
 386  643.7907
 387  627.4591
 388  625.0195
 389  553.0441
 390  594.1545
 391  732.3688
 392  593.6086
 393  503.5603
 394  592.8763
 395  641.5786
 396  694.3602
 397  650.0837
 398  657.4236
 399  603.3921
 400  457.862
 401  593.5648
 402  530.9467
 403  521.7366
 404  678.5262
 405  734.8417
 406  664.2805
 407  607.7689
 408  538.2726
 409  464.2949
 410  504.5108
 411  489.2707
 412  407.8187
 413  406.7375
 414  502.1093
 415  508.1736
 416  483.0964
 417  478.946
 418  351.2599
 419  372.6043
 420  476.4633
 421  522.1628
 422  411.3287
 423  461.6783
 424  519.3992
 425  536.6071
 426  493.1791
 427  549.8672
 428  568.6905
 429  565.4411
 430  515.6222
 431  512.2505
 432  428.2225
 433  510.9336
 434  649
 435  613.7781
 436  505.6716
 437  486.669
 438  505.8162
 439  443.6097
 440  476.7566
 441  528.9486
 442  463.3516
 443  445.8069
 444  537.7795
 445  623.675
 446  636.5063
 447  597.1613
 448  647.7957
 449  566.064
 450  561.6702
 451  604.4841
 452  536.4176
 453  593.2562
 454  586.8792
 455  454.129
 456  446.3354
 457  408.4818
 458  484.5508
 459  578.465
 460  542.462
 461  402.5769
 462  496.2445
 463  437.5157
 464  397.9061
 465  342.8973
 466  510.5135
 467  585.4094
 468  493.5808
 469  385.3587
 470  442.5988
 471  499.9312
 472  495.4626
 473  491.8055
 474  453.3899
 475  461.1273
 476  457.6283
 477  438.7412
 478  381.3457
 479  324.9628
 480  378.8491
 481  389.9687
 482  402.5725
 483  445.7846
 484  491.2823
 485  467.0111
 486  461.4607
 487  251.1809
 488  274.0948
 489  373.5833
 490  421.6649
 491  423.788
 492  404.4693
 493  432.9994
 494  391.37
 495  476.7598
 496  476.1122
 497  498.2129
 498  540.6704
 499  492.5439
 500  433.3322
 501  420.3596
 502  392.7819
 503  428.1413
 504  448.1795
 505  507.2271
 506  522.1385
 507  519.0891
 508  523.688
 509  476.818
 510  413.1777
 511  556.9899
