# Input file       =  1185521650.102601_cleaned.dat
# Candidate        =  PSR_0332+5434
# Telescope        =  AR
# Epoch_topo       =  57965.315614613435
# Epoch_bary       =  N/A
# T_sample         =  0.002
# Data Folded      =  7340032
# Data Avg         =  0.390725126422434
# Data StdDev      =  6.3306815578638  
# Profile Bins     =  1024
# Profile Avg      =  2800.56054489212 
# Profile StdDev   =  535.981089012819 
# Reduced chi-sqr  =  0.837
# Prob(Noise)      <  1   (~0.0 sigma)
# P_topo (ms)      =  714.470126514501  +/- 0.000914
# P'_topo (s/s)    =  -0                +/- 4.82e-10
# P''_topo (s/s^2) =  0                 +/- 2.13e-13
# P_bary (ms)      =  N/A
# P'_bary (s/s)    =  N/A
# P''_bary (s/s^2) =  N/A
# P_orb (s)        =  N/A
# asin(i)/c (s)    =  N/A
# eccentricity     =  N/A
# w (rad)          =  N/A
# T_peri           =  N/A
######################################################
   0  3086.988
   1  3008.49
   2  2942.555
   3  2910.671
   4  3088.799
   5  3211.904
   6  3219.078
   7  3165.331
   8  3081.363
   9  3190.632
  10  3197.191
  11  3251.524
  12  3271.781
  13  3324.229
  14  3317.043
  15  3310.483
  16  3259.041
  17  3178.44
  18  3094.736
  19  3094.854
  20  3131.768
  21  3140.872
  22  3177.786
  23  3299.943
  24  3214.586
  25  3192.884
  26  3227.26
  27  3335.259
  28  3340.058
  29  3234.776
  30  3136.724
  31  3027.696
  32  2900.691
  33  2837.304
  34  2781.354
  35  2864.013
  36  3061.795
  37  3122.925
  38  3184.915
  39  3179.104
  40  3084.923
  41  2990.846
  42  2902.509
  43  2828.86
  44  2847.463
  45  2845.963
  46  2936.905
  47  2917.996
  48  2842.847
  49  2812.344
  50  2831.985
  51  2907.634
  52  2983.863
  53  3072.665
  54  3051.764
  55  2893.537
  56  2848.71
  57  2955.86
  58  3058.623
  59  3041.193
  60  3023.747
  61  3067.413
  62  3042.588
  63  3015.091
  64  3022.41
  65  3060.196
  66  3063.702
  67  3100.032
  68  3153.21
  69  3117.48
  70  3096.765
  71  3090.979
  72  3077.876
  73  3096.153
  74  3080.773
  75  3024.364
  76  2968.214
  77  2996.587
  78  3033.725
  79  3018.668
  80  2997.258
  81  2851.114
  82  2910.755
  83  2930.349
  84  3037.099
  85  2917.473
  86  2848.844
  87  2874.172
  88  3036.141
  89  3198.24
  90  3158.577
  91  2988.238
  92  2994.751
  93  3092.821
  94  3117.991
  95  3047.417
  96  2901.672
  97  2837.076
  98  2748.363
  99  2814.721
 100  2789.392
 101  2949.295
 102  2860.67
 103  2887.303
 104  2936.386
 105  2996.774
 106  2979.385
 107  2757.867
 108  2795.199
 109  2820.366
 110  2913.344
 111  2789.697
 112  2738.835
 113  2711.767
 114  2602.254
 115  2656.019
 116  2532.559
 117  2558.13
 118  2535.93
 119  2673.266
 120  2636.293
 121  2588.753
 122  2587.983
 123  2715.228
 124  2659.539
 125  2692.927
 126  2444.524
 127  2444.501
 128  2463.494
 129  2646.82
 130  2677.582
 131  2692.298
 132  2646.533
 133  2653.34
 134  2642.45
 135  2637.636
 136  2605.089
 137  2547.595
 138  2452.716
 139  2509.344
 140  2570.34
 141  2549.267
 142  2468.615
 143  2508.18
 144  2589.29
 145  2603.581
 146  2558.547
 147  2622.232
 148  2713.757
 149  2838.4
 150  2828.988
 151  2842.178
 152  2800.508
 153  2718.874
 154  2749.968
 155  2853.355
 156  2821.8
 157  2808.529
 158  2763.548
 159  2715.241
 160  2613.301
 161  2639.631
 162  2579.515
 163  2483.839
 164  2522.992
 165  2568.565
 166  2628.798
 167  2507.157
 168  2443.684
 169  2388.965
 170  2370.045
 171  2385.978
 172  2506.156
 173  2551.355
 174  2447.198
 175  2379.505
 176  2570.171
 177  2670.019
 178  2598.709
 179  2476.213
 180  2524.688
 181  2613.702
 182  2591.005
 183  2574.635
 184  2531.185
 185  2427.492
 186  2239.671
 187  2232.873
 188  2380.776
 189  2601.042
 190  2683.065
 191  2724.463
 192  2716.093
 193  2719.963
 194  2799.95
 195  2811.457
 196  2758.844
 197  2626.706
 198  2619.396
 199  2657.895
 200  2761.229
 201  2653.271
 202  2728.114
 203  2695.873
 204  2745.518
 205  2766.794
 206  2780.107
 207  2882.71
 208  2961.268
 209  2931.228
 210  2752.827
 211  2574.072
 212  2715.393
 213  2707.438
 214  2793.474
 215  2796.622
 216  2891.258
 217  2889.861
 218  2849.713
 219  2800.719
 220  2667.066
 221  2586.798
 222  2605.621
 223  2631.18
 224  2606.305
 225  2571.488
 226  2557.364
 227  2722.321
 228  2879.741
 229  2924.59
 230  2915.033
 231  2804.792
 232  2752.465
 233  2610.494
 234  2534.374
 235  2436.499
 236  2479.804
 237  2527.156
 238  2483.709
 239  2456.679
 240  2474.549
 241  2629.801
 242  2759.841
 243  2895.661
 244  2932.787
 245  2897.344
 246  2819.243
 247  2749.438
 248  2676.652
 249  2693.336
 250  2615.034
 251  2513.538
 252  2433.633
 253  2413.677
 254  2546.763
 255  2603.586
 256  2451.493
 257  2365.487
 258  2357.984
 259  2438.242
 260  2443.578
 261  2494.605
 262  2522.283
 263  2579.316
 264  2590.479
 265  2526.023
 266  2384.438
 267  2419.369
 268  2531.727
 269  2459.932
 270  2453.492
 271  2462.457
 272  2452.468
 273  2434.108
 274  2390.311
 275  2376.248
 276  2376.867
 277  2381.221
 278  2379.149
 279  2307.777
 280  2290.201
 281  2329.453
 282  2288.918
 283  2251.392
 284  2140.175
 285  2160.618
 286  2220.246
 287  2356.493
 288  2402.961
 289  2450.141
 290  2449.363
 291  2377.126
 292  2401.194
 293  2256.085
 294  2216.526
 295  2225.702
 296  2260.355
 297  2339.948
 298  2457.917
 299  2597.368
 300  2541.565
 301  2413.677
 302  2294.76
 303  2316.378
 304  2222.139
 305  2425.136
 306  2593.787
 307  2585.333
 308  2439.094
 309  2403.906
 310  2442.985
 311  2472.292
 312  2411.47
 313  2457.018
 314  2534.587
 315  2512.428
 316  2460.25
 317  2353.311
 318  2471.151
 319  2586.577
 320  2678.287
 321  2439.591
 322  2266.655
 323  2328.679
 324  2393.616
 325  2458.637
 326  2444.941
 327  2510.284
 328  2579.036
 329  2474.613
 330  2371.389
 331  2321.917
 332  2363.876
 333  2427.994
 334  2415.828
 335  2560.64
 336  2562.254
 337  2550.06
 338  2461.961
 339  2288.355
 340  2165.257
 341  2056.656
 342  2040.547
 343  2076.959
 344  2157.146
 345  2352.282
 346  2434.149
 347  2433.022
 348  2402.796
 349  2316.757
 350  2208.869
 351  2201.157
 352  2154.874
 353  2203.572
 354  2226.38
 355  2235.634
 356  2241.077
 357  2363.156
 358  2358.561
 359  2305.263
 360  2217.252
 361  2270.073
 362  2416.653
 363  2420.292
 364  2398.59
 365  2292.9
 366  2147.347
 367  2182.41
 368  2175.74
 369  2349.337
 370  2328.393
 371  2250.198
 372  2330.481
 373  2421.255
 374  2466.603
 375  2419.372
 376  2462.305
 377  2491.079
 378  2474.021
 379  2411.171
 380  2419.001
 381  2509.706
 382  2567.844
 383  2634.563
 384  2578.676
 385  2682.841
 386  2695.708
 387  2745.686
 388  2774.537
 389  2769.231
 390  2691.942
 391  2680.806
 392  2624.103
 393  2535.542
 394  2447.335
 395  2456.59
 396  2495.74
 397  2669.664
 398  2865.044
 399  2867.14
 400  2803.175
 401  2751.083
 402  2706.888
 403  2655.248
 404  2538.139
 405  2559.243
 406  2531.409
 407  2712.184
 408  2732.417
 409  2822.217
 410  2952.021
 411  2962.39
 412  2941.147
 413  2943.686
 414  2882.161
 415  2810.829
 416  2648.171
 417  2773.684
 418  2867.437
 419  3052.331
 420  3079.211
 421  3052.648
 422  2913.393
 423  2965.374
 424  2927.576
 425  2806.707
 426  2636.158
 427  2609.25
 428  2697.159
 429  2835.156
 430  2938.174
 431  3116.81
 432  3110.429
 433  3043.278
 434  2959.028
 435  2933.897
 436  3049.446
 437  2989.585
 438  2908.913
 439  2845.5
 440  2962.451
 441  2990.031
 442  2861.707
 443  2710.107
 444  2663.21
 445  2556.427
 446  2541.526
 447  2644.785
 448  2615.963
 449  2421.699
 450  2423.793
 451  2503.922
 452  2622.059
 453  2597.365
 454  2530.82
 455  2505.757
 456  2547.504
 457  2558.662
 458  2461.406
 459  2557.389
 460  2544.289
 461  2546.55
 462  2502.205
 463  2602.957
 464  2781.307
 465  2914.306
 466  2871.479
 467  2774.691
 468  2674.83
 469  2626.748
 470  2425.538
 471  2541.659
 472  2531.979
 473  2546.991
 474  2647.406
 475  2854.4
 476  2960.814
 477  2941.793
 478  2979.323
 479  3017.72
 480  2984.786
 481  2989.199
 482  2991.917
 483  3051.928
 484  3001.208
 485  2917.004
 486  2780.67
 487  2654.297
 488  2629.898
 489  2654.529
 490  2671.072
 491  2670.125
 492  2752.067
 493  2806.822
 494  2866.863
 495  2925.784
 496  2872.084
 497  2838.172
 498  2814.666
 499  2757.756
 500  2643.574
 501  2707.711
 502  2717.903
 503  2671.18
 504  2553.783
 505  2571.361
 506  2715.148
 507  2726.705
 508  2662.197
 509  2672.395
 510  2692.571
 511  2553.431
 512  2570.76
 513  2667.113
 514  2556.336
 515  2487.118
 516  2421.706
 517  2560.217
 518  2438.627
 519  2492.954
 520  2618.542
 521  2805.443
 522  2732.211
 523  2705.74
 524  2654.051
 525  2685.553
 526  2636.282
 527  2563.077
 528  2566.993
 529  2567.95
 530  2660.906
 531  2678.063
 532  2593.793
 533  2544.771
 534  2412.556
 535  2437.428
 536  2535.528
 537  2697.061
 538  2727.536
 539  2818.682
 540  2802.26
 541  2869.908
 542  2911.431
 543  3039.121
 544  2913.275
 545  3056.387
 546  3109.237
 547  3262.989
 548  3197.535
 549  3285.698
 550  3238.983
 551  3251.663
 552  3184.396
 553  3192.79
 554  3123.405
 555  3250.308
 556  3337.564
 557  3476.931
 558  3424.641
 559  3403.488
 560  3417.368
 561  3356.895
 562  3254.42
 563  3232.715
 564  3256.338
 565  3243.969
 566  3082.506
 567  3048.084
 568  2991.831
 569  3057.4
 570  3029.347
 571  3021.493
 572  2974.041
 573  2997.843
 574  3028.644
 575  3037.585
 576  2922.018
 577  2967.086
 578  2940.343
 579  2945.574
 580  2891.957
 581  2917.934
 582  2917.287
 583  2975.404
 584  3030.704
 585  3093.001
 586  3010.983
 587  2835.792
 588  2751.798
 589  2678.268
 590  2618.717
 591  2638.719
 592  2853.743
 593  3039.455
 594  2953.85
 595  3017.708
 596  3023.451
 597  3011.883
 598  2907.817
 599  2853.277
 600  2945.604
 601  3010.45
 602  3009.832
 603  2979.162
 604  2855.255
 605  2832.559
 606  2862.902
 607  2908.746
 608  3105.195
 609  3136.446
 610  3251.554
 611  3077.299
 612  3006.062
 613  3012.073
 614  2953.25
 615  3030.421
 616  2998.368
 617  3253.296
 618  3075.699
 619  3093.842
 620  2983.693
 621  3095.645
 622  3053.505
 623  3014.296
 624  2966.369
 625  2983.505
 626  2877.405
 627  2830.344
 628  2906.586
 629  2989.448
 630  3049.434
 631  3042.225
 632  3013.082
 633  3153.966
 634  3148.392
 635  3231.395
 636  3252.825
 637  3173.573
 638  3056.11
 639  3000.561
 640  3008.411
 641  3094.877
 642  2939.394
 643  3021.007
 644  3025.336
 645  3183.427
 646  3369.697
 647  3588.867
 648  3717.765
 649  3757.295
 650  3795.21
 651  3769.075
 652  3748.11
 653  3681.323
 654  3764.98
 655  3633.799
 656  3402.342
 657  3105.271
 658  2948.361
 659  2904.857
 660  3005.904
 661  3061.804
 662  3069.689
 663  2958.464
 664  2840.115
 665  2775.452
 666  2707.009
 667  2833.414
 668  2854.681
 669  2750.228
 670  2729.313
 671  2713.13
 672  2819.79
 673  2898.022
 674  2852.668
 675  2883.403
 676  2879.683
 677  2941.813
 678  2923.625
 679  2947.411
 680  2889.301
 681  2727.278
 682  2619.975
 683  2603.758
 684  2699.6
 685  2808.415
 686  2746.163
 687  2695.479
 688  2559.906
 689  2606.812
 690  2522.052
 691  2777.29
 692  2844.728
 693  2950.7
 694  2949.791
 695  2908.183
 696  2759.808
 697  2642.658
 698  2644.101
 699  2564.715
 700  2461.426
 701  2521.677
 702  2699.043
 703  2901.273
 704  3027.757
 705  3117.491
 706  3129.587
 707  2947.653
 708  2877.046
 709  2924.157
 710  2835.032
 711  2856.899
 712  2926.806
 713  3028.772
 714  2917.139
 715  2732.903
 716  2858.879
 717  2987.818
 718  3008.279
 719  3011.501
 720  3061.442
 721  3130.952
 722  3037.111
 723  3064.003
 724  2951.423
 725  2879.49
 726  2773.073
 727  2895.523
 728  2827.673
 729  2809.005
 730  2752.088
 731  2707.538
 732  2725.278
 733  2802.681
 734  2855.009
 735  2698.814
 736  2616.98
 737  2592.236
 738  2737.895
 739  2830.634
 740  2839.101
 741  2966.288
 742  2804.142
 743  2693.009
 744  2536.57
 745  2641.466
 746  2735.808
 747  2860.427
 748  2996.097
 749  3011.427
 750  3131.238
 751  3022.319
 752  3043.737
 753  2902.166
 754  2824.841
 755  2793.373
 756  2988.42
 757  3171.25
 758  3168.426
 759  3045.974
 760  2905.855
 761  2843.911
 762  2780.771
 763  2716.821
 764  2723.741
 765  2933.299
 766  3026.462
 767  2965.956
 768  2844.348
 769  2796.13
 770  2691.772
 771  2689.444
 772  2654.708
 773  2723.832
 774  2723.786
 775  2832.088
 776  2726.941
 777  2711.696
 778  2838.85
 779  3029.113
 780  3146.917
 781  3012.018
 782  2657.51
 783  2454.648
 784  2465.606
 785  2492.315
 786  2571.662
 787  2715.051
 788  2892.758
 789  3053.357
 790  3041.085
 791  3164.282
 792  3119.924
 793  2975.509
 794  2857.487
 795  2828.651
 796  2836.526
 797  2805.981
 798  2732.528
 799  2703.288
 800  2651.225
 801  2766.455
 802  2991.303
 803  3041.819
 804  2864.893
 805  2661.851
 806  2682.635
 807  2638.741
 808  2701.356
 809  2626.749
 810  2528.402
 811  2385.381
 812  2337.888
 813  2573.3
 814  2695.705
 815  2754.934
 816  2694.152
 817  2760.938
 818  2721.491
 819  2657.19
 820  2586.309
 821  2641.221
 822  2695.773
 823  2776.927
 824  2715.588
 825  2752.019
 826  2805.864
 827  2975.772
 828  3054.82
 829  3062.319
 830  3022.605
 831  2989.178
 832  2874.468
 833  2708.202
 834  2695.03
 835  2788.248
 836  2829.379
 837  2930.793
 838  3031.483
 839  3057.413
 840  3015.602
 841  3024.796
 842  2993.303
 843  2979.365
 844  2969.496
 845  2966.364
 846  2884.545
 847  2871.638
 848  2799.398
 849  2764.294
 850  2780.912
 851  2849.576
 852  2951.73
 853  2915.216
 854  2941.117
 855  2839.495
 856  2769.219
 857  2785.915
 858  2929.795
 859  3068.554
 860  3076.263
 861  2887.982
 862  2806.499
 863  2777.108
 864  2730.852
 865  2786.181
 866  2794.915
 867  2709.809
 868  2615.753
 869  2615.451
 870  2700.878
 871  2662.975
 872  2681.576
 873  2683.809
 874  2617.329
 875  2474.962
 876  2377.982
 877  2562.787
 878  2883.179
 879  3101.968
 880  3058.748
 881  3016.579
 882  2911.39
 883  2924.475
 884  2856.971
 885  2856.58
 886  2799.696
 887  2861.87
 888  3043.576
 889  3034.84
 890  2875.318
 891  2741.54
 892  2674.794
 893  2819.2
 894  2865.734
 895  2808.134
 896  2785.831
 897  2837.19
 898  2781.306
 899  2878.349
 900  2905.432
 901  3021.043
 902  3004.572
 903  3025.883
 904  2920.927
 905  3013.107
 906  2890.64
 907  2919.396
 908  2918.091
 909  2972.915
 910  2908.173
 911  2970.258
 912  2910.501
 913  2887.265
 914  2917.107
 915  3060.661
 916  3152.573
 917  3115.822
 918  3030.421
 919  2877.335
 920  2722.946
 921  2793.737
 922  2799.781
 923  2802.678
 924  2760.173
 925  2715.418
 926  2797.167
 927  2907.799
 928  3006.188
 929  3031.81
 930  2942.766
 931  2825.252
 932  2691.606
 933  2736.019
 934  2692.381
 935  2810.906
 936  2859.148
 937  2882.701
 938  2786.76
 939  2724.805
 940  2715.039
 941  2593.723
 942  2557.437
 943  2577.592
 944  2724.616
 945  2949.782
 946  3077.753
 947  3136.041
 948  3146.3
 949  3085.238
 950  3054.706
 951  3153.773
 952  3267.748
 953  3322.181
 954  3115.706
 955  3116.804
 956  3144.643
 957  3180.386
 958  3102.622
 959  3101.999
 960  3084.781
 961  3131.99
 962  3021.97
 963  3016.096
 964  3001.296
 965  3113.739
 966  3157.908
 967  3090.804
 968  3051.63
 969  2954.739
 970  2961.85
 971  3078.236
 972  3108.199
 973  3145.827
 974  2947.992
 975  2973.552
 976  3001.416
 977  2963.501
 978  2811.895
 979  2880.111
 980  3053.521
 981  3164.341
 982  3146.64
 983  3138.33
 984  3164.767
 985  3104.885
 986  3161.344
 987  3242.808
 988  3196.923
 989  3124.169
 990  3015.365
 991  3071.718
 992  3070.582
 993  3076.102
 994  2949.452
 995  2873.249
 996  2851.372
 997  2941.2
 998  3093.605
 999  3242.296
1000  3164.656
1001  3013.855
1002  2864.122
1003  2937.19
1004  2904.352
1005  2893.427
1006  2932.732
1007  2936.57
1008  2700.224
1009  2753.417
1010  2802.965
1011  2986.864
1012  2931.627
1013  2818.377
1014  2902.248
1015  2927.569
1016  2966.306
1017  2915.702
1018  2952.29
1019  3029.305
1020  3119.935
1021  3259.919
1022  3110.151
1023  3180.051
