# Input file       =  1185233632.110816_cleaned.dat
# Candidate        =  PSR_0332+5434
# Telescope        =  AR
# Epoch_topo       =  57961.982073041851
# Epoch_bary       =  N/A
# T_sample         =  0.002
# Data Folded      =  7208960
# Data Avg         =  0.158944546922364
# Data StdDev      =  4.7529350102579  
# Profile Bins     =  256
# Profile Avg      =  4475.77747299652 
# Profile StdDev   =  797.587246965788 
# Reduced chi-sqr  =  0.720
# Prob(Noise)      <  1   (~0.0 sigma)
# P_topo (ms)      =  714.471334367059  +/- 9.36e-05
# P'_topo (s/s)    =  -0                +/- 5.03e-11
# P''_topo (s/s^2) =  0                 +/- 2.26e-14
# P_bary (ms)      =  N/A
# P'_bary (s/s)    =  N/A
# P''_bary (s/s^2) =  N/A
# P_orb (s)        =  N/A
# asin(i)/c (s)    =  N/A
# eccentricity     =  N/A
# w (rad)          =  N/A
# T_peri           =  N/A
######################################################
   0  5192.567
   1  4291.986
   2  3937.678
   3  4049.731
   4  3918.479
   5  4511.374
   6  4799.749
   7  4376.346
   8  4228.325
   9  5211.171
  10  4515.247
  11  4229.274
  12  4509.582
  13  4284.813
  14  4557.832
  15  4665.327
  16  4400.573
  17  4433.132
  18  4548.25
  19  5009.273
  20  4419.665
  21  4923.964
  22  5460.182
  23  4526.656
  24  4425.048
  25  3864.679
  26  4696.562
  27  3863.368
  28  4093.677
  29  4080.906
  30  4280.371
  31  4106.021
  32  3699.799
  33  4422.072
  34  4223.634
  35  4515.237
  36  4108.763
  37  4295.171
  38  4380.959
  39  4207.996
  40  3959.794
  41  3902.372
  42  4758.691
  43  3993.613
  44  3195.692
  45  4115.541
  46  4556.437
  47  4429.694
  48  4229.98
  49  3887.33
  50  4200.55
  51  4911.43
  52  4816.75
  53  4260.922
  54  4571.399
  55  5407.707
  56  4044.761
  57  4175.554
  58  3865.955
  59  4174.095
  60  4532.568
  61  4200.306
  62  4478.696
  63  4051.684
  64  3761.874
  65  4484.83
  66  4069.97
  67  4145.944
  68  4536.718
  69  4049.49
  70  4072.529
  71  4843.303
  72  4380.279
  73  3881.344
  74  4213.575
  75  4557.235
  76  4411.923
  77  3518.073
  78  4071.608
  79  3828.059
  80  3745.047
  81  4051.507
  82  3613.384
  83  4335.417
  84  4519.026
  85  3442.1
  86  2974.254
  87  4019.729
  88  4604.917
  89  4342.204
  90  4534.553
  91  4522.433
  92  4409.685
  93  4555.003
  94  3848.101
  95  4316.047
  96  4833.609
  97  4297.891
  98  4557.469
  99  4617.512
 100  4198.658
 101  3969.571
 102  3752.635
 103  3686.335
 104  3797.039
 105  4677.105
 106  3926.34
 107  3928.424
 108  4436.32
 109  4348.33
 110  4066.04
 111  4115.529
 112  4647.134
 113  5161.817
 114  4018.101
 115  3865.519
 116  4875.481
 117  4204.184
 118  3310.82
 119  3952.853
 120  4663.375
 121  4589.619
 122  4487.982
 123  4135.987
 124  4183.721
 125  4994.106
 126  4658.656
 127  3798.861
 128  3717.078
 129  4754.823
 130  4290.124
 131  4022.324
 132  4547.408
 133  4977.657
 134  4009.655
 135  4228.426
 136  4419.146
 137  4120.923
 138  4713.859
 139  4124.122
 140  4139.406
 141  4429.457
 142  4940.525
 143  4200.832
 144  4049.698
 145  4619.421
 146  4801.799
 147  4344.046
 148  3865.838
 149  4051.538
 150  4286.084
 151  3070.311
 152  4401.409
 153  4149.643
 154  4662.564
 155  4495.879
 156  4206.834
 157  5165.571
 158  5623.053
 159  5245.115
 160  4747.874
 161  6970.638
 162  8623.609
 163  7445.632
 164  5861.505
 165  4468.34
 166  4031.307
 167  4660.485
 168  5069.528
 169  4485.189
 170  4749.179
 171  5179.217
 172  4828.366
 173  4451.417
 174  4862.961
 175  4614.404
 176  3891.714
 177  4713.925
 178  5452.789
 179  4506.059
 180  4898.984
 181  4463.125
 182  4921.936
 183  4985.364
 184  4137.537
 185  4195.054
 186  4830.915
 187  4777.943
 188  4881.54
 189  4448.3
 190  4786.78
 191  4831.6
 192  4638.597
 193  4010.699
 194  4218.605
 195  5221.745
 196  4474.833
 197  4667.788
 198  4352.857
 199  4682.883
 200  4347.342
 201  4889.645
 202  4676.5
 203  4642.82
 204  4804.709
 205  5261.66
 206  5468.369
 207  5566.659
 208  4207.197
 209  4557.598
 210  4430.151
 211  4936.206
 212  4465.127
 213  4090.78
 214  4830.75
 215  5135.302
 216  4967.775
 217  4431.776
 218  4252.956
 219  5446.888
 220  5199.044
 221  4623.465
 222  5017.241
 223  5305.113
 224  4706.622
 225  4776.825
 226  4049.998
 227  4768.779
 228  5164.684
 229  4894.922
 230  5236.746
 231  5209.087
 232  5186.825
 233  5295.765
 234  4659.934
 235  3820.876
 236  4520.994
 237  4719.344
 238  4782.338
 239  3848.726
 240  4715.722
 241  4065.612
 242  4441.583
 243  4810.553
 244  4475.173
 245  4817.071
 246  4757.039
 247  4089.069
 248  4006.854
 249  4652.341
 250  4259.602
 251  3678.402
 252  4444.326
 253  4598.092
 254  4197.085
 255  3473.032
