# Input file       =  1185162103.119705_cleaned.dat
# Candidate        =  PSR_0332+5434
# Telescope        =  AR
# Epoch_topo       =  57961.154191200287
# Epoch_bary       =  N/A
# T_sample         =  0.002
# Data Folded      =  7340032
# Data Avg         =  0.162324476047486
# Data StdDev      =  3.65265044418336 
# Profile Bins     =  512
# Profile Avg      =  2321.95404586318 
# Profile StdDev   =  437.342928505017 
# Reduced chi-sqr  =  0.895
# Prob(Noise)      <  0.957   (~0.0 sigma)
# P_topo (ms)      =  714.471759456694  +/- 0.000573
# P'_topo (s/s)    =  -0                +/- 3.02e-10
# P''_topo (s/s^2) =  0                 +/- 1.33e-13
# P_bary (ms)      =  N/A
# P'_bary (s/s)    =  N/A
# P''_bary (s/s^2) =  N/A
# P_orb (s)        =  N/A
# asin(i)/c (s)    =  N/A
# eccentricity     =  N/A
# w (rad)          =  N/A
# T_peri           =  N/A
######################################################
   0  1832.858
   1  1788.46
   2  1961.454
   3  1775.735
   4  2213.137
   5  2398.47
   6  1973.581
   7  2180.989
   8  1865.531
   9  2072.608
  10  2217.334
  11  2391.058
  12  2790.685
  13  2575.611
  14  2681.892
  15  2581.324
  16  2303.867
  17  2447.325
  18  2469.16
  19  2464.3
  20  2208.562
  21  2017.237
  22  2081.391
  23  2061.156
  24  2225.248
  25  2219.377
  26  2239.646
  27  1881.538
  28  1993.514
  29  2239.417
  30  2308.709
  31  2338.365
  32  1796.948
  33  1773.064
  34  1939.678
  35  2168.263
  36  2173.26
  37  2036.004
  38  1806.57
  39  2046.9
  40  1992.185
  41  1954.061
  42  1943.029
  43  2032.784
  44  2333.335
  45  2355.323
  46  2652.152
  47  2374.303
  48  2144.78
  49  2444.603
  50  2314.876
  51  2143.29
  52  2327.603
  53  2656.493
  54  2689.148
  55  2126.776
  56  1966.834
  57  2095.049
  58  2269.714
  59  2098.619
  60  1982.265
  61  2074.781
  62  2163.45
  63  1981.753
  64  1842.836
  65  2123.695
  66  1941.276
  67  1958.867
  68  2115.009
  69  2066.651
  70  2180.772
  71  2095.17
  72  1984.058
  73  2241.035
  74  2409.607
  75  2391.356
  76  2297.729
  77  2322.234
  78  2439.807
  79  2535.624
  80  2840.031
  81  2543.732
  82  2107.462
  83  2012.605
  84  2161.907
  85  2257.786
  86  2614.598
  87  2480.259
  88  2237.016
  89  2215.566
  90  2256.839
  91  2223.723
  92  2357.018
  93  2423.859
  94  2446.715
  95  2323.955
  96  2329.207
  97  2247.635
  98  1987.545
  99  2246.817
 100  2873.401
 101  3225.201
 102  3244.523
 103  3445.999
 104  3602.78
 105  3804.452
 106  3519.607
 107  2830.294
 108  2260.487
 109  1977.97
 110  1911.814
 111  1959.774
 112  2153.997
 113  1953.242
 114  2194.471
 115  2548.762
 116  2546.026
 117  2067.608
 118  1855.289
 119  2152.037
 120  2387.37
 121  2446.603
 122  2358.902
 123  2037.017
 124  1958.869
 125  2174.71
 126  1952.423
 127  2331.418
 128  2148.158
 129  2092.953
 130  2096.166
 131  1867.606
 132  1923.749
 133  2126.936
 134  2063.126
 135  2129.051
 136  1950.817
 137  1831.318
 138  2261.664
 139  2010.764
 140  1879.646
 141  1973.239
 142  2352.93
 143  2329.51
 144  2219.313
 145  2105.314
 146  2198.421
 147  2513.726
 148  2948.74
 149  2783.87
 150  2419.293
 151  2258.723
 152  2669.393
 153  2629.938
 154  2680.859
 155  2732.964
 156  2619.965
 157  2581.702
 158  2422.485
 159  2449.408
 160  2710.281
 161  2243.048
 162  1884.092
 163  1885.174
 164  2089.193
 165  2298.423
 166  2605.816
 167  2580.594
 168  2498.758
 169  2287.834
 170  2388.553
 171  2550.878
 172  2060.387
 173  1942.974
 174  2034.86
 175  2283.107
 176  2473.445
 177  2476.904
 178  2688.74
 179  2078.404
 180  2161.6
 181  2407.166
 182  2525.139
 183  2472.612
 184  2425.278
 185  2275.928
 186  2346.645
 187  2486.537
 188  2510.716
 189  2525.643
 190  2336.536
 191  2200.679
 192  2052.485
 193  1976.394
 194  2062.439
 195  2330.594
 196  2499.804
 197  2270.932
 198  2308.125
 199  2262.227
 200  2278.409
 201  2292.636
 202  2169.62
 203  2284.93
 204  2205.698
 205  2447.279
 206  2664.108
 207  2740.419
 208  2539.109
 209  2323.021
 210  2477.781
 211  2598.164
 212  2430.75
 213  2412.048
 214  2200.392
 215  2392.365
 216  2569.889
 217  2525.627
 218  2609.02
 219  2412.826
 220  2211.522
 221  2215.534
 222  2203.635
 223  2335.163
 224  2634.431
 225  2714.214
 226  2299.252
 227  1842.222
 228  2092.59
 229  2238.539
 230  2240.139
 231  2262.91
 232  2308.76
 233  2481.218
 234  2468.339
 235  2313.982
 236  2450.077
 237  2691.008
 238  2823.855
 239  2654.338
 240  2805.848
 241  3049.694
 242  3279.64
 243  3260.812
 244  3017.665
 245  2921.061
 246  3085.74
 247  3087.691
 248  3216.537
 249  2788.593
 250  2867.717
 251  2451.656
 252  2438.166
 253  2615.127
 254  2434.526
 255  2540.037
 256  2501.266
 257  2648.678
 258  2536.404
 259  2280.636
 260  2267.209
 261  2300.696
 262  2364.567
 263  2479.953
 264  2272.448
 265  2305.677
 266  2139.598
 267  2204.933
 268  2713.742
 269  2445.194
 270  2326
 271  2524.895
 272  2759.897
 273  2653.472
 274  2369.69
 275  2444.136
 276  2472.214
 277  2728.763
 278  2815.095
 279  2709.896
 280  2531.924
 281  2197.413
 282  2221.939
 283  1998.241
 284  2216.476
 285  2289.586
 286  2474.867
 287  2470.845
 288  2288.498
 289  2195.817
 290  1996.55
 291  2083.954
 292  2419.584
 293  2135.011
 294  2370.344
 295  2602.105
 296  2487.101
 297  2457.708
 298  2134.285
 299  2215.019
 300  2584.116
 301  2600.674
 302  2396.602
 303  2587.83
 304  2650.555
 305  2818
 306  2865.673
 307  2673.523
 308  2761.332
 309  2966.145
 310  2729.909
 311  2556.289
 312  2577.019
 313  3031.437
 314  2945.123
 315  2783.219
 316  2684.357
 317  2602.371
 318  2456.487
 319  2825.066
 320  2690.736
 321  2626.226
 322  2691.079
 323  2403.009
 324  2571.767
 325  2554.747
 326  2337.385
 327  2493.466
 328  2786.973
 329  2657.907
 330  2690.407
 331  2810.941
 332  2674.388
 333  2343.454
 334  2454.447
 335  2146.237
 336  2002.177
 337  2185.825
 338  2511.374
 339  2485.633
 340  2596.235
 341  2678.466
 342  2265.385
 343  2361.772
 344  2066.518
 345  2318.631
 346  2470.443
 347  2544.551
 348  2382.834
 349  2393.651
 350  2472.596
 351  2302.029
 352  2491.601
 353  2435.366
 354  2369.062
 355  2397.67
 356  2444.179
 357  2520.42
 358  2381.979
 359  2394.179
 360  2158.645
 361  2004.724
 362  2343.019
 363  2450.121
 364  2391.864
 365  2438.839
 366  2447.319
 367  2478.729
 368  2324.539
 369  2428.166
 370  2156.443
 371  2291.568
 372  2363.945
 373  2355.116
 374  2355.729
 375  2366.819
 376  2299.035
 377  2450.151
 378  2331.852
 379  2466.062
 380  2487.118
 381  2609.99
 382  2523.376
 383  2282.158
 384  2475.866
 385  2134.46
 386  2058.99
 387  2089.793
 388  2376.975
 389  2693.79
 390  2472.636
 391  2099.357
 392  2225.951
 393  2212.312
 394  1782.395
 395  1758.255
 396  2153.776
 397  2382.961
 398  2313.745
 399  2226.583
 400  1993.246
 401  2036.711
 402  2361.703
 403  2450.458
 404  2259.355
 405  2249.368
 406  2266.847
 407  2166.916
 408  2012.644
 409  1939.163
 410  2213.204
 411  2001.802
 412  1796.038
 413  2159.176
 414  1989.069
 415  1999.672
 416  2158.595
 417  2157.411
 418  1967.182
 419  1837.634
 420  1799.523
 421  1943.887
 422  2050.315
 423  2132.7
 424  2236.644
 425  2429.748
 426  2514.286
 427  2160.511
 428  1852.483
 429  1921.749
 430  2095.747
 431  2216.085
 432  1869.516
 433  1838.173
 434  1943.521
 435  1888.433
 436  2220.671
 437  2408.858
 438  2434.172
 439  2666.892
 440  2340.026
 441  1816.894
 442  1869.967
 443  2241.718
 444  2457.04
 445  2314.914
 446  2210.717
 447  2152.545
 448  1972.037
 449  2104.464
 450  2055.057
 451  2223.213
 452  2427.733
 453  2000.098
 454  2155.562
 455  2228.64
 456  2149.968
 457  2024.864
 458  2194.131
 459  2176.583
 460  2084.012
 461  1876.362
 462  1992.862
 463  2309.756
 464  2314.718
 465  2306.018
 466  2417.247
 467  2309.795
 468  2127.902
 469  2196.135
 470  2355.337
 471  2381.22
 472  2285.66
 473  2432.303
 474  2098.887
 475  1857.995
 476  1879.603
 477  1978.834
 478  2229.889
 479  2459.592
 480  2347.99
 481  2169.874
 482  2148.386
 483  2423.52
 484  2253.84
 485  2115.901
 486  2347.752
 487  2315.9
 488  2367.3
 489  2422.45
 490  2444.107
 491  2341.875
 492  1944.71
 493  1998.787
 494  2090.938
 495  2136.302
 496  2153.589
 497  2343.246
 498  2024.544
 499  1996.914
 500  2030.76
 501  1680.995
 502  1915.231
 503  2217.25
 504  2104.131
 505  2112.191
 506  2199
 507  2089.449
 508  1795.279
 509  1893.533
 510  2314.469
 511  2253.373
