# Input file       =  1185061324.110495-PSRB0329-2ms-sampling-dd.dat
# Candidate        =  PSR_0332+5434
# Telescope        =  AR
# Epoch_topo       =  57959.987767482584
# Epoch_bary       =  N/A
# T_sample         =  0.002
# Data Folded      =  7208960
# Data Avg         =  -8.14709872455259e-10
# Data StdDev      =  5.69730767091732 
# Profile Bins     =  512
# Profile Avg      =  0.72425107939803 
# Profile StdDev   =  676.037832473209 
# Reduced chi-sqr  =  0.912
# Prob(Noise)      <  0.924   (~0.0 sigma)
# P_topo (ms)      =  714.472343915455  +/- 9.2e-05
# P'_topo (s/s)    =  -0                +/- 4.94e-11
# P''_topo (s/s^2) =  0                 +/- 2.22e-14
# P_bary (ms)      =  N/A
# P'_bary (s/s)    =  N/A
# P''_bary (s/s^2) =  N/A
# P_orb (s)        =  N/A
# asin(i)/c (s)    =  N/A
# eccentricity     =  N/A
# w (rad)          =  N/A
# T_peri           =  N/A
######################################################
   0  259.3751
   1  285.2138
   2  -219.6523
   3  180.5781
   4  998.1601
   5  1131.145
   6  643.6877
   7  90.54349
   8  -154.1961
   9  -446.7236
  10  -210.2932
  11  327.8906
  12  489.5819
  13  474.3257
  14  603.9849
  15  452.4576
  16  405.8758
  17  137.1284
  18  238.9568
  19  497.2565
  20  538.2514
  21  641.8885
  22  340.801
  23  277.1275
  24  -76.2412
  25  -220.687
  26  99.48008
  27  447.7479
  28  200.1046
  29  237.7184
  30  -22.18473
  31  -14.50839
  32  -170.582
  33  329.0433
  34  -105.117
  35  -142.573
  36  -71.03254
  37  147.2606
  38  267.5626
  39  219.031
  40  -37.23175
  41  -62.69849
  42  -261.7765
  43  -567.3504
  44  -390.7391
  45  483.6102
  46  940.7377
  47  671.7065
  48  288.6721
  49  29.26975
  50  -79.01418
  51  -438.5836
  52  -87.362
  53  369.6826
  54  409.7908
  55  -22.94799
  56  -408.2091
  57  -273.3062
  58  10.25105
  59  36.50638
  60  -31.26366
  61  -194.2791
  62  86.15516
  63  -48.82043
  64  -673.0797
  65  -843.1259
  66  -477.3777
  67  443.707
  68  -6.833366
  69  29.23349
  70  -80.09738
  71  228.3961
  72  -209.625
  73  -293.3686
  74  89.89103
  75  227.9973
  76  -102.9506
  77  -278.0533
  78  305.9751
  79  581.641
  80  429.4666
  81  144.1888
  82  -294.5077
  83  -628.3547
  84  -715.4688
  85  -378.6021
  86  -172.6246
  87  345.1736
  88  475.8061
  89  -176.8782
  90  -552.3068
  91  -460.7508
  92  -749.7369
  93  -182.0268
  94  65.02914
  95  -172.7626
  96  -327.7978
  97  -253.6142
  98  -518.6245
  99  -335.2626
 100  -121.1233
 101  -252.7356
 102  -72.57228
 103  -316.0784
 104  -469.6163
 105  -551.9124
 106  -593.8235
 107  -448.3424
 108  -572.7829
 109  -335.4836
 110  -315.7488
 111  -249.4162
 112  142.0786
 113  353.4106
 114  -97.76102
 115  166.8711
 116  -123.0166
 117  -337.5083
 118  -265.2915
 119  408.2263
 120  765.8055
 121  419.9854
 122  89.13116
 123  -333.9614
 124  -70.21638
 125  -373.1947
 126  -149.7447
 127  -38.94939
 128  146.9745
 129  44.23552
 130  -27.95788
 131  -510.2674
 132  -421.479
 133  149.4404
 134  292.8267
 135  -361.1671
 136  -1.736571
 137  28.45176
 138  -326.6891
 139  -456.1981
 140  -69.67778
 141  263.1144
 142  179.2872
 143  50.42627
 144  309.9998
 145  311.8529
 146  159.5984
 147  -55.47799
 148  -357.7569
 149  38.12077
 150  111.5514
 151  -49.15498
 152  242.4703
 153  235.2676
 154  142.6328
 155  -187.6218
 156  -401.2025
 157  -559.2459
 158  -63.17841
 159  -148.3519
 160  42.86954
 161  -256.1562
 162  -440.3669
 163  -94.67818
 164  -321.6202
 165  -614.0861
 166  -844.075
 167  -485.8771
 168  -230.2112
 169  -159.7413
 170  -80.96973
 171  -382.1291
 172  -698.1371
 173  -895.8439
 174  -686.9918
 175  -560.1934
 176  -214.4475
 177  -326.5963
 178  -197.2977
 179  -145.8432
 180  -282.982
 181  -200.6152
 182  229.9911
 183  -107.4614
 184  -233.1175
 185  -333.1719
 186  -161.5885
 187  210.23
 188  227.4214
 189  -23.80599
 190  -343.6581
 191  -131.0779
 192  -606.8774
 193  -725.1971
 194  -382.8857
 195  93.93736
 196  67.75796
 197  -394.9293
 198  -552.1346
 199  -525.9026
 200  -482.907
 201  -493.9466
 202  -330.5085
 203  65.46816
 204  107.5307
 205  -350.9786
 206  -749.4128
 207  -726.6246
 208  -637.098
 209  -537.2353
 210  -382.0267
 211  -318.5581
 212  -526.7739
 213  -436.6045
 214  -230.455
 215  -126.1845
 216  -211.409
 217  -149.8272
 218  555.1555
 219  387.6172
 220  -128.0112
 221  -157.6042
 222  -49.42577
 223  -146.0373
 224  -648.4995
 225  -235.4736
 226  -10.97455
 227  -16.2514
 228  -184.907
 229  -111.0429
 230  -236.4561
 231  -737.8307
 232  -699.8092
 233  -706.1822
 234  -377.306
 235  -521.9775
 236  -75.35989
 237  141.2165
 238  47.64362
 239  67.9165
 240  5.85109
 241  -432.1621
 242  -269.6046
 243  -197.3474
 244  215.8601
 245  31.66374
 246  -326.6598
 247  18.80509
 248  6.935426
 249  -2.287582
 250  -208.8683
 251  -90.95396
 252  203.1129
 253  -202.0666
 254  -220.0719
 255  34.27017
 256  469.9981
 257  265.3556
 258  45.24949
 259  -105.7634
 260  -144.5065
 261  -184.5963
 262  379.8304
 263  840.2258
 264  424.8376
 265  239.4671
 266  88.73454
 267  -276.0547
 268  -551.96
 269  -153.308
 270  252.0336
 271  103.4941
 272  -156.4406
 273  -283.1985
 274  240.5015
 275  147.5322
 276  201.0553
 277  150.0862
 278  574.0699
 279  363.7002
 280  -192.0453
 281  203.3404
 282  -67.85934
 283  -65.64972
 284  219.8473
 285  461.6773
 286  230.531
 287  273.0129
 288  -107.7286
 289  -444.6017
 290  -389.2
 291  -228.2257
 292  110.2941
 293  198.2863
 294  442.7723
 295  522.9491
 296  128.8029
 297  38.3629
 298  -721.7829
 299  -390.0802
 300  99.92514
 301  159.4536
 302  21.15608
 303  -188.615
 304  -31.80519
 305  -184.4795
 306  -172.6652
 307  -498.3091
 308  -477.1965
 309  -247.7776
 310  -22.64821
 311  171.8231
 312  -74.20839
 313  80.14513
 314  93.0517
 315  -186.0027
 316  -435.2692
 317  -861.8506
 318  -413.6733
 319  -301.3728
 320  -122.2315
 321  634.8518
 322  132.7786
 323  -364.2712
 324  -798.871
 325  -477.8078
 326  -47.23579
 327  123.7155
 328  496.2223
 329  310.9796
 330  -103.6509
 331  -534.7167
 332  -794.7618
 333  -759.0141
 334  -559.2101
 335  -321.5747
 336  -74.52642
 337  -149.5389
 338  -598.4459
 339  -696.2531
 340  -326.1774
 341  -229.2526
 342  -676.4305
 343  -455.8409
 344  -35.39639
 345  -51.50098
 346  51.98248
 347  253.3589
 348  -105.451
 349  -963.5315
 350  -687.5278
 351  -641.2075
 352  -371.8537
 353  -201.9641
 354  -108.9203
 355  -131.5646
 356  -802.1308
 357  -710.5734
 358  -436.4082
 359  -90.67065
 360  195.8192
 361  313.2604
 362  270.0809
 363  -99.4727
 364  -434.7421
 365  -627.9711
 366  -4.996711
 367  438.8891
 368  442.1466
 369  139.6785
 370  -387.0914
 371  -597.7441
 372  -833.2759
 373  -578.1002
 374  -644.5826
 375  -325.8503
 376  130.4845
 377  51.27139
 378  -58.29288
 379  -152.981
 380  34.67071
 381  -246.6627
 382  -507.7488
 383  -394.1385
 384  37.67024
 385  31.56215
 386  -414.9067
 387  -390.8459
 388  19.53727
 389  -193.5446
 390  -396.3287
 391  -591.3555
 392  -351.8065
 393  -221.3617
 394  102.917
 395  402.0143
 396  -47.235
 397  -270.9596
 398  -12.72987
 399  -95.99
 400  349.9826
 401  -80.14874
 402  -41.37014
 403  -158.1191
 404  -857.1947
 405  -742.7635
 406  -575.7785
 407  -459.52
 408  -103.7649
 409  147.7301
 410  490.9717
 411  6.669499
 412  -581.7637
 413  -729.5329
 414  -546.1845
 415  -634.5493
 416  -871.9307
 417  -486.3033
 418  -161.7505
 419  -265.8283
 420  -272.5598
 421  -177.3868
 422  -84.35318
 423  -346.027
 424  -220.5426
 425  -340.1384
 426  -283.439
 427  -225.208
 428  212.8979
 429  628.9167
 430  428.3795
 431  -98.32434
 432  115.1989
 433  82.6797
 434  147.4992
 435  389.3822
 436  813.2538
 437  435.1133
 438  -374.3156
 439  -427.0008
 440  -329.2965
 441  127.1198
 442  484.0525
 443  820.188
 444  534.6367
 445  228.9543
 446  307.9913
 447  223.0496
 448  63.5208
 449  361.854
 450  886.2074
 451  1064.522
 452  34.11226
 453  -280.5123
 454  -115.0744
 455  330.9553
 456  533.089
 457  221.8215
 458  281.9559
 459  -2.431941
 460  88.83016
 461  569.1525
 462  275.8396
 463  367.0881
 464  564.7847
 465  532.592
 466  746.3055
 467  800.0801
 468  933.4343
 469  952.0686
 470  794.1069
 471  690.6591
 472  563.7703
 473  673.5185
 474  909.2808
 475  1122.123
 476  1093.556
 477  916.7391
 478  370.1932
 479  410.1401
 480  754.9929
 481  567.3897
 482  734.7443
 483  926.6738
 484  801.8134
 485  553.458
 486  351.349
 487  488.1253
 488  495.4341
 489  552.1855
 490  921.0081
 491  1225.453
 492  1139.82
 493  1355.602
 494  1484.411
 495  2156.081
 496  2229.018
 497  1931.991
 498  1805.534
 499  1016.537
 500  1165.748
 501  993.8536
 502  648.5459
 503  911.5117
 504  874.2243
 505  584.0745
 506  383.0031
 507  647.7113
 508  534.4311
 509  367.7274
 510  579.4145
 511  531.6577
