# Input file       =  1185866322.111711_cleaned.dat
# Candidate        =  PSR_0332+5434
# Telescope        =  AR
# Epoch_topo       =  57969.304873978137
# Epoch_bary       =  N/A
# T_sample         =  0.002
# Data Folded      =  7340032
# Data Avg         =  0.0145599204645675
# Data StdDev      =  2.68325577315246 
# Profile Bins     =  512
# Profile Avg      =  208.634691415126 
# Profile StdDev   =  321.274361095032 
# Reduced chi-sqr  =  1.552
# Prob(Noise)      <  1.49e-14   (~7.6 sigma)
# P_topo (ms)      =  714.468480709519  +/- 0.000142
# P'_topo (s/s)    =  -0                +/- 7.51e-11
# P''_topo (s/s^2) =  0                 +/- 3.32e-14
# P_bary (ms)      =  N/A
# P'_bary (s/s)    =  N/A
# P''_bary (s/s^2) =  N/A
# P_orb (s)        =  N/A
# asin(i)/c (s)    =  N/A
# eccentricity     =  N/A
# w (rad)          =  N/A
# T_peri           =  N/A
######################################################
   0  25.10505
   1  -206.1507
   2  -95.9798
   3  296.1743
   4  180.9121
   5  248.0942
   6  254.7273
   7  105.7543
   8  129.7163
   9  39.04697
  10  -184.6417
  11  67.21049
  12  325.8931
  13  382.6145
  14  77.81378
  15  -52.42545
  16  134.8315
  17  -107.6433
  18  -82.51734
  19  323.333
  20  482.8272
  21  302.3833
  22  313.7216
  23  106.9643
  24  -62.88421
  25  137.307
  26  58.17291
  27  -137.6398
  28  33.32593
  29  239.8276
  30  239.3154
  31  60.46154
  32  48.90665
  33  -18.28369
  34  14.95261
  35  459.4023
  36  166.5602
  37  -387.4562
  38  15.3661
  39  254.9285
  40  402.9305
  41  364.7067
  42  110.9544
  43  17.63161
  44  169.6765
  45  266.6938
  46  190.0905
  47  509.1854
  48  648.5906
  49  621.916
  50  522.2779
  51  330.2073
  52  101.6898
  53  219.221
  54  -119.7125
  55  35.11914
  56  319.4284
  57  390.3343
  58  0.8935696
  59  -31.63565
  60  206.2629
  61  177.4939
  62  -126.411
  63  -184.6958
  64  -203.3855
  65  -562.7596
  66  -204.4847
  67  104.0677
  68  92.49815
  69  209.5975
  70  260.7413
  71  -23.20678
  72  -310.3177
  73  91.91174
  74  337.076
  75  135.7119
  76  65.13449
  77  237.289
  78  303.9922
  79  316.7092
  80  269.417
  81  -31.99499
  82  -266.7498
  83  236.3206
  84  -84.75442
  85  210.1652
  86  266.956
  87  264.1029
  88  209.4428
  89  -5.656172
  90  -181.1441
  91  -13.87746
  92  368.5456
  93  48.38187
  94  231.4733
  95  264.9552
  96  208.3907
  97  303.294
  98  -71.72306
  99  111.963
 100  294.3076
 101  -41.29012
 102  -22.80363
 103  343.9967
 104  690.1186
 105  295.7114
 106  146.5078
 107  159.4399
 108  47.75961
 109  -225.0115
 110  -251.784
 111  -191.5333
 112  106.7794
 113  708.9516
 114  908.3307
 115  893.0436
 116  80.22858
 117  -184.2085
 118  5.813205
 119  74.20065
 120  187.7227
 121  90.92262
 122  -378.5142
 123  -249.6656
 124  211.1768
 125  460.6401
 126  156.6804
 127  26.13478
 128  232.7928
 129  238.7285
 130  210.0002
 131  337.5114
 132  599.9761
 133  162.5405
 134  72.57586
 135  -29.69124
 136  150.5223
 137  91.28688
 138  41.2077
 139  -50.58696
 140  -256.9783
 141  28.01323
 142  15.98198
 143  89.81665
 144  222.3422
 145  10.72145
 146  -196.3849
 147  -164.9394
 148  -295.4249
 149  -202.5631
 150  362.485
 151  590.1066
 152  154.3967
 153  311.9433
 154  -65.20557
 155  -118.3281
 156  20.37129
 157  121.511
 158  3.872554
 159  64.72367
 160  -13.24025
 161  25.65162
 162  -114.283
 163  -197.0937
 164  44.50546
 165  353.9898
 166  289.0468
 167  415.7201
 168  485.608
 169  643.2335
 170  358.3906
 171  14.20027
 172  253.7578
 173  -15.49051
 174  102.0988
 175  15.28372
 176  -68.90133
 177  -99.62188
 178  70.42748
 179  -70.27148
 180  -25.25315
 181  196.263
 182  634.8347
 183  436.8447
 184  -95.39362
 185  386.5885
 186  135.4241
 187  -235.2774
 188  -10.22618
 189  362.3711
 190  227.2581
 191  11.12572
 192  63.73663
 193  469.2511
 194  497.1151
 195  412.1974
 196  -39.58752
 197  -61.83985
 198  -305.6907
 199  -169.8014
 200  237.7062
 201  310.1125
 202  606.1236
 203  442.415
 204  226.7478
 205  156.6224
 206  142.641
 207  282.9571
 208  113.5047
 209  308.6398
 210  363.4854
 211  469.7591
 212  380.6303
 213  272.4543
 214  12.32915
 215  15.23412
 216  -251.1261
 217  -502.1472
 218  -33.98644
 219  197.8538
 220  264.3535
 221  115.0143
 222  79.13402
 223  322.2315
 224  284.6618
 225  251.7902
 226  347.1342
 227  146.7009
 228  31.38344
 229  455.6583
 230  618.2187
 231  305.7561
 232  484.3132
 233  360.1267
 234  75.78471
 235  375.6373
 236  244.8064
 237  764.7727
 238  202.2078
 239  418.5197
 240  206.8315
 241  257.4061
 242  358.5569
 243  267.2025
 244  314.2508
 245  325.7085
 246  335.6951
 247  379.7871
 248  168.2635
 249  -143.0515
 250  20.64581
 251  238.0231
 252  404.7187
 253  261.3309
 254  249.9971
 255  73.1631
 256  122.9677
 257  542.6747
 258  419.2558
 259  368.4147
 260  117.9667
 261  222.7467
 262  -4.104607
 263  104.7898
 264  362.6211
 265  501.3469
 266  337.0609
 267  505.4694
 268  402.0392
 269  395.4381
 270  684.0852
 271  377.5597
 272  46.04141
 273  362.5019
 274  57.17614
 275  -618.9432
 276  -249.8366
 277  144.5647
 278  243.1559
 279  623.7493
 280  610.1464
 281  529.925
 282  277.7924
 283  140.1136
 284  359.0275
 285  148.6382
 286  76.63998
 287  -4.18392
 288  7.997838
 289  -464.0543
 290  -535.3868
 291  -100.4824
 292  370.1736
 293  669.4239
 294  603.5663
 295  664.9931
 296  729.0953
 297  368.9911
 298  -135.8601
 299  -11.50752
 300  594.3942
 301  347.0148
 302  48.74659
 303  138.9534
 304  524.166
 305  294.7476
 306  -45.07431
 307  87.46191
 308  626.2947
 309  255.6175
 310  219.4902
 311  162.9382
 312  185.563
 313  439.1905
 314  428.1764
 315  298.2011
 316  254.6163
 317  243.4507
 318  260.9189
 319  211.8911
 320  432.4564
 321  958.5946
 322  1420.389
 323  1730.372
 324  1847.636
 325  1494.09
 326  1653.705
 327  1409.601
 328  740.1276
 329  702.9003
 330  363.0373
 331  -48.29783
 332  97.41194
 333  703.6014
 334  729.8638
 335  503.5002
 336  327.3622
 337  242.0782
 338  136.7475
 339  -33.89413
 340  264.2671
 341  296.1695
 342  -182.2418
 343  -210.2584
 344  364.6458
 345  201.5249
 346  129.4725
 347  87.76069
 348  -167.257
 349  307.1008
 350  380.9844
 351  256.1589
 352  417.2929
 353  42.72054
 354  5.054292
 355  -81.493
 356  -299.5623
 357  -123.6086
 358  259.9341
 359  622.5302
 360  246.0373
 361  101.6876
 362  77.48849
 363  -116.5693
 364  22.6962
 365  144.923
 366  229.507
 367  368.0919
 368  391.1483
 369  621.6004
 370  732.9825
 371  533.076
 372  538.6342
 373  384.343
 374  495.8762
 375  154.4852
 376  57.78842
 377  246.3426
 378  419.6377
 379  661.5867
 380  51.64122
 381  -192.3858
 382  166.0368
 383  465.46
 384  281.2402
 385  497.6376
 386  492.0443
 387  410.432
 388  209.3675
 389  216.9262
 390  -199.2295
 391  336.3223
 392  253.1928
 393  257.9091
 394  556.3212
 395  747.498
 396  545.2571
 397  420.0739
 398  281.4079
 399  595.0641
 400  56.75642
 401  204.278
 402  -57.71405
 403  116.0411
 404  145.8194
 405  -88.91792
 406  -192.0788
 407  -330.1476
 408  -95.87942
 409  186.4621
 410  577.1163
 411  578.71
 412  423.7741
 413  19.49209
 414  -0.05984812
 415  168.4017
 416  317.2817
 417  351.5167
 418  258.6032
 419  82.8032
 420  5.061154
 421  151.8727
 422  449.1989
 423  320.1286
 424  242.709
 425  129.1831
 426  -131.7151
 427  171.174
 428  358.8337
 429  414.6938
 430  309.6273
 431  217.3887
 432  285.1376
 433  572.7004
 434  409.7233
 435  55.0041
 436  182.2372
 437  -96.00214
 438  -75.8408
 439  217.1092
 440  21.59011
 441  351.4592
 442  455.0176
 443  272.3209
 444  438.5567
 445  1032.964
 446  855.6344
 447  211.4625
 448  -3.947242
 449  194.325
 450  150.3095
 451  117.7587
 452  450.2401
 453  531.9204
 454  429.5103
 455  512.0039
 456  220.8055
 457  53.7462
 458  207.402
 459  456.3638
 460  304.8666
 461  285.7441
 462  175.7502
 463  89.69368
 464  183.6693
 465  135.4275
 466  288.2354
 467  298.2883
 468  130.4774
 469  97.84098
 470  -105.775
 471  80.98715
 472  -23.24877
 473  -0.5492296
 474  -101.7063
 475  245.9386
 476  335.1817
 477  339.848
 478  240.4897
 479  430.8956
 480  285.1603
 481  123.075
 482  443.6954
 483  422.7849
 484  67.06347
 485  128.4781
 486  494.3043
 487  543.8508
 488  291.4337
 489  190.4498
 490  160.658
 491  -47.10672
 492  -102.5017
 493  -163.9306
 494  -13.13236
 495  -272.3504
 496  206.6676
 497  173.0884
 498  -119.8567
 499  78.19023
 500  185.648
 501  483.325
 502  126.7419
 503  230.9624
 504  104.7978
 505  -34.60445
 506  -91.82545
 507  158.0797
 508  223.5898
 509  -27.976
 510  21.63632
 511  -7.607297
