# Input file       =  1185952524.105534_cleaned.dat
# Candidate        =  PSR_0332+5434
# Telescope        =  AR
# Epoch_topo       =  57970.302582239980
# Epoch_bary       =  N/A
# T_sample         =  0.002
# Data Folded      =  7340032
# Data Avg         =  0.0042042066971654
# Data StdDev      =  1.00002591028935 
# Profile Bins     =  512
# Profile Avg      =  60.2593600467227 
# Profile StdDev   =  119.736138694384 
# Reduced chi-sqr  =  1.366
# Prob(Noise)      <  6.73e-08   (~5.3 sigma)
# P_topo (ms)      =  714.468106134517  +/- 0.000238
# P'_topo (s/s)    =  -0                +/- 1.26e-10
# P''_topo (s/s^2) =  0                 +/- 5.55e-14
# P_bary (ms)      =  N/A
# P'_bary (s/s)    =  N/A
# P''_bary (s/s^2) =  N/A
# P_orb (s)        =  N/A
# asin(i)/c (s)    =  N/A
# eccentricity     =  N/A
# w (rad)          =  N/A
# T_peri           =  N/A
######################################################
   0  130.5318
   1  156.8984
   2  91.36586
   3  97.75919
   4  117.2323
   5  7.568118
   6  92.74293
   7  92.08739
   8  68.37523
   9  132.6599
  10  24.34283
  11  -64.30645
  12  62.17984
  13  54.11501
  14  5.858069
  15  33.15706
  16  89.15967
  17  10.75954
  18  -79.47074
  19  -3.774312
  20  60.31094
  21  -7.269688
  22  -98.13181
  23  30.36615
  24  50.00473
  25  5.393456
  26  -149.5514
  27  -86.0395
  28  -40.26833
  29  85.27698
  30  115.5579
  31  132.4806
  32  19.42063
  33  -11.44261
  34  -14.66729
  35  -102.3667
  36  11.05747
  37  86.18855
  38  86.35846
  39  -15.05821
  40  58.72958
  41  5.559556
  42  -10.59761
  43  31.91416
  44  -18.61975
  45  -67.64521
  46  16.45323
  47  -20.91932
  48  -60.45109
  49  -97.2784
  50  -94.57774
  51  44.03
  52  70.13293
  53  106.3251
  54  7.578311
  55  -138.8958
  56  -17.5786
  57  -56.36213
  58  -15.59227
  59  -29.0747
  60  -47.43119
  61  3.995122
  62  -1.372458
  63  40.00497
  64  -176.8567
  65  -70.27796
  66  5.7991
  67  7.436499
  68  14.61135
  69  25.54242
  70  -39.55632
  71  -28.7854
  72  26.55275
  73  111.4096
  74  142.6208
  75  35.06351
  76  60.72432
  77  -42.41633
  78  -127.6856
  79  -31.08002
  80  63.70815
  81  90.54612
  82  23.64165
  83  88.17616
  84  189.7255
  85  146.6746
  86  98.93999
  87  146.0226
  88  203.401
  89  15.97629
  90  -7.800237
  91  82.49043
  92  200.7766
  93  212.2445
  94  388.2365
  95  388.2601
  96  472.7241
  97  596.3205
  98  685.2942
  99  672.5174
 100  535.585
 101  310.9553
 102  64.23931
 103  38.22533
 104  0.6529493
 105  90.18705
 106  -92.5823
 107  7.225029
 108  150.2315
 109  92.16151
 110  154.5731
 111  249.0042
 112  139.136
 113  6.291166
 114  -69.30908
 115  118.7653
 116  94.11196
 117  59.93774
 118  32.20636
 119  50.11256
 120  116.7662
 121  66.18114
 122  89.26464
 123  23.01105
 124  123.0215
 125  102.6113
 126  26.21668
 127  59.04138
 128  5.9031
 129  29.81199
 130  243.7858
 131  240.7101
 132  147.2591
 133  86.25378
 134  -99.64711
 135  -31.13306
 136  47.93357
 137  106.8463
 138  49.36343
 139  111.1771
 140  72.33115
 141  138.8813
 142  102.3357
 143  106.0027
 144  4.365991
 145  -4.232375
 146  103.1018
 147  117.0058
 148  132.0984
 149  55.5104
 150  -54.92055
 151  -144.6472
 152  53.49511
 153  134.0148
 154  142.3035
 155  67.25953
 156  45.08379
 157  145.5921
 158  115.7008
 159  90.57745
 160  202.4077
 161  207.8749
 162  169.6326
 163  -66.00338
 164  -15.75944
 165  -99.38664
 166  -19.4517
 167  102.3529
 168  84.20536
 169  36.33907
 170  60.58815
 171  39.21199
 172  36.26347
 173  278.2509
 174  299.1336
 175  18.70059
 176  -24.43056
 177  28.66047
 178  -10.72421
 179  103.8604
 180  192.5063
 181  120.9396
 182  47.08407
 183  139.4825
 184  98.34889
 185  -3.523874
 186  121.9407
 187  128.513
 188  25.06709
 189  -1.156406
 190  1.341224
 191  53.62825
 192  33.35666
 193  130.9796
 194  -15.65046
 195  -123.4624
 196  -122.2517
 197  16.13055
 198  -78.27328
 199  -32.6453
 200  -64.03751
 201  76.44818
 202  15.51424
 203  109.2549
 204  77.71394
 205  23.93793
 206  -2.627205
 207  44.33274
 208  -7.960108
 209  -21.79875
 210  -13.23606
 211  -15.1436
 212  35.89935
 213  45.35866
 214  163.473
 215  153.4717
 216  55.95415
 217  37.16483
 218  166.7048
 219  72.00606
 220  53.30919
 221  47.24525
 222  185.3747
 223  187.9966
 224  136.2486
 225  113.9644
 226  221.6938
 227  140.659
 228  83.50983
 229  74.77647
 230  -16.90461
 231  98.99893
 232  188.9771
 233  74.15336
 234  52.79934
 235  150.7892
 236  115.9793
 237  -64.65993
 238  -29.7616
 239  115.6257
 240  63.70253
 241  29.37862
 242  -7.557831
 243  -20.99895
 244  50.03172
 245  92.56493
 246  134.7699
 247  -76.55783
 248  -64.08823
 249  99.39732
 250  153.0245
 251  60.35815
 252  62.64561
 253  26.01174
 254  -78.82307
 255  -106.0621
 256  -16.04318
 257  57.12074
 258  -87.70191
 259  -35.33606
 260  -39.52359
 261  -84.30683
 262  -2.341194
 263  99.58354
 264  86.24174
 265  78.09573
 266  75.6199
 267  101.5418
 268  40.71632
 269  112.1954
 270  98.24242
 271  -8.474626
 272  0.07436136
 273  110.066
 274  42.15347
 275  -76.09126
 276  -16.76251
 277  148.7125
 278  44.73843
 279  -43.48322
 280  -25.56506
 281  -23.04858
 282  -0.374228
 283  -38.41043
 284  -86.08733
 285  -20.00259
 286  75.1538
 287  35.03729
 288  0.6792881
 289  117.5535
 290  162.7076
 291  101.5847
 292  47.08346
 293  43.56673
 294  2.456541
 295  206.3029
 296  122.8582
 297  20.4008
 298  15.66026
 299  100.4863
 300  72.72395
 301  -36.28359
 302  24.93373
 303  18.39698
 304  141.7473
 305  292.5838
 306  209.7855
 307  27.57706
 308  -21.90645
 309  45.42122
 310  41.64227
 311  74.91204
 312  138.8844
 313  138.6028
 314  139.136
 315  63.21185
 316  103.9043
 317  103.6221
 318  83.13439
 319  134.3949
 320  140.7365
 321  60.60262
 322  92.14048
 323  137.6383
 324  60.5147
 325  -15.24821
 326  -2.536449
 327  -25.28526
 328  33.08187
 329  81.89968
 330  -3.664206
 331  87.15639
 332  86.96851
 333  59.89165
 334  -5.821414
 335  90.88536
 336  193.2496
 337  37.88158
 338  73.8989
 339  150.5329
 340  55.38696
 341  29.74136
 342  122.3313
 343  175.4225
 344  108.2482
 345  78.34129
 346  75.9259
 347  -49.17831
 348  -27.25309
 349  84.18835
 350  75.72445
 351  -109.3534
 352  -88.80431
 353  57.43861
 354  135.0402
 355  106.9257
 356  85.89476
 357  44.49799
 358  -7.551712
 359  80.31335
 360  12.17435
 361  88.83418
 362  43.82637
 363  -1.801581
 364  -72.99364
 365  25.33891
 366  49.54977
 367  72.07114
 368  125.9874
 369  68.52596
 370  58.2557
 371  64.95764
 372  -85.05245
 373  -83.66771
 374  54.69027
 375  20.42632
 376  103.9853
 377  92.70909
 378  120.8572
 379  153.1723
 380  18.81906
 381  145.9615
 382  129.5844
 383  272.7147
 384  201.5463
 385  -40.01036
 386  -30.46811
 387  6.441096
 388  17.81774
 389  111.9145
 390  171.2576
 391  195.7548
 392  206.0258
 393  149.7002
 394  127.5766
 395  -5.044031
 396  158.7417
 397  158.6655
 398  53.67856
 399  64.80762
 400  -1.173422
 401  -85.09951
 402  41.6563
 403  80.7949
 404  74.59299
 405  116.0576
 406  216.873
 407  83.18499
 408  84.6181
 409  6.485408
 410  52.40728
 411  164.6834
 412  95.39674
 413  83.83674
 414  147.9494
 415  108.6789
 416  65.05989
 417  172.3231
 418  294.9512
 419  157.5285
 420  -30.92935
 421  -80.43257
 422  1.21676
 423  52.74009
 424  50.43896
 425  78.02668
 426  -28.00502
 427  17.29573
 428  -114.6183
 429  -68.80592
 430  151.9269
 431  -3.254005
 432  79.46771
 433  171.4187
 434  149.5257
 435  154.3678
 436  171.0653
 437  154.8475
 438  209.2812
 439  224.9801
 440  174.6908
 441  68.55093
 442  70.47464
 443  52.7924
 444  56.19767
 445  36.66356
 446  4.246439
 447  66.2932
 448  68.99994
 449  81.47247
 450  186.6721
 451  44.17746
 452  8.754063
 453  96.69502
 454  216.5871
 455  36.43719
 456  19.35682
 457  65.65451
 458  73.61279
 459  16.42603
 460  136.7991
 461  139.5925
 462  35.37438
 463  -113.0816
 464  -109.3204
 465  -40.12373
 466  -19.22459
 467  67.15014
 468  -8.282589
 469  -116.7133
 470  -45.47195
 471  77.83221
 472  36.08725
 473  -51.37899
 474  91.9462
 475  55.12151
 476  105.2822
 477  92.50548
 478  168.6497
 479  225.4386
 480  164.8891
 481  51.68859
 482  -55.39018
 483  -99.00448
 484  148.9095
 485  27.10904
 486  -155.8557
 487  -28.86934
 488  48.67133
 489  19.61785
 490  32.37824
 491  92.68223
 492  -10.53481
 493  -19.98996
 494  -42.90392
 495  -34.66043
 496  -58.85579
 497  -204.5238
 498  -155.0908
 499  -34.02984
 500  160.2715
 501  142.2899
 502  32.18441
 503  3.318887
 504  -14.92589
 505  160.3301
 506  30.32561
 507  -36.28694
 508  66.6041
 509  147.9397
 510  72.60542
 511  73.76244
