# Input file       =  1185592917.121895_cleaned.dat
# Candidate        =  PSR_0332+5434
# Telescope        =  AR
# Epoch_topo       =  57966.140464373784
# Epoch_bary       =  N/A
# T_sample         =  0.002
# Data Folded      =  7340032
# Data Avg         =  0.1888026641318  
# Data StdDev      =  4.15286006517852 
# Profile Bins     =  512
# Profile Avg      =  2706.4334884484  
# Profile StdDev   =  497.234545251639 
# Reduced chi-sqr  =  1.408
# Prob(Noise)      <  2.89e-09   (~5.8 sigma)
# P_topo (ms)      =  714.469432738065  +/- 0.000915
# P'_topo (s/s)    =  -0                +/- 4.83e-10
# P''_topo (s/s^2) =  0                 +/- 2.13e-13
# P_bary (ms)      =  N/A
# P'_bary (s/s)    =  N/A
# P''_bary (s/s^2) =  N/A
# P_orb (s)        =  N/A
# asin(i)/c (s)    =  N/A
# eccentricity     =  N/A
# w (rad)          =  N/A
# T_peri           =  N/A
######################################################
   0  2406.553
   1  2346.953
   2  2632.744
   3  2897.054
   4  2833.9
   5  2933.394
   6  2994.366
   7  3250.685
   8  3244.481
   9  3099.82
  10  3278.322
  11  3041.24
  12  2824.854
  13  2770.547
  14  3008.519
  15  3156.365
  16  3043.733
  17  2791.599
  18  2886.183
  19  2868.994
  20  2879.14
  21  2781.482
  22  3027.153
  23  2828.39
  24  2810.397
  25  2928.703
  26  2878.557
  27  2799.034
  28  2931.726
  29  2960.254
  30  3081.696
  31  3013.027
  32  2935.261
  33  2714.014
  34  2676.392
  35  3006.21
  36  2950.677
  37  2780.58
  38  2805.189
  39  2592.162
  40  2692.805
  41  2650.584
  42  2787.839
  43  2712.029
  44  2979.568
  45  2794.541
  46  2745.455
  47  3122.945
  48  3095.323
  49  2805.077
  50  2753.094
  51  2912.037
  52  3101.564
  53  3035.389
  54  3062.303
  55  3255.531
  56  3193.473
  57  3215.631
  58  3341.36
  59  3486.452
  60  3383.021
  61  3491.582
  62  3753.929
  63  3454.826
  64  3152.861
  65  3088.183
  66  3406.529
  67  3466.152
  68  3320.121
  69  3115.118
  70  3175.165
  71  3360.093
  72  3274.366
  73  3471.552
  74  3310.378
  75  3131.328
  76  3612.009
  77  3471.442
  78  3336.502
  79  3412.681
  80  3525.561
  81  3891.041
  82  3865.688
  83  3583.843
  84  3446.857
  85  3783.005
  86  3887.121
  87  3587.738
  88  3642.862
  89  3768.743
  90  3920.115
  91  3421.032
  92  3356.43
  93  3057.186
  94  3176.325
  95  3243.549
  96  3361.237
  97  3425.609
  98  3129.653
  99  3253.225
 100  3508.456
 101  3265.788
 102  3369.697
 103  3143.673
 104  3116.451
 105  3299.019
 106  3291.564
 107  3265.696
 108  2902.636
 109  3216.74
 110  3439.505
 111  3273.339
 112  3461.788
 113  3218.294
 114  3132.828
 115  3058.974
 116  3011.957
 117  3347.741
 118  3310.022
 119  3021.402
 120  3078.781
 121  3128.026
 122  3115.346
 123  3064.4
 124  2615.749
 125  3081.608
 126  3057.23
 127  2616.796
 128  2662.474
 129  2490.611
 130  2485.711
 131  2213.211
 132  2271.444
 133  2249.48
 134  2568.126
 135  2679.758
 136  2387.557
 137  2353.862
 138  2280.999
 139  2740.523
 140  2670.269
 141  2717.878
 142  2733.672
 143  2689.763
 144  2279.363
 145  1722.672
 146  1943.169
 147  2290.79
 148  2367.88
 149  2415.172
 150  2416.742
 151  2314.471
 152  2588.534
 153  2597.29
 154  2650.277
 155  2368.851
 156  2092.157
 157  2138.764
 158  2422.44
 159  2475.081
 160  2282.007
 161  2023.711
 162  1971.813
 163  2200.597
 164  2181.026
 165  2178.9
 166  2067.36
 167  1977.06
 168  2298.576
 169  2320.191
 170  1915.697
 171  2157.36
 172  2390.352
 173  2076.5
 174  2430.79
 175  2082.678
 176  1953.977
 177  2236.623
 178  2366.079
 179  2524.306
 180  2432.483
 181  2477.523
 182  2449.246
 183  2115.379
 184  2118.647
 185  2458.33
 186  2383.462
 187  2231.841
 188  2198.745
 189  2419.271
 190  2144.941
 191  1773.767
 192  2198.35
 193  2379.268
 194  2255.836
 195  2223.183
 196  2309.96
 197  1957.054
 198  2121.306
 199  2280.074
 200  2160.383
 201  2232.22
 202  2185.002
 203  1983.848
 204  1987.396
 205  2342.121
 206  2327.672
 207  2076.412
 208  2185.2
 209  2381.217
 210  1916.011
 211  1929.767
 212  1956.378
 213  1867.271
 214  2248.201
 215  2324.63
 216  2337.136
 217  2226.547
 218  2136.229
 219  2086.67
 220  2209.881
 221  2125.464
 222  1862.689
 223  2159.784
 224  2468.531
 225  1995.253
 226  1831.608
 227  1873.184
 228  1923.782
 229  2050.372
 230  2036.37
 231  2209.17
 232  2284.942
 233  2128.631
 234  1951.561
 235  1991.758
 236  2304.007
 237  2586.453
 238  2321.847
 239  2290.153
 240  2373.33
 241  2181.107
 242  2326.484
 243  2589.341
 244  2518.843
 245  2236.384
 246  2522.597
 247  2429.76
 248  2330
 249  2303.99
 250  1963.362
 251  2048.452
 252  2403.952
 253  2548.492
 254  2759.511
 255  2306.903
 256  2241.153
 257  2262.894
 258  2549.75
 259  2651.352
 260  2520.575
 261  2334.316
 262  2290.208
 263  2377.005
 264  2497.95
 265  2740.736
 266  2609.554
 267  2494.993
 268  2494.928
 269  2516.889
 270  2787.535
 271  2724.326
 272  2581.907
 273  2226.976
 274  2522.73
 275  3001.878
 276  2955.867
 277  2973.583
 278  2917.899
 279  2809.576
 280  3094.387
 281  2723.197
 282  2568.226
 283  2943.355
 284  3018.343
 285  2827.733
 286  2798.877
 287  2915.284
 288  2677.783
 289  2699.588
 290  2941.535
 291  2922.339
 292  2732.228
 293  2869.26
 294  3027.886
 295  2828.636
 296  2705.741
 297  2883.003
 298  2634.43
 299  2494.002
 300  2828.546
 301  2980.859
 302  2884.823
 303  2419.639
 304  2387.66
 305  2901.486
 306  2774.285
 307  2403.583
 308  2493.862
 309  2386.402
 310  2301.505
 311  2609.497
 312  3080.463
 313  2645.345
 314  2502.064
 315  2569.257
 316  2677.599
 317  2927.714
 318  3022.492
 319  2898.311
 320  3160.018
 321  3454.824
 322  3785.288
 323  4054.898
 324  4175.13
 325  4161.788
 326  4108.668
 327  3714.969
 328  3295.621
 329  2821.934
 330  2697.619
 331  2558.153
 332  2414.051
 333  2070.241
 334  2024.024
 335  2674.235
 336  2629.254
 337  2671.067
 338  2757.673
 339  2625.346
 340  2613.729
 341  2610.477
 342  2457.645
 343  2372.939
 344  2327.896
 345  2679.934
 346  2641.896
 347  2486.804
 348  2606.762
 349  2453.782
 350  2396.501
 351  2706.378
 352  2675.078
 353  2818.833
 354  2834.087
 355  2777.52
 356  2820.395
 357  2649.524
 358  2578.221
 359  2676.948
 360  2589.548
 361  2742.938
 362  2910.897
 363  2862.001
 364  3017.332
 365  2885.136
 366  2859.739
 367  2904.777
 368  2834.815
 369  2740.047
 370  2995.319
 371  2909.494
 372  2797.861
 373  2855.727
 374  2799.713
 375  2671.896
 376  2435.873
 377  2370.996
 378  2552.154
 379  2714.742
 380  2424.704
 381  2242.505
 382  2248.352
 383  2394.041
 384  2343.439
 385  2507.972
 386  2624.758
 387  2741.973
 388  2434.617
 389  2627.441
 390  2657.052
 391  2422.872
 392  2410.948
 393  2672.542
 394  2439.671
 395  2510.305
 396  2626.027
 397  2048.153
 398  2135.062
 399  2369.151
 400  2237.938
 401  2434.303
 402  2572.894
 403  2221.557
 404  2669.676
 405  2294.773
 406  2135.59
 407  2111.402
 408  2328.679
 409  2354.773
 410  2540.302
 411  2625.661
 412  2552.174
 413  2606.2
 414  2657.756
 415  2428.125
 416  2623.36
 417  2792.651
 418  2865.854
 419  2813.755
 420  2676.691
 421  2662
 422  2601.034
 423  2575.262
 424  2631.963
 425  2565.559
 426  2725.042
 427  2565.79
 428  2702.117
 429  2774.19
 430  2708.415
 431  2523.69
 432  2672.678
 433  2814.198
 434  2752.332
 435  2359.302
 436  2593.96
 437  2629.548
 438  2461.519
 439  2710.06
 440  2914.65
 441  2531.84
 442  2305.558
 443  2325.99
 444  2538.938
 445  2511.994
 446  2683.072
 447  2904.503
 448  2474.485
 449  2172.676
 450  2307.672
 451  2363.185
 452  2422.769
 453  2698.925
 454  2933.543
 455  2813.32
 456  2859.275
 457  2631.286
 458  2582.932
 459  2831.377
 460  2787.037
 461  2802.524
 462  2683.461
 463  2743.174
 464  2666.167
 465  2550.021
 466  2547.852
 467  2772.675
 468  3117.119
 469  3138.295
 470  3024.15
 471  2781.267
 472  2861.876
 473  2911.612
 474  2992.485
 475  3164.953
 476  3036.501
 477  2886.549
 478  2785.209
 479  2696.498
 480  2783.436
 481  3022.241
 482  3128.1
 483  2993.021
 484  3111.419
 485  3120.695
 486  3031.409
 487  2884.698
 488  2908.015
 489  3197.036
 490  3119.359
 491  2935.211
 492  3146.905
 493  2814.894
 494  2708.518
 495  2702.385
 496  2634.888
 497  2702.851
 498  2943.324
 499  3119.8
 500  3178.461
 501  2937.837
 502  2582.811
 503  2907.512
 504  2763.196
 505  2586.354
 506  2779.368
 507  2838.772
 508  2963.828
 509  3071.738
 510  2744.603
 511  2999.501
