# Input file       =  1185578274.108979_cleaned.dat
# Candidate        =  PSR_0332+5434
# Telescope        =  AR
# Epoch_topo       =  57965.970985057626
# Epoch_bary       =  N/A
# T_sample         =  0.002
# Data Folded      =  7208960
# Data Avg         =  0.0218793247097544
# Data StdDev      =  1.0000177516643  
# Profile Bins     =  512
# Profile Avg      =  308.104591671286 
# Profile StdDev   =  118.661282191386 
# Reduced chi-sqr  =  1.157
# Prob(Noise)      <  0.00809   (~2.4 sigma)
# P_topo (ms)      =  714.469492963275  +/- 0.000171
# P'_topo (s/s)    =  -0                +/- 9.16e-11
# P''_topo (s/s^2) =  0                 +/- 4.12e-14
# P_bary (ms)      =  N/A
# P'_bary (s/s)    =  N/A
# P''_bary (s/s^2) =  N/A
# P_orb (s)        =  N/A
# asin(i)/c (s)    =  N/A
# eccentricity     =  N/A
# w (rad)          =  N/A
# T_peri           =  N/A
######################################################
   0  291.9223
   1  328.9606
   2  330.6383
   3  257.1092
   4  212.2554
   5  218.9744
   6  435.5126
   7  411.0695
   8  218.8293
   9  190.4677
  10  377.9202
  11  440.6609
  12  280.4378
  13  279.523
  14  380.6326
  15  362.5054
  16  264.5929
  17  254.1683
  18  305.0569
  19  263.6243
  20  338.7334
  21  331.7457
  22  323.3047
  23  408.141
  24  316.977
  25  337.607
  26  268.3896
  27  337.9183
  28  276.0162
  29  295.2426
  30  286.7166
  31  249.4084
  32  290.7088
  33  261.6237
  34  453.2105
  35  353.3417
  36  320.9303
  37  362.2669
  38  314.9256
  39  273.2509
  40  222.2938
  41  149.3132
  42  298.7964
  43  353.1925
  44  280.3488
  45  352.5062
  46  288.0922
  47  218.0464
  48  279.8971
  49  334.2665
  50  289.2607
  51  190.1881
  52  169.9574
  53  98.73483
  54  235.853
  55  369.4551
  56  359.5627
  57  218.7646
  58  241.3151
  59  231.3395
  60  286.8201
  61  306.1023
  62  248.576
  63  261.7772
  64  362.0971
  65  308.6484
  66  280.1595
  67  278.5789
  68  282.8562
  69  263.0429
  70  210.8124
  71  323.2137
  72  342.9051
  73  399.4844
  74  230.7179
  75  274.9099
  76  266.542
  77  291.4706
  78  262.358
  79  191.8977
  80  319.7487
  81  388.9963
  82  339.381
  83  201.6475
  84  213.0011
  85  187.1478
  86  275.5888
  87  345.2131
  88  359.4552
  89  313.1232
  90  423.3741
  91  396.0249
  92  321.9431
  93  294.7091
  94  232.2131
  95  315.1813
  96  208.492
  97  145.881
  98  366.0727
  99  324.6958
 100  283.7892
 101  241.4034
 102  263.6135
 103  258.1634
 104  257.3534
 105  351.7637
 106  436.0886
 107  504.2039
 108  385.6392
 109  199.929
 110  240.76
 111  229.2245
 112  253.1941
 113  344.3193
 114  429.1627
 115  282.2875
 116  405.1219
 117  328.083
 118  173.7282
 119  170.5944
 120  370.9651
 121  349.5528
 122  307.3641
 123  300.8917
 124  296.7374
 125  324.387
 126  333.333
 127  383.6847
 128  381.1338
 129  384.2809
 130  349.0928
 131  326.0216
 132  283.019
 133  184.3512
 134  18.01559
 135  89.06004
 136  185.6497
 137  416.7202
 138  463.9074
 139  374.8126
 140  293.4517
 141  354.7763
 142  340.4466
 143  270.9617
 144  246.6658
 145  362.9415
 146  354.1653
 147  273.8156
 148  301.1298
 149  158.6268
 150  315.4847
 151  339.8083
 152  259.5811
 153  206.6382
 154  303.4742
 155  356.4673
 156  431.2261
 157  321.3507
 158  261.6602
 159  222.0679
 160  217.8572
 161  286.4874
 162  270.2737
 163  309.4897
 164  361.3724
 165  319.4351
 166  292.4482
 167  292.9084
 168  288.7397
 169  230.4711
 170  295.8316
 171  357.9497
 172  363.5554
 173  338.3911
 174  326.8083
 175  300.5607
 176  168.7803
 177  189.5681
 178  296.0655
 179  356.6638
 180  319.1786
 181  383.1747
 182  333.8142
 183  206.7281
 184  310.0943
 185  411.5227
 186  305.6412
 187  277.6496
 188  319.61
 189  289.4416
 190  271.1916
 191  282.6821
 192  318.7383
 193  272.7226
 194  280.6892
 195  246.724
 196  303.9582
 197  383.9191
 198  404.0299
 199  354.3338
 200  327.954
 201  250.6506
 202  221.6812
 203  209.5437
 204  226.9969
 205  289.7885
 206  293.5601
 207  332.0846
 208  300.754
 209  265.558
 210  308.7312
 211  391.0172
 212  367.2258
 213  432.7036
 214  345.849
 215  309.3632
 216  155.3893
 217  215.481
 218  280.0197
 219  298.2659
 220  356.0048
 221  255.9564
 222  235.5143
 223  402.8056
 224  449.1666
 225  368.2952
 226  277.5351
 227  163.1525
 228  298.5804
 229  262.6273
 230  270.9988
 231  319.9334
 232  326.0963
 233  274.6821
 234  337.0321
 235  406.3909
 236  210.1508
 237  218.6988
 238  336.8557
 239  333.216
 240  348.6648
 241  420.6267
 242  402.538
 243  226.5172
 244  305.7947
 245  337.8314
 246  312.8252
 247  215.4178
 248  293.0282
 249  355.0028
 250  366.0629
 251  259.2148
 252  259.7109
 253  126.3686
 254  219.2858
 255  268.9819
 256  274.073
 257  266.5303
 258  352.3243
 259  433.0315
 260  348.1412
 261  283.178
 262  212.8182
 263  260.9483
 264  373.5216
 265  317.4624
 266  338.7793
 267  330.9117
 268  337.1884
 269  391.9758
 270  369.0863
 271  332.4876
 272  383.756
 273  305.4419
 274  179.7504
 275  117.4863
 276  233.339
 277  424.4834
 278  436.4108
 279  202.6375
 280  209.5276
 281  286.743
 282  399.4696
 283  195.0346
 284  185.4549
 285  310.1983
 286  388.6911
 287  381.8291
 288  421.7433
 289  383.9726
 290  296.084
 291  206.3278
 292  363.288
 293  290.5399
 294  365.8022
 295  302.1698
 296  206.6387
 297  234.7655
 298  195.9997
 299  146.325
 300  250.4055
 301  278.2269
 302  298.4224
 303  320.3566
 304  347.4617
 305  393.9767
 306  342.6905
 307  224.2841
 308  320.3074
 309  332.3747
 310  215.8181
 311  254.1143
 312  245.8941
 313  262.2054
 314  262.0066
 315  276.9722
 316  411.0245
 317  358.9633
 318  327.3882
 319  325.2383
 320  299.6839
 321  473.9842
 322  438.7309
 323  380.0878
 324  363.6689
 325  445.6404
 326  331.3902
 327  383.5758
 328  494.6077
 329  483.041
 330  454.6026
 331  390.4449
 332  272.7472
 333  271.191
 334  385.3093
 335  430.7251
 336  329.6231
 337  302.8893
 338  377.7145
 339  425.7901
 340  349.5464
 341  351.1084
 342  302.7441
 343  309.1263
 344  363.3973
 345  431.9876
 346  386.5564
 347  371.6216
 348  254.815
 349  303.6817
 350  373.0351
 351  354.0732
 352  388.7967
 353  392.2982
 354  415.1148
 355  411.508
 356  258.6012
 357  334.1511
 358  291.897
 359  279.1952
 360  306.4307
 361  375.7212
 362  346.0914
 363  387.437
 364  343.3916
 365  290.5243
 366  372.9267
 367  412.2332
 368  402.6218
 369  380.083
 370  331.279
 371  248.6239
 372  293.4738
 373  151.975
 374  191.6199
 375  216.8061
 376  257.5353
 377  347.5012
 378  231.9357
 379  83.45951
 380  230.9005
 381  401.3848
 382  366.7964
 383  199.9632
 384  190.6604
 385  273.6222
 386  395.468
 387  296.353
 388  290.3187
 389  298.2844
 390  332.127
 391  310.5507
 392  280.8427
 393  285.5651
 394  351.3803
 395  330.9345
 396  306.9428
 397  276.8298
 398  278.6791
 399  257.5659
 400  300.6482
 401  322.7285
 402  383.5645
 403  388.5486
 404  323.5966
 405  292.9077
 406  322.2565
 407  325.9767
 408  329.0433
 409  268.6137
 410  365.9171
 411  303.781
 412  397.8638
 413  442.2162
 414  424.4906
 415  299.4836
 416  305.0091
 417  326.0587
 418  335.4467
 419  305.1413
 420  365.8939
 421  304.5627
 422  181.3467
 423  327.4086
 424  300.3744
 425  243.17
 426  318.6073
 427  343.0302
 428  377.2802
 429  270.7222
 430  374.0939
 431  486.1654
 432  555.3529
 433  755.598
 434  888.98
 435  994.582
 436  891.8815
 437  643.1201
 438  415.4082
 439  411.9626
 440  413.6112
 441  392.2205
 442  343.6696
 443  256.3818
 444  191.5791
 445  170.5499
 446  216.2454
 447  126.5434
 448  310.0212
 449  375.0335
 450  327.2784
 451  260.0242
 452  429.9504
 453  392.1319
 454  316.797
 455  231.9905
 456  164.1348
 457  124.5791
 458  255.572
 459  295.8551
 460  201.0396
 461  261.1595
 462  165.6971
 463  275.5663
 464  358.8174
 465  245.021
 466  324.7126
 467  222.6847
 468  269.9111
 469  142.5092
 470  199.3715
 471  388.5642
 472  322.1006
 473  270.4466
 474  340.0649
 475  275.9359
 476  386.8279
 477  314.7372
 478  407.7732
 479  258.2719
 480  263.5058
 481  219.9962
 482  214.2348
 483  232.6987
 484  275.8597
 485  261.3521
 486  234.6288
 487  149.5049
 488  179.586
 489  207.3668
 490  216.1366
 491  264.9339
 492  294.481
 493  342.0046
 494  350.1006
 495  279.4091
 496  281.292
 497  333.4347
 498  168.1429
 499  95.49819
 500  226.6577
 501  277.9212
 502  376.3302
 503  295.0609
 504  269.3554
 505  274.714
 506  323.305
 507  280.1493
 508  216.0134
 509  178.9866
 510  260.1942
 511  307.2477
