# Input file       =  1185147448.112553_cleaned.dat
# Candidate        =  PSR_0332+5434
# Telescope        =  AR
# Epoch_topo       =  57960.984573061956
# Epoch_bary       =  N/A
# T_sample         =  0.002
# Data Folded      =  7208960
# Data Avg         =  0.0198066231285054
# Data StdDev      =  1.00000399084906 
# Profile Bins     =  512
# Profile Avg      =  278.837284563809 
# Profile StdDev   =  118.659649344391 
# Reduced chi-sqr  =  1.389
# Prob(Noise)      <  1.18e-08   (~5.6 sigma)
# P_topo (ms)      =  714.471831481229  +/- 0.000293
# P'_topo (s/s)    =  -0                +/- 1.57e-10
# P''_topo (s/s^2) =  0                 +/- 7.07e-14
# P_bary (ms)      =  N/A
# P'_bary (s/s)    =  N/A
# P''_bary (s/s^2) =  N/A
# P_orb (s)        =  N/A
# asin(i)/c (s)    =  N/A
# eccentricity     =  N/A
# w (rad)          =  N/A
# T_peri           =  N/A
######################################################
   0  996.3272
   1  856.1432
   2  704.1461
   3  505.2298
   4  357.3173
   5  372.5201
   6  360.5385
   7  278.7433
   8  195.1657
   9  141.3531
  10  221.3795
  11  266.0787
  12  289.7949
  13  303.8127
  14  333.5785
  15  345.8249
  16  249.4689
  17  312.713
  18  326.7834
  19  226.4612
  20  257.2397
  21  199.6766
  22  213.1013
  23  226.5682
  24  211.4172
  25  142.5105
  26  204.4275
  27  272.8344
  28  231.765
  29  263.9094
  30  283.8152
  31  283.296
  32  233.1069
  33  210.279
  34  257.7848
  35  313.6341
  36  309.2651
  37  234.2119
  38  217.1242
  39  195.6867
  40  109.9606
  41  190.8572
  42  299.3676
  43  198.0445
  44  155.3567
  45  240.0981
  46  296.859
  47  341.8879
  48  209.3036
  49  175.8856
  50  267.8457
  51  376.7969
  52  398.9399
  53  340.3025
  54  327.6599
  55  338.4067
  56  365.8103
  57  256.9839
  58  314.6453
  59  288.6998
  60  338.2454
  61  183.8157
  62  316.6864
  63  428.3908
  64  367.5778
  65  325.2361
  66  309.0826
  67  369.5673
  68  344.9967
  69  152.8505
  70  214.8716
  71  391.3831
  72  376.8164
  73  363.1457
  74  316.1652
  75  243.0207
  76  121.2593
  77  195.4148
  78  281.589
  79  288.713
  80  273.9259
  81  291.2213
  82  363.9922
  83  324.5186
  84  354.1806
  85  398.7409
  86  377.3734
  87  322.9176
  88  324.8099
  89  389.7845
  90  320.9904
  91  237.7986
  92  228.1637
  93  325.5235
  94  403.3546
  95  449.8206
  96  292.8993
  97  201.0719
  98  132.6136
  99  292.2347
 100  266.1136
 101  298.7257
 102  306.214
 103  275.2557
 104  267.7558
 105  267.3526
 106  221.3333
 107  250.1701
 108  326.1168
 109  442.4743
 110  342.5508
 111  356.7326
 112  429.0141
 113  439.2675
 114  346.5443
 115  247.9352
 116  321.5197
 117  157.676
 118  224.3119
 119  273.6795
 120  300.6256
 121  329.0015
 122  316.5839
 123  368.4454
 124  364.169
 125  329.2798
 126  137.3902
 127  149.1377
 128  136.7767
 129  349.2156
 130  346.7982
 131  172.2724
 132  218.7592
 133  258.715
 134  233.449
 135  209.0015
 136  275.8685
 137  317.3868
 138  230.4939
 139  317.1333
 140  446.4542
 141  372.4115
 142  273.7681
 143  312.4111
 144  307.2854
 145  289.4517
 146  268.9337
 147  248.1366
 148  277.6873
 149  259.9696
 150  230.4292
 151  325.5233
 152  442.3614
 153  407.2327
 154  346.0717
 155  358.5082
 156  242.685
 157  247.2379
 158  200.0859
 159  247.6145
 160  266.7212
 161  217.6347
 162  298.5177
 163  291.4653
 164  376.4553
 165  272.8334
 166  187.9702
 167  218.7411
 168  323.5466
 169  403.2405
 170  507.8761
 171  370.7936
 172  194.9867
 173  192.1372
 174  303.2414
 175  327.3001
 176  352.9768
 177  455.305
 178  254.2227
 179  221.1731
 180  357.5051
 181  313.9506
 182  322.9711
 183  280.6252
 184  271.5682
 185  286.5342
 186  340.5062
 187  365.386
 188  310.1319
 189  366.5449
 190  241.1477
 191  182.2884
 192  217.1614
 193  152.983
 194  223.3196
 195  269.1311
 196  403.8401
 197  267.5672
 198  273.1146
 199  289.1038
 200  187.745
 201  232.2716
 202  372.3762
 203  350.0915
 204  259.6039
 205  274.1513
 206  325.8831
 207  268.0104
 208  206.5997
 209  254.3098
 210  130.5394
 211  71.68082
 212  82.73138
 213  240.0634
 214  321.886
 215  191.0085
 216  227.4115
 217  339.688
 218  256.0659
 219  268.882
 220  246.9282
 221  371.7224
 222  307.7341
 223  102.859
 224  212.4484
 225  318.61
 226  267.5132
 227  233.827
 228  252.6514
 229  317.7408
 230  229.5911
 231  194.162
 232  144.5531
 233  219.1375
 234  284.0631
 235  366.2173
 236  317.4643
 237  233.6798
 238  313.8694
 239  282.3922
 240  267.6678
 241  282.807
 242  276.9572
 243  315.4002
 244  399.725
 245  343.0033
 246  368.4642
 247  270.2053
 248  245.5548
 249  288.2071
 250  240.5745
 251  273.752
 252  166.5335
 253  232.3333
 254  255.3936
 255  214.8085
 256  221.4757
 257  281.7477
 258  303.6151
 259  299.9597
 260  290.9407
 261  382.1634
 262  426.4211
 263  274.3282
 264  211.2555
 265  290.1236
 266  351.4439
 267  317.0013
 268  272.6703
 269  339.0917
 270  365.7018
 271  268.4585
 272  303.1026
 273  344.8555
 274  398.8456
 275  328.6806
 276  341.5162
 277  399.1616
 278  343.5356
 279  193.763
 280  238.8031
 281  281.008
 282  223.1129
 283  348.8255
 284  397.2693
 285  451.9492
 286  365.0307
 287  318.0819
 288  380.2833
 289  321.2165
 290  277.3185
 291  430.0303
 292  240.383
 293  350.2329
 294  408.2938
 295  387.1841
 296  375.027
 297  233.9591
 298  119.8959
 299  246.4443
 300  270.6535
 301  390.6129
 302  350.5413
 303  383.5983
 304  373.1371
 305  276.9646
 306  285.7976
 307  291.1395
 308  186.8158
 309  100.9131
 310  148.9843
 311  17.05327
 312  79.2784
 313  264.1765
 314  393.5481
 315  346.1896
 316  230.5119
 317  123.794
 318  231.6189
 319  257.2011
 320  273.5993
 321  322.8114
 322  341.98
 323  376.5362
 324  313.0519
 325  318.7456
 326  198.949
 327  181.7337
 328  310.2881
 329  252.2458
 330  202.9354
 331  277.4647
 332  218.1667
 333  11.31341
 334  55.91183
 335  173.0766
 336  176.3636
 337  101.2114
 338  141.605
 339  144.2978
 340  242.0158
 341  273.8779
 342  163.3589
 343  191.7047
 344  172.6085
 345  230.269
 346  290.776
 347  256.4535
 348  254.1259
 349  188.8076
 350  160.1714
 351  267.3509
 352  273.1889
 353  279.6684
 354  304.4073
 355  344.8707
 356  212.6425
 357  140.1553
 358  221.3749
 359  332.2339
 360  355.4999
 361  235.2815
 362  208.2849
 363  219.4875
 364  326.6754
 365  313.4117
 366  379.46
 367  325.9752
 368  225.2683
 369  140.5368
 370  245.7467
 371  288.6589
 372  283.108
 373  236.7569
 374  165.0347
 375  249.649
 376  212.4503
 377  278.5236
 378  205.6979
 379  201.3273
 380  239.4311
 381  316.7707
 382  327.0645
 383  305.4356
 384  327.2045
 385  400.7455
 386  291.5618
 387  155.7396
 388  232.3517
 389  178.266
 390  308.5509
 391  323.0839
 392  233.3444
 393  197.0398
 394  267.8224
 395  311.8064
 396  382.9058
 397  239.313
 398  174.5685
 399  189.8874
 400  176.0797
 401  306.825
 402  193.3227
 403  140.2389
 404  140.3062
 405  146.1604
 406  182.4934
 407  206.5339
 408  200.0772
 409  198.9843
 410  211.3757
 411  229.6577
 412  305.2331
 413  349.362
 414  342.7927
 415  361.1304
 416  224.8944
 417  234.7115
 418  272.0154
 419  237.8945
 420  301.8769
 421  285.8202
 422  193.5922
 423  255.8733
 424  240.035
 425  298.5487
 426  233.8184
 427  172.6171
 428  204.0373
 429  232.2588
 430  208.3555
 431  342.0098
 432  260.2597
 433  138.843
 434  155.3981
 435  296.5909
 436  319.9798
 437  261.5023
 438  207.6524
 439  189.5485
 440  255.541
 441  285.6356
 442  205.2073
 443  216.7229
 444  250.5076
 445  244.6946
 446  203.0073
 447  177.2826
 448  152.3712
 449  111.8297
 450  255.4057
 451  309.1002
 452  182.2232
 453  159.4354
 454  189.6294
 455  250.0949
 456  191.8834
 457  143.3587
 458  239.379
 459  360.2067
 460  353.6617
 461  330.8502
 462  303.129
 463  152.3808
 464  207.8802
 465  282.0244
 466  201.8719
 467  298.3588
 468  239.1441
 469  203.4809
 470  199.3845
 471  218.494
 472  163.1985
 473  167.4699
 474  226.2157
 475  130.916
 476  203.3183
 477  308.4684
 478  367.5125
 479  250.8019
 480  237.4237
 481  259.0809
 482  331.7205
 483  239.1784
 484  188.233
 485  131.9476
 486  196.6962
 487  220.801
 488  327.9135
 489  298.9902
 490  374.8236
 491  294.0568
 492  371.4713
 493  358.5594
 494  300.7983
 495  256.7304
 496  231.5104
 497  185.5015
 498  332.204
 499  331.9957
 500  310.9096
 501  346.9362
 502  367.7125
 503  433.5401
 504  339.5196
 505  364.7635
 506  445.9762
 507  367.4614
 508  511.9136
 509  718.751
 510  870.3487
 511  976.5359
