# Input file       =  1185177007.112782-PSRB0329-2ms-sampling-dd.dat
# Candidate        =  PSR_0332+5434
# Telescope        =  AR
# Epoch_topo       =  57961.326691120164
# Epoch_bary       =  N/A
# T_sample         =  0.002
# Data Folded      =  7340032
# Data Avg         =  3.26934963042604e-10
# Data StdDev      =  7.41170753090477 
# Profile Bins     =  512
# Profile Avg      =  -0.62095344587718
# Profile StdDev   =  887.426247411772 
# Reduced chi-sqr  =  0.535
# Prob(Noise)      <  1   (~0.0 sigma)
# P_topo (ms)      =  714.472007311528  +/- 0.000586
# P'_topo (s/s)    =  -0                +/- 3.09e-10
# P''_topo (s/s^2) =  0                 +/- 1.37e-13
# P_bary (ms)      =  N/A
# P'_bary (s/s)    =  N/A
# P''_bary (s/s^2) =  N/A
# P_orb (s)        =  N/A
# asin(i)/c (s)    =  N/A
# eccentricity     =  N/A
# w (rad)          =  N/A
# T_peri           =  N/A
######################################################
   0  -535.9928
   1  -378.0802
   2  -322.5501
   3  -273.6946
   4  -204.634
   5  -393.5632
   6  -646.7662
   7  -694.4896
   8  -870.4881
   9  -794.184
  10  -698.2045
  11  -405.9795
  12  -847.0692
  13  -536.861
  14  -891.6877
  15  -1113.304
  16  -1509.268
  17  -1384.101
  18  -889.845
  19  -217.2371
  20  -92.06425
  21  -102.9618
  22  190.9096
  23  513.6266
  24  625.2068
  25  709.9699
  26  993.7797
  27  856.1932
  28  781.3124
  29  110.1226
  30  -171.3548
  31  -619.6713
  32  -925.7824
  33  -69.47301
  34  174.9854
  35  -230.8102
  36  -140.9727
  37  -90.00559
  38  26.62897
  39  -83.39193
  40  94.70697
  41  181.8747
  42  -228.7826
  43  -121.3902
  44  -380.3792
  45  -206.6273
  46  4.563648
  47  569.1432
  48  586.4344
  49  169.4975
  50  -732.881
  51  -720.6146
  52  -622.823
  53  -453.9683
  54  -181.2933
  55  13.89093
  56  -378.0247
  57  -898.968
  58  -557.479
  59  -563.6661
  60  -334.7773
  61  -18.58836
  62  72.88293
  63  134.3296
  64  -143.7413
  65  3.312414
  66  36.64597
  67  129.5683
  68  309.4852
  69  253.3948
  70  90.73526
  71  -242.0251
  72  23.7571
  73  71.76381
  74  -18.24599
  75  397.6794
  76  445.6627
  77  62.41901
  78  316.4593
  79  310.1198
  80  426.4246
  81  157.4895
  82  330.0301
  83  -118.8028
  84  -236.1105
  85  -115.6504
  86  -314.6956
  87  127.2176
  88  33.65284
  89  221.5735
  90  -8.495536
  91  -205.1043
  92  -261.864
  93  -117.9124
  94  11.23854
  95  94.76959
  96  -158.0955
  97  -206.6871
  98  135.5147
  99  -29.30156
 100  -285.5893
 101  -572.7161
 102  -298.5041
 103  -738.1504
 104  -853.4929
 105  -600.9518
 106  -836.4716
 107  -747.1163
 108  -942.5212
 109  -619.4659
 110  -84.57512
 111  -435.5616
 112  -895.9753
 113  -1106.198
 114  -299.2511
 115  -538.6027
 116  -957.6529
 117  -510.4038
 118  -527.1448
 119  -257.791
 120  -61.28236
 121  -85.2692
 122  -146.0579
 123  -60.06299
 124  546.1407
 125  305.2268
 126  349.5645
 127  433.5019
 128  148.7313
 129  202.083
 130  149.8145
 131  -28.90967
 132  -484.5422
 133  -502.4699
 134  -208.2944
 135  -64.65723
 136  -217.9695
 137  -433.9323
 138  -571.6427
 139  -620.0651
 140  -324.4762
 141  -90.58398
 142  -131.7379
 143  -271.6605
 144  -607.124
 145  -88.91416
 146  133.878
 147  149.7227
 148  48.66476
 149  -49.01612
 150  -146.4255
 151  -158.3003
 152  152.8969
 153  -28.55494
 154  -192.9846
 155  -450.3781
 156  -211.6517
 157  -314.2822
 158  -418.9013
 159  -372.4019
 160  -331.1441
 161  111.68
 162  84.96616
 163  631.0707
 164  459.2736
 165  368.7282
 166  107.6994
 167  -356.2723
 168  145.6181
 169  599.9717
 170  834.145
 171  240.676
 172  142.6447
 173  -75.60275
 174  -227.3072
 175  -406.6557
 176  42.12699
 177  503.0582
 178  790.1838
 179  475.9167
 180  201.291
 181  -105.3
 182  -210.3565
 183  9.473696
 184  414.0328
 185  473.9719
 186  210.5546
 187  314.5602
 188  300.048
 189  332.1141
 190  590.4996
 191  598.1507
 192  362.243
 193  445.8598
 194  383.8227
 195  508.6041
 196  517.1685
 197  566.3686
 198  722.6335
 199  94.45219
 200  -380.274
 201  76.4205
 202  385.2184
 203  505.7079
 204  152.0739
 205  16.26869
 206  158.0578
 207  203.6856
 208  812.6596
 209  567.8829
 210  576.8646
 211  366.3347
 212  141.9109
 213  -209.4051
 214  -164.071
 215  175.9886
 216  504.7013
 217  846.989
 218  657.5078
 219  1023.921
 220  798.6657
 221  394.6689
 222  302.0043
 223  652.9301
 224  368.9561
 225  427.3841
 226  863.3732
 227  549.1451
 228  887.7768
 229  528.4456
 230  573.8806
 231  649.4278
 232  473.6411
 233  229.7668
 234  -289.5546
 235  -114.4792
 236  263.1894
 237  943.2432
 238  725.8221
 239  859.8633
 240  390.4805
 241  160.7986
 242  369.8734
 243  533.2327
 244  897.5377
 245  1224.259
 246  1118.04
 247  819.6716
 248  513.819
 249  233.6816
 250  408.0948
 251  832.6752
 252  1063.185
 253  736.0327
 254  198.2625
 255  147.0907
 256  -402.0487
 257  -658.1278
 258  114.9636
 259  368.5201
 260  716.7342
 261  483.5214
 262  722.7059
 263  362.2387
 264  174.9127
 265  -228.2616
 266  -414.573
 267  50.16629
 268  269.0242
 269  216.5428
 270  451.3268
 271  344.3977
 272  607.2327
 273  658.3535
 274  655.1926
 275  1042.696
 276  857.2439
 277  637.2212
 278  722.2555
 279  840.8046
 280  699.1758
 281  603.1335
 282  597.8983
 283  582.8145
 284  651.7021
 285  -64.33736
 286  279.9064
 287  178.3653
 288  -449.2151
 289  -665.9432
 290  -184.2845
 291  401.0119
 292  243.3641
 293  218.8747
 294  -281.8807
 295  -284.7329
 296  -190.0563
 297  -25.60209
 298  -217.7906
 299  -64.05295
 300  175.7735
 301  241.1762
 302  408.2951
 303  438.4822
 304  563.7646
 305  394.7575
 306  334.0934
 307  343.8428
 308  408.6982
 309  285.5679
 310  -34.50943
 311  897.312
 312  1088.409
 313  784.5958
 314  336.2516
 315  -251.7448
 316  275.4453
 317  261.6338
 318  611.5234
 319  813.8281
 320  705.4156
 321  481.8145
 322  43.80597
 323  -126.1482
 324  -174.603
 325  -168.877
 326  442.6704
 327  582.4288
 328  542.7062
 329  432.5818
 330  -127.6044
 331  -189.7916
 332  -365.4126
 333  -377.3887
 334  208.9534
 335  356.7473
 336  268.6429
 337  345.6235
 338  641.488
 339  229.3428
 340  217.2936
 341  740.3896
 342  968.7413
 343  834.7682
 344  833.5942
 345  1013.273
 346  1118.206
 347  501.9757
 348  671.7191
 349  734.9046
 350  28.49129
 351  360.9038
 352  323.1824
 353  553.3945
 354  298.9736
 355  211.8864
 356  -77.10136
 357  -247.0519
 358  -158.0164
 359  -264.9953
 360  -242.4783
 361  -369.6795
 362  -152.2523
 363  -290.4044
 364  -361.0062
 365  -798.9052
 366  -604.2505
 367  -294.4175
 368  -245.0125
 369  -384.7527
 370  -199.234
 371  -222.2791
 372  -235.4629
 373  25.02396
 374  39.17427
 375  -55.72649
 376  118.2938
 377  0.7163271
 378  277.6312
 379  401.1157
 380  191.5672
 381  330.0156
 382  629.4105
 383  115.4837
 384  273.6292
 385  52.64759
 386  -182.267
 387  502.2997
 388  261.181
 389  -100.4521
 390  -411.0446
 391  -508.3983
 392  -173.5723
 393  -55.27889
 394  -108.4959
 395  77.11243
 396  -72.98338
 397  -448.5198
 398  -566.5966
 399  -865.5906
 400  -749.1992
 401  -820.0268
 402  -565.4053
 403  -174.2279
 404  -352.3984
 405  -66.06451
 406  -85.79109
 407  -231.9592
 408  -420.3944
 409  -618.2382
 410  -442.2337
 411  57.82481
 412  -74.71631
 413  -104.7226
 414  -121.0549
 415  -429.4522
 416  -151.8405
 417  -237.2737
 418  -468.8827
 419  -212.9447
 420  -241.4229
 421  -399.4424
 422  -550.4888
 423  -287.4931
 424  -305.5044
 425  -380.3768
 426  -293.8345
 427  -4.681792
 428  -398.6776
 429  -252.7055
 430  -374.6119
 431  -239.1128
 432  -249.3867
 433  -392.7906
 434  -637.2281
 435  -917.2769
 436  -661.3329
 437  -314.5044
 438  -342.3542
 439  -906.8358
 440  -692.8918
 441  -495.7403
 442  -599.7512
 443  -513.6848
 444  -182.3614
 445  24.81955
 446  -245.5422
 447  132.9328
 448  -145.445
 449  -224.4874
 450  -196.9798
 451  -470.9445
 452  -416.2206
 453  -534.8353
 454  -534.935
 455  -604.8704
 456  -451.2758
 457  -517.8361
 458  -674.6284
 459  -599.2842
 460  -665.2292
 461  -765.011
 462  -335.7892
 463  -253.3976
 464  -280.3967
 465  -448.1329
 466  -475.9486
 467  -430.1324
 468  -150.7719
 469  108.1569
 470  -204.4274
 471  -37.23306
 472  -46.04998
 473  -121.3931
 474  76.54341
 475  -262.6846
 476  426.0999
 477  440.6985
 478  190.7165
 479  -72.92116
 480  90.99363
 481  84.19097
 482  186.3259
 483  567.4143
 484  368.9077
 485  397.1534
 486  366.0931
 487  293.3232
 488  -187.5713
 489  -442.5769
 490  -248.1692
 491  -730.1426
 492  -719.1078
 493  -810.0886
 494  -921.8559
 495  -721.3057
 496  -429.1548
 497  -394.2094
 498  -548.8925
 499  -546.1514
 500  -588.9816
 501  -687.0253
 502  -661.9073
 503  -440.2765
 504  -478.4072
 505  -145.1689
 506  302.6135
 507  55.47776
 508  -325.2763
 509  -259.8311
 510  179.1643
 511  -296.2435
