# Input file       =  1185147448.112553-PSRB0329-2ms-sampling-dd.dat
# Candidate        =  PSR_0332+5434
# Telescope        =  AR
# Epoch_topo       =  57960.984573061956
# Epoch_bary       =  N/A
# T_sample         =  0.002
# Data Folded      =  7208960
# Data Avg         =  1.33367474764907e-09
# Data StdDev      =  6.89462950220936 
# Profile Bins     =  512
# Profile Avg      =  0.456144353802665
# Profile StdDev   =  818.111054133923 
# Reduced chi-sqr  =  0.366
# Prob(Noise)      <  1   (~0.0 sigma)
# P_topo (ms)      =  714.471832170207  +/- 5.63e-05
# P'_topo (s/s)    =  -0                +/- 3.02e-11
# P''_topo (s/s^2) =  0                 +/- 1.36e-14
# P_bary (ms)      =  N/A
# P'_bary (s/s)    =  N/A
# P''_bary (s/s^2) =  N/A
# P_orb (s)        =  N/A
# asin(i)/c (s)    =  N/A
# eccentricity     =  N/A
# w (rad)          =  N/A
# T_peri           =  N/A
######################################################
   0  -39.4199
   1  267.0835
   2  -51.20003
   3  -755.1107
   4  -424.0337
   5  216.1572
   6  -142.8748
   7  -211.5722
   8  -90.67248
   9  -350.6482
  10  -943.4649
  11  -749.5965
  12  -278.4987
  13  -87.83284
  14  98.23616
  15  220.857
  16  138.9157
  17  -116.7169
  18  26.03022
  19  97.00903
  20  -152.253
  21  -93.72668
  22  379.4436
  23  605.1601
  24  -88.1021
  25  -562.172
  26  -229.2916
  27  79.89716
  28  -234.4306
  29  -193.5715
  30  -236.6697
  31  -348.5718
  32  -747.5202
  33  -475.5201
  34  -241.8384
  35  -307.3929
  36  -474.1934
  37  -486.8899
  38  -183.825
  39  -234.0743
  40  -443.454
  41  -215.6691
  42  -18.38776
  43  328.6325
  44  61.55615
  45  180.6096
  46  287.8727
  47  252.591
  48  216.3677
  49  103.6414
  50  135.2225
  51  -206.3375
  52  323.3464
  53  290.9177
  54  193.7578
  55  41.77067
  56  316.1263
  57  404.589
  58  119.7183
  59  216.1452
  60  -348.9064
  61  -516.0872
  62  -966.5804
  63  76.82585
  64  358.1178
  65  89.34856
  66  296.8806
  67  323.4243
  68  132.1232
  69  -410.8007
  70  -263.8233
  71  61.26968
  72  -78.1907
  73  104.7685
  74  474.1975
  75  716.7557
  76  342.2651
  77  197.0392
  78  49.70995
  79  31.62298
  80  -327.0064
  81  56.742
  82  523.3058
  83  390.3505
  84  278.9761
  85  384.7167
  86  593.9586
  87  394.838
  88  298.3311
  89  475.1067
  90  276.5905
  91  306.2438
  92  67.49667
  93  209.6254
  94  49.5135
  95  -33.07046
  96  495.9725
  97  383.473
  98  103.5827
  99  -208.6775
 100  4.436014
 101  104.0578
 102  161.2954
 103  449.7226
 104  829.3923
 105  279.1666
 106  -311.7411
 107  -157.7034
 108  15.30581
 109  -74.4177
 110  -24.53067
 111  618.6661
 112  203.8687
 113  -34.70742
 114  396.3272
 115  114.3792
 116  -155.2396
 117  190.2102
 118  166.9567
 119  -118.9881
 120  324.1335
 121  207.3588
 122  146.217
 123  509.1119
 124  29.49071
 125  -320.538
 126  -424.6751
 127  -632.7968
 128  -380.3406
 129  29.13126
 130  462.8184
 131  124.5616
 132  216.0341
 133  -54.00079
 134  -351.7682
 135  -368.3564
 136  37.17448
 137  90.19669
 138  53.26857
 139  199.3261
 140  123.1236
 141  129.7619
 142  -179.5873
 143  -449.6784
 144  -268.7437
 145  -465.9631
 146  -616.0943
 147  94.42673
 148  386.9673
 149  51.25847
 150  -216.3239
 151  -120.6283
 152  -529.5956
 153  -152.5265
 154  -422.9061
 155  1.675633
 156  78.34687
 157  -795.2638
 158  -355.5087
 159  -38.09012
 160  -173.112
 161  -382.0275
 162  -161.2379
 163  155.5741
 164  -231.0094
 165  -35.0624
 166  -105.7446
 167  -346.246
 168  -505.1135
 169  -339.7142
 170  -248.1864
 171  -180.288
 172  -419.6533
 173  -218.0837
 174  146.1304
 175  -188.9743
 176  -349.345
 177  -86.8941
 178  264.9968
 179  -20.35608
 180  26.95643
 181  -282.2019
 182  -127.4677
 183  198.6674
 184  -252.9698
 185  -30.04723
 186  -326.8507
 187  -202.0037
 188  -406.4483
 189  -314.9145
 190  -26.7242
 191  -417.4914
 192  -139.5397
 193  138.8278
 194  -198.1345
 195  66.4248
 196  67.76163
 197  -261.6963
 198  -627.189
 199  -373.6078
 200  -64.93493
 201  -260.3734
 202  -357.9396
 203  215.539
 204  342.4816
 205  -205.9045
 206  -59.22566
 207  343.6542
 208  129.0246
 209  -246.3333
 210  146.069
 211  409.5248
 212  114.7739
 213  -212.0051
 214  328.561
 215  501.7697
 216  168.6735
 217  -98.00199
 218  272.6731
 219  438.366
 220  379.1662
 221  -11.83273
 222  714.3215
 223  380.3637
 224  -374.8848
 225  -4.221059
 226  -304.4651
 227  201.8699
 228  165.9521
 229  484.268
 230  491.2664
 231  -135.3005
 232  -383.4385
 233  21.05555
 234  -13.85464
 235  -13.48244
 236  140.4473
 237  441.0368
 238  106.7984
 239  -552.472
 240  -9.572953
 241  49.48579
 242  -519.9372
 243  -654.4878
 244  -565.9621
 245  -619.076
 246  -703.1721
 247  -131.2903
 248  756.6133
 249  757.6786
 250  185.6015
 251  -393.7246
 252  247.5619
 253  -96.18168
 254  -117.0405
 255  287.0533
 256  755.9054
 257  697.6649
 258  -165.9408
 259  167.491
 260  -45.28949
 261  -349.7183
 262  -51.23446
 263  -185.7923
 264  -76.08799
 265  -17.29203
 266  62.48375
 267  -704.9284
 268  -588.5674
 269  -176.0659
 270  -148.9746
 271  -295.3524
 272  -415.6328
 273  -514.8104
 274  -124.3087
 275  -607.2849
 276  -438.7633
 277  -215.7676
 278  121.7096
 279  155.1093
 280  17.81719
 281  160.2908
 282  -173.1361
 283  -275.036
 284  -391.4302
 285  379.4108
 286  423.438
 287  148.1991
 288  309.9003
 289  468.0226
 290  340.1424
 291  60.40965
 292  360.6796
 293  460.9473
 294  535.2592
 295  228.9864
 296  138.6449
 297  92.3195
 298  348.0833
 299  405.1699
 300  327.3316
 301  174.6336
 302  150.2818
 303  134.0854
 304  13.15407
 305  -40.1222
 306  15.94393
 307  -355.9221
 308  -510.2015
 309  -623.7734
 310  -81.35625
 311  17.32461
 312  -288.4469
 313  -168.5176
 314  -122.0048
 315  -62.54783
 316  -257.0583
 317  -171.4917
 318  48.96276
 319  614.7836
 320  -2.623692
 321  -394.1903
 322  67.39841
 323  -312.8784
 324  142.9381
 325  -36.3747
 326  -341.7436
 327  -91.34151
 328  -137.8487
 329  220.9404
 330  -16.26524
 331  273.1641
 332  169.8853
 333  -19.27088
 334  -476.2499
 335  -189.8098
 336  -402.3004
 337  -639.2531
 338  -257.4548
 339  -88.32352
 340  69.03184
 341  -412.0308
 342  -603.736
 343  -204.8538
 344  -355.9665
 345  -580.0834
 346  -473.4241
 347  210.0612
 348  405.8068
 349  -276.4437
 350  -436.3972
 351  -5.479321
 352  -145.7905
 353  1.889055
 354  378.2738
 355  357.9847
 356  -313.7057
 357  -268.2365
 358  -36.29578
 359  501.5829
 360  346.6166
 361  227.235
 362  -22.69125
 363  -298.8617
 364  -184.6795
 365  225.144
 366  79.48991
 367  -330.5528
 368  91.62218
 369  653.5142
 370  345.1985
 371  -238.7038
 372  -111.8322
 373  119.0789
 374  107.8854
 375  40.39092
 376  68.34731
 377  605.228
 378  425.2567
 379  -131.4011
 380  139.7422
 381  -80.35078
 382  -272.5499
 383  -405.8884
 384  503.8692
 385  756.5939
 386  211.85
 387  406.6175
 388  540.8344
 389  622.3167
 390  -179.716
 391  -272.2041
 392  138.7015
 393  604.8405
 394  813.4047
 395  412.8895
 396  710.9894
 397  -78.57754
 398  118.7618
 399  179.7501
 400  -221.6745
 401  121.244
 402  -60.2686
 403  196.5202
 404  -383.2193
 405  30.01919
 406  335.5597
 407  -13.48046
 408  -601.2979
 409  -521.8572
 410  -30.42165
 411  -126.7753
 412  -58.19244
 413  279.1447
 414  745.6086
 415  266.3899
 416  69.15262
 417  -96.61958
 418  -322.1288
 419  -617.4627
 420  -540.3656
 421  72.68395
 422  477.7464
 423  190.4227
 424  437.1845
 425  181.5135
 426  424.0489
 427  19.26681
 428  -44.53708
 429  -113.0139
 430  2.665237
 431  -118.3709
 432  296.7839
 433  110.9092
 434  51.27232
 435  481.9294
 436  377.5674
 437  264.4134
 438  -271.1962
 439  50.8298
 440  55.82443
 441  -170.3951
 442  706.7858
 443  1565.177
 444  1780.397
 445  1609.605
 446  1492.797
 447  1154.752
 448  588.0291
 449  -127.3706
 450  173.6885
 451  640.8773
 452  473.3048
 453  36.07033
 454  17.59724
 455  -446.1557
 456  -446.5062
 457  -525.5412
 458  -92.08279
 459  260.1315
 460  576.3098
 461  574.1778
 462  -75.86855
 463  235.0055
 464  -86.20013
 465  -437.1167
 466  -102.8517
 467  -352.2845
 468  25.0681
 469  -106.6465
 470  -369.2713
 471  -603.1845
 472  -52.59781
 473  -213.7888
 474  -476.9183
 475  -239.4529
 476  10.86905
 477  -66.57142
 478  -321.1202
 479  -124.4952
 480  210.3615
 481  61.20362
 482  -52.99075
 483  -176.5053
 484  -425.6141
 485  -543.0148
 486  -616.9095
 487  -98.40707
 488  156.5761
 489  -304.1259
 490  -230.2675
 491  -305.9538
 492  -134.7456
 493  -40.84704
 494  -119.5428
 495  -85.07381
 496  52.66253
 497  262.0818
 498  18.10648
 499  -143.659
 500  -123.6385
 501  -108.1165
 502  35.17522
 503  -140.818
 504  -135.9727
 505  32.32208
 506  -37.38906
 507  -790.5127
 508  -257.3648
 509  153.6562
 510  -5.792294
 511  -196.9995
