# Input file       =  1185592917.121895_cleaned.dat
# Candidate        =  PSR_0332+5434
# Telescope        =  AR
# Epoch_topo       =  57966.140464373784
# Epoch_bary       =  N/A
# T_sample         =  0.002
# Data Folded      =  7340032
# Data Avg         =  0.0337302944771145
# Data StdDev      =  1.00024455068687 
# Profile Bins     =  512
# Profile Avg      =  483.529123786039 
# Profile StdDev   =  119.762317173053 
# Reduced chi-sqr  =  1.356
# Prob(Noise)      <  1.35e-07   (~5.1 sigma)
# P_topo (ms)      =  714.469432770943  +/- 0.000289
# P'_topo (s/s)    =  -0                +/- 1.53e-10
# P''_topo (s/s^2) =  0                 +/- 6.74e-14
# P_bary (ms)      =  N/A
# P'_bary (s/s)    =  N/A
# P''_bary (s/s^2) =  N/A
# P_orb (s)        =  N/A
# asin(i)/c (s)    =  N/A
# eccentricity     =  N/A
# w (rad)          =  N/A
# T_peri           =  N/A
######################################################
   0  516.5699
   1  457.382
   2  411.3609
   3  448.3976
   4  504.9149
   5  433.128
   6  404.2576
   7  372.9332
   8  393.3481
   9  348.3059
  10  407.1487
  11  450.9804
  12  520.6169
  13  386.221
  14  456.5936
  15  469.8986
  16  393.7064
  17  366.5257
  18  442.3092
  19  407.8113
  20  359.6458
  21  511.1562
  22  320.1743
  23  290.8823
  24  355.5292
  25  381.0717
  26  347.1651
  27  439.9225
  28  316.2565
  29  454.3325
  30  351.2694
  31  340.8077
  32  371.5613
  33  441.1841
  34  417.126
  35  430.7609
  36  458.4973
  37  428.8656
  38  448.1956
  39  476.5355
  40  384.2017
  41  449.4175
  42  484.0419
  43  490.2632
  44  449.6068
  45  359.9865
  46  389.7967
  47  428.4094
  48  453.7027
  49  454.5476
  50  374.3016
  51  421.0654
  52  405.0958
  53  441.6432
  54  476.9859
  55  473.0007
  56  417.4112
  57  380.251
  58  431.2853
  59  503.9073
  60  367.5389
  61  389.0242
  62  456.9335
  63  364.6716
  64  439.1255
  65  557.1713
  66  465.9095
  67  367.672
  68  359.8282
  69  396.6193
  70  366.038
  71  411.1281
  72  484.1636
  73  394.6298
  74  257.1823
  75  288.795
  76  274.767
  77  241.0547
  78  354.8309
  79  492.2284
  80  467.8508
  81  491.8683
  82  470.7646
  83  410.3633
  84  453.8957
  85  412.1443
  86  412.7517
  87  433.2943
  88  410.6668
  89  416.4834
  90  428.6797
  91  399.032
  92  436.4893
  93  550.6866
  94  552.7932
  95  524.1001
  96  439.3472
  97  483.1387
  98  459.7422
  99  530.6662
 100  573.7182
 101  528.0881
 102  439.8481
 103  430.6349
 104  377.6703
 105  468.5237
 106  525.084
 107  547.5496
 108  489.8471
 109  543.8022
 110  538.892
 111  476.5244
 112  422.7863
 113  399.0482
 114  485.7322
 115  565.2194
 116  452.1728
 117  486.5216
 118  438.7445
 119  395.7531
 120  379.6247
 121  367.3817
 122  438.0746
 123  509.1632
 124  539.5963
 125  542.1878
 126  523.0028
 127  328.8361
 128  463.8396
 129  446.7872
 130  369.7508
 131  376.2903
 132  461.5445
 133  427.2387
 134  536.85
 135  407.5883
 136  496.4747
 137  342.0371
 138  267.86
 139  313.9112
 140  433.2079
 141  413.5409
 142  473.1682
 143  503.9586
 144  593.1099
 145  585.982
 146  518.037
 147  599.794
 148  497.6035
 149  377.7493
 150  317.6147
 151  362.2836
 152  453.3305
 153  422.3703
 154  365.7855
 155  404.8582
 156  426.8098
 157  406.6256
 158  388.5523
 159  488.6186
 160  507.253
 161  395.0901
 162  449.0168
 163  500.2331
 164  501.9739
 165  492.2947
 166  528.8781
 167  564.4841
 168  541.1782
 169  506.3461
 170  484.757
 171  425.6561
 172  523.9166
 173  513.495
 174  437.4146
 175  496.6355
 176  417.0706
 177  425.1245
 178  462.7821
 179  473.9601
 180  459.7707
 181  474.4008
 182  475.5295
 183  384.7234
 184  495.5154
 185  489.0928
 186  411.6146
 187  456.8968
 188  485.9816
 189  558.9005
 190  563.8036
 191  486.0903
 192  561.274
 193  548.5055
 194  560.7081
 195  558.7744
 196  638.6821
 197  617.7922
 198  601.8452
 199  713.9565
 200  669.9923
 201  556.1472
 202  480.4879
 203  541.4568
 204  579.3682
 205  570.2222
 206  517.2784
 207  517.7034
 208  618.6774
 209  578.9288
 210  569.4225
 211  599.6245
 212  496.7935
 213  615.4362
 214  605.3032
 215  527.8454
 216  547.0277
 217  556.1389
 218  703.5653
 219  714.5926
 220  649.704
 221  576.447
 222  632.5767
 223  712.0097
 224  614.1354
 225  577.2007
 226  623.2281
 227  730.5831
 228  531.1511
 229  535.1256
 230  476.9269
 231  502.8543
 232  561.1201
 233  638.3813
 234  628.4642
 235  518.3799
 236  521.11
 237  671.5679
 238  634.9059
 239  617.5725
 240  576.17
 241  507.115
 242  589.8278
 243  606.668
 244  599.2193
 245  494.8762
 246  568.8672
 247  639.3597
 248  549.8498
 249  641.5251
 250  600.0239
 251  486.9242
 252  473.0176
 253  447.4494
 254  549.1281
 255  604.6022
 256  496.6015
 257  493.3961
 258  532.592
 259  519.9133
 260  524.8824
 261  419.6978
 262  510.019
 263  560.4103
 264  451.4659
 265  495.6969
 266  425.9491
 267  418.1419
 268  363.7027
 269  417.862
 270  400.1494
 271  501.2917
 272  570.4504
 273  438.8351
 274  435.5883
 275  369.7773
 276  495.5507
 277  502.2545
 278  499.399
 279  513.8755
 280  534.8891
 281  463.2207
 282  299.7682
 283  288.3652
 284  460.0029
 285  516.356
 286  515.6483
 287  522.6039
 288  488.4311
 289  499.9849
 290  490.9188
 291  595.201
 292  490.2134
 293  445.6762
 294  421.168
 295  500.5576
 296  502.7418
 297  453.825
 298  385.5877
 299  383.6993
 300  457.4151
 301  459.6686
 302  453.9206
 303  446.3327
 304  355.7689
 305  476.5941
 306  524.1672
 307  352.1114
 308  366.6452
 309  466.0939
 310  391.3822
 311  509.5555
 312  430.3519
 313  321.0632
 314  400.4225
 315  398.8645
 316  487.7128
 317  425.2116
 318  433.5301
 319  454.8922
 320  368.8906
 321  337.4596
 322  484.0221
 323  477.9493
 324  474.4911
 325  403.6503
 326  449.3602
 327  427.8219
 328  322.4677
 329  442.2455
 330  546.9741
 331  548.1308
 332  477.2661
 333  570.5689
 334  396.1378
 335  440.3339
 336  453.675
 337  420.0533
 338  472.1594
 339  461.9272
 340  398.9232
 341  360.446
 342  436.5119
 343  497.8175
 344  426.9655
 345  363.02
 346  487.3427
 347  359.8573
 348  326.9597
 349  376.9046
 350  324.6438
 351  452.2526
 352  481.6452
 353  519.7836
 354  454.1166
 355  380.9554
 356  407.9876
 357  424.5495
 358  423.573
 359  368.5094
 360  439.1076
 361  559.6073
 362  431.4882
 363  309.6608
 364  319.4334
 365  398.9178
 366  450.368
 367  444.0496
 368  489.2025
 369  510.8179
 370  484.2789
 371  403.3118
 372  322.9303
 373  407.7884
 374  522.571
 375  430.4691
 376  389.7499
 377  447.458
 378  383.7925
 379  360.5655
 380  480.3891
 381  514.7684
 382  344.0679
 383  441.4804
 384  493.9613
 385  432.7434
 386  453.7333
 387  379.2988
 388  381.7477
 389  483.1135
 390  508.7973
 391  578.3433
 392  417.6555
 393  409.2737
 394  455.6608
 395  532.7087
 396  575.5565
 397  533.8981
 398  514.9218
 399  508.2969
 400  531.9883
 401  481.2742
 402  557.6547
 403  556.3005
 404  490.0494
 405  515.3152
 406  526.6271
 407  539.4471
 408  541.9888
 409  521.2435
 410  401.7068
 411  451.6229
 412  619.1641
 413  600.6309
 414  639.7795
 415  620.5993
 416  530.3178
 417  616.7905
 418  530.2452
 419  428.7422
 420  575.8638
 421  594.7178
 422  567.5923
 423  592.223
 424  612.1371
 425  528.3709
 426  493.0074
 427  528.8562
 428  541.8066
 429  477.1066
 430  511.6584
 431  583.9926
 432  546.4283
 433  494.2472
 434  530.9055
 435  505.9629
 436  454.3231
 437  535.9316
 438  600.7824
 439  622.1073
 440  428.7071
 441  390.4323
 442  602.7615
 443  639.057
 444  463.755
 445  435.7428
 446  456.9709
 447  426.3099
 448  470.388
 449  641.5533
 450  531.4947
 451  453.867
 452  465.9764
 453  553.1295
 454  572.8744
 455  629.0714
 456  617.7968
 457  690.3515
 458  793.6585
 459  863.7638
 460  978.1118
 461  1073.489
 462  1039.265
 463  1063.274
 464  945.8415
 465  739.989
 466  590.8127
 467  532.1221
 468  511.8261
 469  473.5071
 470  414.0953
 471  326.3998
 472  547.3562
 473  558.489
 474  504.6603
 475  589.5523
 476  549.6913
 477  512.9025
 478  512.0892
 479  446.2095
 480  444.0319
 481  415.1734
 482  525.3071
 483  567.856
 484  449.4418
 485  498.3989
 486  463.9727
 487  385.6583
 488  557.4584
 489  537.1846
 490  566.0115
 491  539.0088
 492  506.2359
 493  496.5518
 494  489.3392
 495  467.8326
 496  499.8611
 497  439.1804
 498  436.9655
 499  469.5493
 500  401.2465
 501  501.2545
 502  484.2542
 503  461.7297
 504  482.3426
 505  456.808
 506  441.0846
 507  512.4976
 508  563.5438
 509  495.3261
 510  509.3323
 511  524.176
