# Input file       =  1185090823.101021-PSRB0329-2ms-sampling-dd.dat
# Candidate        =  PSR_0332+5434
# Telescope        =  AR
# Epoch_topo       =  57960.329190984041
# Epoch_bary       =  N/A
# T_sample         =  0.002
# Data Folded      =  7340032
# Data Avg         =  -6.69454040238578e-10
# Data StdDev      =  7.89605352182252 
# Profile Bins     =  512
# Profile Avg      =  -0.932504777134277
# Profile StdDev   =  945.418463561268 
# Reduced chi-sqr  =  0.553
# Prob(Noise)      <  1   (~0.0 sigma)
# P_topo (ms)      =  714.472514234527  +/- 0.000176
# P'_topo (s/s)    =  -0                +/- 9.3e-11
# P''_topo (s/s^2) =  0                 +/- 4.11e-14
# P_bary (ms)      =  N/A
# P'_bary (s/s)    =  N/A
# P''_bary (s/s^2) =  N/A
# P_orb (s)        =  N/A
# asin(i)/c (s)    =  N/A
# eccentricity     =  N/A
# w (rad)          =  N/A
# T_peri           =  N/A
######################################################
   0  -1087.84
   1  -753.7184
   2  -268.5973
   3  -260.1394
   4  -365.3403
   5  -553.5806
   6  -1112.278
   7  -1291.6
   8  -1218.952
   9  -630.1227
  10  -454.226
  11  -313.0325
  12  -427.7102
  13  -436.8037
  14  -499.7274
  15  -782.8115
  16  -826.8516
  17  -354.0338
  18  -424.7598
  19  -892.0553
  20  -177.0401
  21  -287.0497
  22  -314.5623
  23  -583.7836
  24  -787.8546
  25  -440.0726
  26  -974.8965
  27  -475.2479
  28  28.83062
  29  9.750497
  30  -263.4352
  31  -543.7405
  32  -684.1968
  33  -1141.141
  34  -944.5964
  35  -626.4159
  36  -647.7397
  37  -197.5978
  38  30.17036
  39  123.6942
  40  -53.4755
  41  -423.4078
  42  -134.6106
  43  1.552733
  44  -230.8373
  45  -106.6246
  46  230.0496
  47  146.6876
  48  -741.1893
  49  -743.5092
  50  -466.6492
  51  -343.2251
  52  -280.5674
  53  -265.227
  54  -710.5964
  55  -883.7852
  56  -473.287
  57  -74.28596
  58  -378.3278
  59  -411.9247
  60  -223.1238
  61  -360.7358
  62  -207.365
  63  -279.3021
  64  324.0297
  65  65.24149
  66  319.4738
  67  174.9857
  68  -180.458
  69  -598.2845
  70  -564.8022
  71  -50.69029
  72  -191.7507
  73  -618.5519
  74  -133.5399
  75  -200.1871
  76  -43.0601
  77  -116.488
  78  -364.8402
  79  -409.6298
  80  -525.6244
  81  -229.6613
  82  92.34857
  83  979.0687
  84  1730.955
  85  1900.936
  86  1681.694
  87  1668.675
  88  858.4214
  89  343.4724
  90  365.9279
  91  193.8996
  92  624.8782
  93  47.54186
  94  -102.0961
  95  -636.7676
  96  -481.9532
  97  -164.8654
  98  -34.37805
  99  -503.8904
 100  -547.1198
 101  -524.2013
 102  -407.6458
 103  -775.252
 104  -293.5065
 105  -356.2764
 106  -272.3347
 107  -575.2269
 108  -906.7516
 109  -1007.214
 110  -859.0187
 111  -572.1315
 112  -344.7924
 113  -501.1819
 114  -681.9326
 115  -593.8406
 116  -452.7292
 117  -245.785
 118  -119.2243
 119  -2.772005
 120  -55.46387
 121  -264.2473
 122  -468.5625
 123  -330.1186
 124  313.4737
 125  348.0313
 126  304.2078
 127  -109.1499
 128  -557.7276
 129  -696.0076
 130  -778.9988
 131  -471.8687
 132  108.4216
 133  309.8773
 134  214.09
 135  -20.76709
 136  -641.1784
 137  -764.0847
 138  14.91196
 139  45.41284
 140  69.90472
 141  136.6787
 142  -205.1605
 143  -442.4337
 144  -41.74057
 145  -217.743
 146  -388.5679
 147  -645.7242
 148  -1041.792
 149  -1043.344
 150  -973.6004
 151  -686.9192
 152  -840.7504
 153  -550.7105
 154  -695.1567
 155  -762.0558
 156  -933.5309
 157  -270.6434
 158  -7.865344
 159  -82.11176
 160  -41.59419
 161  65.58557
 162  -111.0979
 163  -508.6162
 164  -17.52697
 165  332.2634
 166  13.47501
 167  -431.7214
 168  -141.3088
 169  190.559
 170  227.7193
 171  223.7336
 172  267.3121
 173  489.3591
 174  228.4145
 175  491.0361
 176  436.0192
 177  -132.5471
 178  -53.45162
 179  115.3316
 180  -42.53333
 181  -329.6682
 182  -449.3829
 183  -497.8419
 184  -720.0754
 185  -449.4017
 186  -75.79517
 187  -85.13165
 188  -300.9189
 189  -181.776
 190  -449.5215
 191  -656.6918
 192  -447.0813
 193  -525.24
 194  554.1484
 195  369.5752
 196  -5.1659
 197  344.5578
 198  79.23194
 199  53.04215
 200  16.37468
 201  146.9046
 202  -63.76935
 203  -135.8503
 204  -153.2877
 205  -143.603
 206  -229.442
 207  -29.19799
 208  244.5476
 209  436.4787
 210  62.03738
 211  -93.23052
 212  78.42107
 213  38.59222
 214  353.3431
 215  191.7233
 216  423.1398
 217  441.5753
 218  58.85824
 219  289.5501
 220  79.80396
 221  -335.791
 222  -424.3634
 223  -349.9107
 224  -204.2623
 225  -240.9924
 226  3.242594
 227  -104.9836
 228  -347.8406
 229  -305.1963
 230  -207.7606
 231  424.5217
 232  106.5463
 233  -4.929347
 234  -238.5772
 235  -307.5908
 236  11.13609
 237  175.3675
 238  401.8045
 239  354.1411
 240  117.3275
 241  370.1086
 242  355.438
 243  347.7328
 244  381.9096
 245  200.8003
 246  105.6071
 247  464.8214
 248  142.3218
 249  -110.117
 250  -131.7288
 251  238.0869
 252  330.923
 253  729.7351
 254  1119.583
 255  1052.745
 256  730.1745
 257  725.2505
 258  476.5186
 259  128.9549
 260  268.2281
 261  527.1107
 262  302.2989
 263  833.181
 264  408.8679
 265  -171.5556
 266  198.6454
 267  332.8219
 268  651.9916
 269  773.0636
 270  573.0093
 271  604.162
 272  245.5714
 273  192.9179
 274  180.2784
 275  491.1155
 276  641.0139
 277  423.0458
 278  751.8137
 279  852.4812
 280  951.9347
 281  1519.756
 282  1222.684
 283  1124.053
 284  785.2213
 285  580.517
 286  459.6888
 287  724.1223
 288  1038.76
 289  1156.554
 290  780.9
 291  733.8515
 292  333.8856
 293  500.3702
 294  74.70041
 295  -107.2745
 296  -28.74438
 297  127.5537
 298  333.4242
 299  -40.75593
 300  -528.4186
 301  -416.9496
 302  -296.272
 303  76.43066
 304  33.68705
 305  123.2212
 306  61.7064
 307  211.6935
 308  252.8427
 309  48.6042
 310  165.5968
 311  518.8823
 312  222.255
 313  89.11427
 314  282.1884
 315  190.9454
 316  -18.9761
 317  224.1119
 318  442.1771
 319  296.837
 320  156.2987
 321  501.7677
 322  1143.954
 323  1346.801
 324  1212.765
 325  676.6628
 326  704.4125
 327  545.2128
 328  307.671
 329  620.7007
 330  505.8925
 331  626.0255
 332  852.4488
 333  349.789
 334  143.9306
 335  172.1984
 336  0.8925827
 337  70.9311
 338  146.3682
 339  -72.17883
 340  159.9796
 341  -115.6601
 342  253.0142
 343  -144.7391
 344  -104.0632
 345  153.7114
 346  -82.36877
 347  56.21855
 348  78.37174
 349  -67.2561
 350  -75.911
 351  119.7448
 352  508.7646
 353  642.5521
 354  447.2138
 355  436.1791
 356  387.5715
 357  92.29891
 358  -50.80069
 359  87.4122
 360  -343.1913
 361  151.464
 362  505.8307
 363  696.6061
 364  794.9479
 365  722.8393
 366  107.5604
 367  -299.6212
 368  46.12582
 369  240.9041
 370  908.2711
 371  1221.276
 372  1113.013
 373  147.7039
 374  -67.73223
 375  -458.8596
 376  -593.6769
 377  -121.8121
 378  513.8292
 379  791.5521
 380  924.2737
 381  474.3838
 382  101.0313
 383  167.454
 384  -5.519949
 385  47.48612
 386  316.7704
 387  239.4532
 388  67.74051
 389  481.2053
 390  432.8045
 391  446.0844
 392  411.0021
 393  698.3552
 394  282.786
 395  -262.451
 396  246.5424
 397  299.9839
 398  492.2483
 399  477.5016
 400  364.3415
 401  227.4621
 402  -390.9745
 403  -176.9315
 404  151.7323
 405  637.6584
 406  503.5768
 407  241.6562
 408  -178.1752
 409  -680.0002
 410  -483.8544
 411  -469.6054
 412  -648.307
 413  -85.11747
 414  174.9017
 415  -204.518
 416  -568.0637
 417  -763.0696
 418  -402.1411
 419  -463.9881
 420  -642.3617
 421  28.82126
 422  487.3648
 423  734.6122
 424  345.6465
 425  -220.6181
 426  -234.8107
 427  -684.1296
 428  -716.7159
 429  -127.7675
 430  261.9912
 431  348.9371
 432  -69.34255
 433  -12.87004
 434  100.7476
 435  35.86825
 436  240.4248
 437  205.4037
 438  616.5037
 439  924.9872
 440  1436.234
 441  1092.605
 442  696.8614
 443  475.563
 444  410.0146
 445  650.4965
 446  654.9059
 447  908.9313
 448  482.7374
 449  201.1133
 450  15.3089
 451  182.1471
 452  230.0945
 453  436.8957
 454  364.9329
 455  504.1506
 456  380.1641
 457  -155.1258
 458  224.6037
 459  -61.8564
 460  218.9585
 461  547.6238
 462  292.9765
 463  112.138
 464  -454.1847
 465  -152.2789
 466  -261.7563
 467  -118.8939
 468  63.99266
 469  -514.2345
 470  -480.7675
 471  -256.022
 472  -51.74149
 473  11.49347
 474  -57.43021
 475  -205.89
 476  -372.0463
 477  -285.494
 478  -240.9574
 479  -312.9243
 480  173.4685
 481  635.3665
 482  277.5749
 483  -400.023
 484  -291.9666
 485  14.62441
 486  -334.0785
 487  2.568925
 488  -3.160353
 489  -283.7776
 490  -248.2703
 491  -768.636
 492  -714.8785
 493  -669.7084
 494  -1101.415
 495  -552.3563
 496  -528.1229
 497  -685.8264
 498  -676.4621
 499  -869.307
 500  -238.7722
 501  -502.8868
 502  -114.7741
 503  -233.5487
 504  -187.217
 505  -86.15376
 506  -354.4204
 507  -382.8478
 508  -712.2189
 509  -812.0453
 510  -928.942
 511  -1277.933
