# Input file       =  1185147448.112553_cleaned.dat
# Candidate        =  PSR_0332+5434
# Telescope        =  AR
# Epoch_topo       =  57960.984573061956
# Epoch_bary       =  N/A
# T_sample         =  0.002
# Data Folded      =  7208960
# Data Avg         =  0.121398227100938
# Data StdDev      =  4.96979464458417 
# Profile Bins     =  512
# Profile Avg      =  1709.20608820228 
# Profile StdDev   =  589.71173638946  
# Reduced chi-sqr  =  0.531
# Prob(Noise)      <  1   (~0.0 sigma)
# P_topo (ms)      =  714.471832137888  +/- 4.7e-05
# P'_topo (s/s)    =  -0                +/- 2.53e-11
# P''_topo (s/s^2) =  0                 +/- 1.14e-14
# P_bary (ms)      =  N/A
# P'_bary (s/s)    =  N/A
# P''_bary (s/s^2) =  N/A
# P_orb (s)        =  N/A
# asin(i)/c (s)    =  N/A
# eccentricity     =  N/A
# w (rad)          =  N/A
# T_peri           =  N/A
######################################################
   0  2059.978
   1  1721.026
   2  1866.369
   3  2084.343
   4  1313.483
   5  1498.56
   6  1407.688
   7  1307.456
   8  1508.891
   9  2161.029
  10  2177.37
  11  1821.155
  12  1998.177
  13  1747.886
  14  1525.54
  15  1731.684
  16  1896.069
  17  1978.02
  18  1752.817
  19  1586.536
  20  1776.908
  21  1715.588
  22  1586.162
  23  1364.731
  24  1357.785
  25  1165.223
  26  1079.724
  27  1909.038
  28  1593.505
  29  1650.897
  30  1775.147
  31  1798.489
  32  1602.058
  33  1661.985
  34  1523.324
  35  1769.996
  36  1457.626
  37  1093.672
  38  1838.097
  39  1876.699
  40  1565.096
  41  1358.771
  42  1679.282
  43  1490.427
  44  1374.775
  45  1638.619
  46  1721.38
  47  1570.952
  48  1665.839
  49  1694.317
  50  1696.408
  51  1774.629
  52  1487.19
  53  1651.558
  54  1918.654
  55  1567.738
  56  1429.628
  57  1676.28
  58  1715.224
  59  1786.974
  60  1583.544
  61  1243.189
  62  1703.062
  63  1650.843
  64  1645.426
  65  1705.657
  66  1646.853
  67  1423.514
  68  1553.327
  69  1349.784
  70  1470.488
  71  1423.938
  72  1923.434
  73  1905.49
  74  1766.549
  75  2194.451
  76  1696.596
  77  1267.567
  78  1289.725
  79  1735.985
  80  1928.24
  81  1609.474
  82  2019.253
  83  2435.389
  84  1997.436
  85  1576.411
  86  1813.949
  87  2083.526
  88  1784.513
  89  1608.808
  90  1933.703
  91  1869.623
  92  1528.018
  93  1393.501
  94  2057.885
  95  2027.503
  96  1977.755
  97  1853.196
  98  2185.313
  99  2241.957
 100  1787.367
 101  1730.451
 102  2195.095
 103  1676.284
 104  1778.85
 105  1948.389
 106  1414.005
 107  1959.306
 108  1939.84
 109  2120.252
 110  1722.753
 111  1206.376
 112  1496.259
 113  1808.48
 114  1681.3
 115  1864.378
 116  2184.073
 117  2176.814
 118  1490.854
 119  1346.703
 120  1699.862
 121  1398.092
 122  1143.208
 123  1350.947
 124  1279.006
 125  903.5657
 126  1096.347
 127  1793.355
 128  2176.499
 129  1760.54
 130  1560.966
 131  1306.118
 132  1812.848
 133  1429.706
 134  1474.25
 135  1822.503
 136  1873.542
 137  1731.066
 138  1572.867
 139  1767.851
 140  1297.604
 141  1538.462
 142  1733.283
 143  1272.194
 144  1474.449
 145  1780.005
 146  1634.598
 147  991.478
 148  1482.433
 149  1565.52
 150  1474.86
 151  966.1644
 152  1142.624
 153  1401.557
 154  1732.026
 155  1196.634
 156  1312.111
 157  1489.352
 158  1483.75
 159  1551.343
 160  1718.608
 161  1752.158
 162  1575.995
 163  1260.372
 164  1676.462
 165  1862.944
 166  1808.927
 167  1714.216
 168  1879.754
 169  1952.898
 170  1583.549
 171  1531.25
 172  1795.505
 173  1639.86
 174  1706.355
 175  1512.346
 176  1410.951
 177  1439.553
 178  1919.214
 179  1999.24
 180  1880.452
 181  1892.012
 182  1561.303
 183  1750.633
 184  1434.009
 185  1602.673
 186  1687.509
 187  1352.407
 188  1271.835
 189  1290.182
 190  1777.436
 191  1540.463
 192  1306.209
 193  1456.119
 194  1548.418
 195  1638.214
 196  1558.262
 197  1668.147
 198  1892.809
 199  2052.397
 200  1319.853
 201  1421.647
 202  1470.351
 203  1315.886
 204  1545.101
 205  1441.891
 206  1160.301
 207  1480.552
 208  1531.697
 209  1731.918
 210  1469.911
 211  1525.555
 212  1574.904
 213  1301.247
 214  1314.357
 215  1738.709
 216  1105.343
 217  1276.897
 218  1117.388
 219  1412.961
 220  1712.575
 221  1243.115
 222  1420.541
 223  1420.484
 224  1342.701
 225  1125.454
 226  1565.028
 227  1824.098
 228  1821.427
 229  1592.136
 230  1488.006
 231  1911.354
 232  1594.458
 233  1692.766
 234  1880.837
 235  1527.207
 236  1378.075
 237  1548.948
 238  1716.352
 239  1833.668
 240  1519.373
 241  1485.509
 242  1335.974
 243  1260.779
 244  1667.763
 245  1796.169
 246  1543.486
 247  1231.977
 248  1780.471
 249  1886.859
 250  1445.798
 251  1184.018
 252  1386.063
 253  1553.089
 254  1505.815
 255  1399.835
 256  1630.864
 257  2001.696
 258  1643.033
 259  1530.266
 260  1460.57
 261  1478.701
 262  1344.769
 263  1586.225
 264  2159.463
 265  1907.995
 266  1581.032
 267  1702.669
 268  1818.684
 269  1664.968
 270  1269.032
 271  1300.821
 272  1502.854
 273  2113.072
 274  1865.489
 275  1979.256
 276  1823.623
 277  1613.09
 278  1675.449
 279  1641.867
 280  1405.267
 281  1750.285
 282  1787.507
 283  1514.541
 284  1484.051
 285  1763.002
 286  1757.156
 287  1514.177
 288  1274.366
 289  1745.383
 290  1788.606
 291  1767.93
 292  1697.711
 293  1820.684
 294  2034.167
 295  1876.314
 296  1939.196
 297  1650.562
 298  1327.612
 299  1241
 300  1289.594
 301  1812.704
 302  1707.593
 303  1882.585
 304  2097.402
 305  1716.017
 306  1885.443
 307  1424.761
 308  1581.302
 309  1562.155
 310  1537.285
 311  2035.417
 312  2054.269
 313  1813.382
 314  1898.631
 315  2061.698
 316  1810.468
 317  1669.84
 318  1767.066
 319  2191.513
 320  1883.1
 321  1923.839
 322  2858.262
 323  3217.844
 324  3197.174
 325  3207.762
 326  3277.612
 327  2759.274
 328  2278.398
 329  1863.126
 330  2138.434
 331  2046.427
 332  1734.623
 333  1672.725
 334  1535.247
 335  1425.161
 336  1389.67
 337  1462.472
 338  1786.496
 339  1773.268
 340  2143.033
 341  1818.758
 342  1712.595
 343  1918.035
 344  1827.84
 345  1656.978
 346  1505.837
 347  1593.727
 348  1777.764
 349  1745.605
 350  1309.791
 351  1654.471
 352  1946.716
 353  1532.69
 354  1402.354
 355  1773.395
 356  1946.701
 357  1747.192
 358  1705.217
 359  2022.023
 360  2134.638
 361  1852.104
 362  1814.233
 363  1879.745
 364  1672.221
 365  1324.425
 366  1677.178
 367  2031.85
 368  1866.038
 369  1523.05
 370  1522.562
 371  1790.768
 372  1755.543
 373  1919.741
 374  1560.233
 375  1729.962
 376  1887.046
 377  2237.931
 378  2189.604
 379  2139.867
 380  1940.842
 381  2048.825
 382  1729.276
 383  1683.908
 384  1832.814
 385  2220.771
 386  1885.836
 387  1455.294
 388  2216.135
 389  1879.739
 390  1655.083
 391  1447.88
 392  2002.017
 393  2316.503
 394  1858.048
 395  1363.602
 396  1927.87
 397  2205.463
 398  1810.947
 399  1734.479
 400  1955.234
 401  1241.143
 402  1110.028
 403  1387.862
 404  1769.702
 405  1892.181
 406  1826.73
 407  1920.78
 408  1717.442
 409  1853.131
 410  1930.94
 411  2308.31
 412  1932.348
 413  1988.524
 414  2257.895
 415  1986.285
 416  1500.313
 417  1345.433
 418  2047.029
 419  1981.404
 420  1997.643
 421  2043.989
 422  1853.056
 423  1344.625
 424  1276.44
 425  1588.381
 426  1886.308
 427  1761.217
 428  1757.212
 429  1718.168
 430  1856.241
 431  1596.421
 432  1384.296
 433  1722.926
 434  2136.089
 435  2066.591
 436  1807.163
 437  1952.799
 438  2237.052
 439  2091.81
 440  1988.841
 441  2082.21
 442  1667.922
 443  1681.658
 444  1902.177
 445  1897.328
 446  1888.295
 447  1922.921
 448  2083.461
 449  1828.806
 450  1909.992
 451  1856.93
 452  1379.349
 453  1109.222
 454  1353.07
 455  2098.412
 456  1491.323
 457  1408.868
 458  1730.945
 459  1939.613
 460  1865.402
 461  1547.7
 462  1937.831
 463  1641.827
 464  1252.901
 465  1872.523
 466  2065.063
 467  2284.039
 468  1952.163
 469  2121.548
 470  1804.544
 471  1545.759
 472  1292.974
 473  1412.584
 474  1699.019
 475  1697.287
 476  1858.939
 477  2090.721
 478  2269.891
 479  1837.831
 480  1944.856
 481  1864.854
 482  1562.343
 483  1537.794
 484  1570.163
 485  1680.184
 486  1431.036
 487  1619.269
 488  2037.316
 489  1909.531
 490  1670.913
 491  1443.422
 492  1718.933
 493  1972.771
 494  1868.585
 495  2324.136
 496  2510.423
 497  1705.412
 498  1191.998
 499  1471.151
 500  1748.407
 501  1751.635
 502  2211.092
 503  2327.275
 504  1696.875
 505  1617.365
 506  1684.223
 507  1470.602
 508  1654.719
 509  1710.112
 510  1810.134
 511  1872.043
