# Input file       =  1185750573.115542_cleaned.dat
# Candidate        =  PSR_0332+5434
# Telescope        =  AR
# Epoch_topo       =  57967.965186522473
# Epoch_bary       =  N/A
# T_sample         =  0.002
# Data Folded      =  7208960
# Data Avg         =  0.0300907341025996
# Data StdDev      =  1.00044186680315 
# Profile Bins     =  512
# Profile Avg      =  423.692003181505 
# Profile StdDev   =  118.711607344203 
# Reduced chi-sqr  =  1.259
# Prob(Noise)      <  5.95e-05   (~3.8 sigma)
# P_topo (ms)      =  714.468659631124  +/- 0.000219
# P'_topo (s/s)    =  -0                +/- 1.17e-10
# P''_topo (s/s^2) =  0                 +/- 5.28e-14
# P_bary (ms)      =  N/A
# P'_bary (s/s)    =  N/A
# P''_bary (s/s^2) =  N/A
# P_orb (s)        =  N/A
# asin(i)/c (s)    =  N/A
# eccentricity     =  N/A
# w (rad)          =  N/A
# T_peri           =  N/A
######################################################
   0  1006.959
   1  789.2057
   2  673.4561
   3  591.2946
   4  469.6706
   5  372.1941
   6  428.0398
   7  453.317
   8  400.0374
   9  466.4019
  10  473.0252
  11  343.2603
  12  340.2862
  13  390.0393
  14  421.8441
  15  273.3793
  16  523.3106
  17  336.3192
  18  253.8041
  19  388.0728
  20  434.313
  21  419.5285
  22  453.747
  23  558.9376
  24  525.4029
  25  460.4432
  26  350.5218
  27  285.9018
  28  348.3328
  29  439.9304
  30  465.9122
  31  455.8365
  32  425.3426
  33  480.0417
  34  537.8665
  35  395.0945
  36  493.9907
  37  404.1422
  38  345.4373
  39  439.313
  40  509.5652
  41  428.2711
  42  404.74
  43  429.4573
  44  387.0787
  45  367.1058
  46  341.2458
  47  313.7387
  48  351.4637
  49  423.8586
  50  474.1716
  51  428.2202
  52  329.7849
  53  379.0802
  54  419.2495
  55  306.5833
  56  242.1596
  57  336.5794
  58  493.3848
  59  490.0186
  60  502.2103
  61  485.9378
  62  416.814
  63  383.3327
  64  423.487
  65  403.5781
  66  369.1745
  67  482.2968
  68  387.644
  69  262.001
  70  292.0914
  71  305.4926
  72  483.6609
  73  606.4414
  74  543.8209
  75  353.5271
  76  464.799
  77  426.5478
  78  319.8233
  79  310.4794
  80  479.2906
  81  425.7835
  82  383.8452
  83  468.5902
  84  291.3867
  85  256.1686
  86  315.3484
  87  431.0334
  88  489.4188
  89  512.8952
  90  429.8106
  91  304.6146
  92  335.8514
  93  298.2106
  94  334.9601
  95  362.7481
  96  416.8254
  97  324.1725
  98  261.8019
  99  359.1698
 100  328.0043
 101  293.4656
 102  314.0301
 103  295.2318
 104  306.9548
 105  449.66
 106  417.223
 107  281.6822
 108  281.0797
 109  409.2931
 110  514.1831
 111  562.2809
 112  598.0812
 113  348.5047
 114  381.5925
 115  479.0875
 116  478.3839
 117  470.0267
 118  489.6872
 119  446.5469
 120  393.6848
 121  351.7022
 122  341.8439
 123  479.4916
 124  444.6874
 125  493.814
 126  425.7848
 127  430.4157
 128  462.0341
 129  522.7743
 130  549.6939
 131  440.4354
 132  503.682
 133  464.6775
 134  372.8044
 135  395.891
 136  432.9228
 137  420.2714
 138  399.0555
 139  516.4828
 140  493.4271
 141  466.0683
 142  551.4201
 143  447.4881
 144  416.4897
 145  396.5941
 146  376.5955
 147  474.0703
 148  403.9225
 149  399.5323
 150  371.6826
 151  340.866
 152  468.9167
 153  450.7974
 154  417.5585
 155  500.508
 156  411.4287
 157  331.2841
 158  405.6837
 159  357.4351
 160  400.7453
 161  450.3368
 162  599.9391
 163  427.338
 164  465.4047
 165  337.2186
 166  437.0512
 167  403.9057
 168  378.6738
 169  493.0596
 170  472.39
 171  356.5942
 172  331.8701
 173  477.5588
 174  547.5303
 175  345.4679
 176  332.5208
 177  395.2837
 178  320.153
 179  423.2746
 180  472.8238
 181  507.4138
 182  515.3317
 183  499.1678
 184  502.5223
 185  363.0398
 186  371.0131
 187  399.5699
 188  487.2147
 189  452.5155
 190  381.9668
 191  332.374
 192  404.0594
 193  405.119
 194  359.9045
 195  516.142
 196  532.4237
 197  542.5787
 198  486.9319
 199  461.553
 200  521.3411
 201  521.882
 202  562.6942
 203  503.3871
 204  492.3805
 205  420.1328
 206  343.0662
 207  266.7292
 208  179.0378
 209  325.5854
 210  523.0941
 211  442.0608
 212  420.9581
 213  437.1089
 214  481.8789
 215  419.0486
 216  378.6346
 217  423.7502
 218  304.2119
 219  380.4447
 220  444.0892
 221  498.9904
 222  469.1808
 223  459.3119
 224  480.4362
 225  524.5897
 226  379.7454
 227  336.3415
 228  481.776
 229  467.8456
 230  392.5738
 231  386.5473
 232  279.9014
 233  335.1782
 234  373.864
 235  423.4843
 236  449.0358
 237  406.365
 238  398.6078
 239  263.6161
 240  371.1638
 241  600.7631
 242  455.2439
 243  423.2533
 244  530.6205
 245  435.0543
 246  429.7312
 247  473.6156
 248  448.8179
 249  429.2586
 250  626.5871
 251  479.5592
 252  363.3296
 253  434.5951
 254  401.0587
 255  392.4844
 256  396.4015
 257  397.9049
 258  405.0259
 259  445.1971
 260  408.971
 261  340.2253
 262  371.9683
 263  456.9995
 264  345.4916
 265  414.0624
 266  516.9288
 267  452.0917
 268  455.7328
 269  369.108
 270  282.0119
 271  296.7616
 272  445.5092
 273  503.0358
 274  393.0895
 275  410.8535
 276  343.1478
 277  303.6762
 278  415.2808
 279  349.6744
 280  307.4173
 281  368.9309
 282  523.2473
 283  468.6385
 284  374.0099
 285  264.9106
 286  202.8244
 287  377.3059
 288  430.5949
 289  557.7868
 290  534.8909
 291  459.6426
 292  403.8269
 293  414.4341
 294  374.7574
 295  334.7266
 296  462.8897
 297  387.4489
 298  350.5396
 299  271.7804
 300  276.4478
 301  351.649
 302  397.3526
 303  382.8923
 304  478.0519
 305  495.9231
 306  319.1732
 307  351.5367
 308  428.7408
 309  367.1551
 310  299.7666
 311  360.312
 312  330.8745
 313  264.7746
 314  400.2294
 315  467.8492
 316  325.0462
 317  326.7943
 318  449.9778
 319  417.7001
 320  397.2556
 321  481.7607
 322  420.3493
 323  342.1418
 324  493.9673
 325  410.3355
 326  538.3558
 327  344.987
 328  431.1818
 329  434.0166
 330  418.9651
 331  505.5975
 332  443.7259
 333  451.9962
 334  485.7561
 335  364.5132
 336  402.6819
 337  403.7574
 338  374.8637
 339  408.0263
 340  441.7441
 341  456.1824
 342  498.3864
 343  411.3846
 344  453.7132
 345  492.6945
 346  471.7497
 347  422.2961
 348  479.2141
 349  501.78
 350  495.9526
 351  392.6216
 352  401.6305
 353  253.3668
 354  322.3374
 355  414.4291
 356  447.3369
 357  511.6263
 358  425.2372
 359  389.2706
 360  367.1346
 361  349.276
 362  364.1046
 363  427.5145
 364  249.2717
 365  458.1736
 366  465.9754
 367  324.3269
 368  439.1151
 369  453.6231
 370  394.8755
 371  467.8721
 372  385.009
 373  301.2184
 374  369.974
 375  368.7075
 376  389.6056
 377  485.6728
 378  312.2916
 379  412.7173
 380  435.9292
 381  464.471
 382  388.3852
 383  458.8203
 384  440.9589
 385  449.4261
 386  671.6621
 387  697.8546
 388  560.4748
 389  494.4471
 390  515.3383
 391  379.9761
 392  457.4997
 393  545.2544
 394  485.5675
 395  493.3948
 396  420.4663
 397  364.2973
 398  351.8423
 399  313.2082
 400  233.302
 401  373.1436
 402  415.2996
 403  503.0401
 404  465.1617
 405  465.6331
 406  400.629
 407  451.3391
 408  476.4146
 409  417.2142
 410  416.5195
 411  310.9593
 412  416.1415
 413  417.068
 414  391.6137
 415  413.7043
 416  444.4174
 417  327.6266
 418  388.9951
 419  353.0257
 420  329.1216
 421  349.4749
 422  496.7582
 423  433.4489
 424  256.3111
 425  410.3572
 426  448.0133
 427  492.0403
 428  499.036
 429  352.9467
 430  354.18
 431  378.206
 432  334.0422
 433  358.9
 434  429.2541
 435  314.5895
 436  291.9803
 437  409.4277
 438  304.4554
 439  307.1082
 440  488.5213
 441  465.6497
 442  413.4828
 443  459.8503
 444  512.941
 445  580.6613
 446  487.5536
 447  597.4634
 448  603.8375
 449  511.4847
 450  419.3867
 451  291.2661
 452  291.9416
 453  247.9594
 454  313.9166
 455  461.8673
 456  521.0916
 457  397.2128
 458  452.1371
 459  554.5614
 460  410.1783
 461  498.7848
 462  462.3728
 463  383.0274
 464  405.4817
 465  478.5
 466  460.9335
 467  486.9548
 468  291.3191
 469  398.5902
 470  479.3692
 471  478.9265
 472  553.5852
 473  553.9321
 474  516.3511
 475  425.1723
 476  424.6095
 477  349.2519
 478  283.3666
 479  338.3789
 480  313.0418
 481  246.0291
 482  429.8425
 483  478.7289
 484  385.1009
 485  389.6275
 486  416.9059
 487  321.0961
 488  332.9149
 489  321.1502
 490  538.5559
 491  409.6056
 492  527.7378
 493  612.6859
 494  452.1931
 495  278.0436
 496  326.6071
 497  346.5669
 498  332.1468
 499  508.2705
 500  460.2818
 501  465.4459
 502  518.8501
 503  543.9421
 504  559.8705
 505  559.6802
 506  583.0616
 507  582.4926
 508  645.5573
 509  941.1111
 510  1000.026
 511  997.7031
