# Input file       =  1185780131.118868-PSRB0329-2ms-sampling-dd.dat
# Candidate        =  PSR_0332+5434
# Telescope        =  AR
# Epoch_topo       =  57968.307293042453
# Epoch_bary       =  N/A
# T_sample         =  0.002
# Data Folded      =  7340032
# Data Avg         =  -4.23480405276337e-10
# Data StdDev      =  5.09090281154926 
# Profile Bins     =  512
# Profile Avg      =  -0.0546054484932127
# Profile StdDev   =  609.549251525809 
# Reduced chi-sqr  =  1.095
# Prob(Noise)      <  0.0674   (~1.5 sigma)
# P_topo (ms)      =  714.468869898856  +/- 0.000182
# P'_topo (s/s)    =  -0                +/- 9.62e-11
# P''_topo (s/s^2) =  0                 +/- 4.25e-14
# P_bary (ms)      =  N/A
# P'_bary (s/s)    =  N/A
# P''_bary (s/s^2) =  N/A
# P_orb (s)        =  N/A
# asin(i)/c (s)    =  N/A
# eccentricity     =  N/A
# w (rad)          =  N/A
# T_peri           =  N/A
######################################################
   0  -359.3979
   1  -456.4077
   2  -629.9318
   3  -725.9664
   4  -616.5768
   5  -500.1385
   6  -505.3869
   7  -263.3451
   8  -307.5544
   9  -449.7422
  10  43.2338
  11  -423.3687
  12  -722.0954
  13  -319.3221
  14  -311.5988
  15  -366.7617
  16  -408.0691
  17  -629.8609
  18  -780.9879
  19  -949.1114
  20  -167.1162
  21  -176.1933
  22  -258.9633
  23  -311.4703
  24  -406.4544
  25  -505.0758
  26  -493.5065
  27  -443.7592
  28  -254.662
  29  -408.507
  30  -1034.926
  31  -833.6059
  32  -357.4866
  33  -123.2973
  34  1.415698
  35  -131.5076
  36  -417.4559
  37  -410.2712
  38  -514.4944
  39  -598.36
  40  -605.9135
  41  -221.577
  42  117.5066
  43  -167.3991
  44  112.5889
  45  -345.8652
  46  -261.3411
  47  -84.11564
  48  273.4456
  49  174.3776
  50  163.1862
  51  492.3525
  52  -239.445
  53  -155.1706
  54  9.955552
  55  -37.37684
  56  93.70979
  57  -43.52819
  58  -37.46439
  59  -176.4251
  60  190.9871
  61  280.4642
  62  -135.7731
  63  -228.3312
  64  -553.955
  65  -559.9797
  66  -311.9361
  67  -356.1125
  68  -107.265
  69  -180.4073
  70  -90.58934
  71  49.16465
  72  -420.3117
  73  -70.73402
  74  -144.1769
  75  230.9964
  76  -380.7702
  77  323.7976
  78  214.9102
  79  -145.281
  80  32.4156
  81  -63.58657
  82  35.23088
  83  -397.121
  84  -388.3369
  85  -409.3671
  86  -416.7905
  87  -135.7371
  88  -182.8848
  89  -53.20137
  90  284.5904
  91  -427.9877
  92  -394.9231
  93  -216.0809
  94  -533.558
  95  -761.9962
  96  -250.4728
  97  -632.5568
  98  -795.5198
  99  -320.3332
 100  -259.1475
 101  -356.8441
 102  -145.3966
 103  -370.4773
 104  -835.2347
 105  -950.5054
 106  -637.2787
 107  -518.9667
 108  -409.8448
 109  -257.7166
 110  -171.8974
 111  39.80509
 112  -85.68336
 113  -1.097757
 114  -210.2924
 115  -450.9908
 116  -254.7229
 117  -499.9325
 118  -646.9901
 119  -324.3951
 120  50.61263
 121  95.67873
 122  130.6552
 123  -9.687519
 124  -557.1226
 125  -738.2366
 126  -121.2126
 127  496.6545
 128  194.0111
 129  -66.52372
 130  -427.3414
 131  -1010.673
 132  -831.6303
 133  -452.0544
 134  -128.371
 135  377.2368
 136  202.0601
 137  -272.6999
 138  -402.7628
 139  -491.4186
 140  -323.6639
 141  122.3672
 142  -256.6225
 143  -409.0891
 144  -270.9013
 145  -72.01408
 146  -277.8618
 147  -515.2868
 148  -387.0614
 149  -324.4738
 150  -532.3192
 151  -312.2226
 152  -352.9766
 153  -775.7396
 154  -428.5263
 155  -476.2352
 156  -474.8459
 157  -612.4734
 158  -444.6351
 159  -157.1901
 160  -31.09965
 161  -356.0666
 162  -926.9611
 163  -673.2512
 164  -689.159
 165  -478.0822
 166  115.4637
 167  19.56319
 168  -162.2567
 169  -612.7375
 170  -423.544
 171  -406.8701
 172  -222.5953
 173  -290.3195
 174  -163.8657
 175  259.1409
 176  409.3607
 177  337.8321
 178  68.76152
 179  465.7223
 180  -216.6703
 181  63.40613
 182  75.46964
 183  319.4567
 184  22.89217
 185  215.1556
 186  -36.05888
 187  -731.9688
 188  38.15531
 189  269.3752
 190  -62.02154
 191  -434.0385
 192  -423.6996
 193  -176.0211
 194  -211.4501
 195  -334.5004
 196  -555.494
 197  -486.2452
 198  -658.2285
 199  -545.6765
 200  -412.053
 201  -231.4135
 202  -47.11489
 203  -404.8924
 204  -316.0338
 205  -621.5605
 206  -149.4535
 207  54.8051
 208  177.778
 209  343.2837
 210  375.9505
 211  418.6956
 212  -44.51331
 213  -121.7782
 214  -252.6791
 215  -228.6065
 216  334.9765
 217  -144.3922
 218  -343.8099
 219  -301.2434
 220  -328.2273
 221  -98.51619
 222  -376.1412
 223  -383.2937
 224  -68.17535
 225  -484.8094
 226  -604.8184
 227  -779.8615
 228  -348.3626
 229  -171.5535
 230  -75.04425
 231  -403.9945
 232  -693.8689
 233  -204.7408
 234  -325.2687
 235  -458.8966
 236  69.87467
 237  154.8515
 238  169.1506
 239  179.2799
 240  1141.531
 241  988.4983
 242  522.5938
 243  658.4145
 244  6.988876
 245  203.0358
 246  262.7577
 247  -98.81567
 248  298.324
 249  227.3739
 250  -90.30306
 251  -109.5546
 252  243.7821
 253  947.8598
 254  551.6793
 255  872.4088
 256  511.5729
 257  354.3628
 258  698.0016
 259  289.0823
 260  282.6152
 261  247.8365
 262  259.0326
 263  200.0599
 264  -413.5398
 265  93.70066
 266  418.4479
 267  45.50659
 268  22.42897
 269  -327.0693
 270  -512.4929
 271  -271.3065
 272  -79.83703
 273  1.301978
 274  163.8492
 275  77.80253
 276  -17.99814
 277  344.2878
 278  450.5907
 279  566.6432
 280  101.6795
 281  -25.99994
 282  -100.4518
 283  -307.9758
 284  114.8829
 285  190.3483
 286  680.2737
 287  688.0319
 288  436.0087
 289  24.39493
 290  105.3571
 291  301.0963
 292  299.5796
 293  -29.70464
 294  -146.9173
 295  -292.6702
 296  -11.74633
 297  -176.2687
 298  206.9309
 299  282.7351
 300  200.0177
 301  438.3595
 302  69.14149
 303  -38.1221
 304  -396.2695
 305  -271.1379
 306  172.1452
 307  162.7976
 308  217.478
 309  600.278
 310  627.0642
 311  264.8317
 312  371.051
 313  448.8124
 314  95.07317
 315  367.2827
 316  606.9645
 317  435.5922
 318  246.71
 319  484.0857
 320  -148.4521
 321  328.0741
 322  627.0196
 323  1350.264
 324  1323.727
 325  1028.373
 326  1125.893
 327  933.4691
 328  1689.933
 329  2436.46
 330  1995.405
 331  1534.586
 332  1274.199
 333  459.2315
 334  -160.5446
 335  341.7426
 336  671.9868
 337  347.036
 338  429.7894
 339  228.7408
 340  208.6454
 341  446.2965
 342  734.8717
 343  554.6422
 344  557.4124
 345  602.3563
 346  160.3093
 347  -107.7115
 348  -244.3841
 349  567.2955
 350  647.9619
 351  451.0658
 352  458.5149
 353  743.2294
 354  935.5491
 355  768.9142
 356  610.4399
 357  -128.4344
 358  47.71911
 359  254.8047
 360  706.7095
 361  1124.002
 362  1012.184
 363  608.8175
 364  198.2778
 365  -263.692
 366  131.94
 367  510.2815
 368  349.0897
 369  633.4808
 370  328.6877
 371  28.80972
 372  -684.4254
 373  -164.7867
 374  -133.1997
 375  446.9105
 376  711.6823
 377  229.4744
 378  -103.8142
 379  163.08
 380  505.5391
 381  333.0325
 382  408.2181
 383  713.3068
 384  839.688
 385  182.8985
 386  222.5622
 387  545.8024
 388  931.5992
 389  813.1085
 390  287.2719
 391  -244.1922
 392  -321.508
 393  -319.601
 394  206.7149
 395  51.23326
 396  213.5659
 397  -102.4734
 398  -121.5752
 399  124.0897
 400  62.35728
 401  119.3741
 402  -110.629
 403  107.4976
 404  -401.0947
 405  -399.9466
 406  63.97206
 407  433.8458
 408  109.6626
 409  111.5494
 410  195.5897
 411  349.7488
 412  135.5449
 413  165.603
 414  437.4066
 415  452.1104
 416  337.9772
 417  80.18948
 418  473.8335
 419  904.6583
 420  703.2929
 421  791.8267
 422  837.4925
 423  509.8629
 424  317.6823
 425  342.631
 426  156.9614
 427  -44.96788
 428  -127.9923
 429  281.763
 430  463.5938
 431  305.2799
 432  238.2257
 433  189.7434
 434  -21.82705
 435  -68.08242
 436  291.5977
 437  640.6881
 438  376.5972
 439  48.47963
 440  -230.0961
 441  -197.3307
 442  -75.84901
 443  294.6161
 444  692.231
 445  815.1713
 446  530.9701
 447  124.9166
 448  -106.5544
 449  125.7496
 450  226.2044
 451  10.87133
 452  116.9789
 453  611.256
 454  434.0213
 455  503.2929
 456  415.9251
 457  79.76864
 458  -98.81786
 459  -311.5945
 460  -20.00934
 461  448.5214
 462  871.2539
 463  722.5392
 464  622.8604
 465  -167.8634
 466  -353.5229
 467  -172.3748
 468  259.2914
 469  522.4022
 470  344.8636
 471  82.91642
 472  -271.4577
 473  -289.7015
 474  -519.7502
 475  -608.1976
 476  -865.1826
 477  -767.1848
 478  -175.6033
 479  -170.4409
 480  -166.4573
 481  -521.3975
 482  -49.31427
 483  446.7655
 484  -6.65276
 485  30.40521
 486  427.0433
 487  113.2858
 488  -73.30987
 489  -70.54695
 490  214.1216
 491  -478.5222
 492  -588.5327
 493  -563.5789
 494  -726.5782
 495  -460.2074
 496  -151.9486
 497  -53.3071
 498  -224.0679
 499  -698.8774
 500  -994.3299
 501  -722.3679
 502  -174.0094
 503  121.7233
 504  250.4148
 505  -233.0551
 506  -510.6777
 507  -688.978
 508  -439.7238
 509  -533.1954
 510  -391.2365
 511  167.4597
