# Input file       =  1185334429.098027_cleaned.dat
# Candidate        =  PSR_0332+5434
# Telescope        =  AR
# Epoch_topo       =  57963.148704838277
# Epoch_bary       =  N/A
# T_sample         =  0.002
# Data Folded      =  7340032
# Data Avg         =  0.0375288931062036
# Data StdDev      =  1.00001036982262 
# Profile Bins     =  512
# Profile Avg      =  537.846440335102 
# Profile StdDev   =  119.734277987116 
# Reduced chi-sqr  =  1.465
# Prob(Noise)      <  3.24e-11   (~6.5 sigma)
# P_topo (ms)      =  714.470783921581  +/- 0.000311
# P'_topo (s/s)    =  -0                +/- 1.64e-10
# P''_topo (s/s^2) =  0                 +/- 7.25e-14
# P_bary (ms)      =  N/A
# P'_bary (s/s)    =  N/A
# P''_bary (s/s^2) =  N/A
# P_orb (s)        =  N/A
# asin(i)/c (s)    =  N/A
# eccentricity     =  N/A
# w (rad)          =  N/A
# T_peri           =  N/A
######################################################
   0  1115.607
   1  1066.477
   2  954.884
   3  634.8918
   4  529.7042
   5  367.234
   6  381.2475
   7  503.3807
   8  553.177
   9  583.3681
  10  473.6628
  11  455.5495
  12  521.4216
  13  471.8705
  14  506.2069
  15  578.4784
  16  648.1953
  17  568.9336
  18  434.3821
  19  470.0678
  20  487.0448
  21  421.9742
  22  384.4382
  23  327.1281
  24  464.191
  25  495.7591
  26  417.9668
  27  480.8831
  28  575.5533
  29  489.7345
  30  391.5284
  31  387.0324
  32  467.2663
  33  519.5723
  34  510.9446
  35  393.9557
  36  525.5153
  37  605.1605
  38  408.9915
  39  360.337
  40  417.3299
  41  423.8175
  42  444.0379
  43  526.4207
  44  428.7083
  45  502.0812
  46  486.5141
  47  491.8826
  48  544.749
  49  518.503
  50  525.7668
  51  449.3982
  52  547.2796
  53  533.5306
  54  445.9955
  55  402.2442
  56  391.6648
  57  420.8274
  58  364.4754
  59  350.1505
  60  309.2413
  61  270.6998
  62  463.7377
  63  420.2075
  64  381.4571
  65  463.107
  66  490.5945
  67  410.1151
  68  264.6548
  69  391.1806
  70  364.397
  71  435.3635
  72  483.1921
  73  422.8375
  74  405.5932
  75  464.2919
  76  379.4081
  77  435.1731
  78  457.4117
  79  471.4062
  80  373.2898
  81  445.8513
  82  431.1093
  83  367.1703
  84  388.6188
  85  454.5769
  86  370.074
  87  476.1448
  88  470.7004
  89  300.4189
  90  390.7043
  91  497.0748
  92  523.3449
  93  437.8412
  94  398.6595
  95  435.5619
  96  444.5867
  97  534.0099
  98  498.8545
  99  431.3338
 100  498.7933
 101  466.8951
 102  476.5554
 103  498.9712
 104  458.5314
 105  444.169
 106  461.7224
 107  438.0026
 108  396.8047
 109  458.2196
 110  468.9872
 111  434.7653
 112  543.7939
 113  579.5699
 114  437.8216
 115  580.5588
 116  444.0207
 117  511.7116
 118  542.7908
 119  461.3098
 120  453.6232
 121  391.2466
 122  407.5508
 123  422.2762
 124  408.2137
 125  397.0295
 126  402.1667
 127  260.7114
 128  287.7823
 129  395.8878
 130  480.758
 131  487.0962
 132  418.6429
 133  528.5485
 134  588.454
 135  493.6322
 136  459.5868
 137  374.0753
 138  401.3438
 139  501.6385
 140  493.2422
 141  505.7573
 142  476.0634
 143  448.1376
 144  474.1212
 145  474.0798
 146  494.4728
 147  429.6537
 148  404.039
 149  500.3543
 150  548.5359
 151  509.9209
 152  434.2882
 153  463.1815
 154  444.3566
 155  489.5314
 156  644.1854
 157  656.2512
 158  504.4153
 159  560.9594
 160  556.4219
 161  556.7941
 162  561.6065
 163  663.2543
 164  740.5437
 165  640.1177
 166  527.2135
 167  503.5493
 168  617.5731
 169  598.4779
 170  550.0101
 171  685.8853
 172  668.6746
 173  736.6172
 174  614.744
 175  553.5621
 176  507.5988
 177  574.2911
 178  641.4265
 179  611.8127
 180  539.03
 181  611.5743
 182  637.2489
 183  568.4029
 184  507.3457
 185  499.7874
 186  549.9897
 187  601.6602
 188  637.3358
 189  443.2845
 190  371.2597
 191  406.6303
 192  473.6363
 193  621.2136
 194  579.3058
 195  438.3218
 196  421.9074
 197  422.5442
 198  406.8484
 199  436.3993
 200  408.4066
 201  425.5225
 202  467.3398
 203  518.3101
 204  501.6907
 205  491.8225
 206  522.632
 207  512.5452
 208  460.1369
 209  479.5504
 210  612.1174
 211  514.5891
 212  498.9033
 213  549.7806
 214  625.6387
 215  499.0594
 216  572.8892
 217  467.2466
 218  365.1129
 219  404.2577
 220  509.1386
 221  588.295
 222  532.1063
 223  633.2399
 224  584.629
 225  622.3014
 226  687.5486
 227  674.1362
 228  525.2968
 229  499.0237
 230  555.5987
 231  477.6551
 232  523.4634
 233  567.5298
 234  570.8175
 235  564.9564
 236  593.2694
 237  580.1882
 238  604.4532
 239  655.8424
 240  663.2498
 241  587.561
 242  527.1413
 243  448.6475
 244  587.1652
 245  664.9694
 246  688.8242
 247  694.8215
 248  720.2521
 249  625.905
 250  559.7086
 251  558.9824
 252  599.5416
 253  509.1602
 254  564.3599
 255  746.999
 256  733.7499
 257  662.7208
 258  643.8296
 259  648.8393
 260  590.0245
 261  603.7131
 262  587.2382
 263  658.6592
 264  632.03
 265  665.009
 266  644.1266
 267  641.7242
 268  697.9863
 269  675.8311
 270  642.2984
 271  646.5871
 272  576.6896
 273  509.5602
 274  475.0045
 275  526.0679
 276  665.8549
 277  685.3265
 278  727.0491
 279  539.1245
 280  498.7142
 281  657.4844
 282  556.1394
 283  466.2165
 284  554.3656
 285  479.2318
 286  465.2739
 287  542.968
 288  605.1606
 289  672.4111
 290  711.4059
 291  743.3792
 292  546.0093
 293  509.6251
 294  546.6244
 295  630.311
 296  698.4332
 297  604.4579
 298  707.4246
 299  586.7142
 300  510.1394
 301  584.2195
 302  703.9459
 303  568.5424
 304  560.3923
 305  607.1962
 306  565.5585
 307  634.0703
 308  645.9532
 309  684.6744
 310  712.4067
 311  631.4611
 312  649.1863
 313  676.4426
 314  589.7756
 315  609.4077
 316  636.2665
 317  721.7954
 318  620.4674
 319  482.9586
 320  588.3209
 321  732.2703
 322  621.9684
 323  646.757
 324  625.009
 325  515.0529
 326  533.9229
 327  587.5874
 328  578.0955
 329  551.4584
 330  629.087
 331  691.7158
 332  573.7964
 333  656.9514
 334  534.9179
 335  562.6084
 336  732.1021
 337  693.8246
 338  593.8963
 339  577.4417
 340  494.2289
 341  503.757
 342  455.4467
 343  559.4653
 344  574.7722
 345  627.1945
 346  546.8021
 347  502.5407
 348  477.2408
 349  471.7164
 350  498.5692
 351  517.2684
 352  478.9706
 353  608.1745
 354  553.4773
 355  489.7087
 356  620.8811
 357  636.5704
 358  563.394
 359  571.3323
 360  608.3528
 361  555.106
 362  580.4755
 363  631.5526
 364  559.3045
 365  644.8706
 366  676.4176
 367  651.3253
 368  509.3313
 369  615.4727
 370  695.0302
 371  647.2704
 372  563.4727
 373  481.211
 374  572.7843
 375  649.9858
 376  655.9342
 377  654.6097
 378  688.4753
 379  609.1635
 380  669.9291
 381  660.3602
 382  634.9915
 383  609.3071
 384  583.6816
 385  588.9289
 386  541.191
 387  681.991
 388  729.2705
 389  564.6324
 390  442.508
 391  564.8686
 392  607.764
 393  593.6993
 394  510.8909
 395  645.9689
 396  707.999
 397  658.5712
 398  504.3251
 399  494.4416
 400  460.0748
 401  474.6001
 402  460.3551
 403  468.0359
 404  524.6789
 405  561.0063
 406  599.3434
 407  565.8372
 408  593.219
 409  606.3904
 410  550.964
 411  483.8096
 412  445.192
 413  380.0804
 414  466.1714
 415  514.8438
 416  512.1034
 417  559.5643
 418  660.6514
 419  558.5622
 420  471.2771
 421  417.3666
 422  374.6293
 423  487.4185
 424  483.8612
 425  431.4459
 426  400.525
 427  526.16
 428  481.9141
 429  558.3532
 430  533.7926
 431  454.936
 432  309.6365
 433  411.571
 434  511.2515
 435  411.152
 436  497.8987
 437  615.2061
 438  660.5417
 439  580.1935
 440  510.3485
 441  538.0342
 442  551.9043
 443  570.7561
 444  659.579
 445  699.8527
 446  558.6953
 447  515.874
 448  612.4843
 449  610.0443
 450  566.2678
 451  556.8217
 452  541.1989
 453  475.3905
 454  490.7574
 455  525.3625
 456  533.0303
 457  486.6863
 458  541.9009
 459  537.3029
 460  474.2874
 461  568.8195
 462  544.6961
 463  577.4812
 464  590.6199
 465  604.2966
 466  560.4779
 467  541.3854
 468  555.1418
 469  579.1086
 470  587.5957
 471  583.5938
 472  543.7172
 473  543.3619
 474  601.1629
 475  536.918
 476  579.8346
 477  499.089
 478  491.4743
 479  477.2409
 480  481.2724
 481  551.9648
 482  566.1896
 483  424.0022
 484  450.1541
 485  480.5832
 486  473.6714
 487  508.4322
 488  472.4785
 489  531.1598
 490  512.2903
 491  462.8804
 492  429.2427
 493  462.6227
 494  490.3936
 495  480.3561
 496  461.1009
 497  509.407
 498  550.535
 499  598.0605
 500  690.4789
 501  627.233
 502  523.0591
 503  487.4475
 504  572.4942
 505  665.1484
 506  658.917
 507  642.3906
 508  632.53
 509  683.343
 510  961.2547
 511  1067.933
