# Input file       =  1185765225.132344_cleaned.dat
# Candidate        =  PSR_0332+5434
# Telescope        =  AR
# Epoch_topo       =  57968.134770050281
# Epoch_bary       =  N/A
# T_sample         =  0.002
# Data Folded      =  7340032
# Data Avg         =  0.0260781412258179
# Data StdDev      =  2.49859469594942 
# Profile Bins     =  512
# Profile Avg      =  374.002389060372 
# Profile StdDev   =  299.164329620907 
# Reduced chi-sqr  =  1.792
# Prob(Noise)      <  2.07e-25   (~10.4 sigma)
# P_topo (ms)      =  714.46860448507   +/- 0.000175
# P'_topo (s/s)    =  -0                +/- 9.25e-11
# P''_topo (s/s^2) =  0                 +/- 4.08e-14
# P_bary (ms)      =  N/A
# P'_bary (s/s)    =  N/A
# P''_bary (s/s^2) =  N/A
# P_orb (s)        =  N/A
# asin(i)/c (s)    =  N/A
# eccentricity     =  N/A
# w (rad)          =  N/A
# T_peri           =  N/A
######################################################
   0  110.7652
   1  365.9841
   2  441.4178
   3  477.4565
   4  526.4897
   5  497.3119
   6  178.7632
   7  55.94372
   8  466.4976
   9  98.89886
  10  135.4543
  11  321.0984
  12  338.189
  13  243.4181
  14  213.4164
  15  597.5076
  16  809.7848
  17  697.7968
  18  462.7044
  19  118.5724
  20  233.3002
  21  98.32834
  22  411.0534
  23  723.2247
  24  604.9979
  25  665.4184
  26  492.0611
  27  430.7355
  28  667.7308
  29  616.5905
  30  731.2852
  31  605.7318
  32  388.9117
  33  451.7262
  34  489.2123
  35  435.937
  36  302.6176
  37  344.2813
  38  222.4619
  39  361.0244
  40  482.0261
  41  547.9474
  42  623.9227
  43  509.188
  44  453.574
  45  109.7987
  46  123.9609
  47  169.1238
  48  117.6758
  49  143.3593
  50  603.5139
  51  511.604
  52  354.0183
  53  327.3783
  54  504.8563
  55  734.7437
  56  681.4612
  57  434.2507
  58  346.769
  59  483.9744
  60  1055.598
  61  937.7292
  62  699.6567
  63  325.2473
  64  198.1837
  65  541.4764
  66  437.2462
  67  364.1785
  68  845.5872
  69  167.1795
  70  -252.5969
  71  72.57292
  72  66.84202
  73  213.3934
  74  191.0162
  75  253.0621
  76  94.39145
  77  -66.71799
  78  354.7494
  79  369.1174
  80  591.962
  81  305.9096
  82  -72.74884
  83  135.2134
  84  712.1342
  85  579.9297
  86  247.8343
  87  418.7957
  88  322.5857
  89  186.3676
  90  81.41553
  91  -32.35153
  92  323.211
  93  89.90518
  94  50.12615
  95  142.5067
  96  353.2856
  97  363.6578
  98  511.8979
  99  590.5607
 100  637.9478
 101  308.0107
 102  194.0235
 103  11.99364
 104  -47.37405
 105  -22.3996
 106  -174.813
 107  0.2864036
 108  218.2565
 109  96.49448
 110  -38.18088
 111  185.087
 112  381.9772
 113  439.2646
 114  7.525376
 115  -31.2365
 116  193.6028
 117  130.7674
 118  442.8101
 119  202.2349
 120  56.52936
 121  270.7225
 122  426.8387
 123  -6.714882
 124  61.88967
 125  1.351524
 126  344.7912
 127  466.7649
 128  267.8816
 129  523.277
 130  280.1965
 131  320.8996
 132  646.6647
 133  481.1993
 134  263.3177
 135  460.639
 136  715.4711
 137  465.4691
 138  171.4196
 139  163.3766
 140  123.9787
 141  318.2411
 142  421.2081
 143  231.4619
 144  320.3397
 145  146.7152
 146  295.0536
 147  249.835
 148  326.353
 149  510.0715
 150  519.0876
 151  218.8083
 152  -109.812
 153  -31.78449
 154  107.7757
 155  488.9067
 156  226.3572
 157  215.9549
 158  232.8535
 159  296.5803
 160  564.1186
 161  283.0329
 162  182.633
 163  317.2875
 164  504.8445
 165  216.8952
 166  117.9683
 167  277.3811
 168  292.0298
 169  324.1841
 170  160.6861
 171  -55.25764
 172  249.2389
 173  -128.7055
 174  455.1542
 175  754.6481
 176  452.0127
 177  -25.97627
 178  120.1718
 179  260.7598
 180  210.7715
 181  323.8247
 182  448.4492
 183  382.8073
 184  199.765
 185  222.1551
 186  352.8615
 187  460.6689
 188  456.9727
 189  714.1372
 190  548.0272
 191  600.7927
 192  798.828
 193  352.5476
 194  681.7211
 195  355.2329
 196  576.9014
 197  147.7005
 198  95.26209
 199  462.8134
 200  611.2268
 201  825.4946
 202  465.4893
 203  494.4979
 204  352.6802
 205  32.94263
 206  145.6554
 207  608.9398
 208  558.7794
 209  361.4438
 210  29.09001
 211  230.5408
 212  -180.9397
 213  103.4491
 214  279.9483
 215  332.9279
 216  329.493
 217  175.2791
 218  388.97
 219  533.4366
 220  356.7196
 221  105.5653
 222  278.5851
 223  308.0041
 224  346.8371
 225  642.4183
 226  497.2193
 227  707.2209
 228  399.6911
 229  290.3797
 230  390.7649
 231  229.5999
 232  351.2244
 233  459.425
 234  217.1277
 235  227.4148
 236  118.5439
 237  24.99514
 238  53.27802
 239  140.7311
 240  437.0166
 241  612.8027
 242  526.1682
 243  441.7123
 244  160.6417
 245  81.17117
 246  128.605
 247  131.395
 248  403.7308
 249  423.56
 250  223.8739
 251  344.9777
 252  276.5615
 253  298.46
 254  271.195
 255  354.599
 256  294.5199
 257  325.0724
 258  315.5117
 259  407.7186
 260  376.3231
 261  180.823
 262  -106.2677
 263  -81.41947
 264  207.9948
 265  484.331
 266  601.0327
 267  518.9541
 268  707.4893
 269  550.5322
 270  553.9171
 271  787.5117
 272  505.3716
 273  236.9218
 274  151.7498
 275  584.0705
 276  578.8354
 277  600.2947
 278  448.343
 279  352.8942
 280  18.90536
 281  485.8961
 282  477.6932
 283  486.0499
 284  394.3383
 285  206.3354
 286  136.8304
 287  85.20563
 288  322.0168
 289  119.8771
 290  122.0815
 291  342.165
 292  60.61791
 293  -69.97209
 294  561.2404
 295  834.7109
 296  712.4353
 297  368.2246
 298  392.8494
 299  408.0575
 300  554.1682
 301  808.4867
 302  309.7094
 303  6.998009
 304  -14.81929
 305  232.4555
 306  369.1252
 307  372.0021
 308  275.2184
 309  235.5292
 310  609.4394
 311  663.2816
 312  916.134
 313  521.9916
 314  221.7264
 315  171.6296
 316  81.32887
 317  187.8942
 318  329.1813
 319  240.6799
 320  112.7644
 321  345.1076
 322  312.0893
 323  488.4899
 324  362.4764
 325  332.1607
 326  473.3188
 327  494.229
 328  552.6608
 329  744.5408
 330  426.8902
 331  657.6362
 332  249.7333
 333  271.7557
 334  215.8323
 335  216.2466
 336  372.6827
 337  330.1372
 338  628.8563
 339  513.6734
 340  518.4944
 341  867.6441
 342  997.9916
 343  844.6576
 344  1112.836
 345  1098.716
 346  1646.786
 347  2240.727
 348  2366.907
 349  2340.132
 350  1958.106
 351  1342.99
 352  923.5109
 353  722.0635
 354  345.385
 355  282.2892
 356  108.8605
 357  488.6816
 358  324.597
 359  511.0193
 360  463.5319
 361  507.2391
 362  766.8704
 363  890.499
 364  545.9017
 365  887.6236
 366  759.2462
 367  548.5359
 368  650.9033
 369  431.1374
 370  684.6198
 371  687.4815
 372  467.463
 373  288.5699
 374  362.9015
 375  660.9657
 376  670.403
 377  437.4539
 378  468.5349
 379  438.7147
 380  437.082
 381  385.2824
 382  764.3468
 383  599.996
 384  330.7049
 385  455.2119
 386  566.1441
 387  510.8911
 388  428.8324
 389  389.2014
 390  171.105
 391  225.6595
 392  319.4762
 393  228.3643
 394  341.0094
 395  290.1397
 396  210.4981
 397  346.792
 398  786.8738
 399  1112.612
 400  699.5865
 401  574.4619
 402  291.1626
 403  244.4801
 404  420.1169
 405  321.067
 406  492.8988
 407  635.0226
 408  374.0671
 409  436.1254
 410  456.5422
 411  600.5961
 412  753.6044
 413  493.4262
 414  530.9365
 415  338.0381
 416  341.5449
 417  286.6128
 418  208.4611
 419  246.957
 420  147.5821
 421  321.3682
 422  254.965
 423  168.6821
 424  272.1738
 425  302.9657
 426  269.4802
 427  175.8524
 428  196.2119
 429  375.4596
 430  395.4653
 431  204.7348
 432  83.52593
 433  293.5105
 434  472.3119
 435  619.3993
 436  534.0732
 437  395.8265
 438  130.906
 439  34.94221
 440  440.5918
 441  407.3806
 442  -39.41547
 443  -59.37327
 444  71.62848
 445  227.4105
 446  470.7728
 447  -12.58175
 448  424.9885
 449  438.9476
 450  349.6669
 451  446.4191
 452  647.4787
 453  379.2729
 454  273.538
 455  379.3616
 456  201.4681
 457  295.2405
 458  229.8973
 459  119.6648
 460  214.0114
 461  628.8626
 462  420.6955
 463  249.4803
 464  -178.4698
 465  197.9516
 466  382.4567
 467  -58.08889
 468  262.8856
 469  155.6046
 470  -14.62974
 471  413.1007
 472  545.8267
 473  151.916
 474  -6.359756
 475  153.5709
 476  -63.9948
 477  -63.07072
 478  157.9866
 479  59.99921
 480  234.9477
 481  410.8857
 482  719.0256
 483  665.5972
 484  522.8288
 485  605.798
 486  239.5045
 487  361.323
 488  557.3351
 489  235.6441
 490  11.94043
 491  450.3414
 492  701.4825
 493  537.3314
 494  149.4321
 495  551.2551
 496  328.6153
 497  303.7529
 498  340.781
 499  -89.49162
 500  81.50181
 501  210.2505
 502  389.3919
 503  286.02
 504  -25.572
 505  266.371
 506  385.2106
 507  519.082
 508  536.2075
 509  233.887
 510  283.6837
 511  234.365
