# Input file       =  1185506739.105851_cleaned.dat
# Candidate        =  PSR_0332+5434
# Telescope        =  AR
# Epoch_topo       =  57965.143033632536
# Epoch_bary       =  N/A
# T_sample         =  0.002
# Data Folded      =  7340032
# Data Avg         =  0.0295041633629022
# Data StdDev      =  1.00002654194519 
# Profile Bins     =  512
# Profile Avg      =  421.908736811142 
# Profile StdDev   =  119.736214324455 
# Reduced chi-sqr  =  1.765
# Prob(Noise)      <  4.71e-24   (~10.0 sigma)
# P_topo (ms)      =  714.469868515142  +/- 0.000383
# P'_topo (s/s)    =  -0                +/- 2.02e-10
# P''_topo (s/s^2) =  0                 +/- 8.91e-14
# P_bary (ms)      =  N/A
# P'_bary (s/s)    =  N/A
# P''_bary (s/s^2) =  N/A
# P_orb (s)        =  N/A
# asin(i)/c (s)    =  N/A
# eccentricity     =  N/A
# w (rad)          =  N/A
# T_peri           =  N/A
######################################################
   0  413.9699
   1  371.209
   2  482.4217
   3  556.1456
   4  752.9528
   5  962.6975
   6  1095.738
   7  1111.897
   8  1038.577
   9  1016.483
  10  805.0411
  11  600.1366
  12  512.1657
  13  442.175
  14  371.2156
  15  449.7731
  16  517.1403
  17  485.2121
  18  403.5598
  19  559.4837
  20  470.0762
  21  449.4635
  22  523.6793
  23  489.6235
  24  446.6079
  25  532.8939
  26  490.3527
  27  437.6656
  28  469.2639
  29  391.6141
  30  387.3209
  31  338.3431
  32  404.142
  33  477.8251
  34  417.4482
  35  484.4309
  36  463.2858
  37  494.8381
  38  543.0597
  39  533.1425
  40  435.5771
  41  466.6438
  42  525.0522
  43  402.2035
  44  430.5414
  45  367.8625
  46  369.3218
  47  428.0178
  48  499.2981
  49  405.9279
  50  337.5851
  51  459.9714
  52  518.7543
  53  504.425
  54  427.4457
  55  454.2685
  56  473.8382
  57  436.3469
  58  544.8566
  59  470.0726
  60  367.2286
  61  338.8983
  62  346.1093
  63  410.5755
  64  443.444
  65  510.9317
  66  472.3867
  67  484.5859
  68  449.8597
  69  442.6487
  70  349.194
  71  467.6872
  72  486.9913
  73  459.3182
  74  482.5872
  75  536.1201
  76  566.3292
  77  651.8643
  78  571.6247
  79  460.2952
  80  380.9614
  81  373.1572
  82  412.8325
  83  468.6337
  84  478.0488
  85  525.8615
  86  659.5652
  87  529.6864
  88  488.047
  89  389.4408
  90  471.986
  91  590.9855
  92  537.9926
  93  393.9196
  94  229.7295
  95  211.3079
  96  298.0485
  97  327.2237
  98  425.889
  99  401.8135
 100  429.5345
 101  297.608
 102  286.8958
 103  365.9124
 104  299.2918
 105  267.2971
 106  316.3236
 107  452.1155
 108  368.0165
 109  286.3428
 110  347.9691
 111  395.9949
 112  383.9709
 113  399.1945
 114  386.3724
 115  336.8725
 116  317.1046
 117  265.7342
 118  324.4315
 119  321.4244
 120  407.2433
 121  389.8078
 122  376.6696
 123  451.1129
 124  366.1216
 125  242.462
 126  242.0735
 127  307.8689
 128  362.4757
 129  251.0217
 130  288.266
 131  363.4829
 132  302.0813
 133  293.601
 134  238.1029
 135  287.7625
 136  350.5721
 137  435.6256
 138  328.3026
 139  278.049
 140  371.1301
 141  340.3641
 142  303.4169
 143  321.0687
 144  333.9135
 145  376.6343
 146  412.0116
 147  305.352
 148  240.5862
 149  284.7372
 150  331.0536
 151  362.2381
 152  286.6582
 153  427.3471
 154  501.1099
 155  408.5855
 156  341.7758
 157  486.784
 158  412.7791
 159  342.6186
 160  273.0226
 161  306.9466
 162  308.3232
 163  381.441
 164  411.24
 165  443.4859
 166  441.7228
 167  345.7694
 168  401.7595
 169  415.7018
 170  379.4754
 171  308.521
 172  425.923
 173  498.282
 174  445.6712
 175  382.0048
 176  344.0539
 177  402.0227
 178  322.7546
 179  333.2282
 180  321.0795
 181  356.883
 182  429.1744
 183  410.2968
 184  416.0962
 185  378.0596
 186  451.4674
 187  498.3466
 188  435.4673
 189  445.7484
 190  410.528
 191  288.5822
 192  365.2274
 193  463.5227
 194  534.6398
 195  547.3376
 196  442.5887
 197  352.4664
 198  379.3322
 199  334.611
 200  414.9211
 201  288.1805
 202  391.627
 203  480.2036
 204  485.3794
 205  553.6103
 206  515.8636
 207  443.0978
 208  473.4816
 209  441.9479
 210  392.8669
 211  405.5692
 212  420.542
 213  443.8513
 214  385.6101
 215  437.8329
 216  522.9369
 217  511.0889
 218  463.0755
 219  445.4929
 220  461.5206
 221  399.3449
 222  540.4954
 223  515.55
 224  468.5978
 225  407.9262
 226  444.5656
 227  462.5875
 228  533.9117
 229  463.9038
 230  356.3092
 231  366.6951
 232  398.7597
 233  389.1132
 234  463.6751
 235  607.5372
 236  552.8011
 237  557.4014
 238  482.4997
 239  430.853
 240  407.7401
 241  453.7663
 242  533.398
 243  512.0824
 244  490.4776
 245  435.951
 246  491.0068
 247  506.4796
 248  512.3033
 249  696.4384
 250  596.8801
 251  487.58
 252  594.4153
 253  575.2089
 254  556.7993
 255  594.5613
 256  633.5928
 257  513.3142
 258  639.4434
 259  610.0966
 260  546.7818
 261  441.483
 262  455.3934
 263  509.8505
 264  400.7083
 265  409.398
 266  484.3959
 267  604.8073
 268  601.9907
 269  496.5248
 270  477.8576
 271  458.6921
 272  524.2693
 273  651.7702
 274  587.2455
 275  545.1024
 276  479.8772
 277  560.0388
 278  482.6107
 279  552.6866
 280  584.1351
 281  556.6296
 282  535.3486
 283  537.5616
 284  539.0154
 285  504.9536
 286  545.6692
 287  614.9827
 288  562.6757
 289  591.8031
 290  508.053
 291  590.389
 292  568.0121
 293  523.9382
 294  515.5024
 295  536.1557
 296  523.9175
 297  389.2285
 298  497.8748
 299  607.0826
 300  517.0297
 301  445.0596
 302  458.627
 303  507.0906
 304  562.8531
 305  539.6432
 306  421.8989
 307  462.2315
 308  481.1305
 309  437.3003
 310  470.9158
 311  547.9204
 312  508.4474
 313  461.2353
 314  506.4975
 315  537.6868
 316  534.7249
 317  521.0017
 318  458.3786
 319  461.6542
 320  522.4735
 321  495.623
 322  400.5029
 323  370.4776
 324  482.4984
 325  487.1844
 326  473.5559
 327  551.6575
 328  473.0681
 329  431.0454
 330  332.7252
 331  399.5742
 332  475.2012
 333  518.2264
 334  524.9225
 335  518.8896
 336  507.8578
 337  458.4162
 338  441.5548
 339  488.6662
 340  491.8174
 341  482.2928
 342  307.488
 343  384.0561
 344  545.6625
 345  486.8127
 346  460.1871
 347  450.6497
 348  469.8756
 349  464.286
 350  393.5393
 351  474.9332
 352  372.2653
 353  420.3577
 354  475.8948
 355  435.5699
 356  378.3361
 357  361.0027
 358  375.39
 359  315.3761
 360  278.6747
 361  265.8647
 362  409.7043
 363  380.7202
 364  382.0647
 365  371.9198
 366  350.6862
 367  323.2977
 368  344.9414
 369  293.3141
 370  309.566
 371  249.5339
 372  334.9253
 373  369.0205
 374  358.3237
 375  339.0062
 376  412.4187
 377  404.363
 378  304.931
 379  242.5827
 380  156.1064
 381  169.7392
 382  250.6835
 383  329.8956
 384  389.3917
 385  373.0994
 386  294.3704
 387  380.2487
 388  371.4644
 389  465.9722
 390  409.8551
 391  357.1424
 392  367.9231
 393  250.4153
 394  256.855
 395  180.0474
 396  340.9751
 397  333.995
 398  272.7165
 399  334.0533
 400  363.0418
 401  378.9267
 402  378.1082
 403  401.4552
 404  348.3385
 405  284.1062
 406  252.1721
 407  306.9384
 408  341.7098
 409  408.5674
 410  357.6429
 411  370.3985
 412  408.8645
 413  349.8298
 414  336.5982
 415  243.5194
 416  258.289
 417  266.4607
 418  355.6623
 419  311.6842
 420  207.0595
 421  186.8736
 422  337.7729
 423  406.058
 424  411.8824
 425  330.3048
 426  310.4424
 427  248.0154
 428  347.5147
 429  402.8254
 430  390.84
 431  458.4195
 432  326.311
 433  261.5293
 434  394.9436
 435  341.5585
 436  321.3351
 437  390.5033
 438  495.6663
 439  379.8057
 440  232.5845
 441  233.3311
 442  288.9162
 443  282.5084
 444  316.7885
 445  286.0478
 446  287.0448
 447  287.1649
 448  197.6991
 449  194.5182
 450  249.6101
 451  325.5073
 452  310.3629
 453  294.2844
 454  285.6
 455  438.9753
 456  403.5928
 457  440.8099
 458  418.4083
 459  559.3517
 460  447.5193
 461  390.519
 462  441.6123
 463  348.3039
 464  356.8898
 465  339.9048
 466  297.3961
 467  218.7693
 468  248.5057
 469  244.9105
 470  336.1302
 471  387.4252
 472  420.1447
 473  438.0896
 474  364.2943
 475  408.9974
 476  358.6943
 477  303.7034
 478  389.6
 479  390.7719
 480  471.6511
 481  406.477
 482  346.3995
 483  277.7104
 484  285.496
 485  326.2171
 486  324.7234
 487  334.5988
 488  377.9496
 489  288.1863
 490  308.1093
 491  425.2332
 492  498.4341
 493  419.048
 494  327.2837
 495  380.8276
 496  356.7402
 497  339.7081
 498  434.3477
 499  409.067
 500  401.8667
 501  480.2318
 502  489.3759
 503  445.8744
 504  375.641
 505  404.5547
 506  421.817
 507  376.9298
 508  441.3119
 509  425.7264
 510  464.7897
 511  415.4873
