# Input file       =  1185765225.132344-PSRB0329-2ms-sampling-dd.dat
# Candidate        =  PSR_0332+5434
# Telescope        =  AR
# Epoch_topo       =  57968.134770050281
# Epoch_bary       =  N/A
# T_sample         =  0.002
# Data Folded      =  7340032
# Data Avg         =  -2.68159849353134e-10
# Data StdDev      =  3.0729216825495  
# Profile Bins     =  512
# Profile Avg      =  0.691724000422916
# Profile StdDev   =  367.930243599652 
# Reduced chi-sqr  =  1.553
# Prob(Noise)      <  1.3e-14   (~7.6 sigma)
# P_topo (ms)      =  714.46860448507   +/- 0.000363
# P'_topo (s/s)    =  -0                +/- 1.92e-10
# P''_topo (s/s^2) =  0                 +/- 8.46e-14
# P_bary (ms)      =  N/A
# P'_bary (s/s)    =  N/A
# P''_bary (s/s^2) =  N/A
# P_orb (s)        =  N/A
# asin(i)/c (s)    =  N/A
# eccentricity     =  N/A
# w (rad)          =  N/A
# T_peri           =  N/A
######################################################
   0  -361.1883
   1  -191.2502
   2  -211.1803
   3  -134.6383
   4  -84.26328
   5  -36.27521
   6  -253.0197
   7  -316.7804
   8  175.4119
   9  -154.2378
  10  -189.364
  11  -25.67944
  12  -154.5064
  13  -189.6986
  14  -206.5742
  15  351.6079
  16  577.2341
  17  458.1183
  18  193.9278
  19  -235.2103
  20  -138.4653
  21  -232.2568
  22  85.87422
  23  450.6356
  24  437.0858
  25  350.0745
  26  137.5083
  27  87.11373
  28  439.6545
  29  447.5449
  30  455.4091
  31  269.6937
  32  -112.8451
  33  -22.78302
  34  -58.15816
  35  -46.38536
  36  -217.8244
  37  -174.9202
  38  -198.9088
  39  -17.43106
  40  57.67741
  41  51.26796
  42  194.8265
  43  44.75074
  44  129.1346
  45  -230.6498
  46  -106.7158
  47  -57.79984
  48  -71.15756
  49  -59.97829
  50  399.6882
  51  338.5702
  52  80.75845
  53  62.53986
  54  169.7974
  55  371.5972
  56  331.5816
  57  72.60176
  58  47.44448
  59  97.12186
  60  663.8806
  61  643.7585
  62  442.3134
  63  -1.37525
  64  -144.2159
  65  213.851
  66  12.18605
  67  -89.32169
  68  352.6186
  69  -206.6155
  70  -463.9508
  71  -192.1163
  72  -308.9571
  73  -192.9609
  74  -229.3431
  75  -265.9865
  76  -335.5427
  77  -380.755
  78  43.67269
  79  32.04682
  80  195.9251
  81  -104.8112
  82  -440.7873
  83  -296.7458
  84  322.6992
  85  132.0909
  86  -212.3399
  87  -39.50856
  88  -163.0302
  89  -267.3437
  90  -311.8318
  91  -340.1822
  92  -20.66428
  93  -250.826
  94  -347.2122
  95  -304.8669
  96  -137.9144
  97  -44.34039
  98  210.1147
  99  276.3631
 100  301.3101
 101  -93.18433
 102  -214.3757
 103  -442.8094
 104  -482.8605
 105  -451.6752
 106  -593.4313
 107  -355.0443
 108  -188.3454
 109  -242.2435
 110  -406.4276
 111  -187.636
 112  -48.37238
 113  -84.35738
 114  -544.4592
 115  -668.1885
 116  -446.231
 117  -459.8965
 118  -8.47094
 119  -179.6619
 120  -218.2687
 121  -122.2083
 122  43.46357
 123  -353.9201
 124  -345.5124
 125  -369.1605
 126  -77.36301
 127  96.7227
 128  -109.9912
 129  220.4302
 130  -79.92498
 131  -126.2214
 132  125.8848
 133  -48.85175
 134  -181.6325
 135  -6.022173
 136  339.7843
 137  37.46527
 138  -384.0771
 139  -396.982
 140  -360.7513
 141  -121.2672
 142  -21.28653
 143  -189.4881
 144  -3.383695
 145  -211.6384
 146  -157.2226
 147  -244.4837
 148  -161.9064
 149  70.59121
 150  36.52962
 151  -135.8597
 152  -467.2121
 153  -410.918
 154  -176.8623
 155  249.0217
 156  33.47915
 157  -44.94654
 158  -32.62774
 159  -30.58581
 160  174.3273
 161  50.51403
 162  -58.14161
 163  33.25777
 164  215.4849
 165  -125.2442
 166  -303.4483
 167  -111.046
 168  -81.2719
 169  -67.56411
 170  -224.2113
 171  -470.8299
 172  -121.1092
 173  -499.7676
 174  67.17998
 175  316.9581
 176  93.27822
 177  -280.6421
 178  -253.4419
 179  -175.3436
 180  -280.3004
 181  -84.33498
 182  79.40137
 183  -16.90944
 184  -147.8248
 185  -58.10521
 186  79.68143
 187  149.4888
 188  203.994
 189  350.7154
 190  251.2981
 191  396.8376
 192  628.4699
 193  166.8389
 194  339.0858
 195  -153.5884
 196  18.1452
 197  -359.3589
 198  -454.1091
 199  -28.11884
 200  118.0246
 201  266.5645
 202  -48.39543
 203  119.6844
 204  -149.8515
 205  -441.2943
 206  -328.8905
 207  104.2454
 208  78.79697
 209  -172.8518
 210  -504.7817
 211  -274.4048
 212  -774.2952
 213  -498.1745
 214  -266.4353
 215  -61.75986
 216  -93.77331
 217  -252.8214
 218  -109.0838
 219  3.635854
 220  -142.6588
 221  -376.0006
 222  -139.6802
 223  -133.7693
 224  -123.0156
 225  182.8805
 226  135.9469
 227  398.6687
 228  55.76968
 229  -133.5849
 230  -117.5008
 231  -218.6272
 232  -37.09327
 233  151.1134
 234  -70.77914
 235  -70.45587
 236  -290.925
 237  -464.3117
 238  -433.9728
 239  -227.7635
 240  130.7491
 241  385.579
 242  171.3661
 243  -10.84863
 244  -201.0695
 245  -345.691
 246  -310.7403
 247  -340.45
 248  56.2101
 249  132.0989
 250  -142.6985
 251  22.55327
 252  -125.8421
 253  -97.11768
 254  -111.3215
 255  22.89904
 256  92.64374
 257  98.14812
 258  -18.4241
 259  48.43353
 260  127.0046
 261  -159.2923
 262  -470.3444
 263  -477.1448
 264  -220.0226
 265  41.84458
 266  182.5361
 267  110.3712
 268  215.0574
 269  36.17751
 270  76.9994
 271  245.3403
 272  65.91009
 273  -125.6394
 274  -132.9533
 275  271.1622
 276  188.7666
 277  180.4473
 278  -111.6874
 279  -81.54982
 280  -337.6728
 281  89.8718
 282  128.8414
 283  151.788
 284  21.58427
 285  -29.30545
 286  -135.9764
 287  -235.8216
 288  -37.69041
 289  -269.9723
 290  -222.3029
 291  79.23042
 292  -261.3962
 293  -504.1978
 294  135.1206
 295  445.4151
 296  430.3403
 297  178.9451
 298  303.638
 299  158.084
 300  171.1679
 301  400.6397
 302  -49.2409
 303  -202.1535
 304  -279.7899
 305  -18.46672
 306  107.5382
 307  137.292
 308  43.02538
 309  14.62928
 310  249.0634
 311  291.4655
 312  558.9888
 313  225.6658
 314  55.82755
 315  -103.4715
 316  -234.4954
 317  -96.00487
 318  11.67787
 319  -94.62006
 320  -255.9826
 321  -7.216928
 322  -50.09995
 323  277.0188
 324  177.6443
 325  157.2942
 326  323.4995
 327  260.8388
 328  147.3302
 329  389.0915
 330  121.744
 331  339.7881
 332  -54.02508
 333  -33.14637
 334  -47.35981
 335  -87.02522
 336  10.16455
 337  -10.124
 338  350.6617
 339  298.757
 340  329.6238
 341  621.2295
 342  755.7689
 343  578.3954
 344  841.9096
 345  927.5849
 346  1386.86
 347  2017.321
 348  2108.808
 349  2055.036
 350  1694.769
 351  1060.11
 352  690.2305
 353  562.4958
 354  225.7719
 355  154.8562
 356  24.23462
 357  434.9952
 358  319.2231
 359  462.4061
 360  421.2277
 361  285.2419
 362  522.0219
 363  777.1758
 364  412.8737
 365  584.041
 366  418.5011
 367  220.0536
 368  361.2291
 369  117.9
 370  437.1026
 371  434.3228
 372  267.163
 373  12.41072
 374  76.32987
 375  335.2347
 376  331.618
 377  123.9107
 378  148.0941
 379  54.5614
 380  50.73183
 381  -8.610089
 382  389.2599
 383  335.1696
 384  67.70984
 385  258.6276
 386  361.9692
 387  313.0741
 388  207.9308
 389  104.6863
 390  12.80491
 391  137.4686
 392  315.7325
 393  163.5521
 394  220.9356
 395  78.12144
 396  41.73352
 397  160.5367
 398  608.287
 399  994.9347
 400  446.1552
 401  320.098
 402  133.4327
 403  172.03
 404  279.7739
 405  164.012
 406  194.0808
 407  266.0357
 408  -71.85311
 409  -48.02856
 410  -3.651115
 411  103.1489
 412  275.4624
 413  46.16994
 414  112.3669
 415  -108.2611
 416  34.80446
 417  14.138
 418  -236.7478
 419  -230.0005
 420  -363.3294
 421  -111.0308
 422  -130.9817
 423  -164.6151
 424  -148.7688
 425  -266.9796
 426  -313.695
 427  -380.835
 428  -365.3941
 429  -64.94574
 430  41.31683
 431  -177.5226
 432  -331.0816
 433  -207.8893
 434  44.89713
 435  143.7092
 436  121.4264
 437  80.14623
 438  -155.1439
 439  -444.0519
 440  -117.437
 441  -127.0688
 442  -489.1682
 443  -470.8669
 444  -362.4648
 445  -221.1928
 446  28.1435
 447  -543.9244
 448  -184.2386
 449  -162.4869
 450  -242.2112
 451  -105.1366
 452  72.77818
 453  -223.4577
 454  -288.595
 455  -135.0361
 456  -287.592
 457  -173.6589
 458  -211.3083
 459  -359.8497
 460  -369.7325
 461  11.59965
 462  -85.37546
 463  -277.2009
 464  -707.4938
 465  -337.1689
 466  -110.9906
 467  -521.8348
 468  -194.5957
 469  -328.8219
 470  -482.0456
 471  -80.51477
 472  79.96244
 473  -268.6126
 474  -429.2165
 475  -291.1613
 476  -497.5086
 477  -525.2021
 478  -242.8197
 479  -347.4042
 480  -152.149
 481  -155.8443
 482  208.709
 483  247.2638
 484  166.3004
 485  275.7723
 486  -269.531
 487  -221.5605
 488  -22.1749
 489  -301.3132
 490  -464.8992
 491  93.09095
 492  233.5878
 493  -19.80645
 494  -388.1028
 495  -0.5022015
 496  -170.2204
 497  -139.3156
 498  -91.22386
 499  -506.3692
 500  -371.4872
 501  -209.3918
 502  36.40236
 503  -71.3558
 504  -386.9045
 505  -63.08963
 506  -88.93707
 507  52.23401
 508  82.77598
 509  -208.4517
 510  -157.3671
 511  -161.4817
