# Input file       =  1185836768.110852_cleaned.dat
# Candidate        =  PSR_0332+5434
# Telescope        =  AR
# Epoch_topo       =  57968.962813783008
# Epoch_bary       =  N/A
# T_sample         =  0.002
# Data Folded      =  7208960
# Data Avg         =  0.0131445138954937
# Data StdDev      =  0.999984520745855
# Profile Bins     =  512
# Profile Avg      =  185.093389610841 
# Profile StdDev   =  118.657339037992 
# Reduced chi-sqr  =  1.434
# Prob(Noise)      <  3.82e-10   (~6.2 sigma)
# P_topo (ms)      =  714.468264566436  +/- 0.00013
# P'_topo (s/s)    =  -0                +/- 6.98e-11
# P''_topo (s/s^2) =  0                 +/- 3.14e-14
# P_bary (ms)      =  N/A
# P'_bary (s/s)    =  N/A
# P''_bary (s/s^2) =  N/A
# P_orb (s)        =  N/A
# asin(i)/c (s)    =  N/A
# eccentricity     =  N/A
# w (rad)          =  N/A
# T_peri           =  N/A
######################################################
   0  844.3845
   1  651.3339
   2  458.3676
   3  269.1691
   4  141.6817
   5  260.6504
   6  344.1002
   7  373.9915
   8  315.8102
   9  192.0515
  10  308.2682
  11  245.3967
  12  202.8943
  13  137.8047
  14  126.5161
  15  445.8232
  16  322.6999
  17  116.7724
  18  147.0778
  19  358.7905
  20  223.4448
  21  108.502
  22  98.7718
  23  237.9894
  24  242.6663
  25  118.7669
  26  215.2862
  27  210.1449
  28  240.8634
  29  256.0237
  30  144.8253
  31  111.9614
  32  175.4193
  33  197.7347
  34  232.4733
  35  114.1259
  36  130.6823
  37  144.6134
  38  155.5308
  39  173.2769
  40  135.8303
  41  311.9166
  42  251.9058
  43  73.89381
  44  125.1768
  45  235.1741
  46  217.0137
  47  149.3029
  48  65.29527
  49  129.215
  50  170.6848
  51  293.7465
  52  184.6174
  53  89.50088
  54  175.3177
  55  214.1003
  56  94.36131
  57  153.4215
  58  172.885
  59  144.3633
  60  139.3683
  61  78.0389
  62  228.037
  63  305.519
  64  222.3265
  65  133.3567
  66  217.0433
  67  250.8072
  68  120.2128
  69  169.1873
  70  267.3586
  71  306.0176
  72  153.9959
  73  128.3568
  74  103.9417
  75  135.5447
  76  57.27113
  77  40.93042
  78  180.1361
  79  195.3073
  80  128.3283
  81  157.3962
  82  252.5333
  83  145.1823
  84  199.2856
  85  217.696
  86  246.4048
  87  236.8651
  88  255.4404
  89  232.0934
  90  170.8484
  91  165.5159
  92  174.7076
  93  169.9457
  94  174.9227
  95  -20.32029
  96  -40.59788
  97  -44.74575
  98  -3.72865
  99  202.3455
 100  155.6391
 101  169.1501
 102  232.1662
 103  221.4481
 104  200.7677
 105  211.4265
 106  204.6915
 107  137.5389
 108  39.96186
 109  34.11526
 110  165.6402
 111  232.4615
 112  216.0438
 113  291.7734
 114  160.5882
 115  16.52181
 116  57.6354
 117  42.4723
 118  162.1587
 119  95.60619
 120  73.1378
 121  122.2669
 122  88.34953
 123  95.36409
 124  118.744
 125  -87.15403
 126  57.91959
 127  68.47825
 128  80.37848
 129  81.2638
 130  122.5879
 131  134.4541
 132  114.733
 133  82.53632
 134  118.9594
 135  167.6775
 136  109.1448
 137  253.4352
 138  197.8236
 139  220.7086
 140  220.2905
 141  254.5081
 142  174.5323
 143  139.5882
 144  188.9664
 145  305.7585
 146  287.3364
 147  77.20626
 148  165.267
 149  245.6324
 150  276.9917
 151  233.5017
 152  141.3112
 153  98.85686
 154  197.1497
 155  303.0818
 156  111.219
 157  22.94344
 158  89.11404
 159  238.892
 160  192.2179
 161  182.743
 162  229.4081
 163  243.3564
 164  176.82
 165  142.5602
 166  343.2793
 167  245.9952
 168  168.3047
 169  119.0867
 170  230.5497
 171  293.1139
 172  109.8192
 173  75.70586
 174  227.2879
 175  325.5027
 176  309.7579
 177  259.6589
 178  157.849
 179  116.189
 180  37.44403
 181  102.6348
 182  177.4172
 183  85.25653
 184  127.6352
 185  86.34174
 186  227.6622
 187  157.6866
 188  160.8778
 189  169.0465
 190  256.3761
 191  219.3168
 192  144.2934
 193  -53.98039
 194  36.84906
 195  125.1126
 196  121.7673
 197  59.87822
 198  131.3692
 199  112.5627
 200  173.7561
 201  208.1921
 202  207.7811
 203  84.15562
 204  138.0087
 205  82.15852
 206  163.6471
 207  187.2904
 208  178.5464
 209  205.8541
 210  243.1156
 211  222.0462
 212  265.302
 213  314.8749
 214  271.0865
 215  157.3761
 216  157.2303
 217  98.72192
 218  132.0979
 219  183.7862
 220  221.7625
 221  153.1714
 222  83.96326
 223  189.2377
 224  163.5899
 225  137.4286
 226  227.6124
 227  197.7243
 228  -19.32248
 229  141.4873
 230  200.4579
 231  110.8551
 232  38.57739
 233  -33.19216
 234  -0.5574238
 235  143.7642
 236  190.4119
 237  75.77042
 238  143.1433
 239  284.7288
 240  195.4876
 241  129.9812
 242  91.09043
 243  118.4305
 244  113.5158
 245  157.5255
 246  239.4584
 247  307.1049
 248  242.839
 249  183.5435
 250  225.1734
 251  304.9622
 252  284.3537
 253  281.8924
 254  68.07117
 255  -32.23679
 256  34.07261
 257  54.19201
 258  28.83465
 259  53.87975
 260  93.75988
 261  84.81271
 262  213.0347
 263  106.6933
 264  135.9652
 265  61.99605
 266  26.12522
 267  112.0466
 268  100.2065
 269  179.85
 270  310.9214
 271  105.2971
 272  151.0168
 273  171.2315
 274  171.5278
 275  181.3242
 276  202.3479
 277  375.1917
 278  194.908
 279  36.69797
 280  44.30589
 281  109.9228
 282  225.5792
 283  248.3097
 284  214.8556
 285  137.9548
 286  146.4599
 287  109.4475
 288  207.3832
 289  180.2102
 290  -7.723077
 291  204.833
 292  230.5111
 293  210.4314
 294  157.3893
 295  133.974
 296  194.2968
 297  216.1118
 298  306.0612
 299  193.7542
 300  262.7926
 301  195.2277
 302  113.5762
 303  153.945
 304  267.7406
 305  246.0442
 306  93.34898
 307  6.180109
 308  189.0848
 309  228.617
 310  246.3011
 311  182.3689
 312  270.427
 313  267.9761
 314  218.0736
 315  145.8423
 316  100.8381
 317  175.9755
 318  211.5092
 319  325.5283
 320  74.66778
 321  201.4062
 322  307.3253
 323  289.3181
 324  159.2279
 325  241.7244
 326  298.9973
 327  290.965
 328  181.293
 329  84.12169
 330  136.9621
 331  210.3404
 332  81.51817
 333  116.3223
 334  200.3271
 335  191.8927
 336  120.0558
 337  232.0509
 338  160.5803
 339  47.03787
 340  111.0831
 341  150.8645
 342  48.32977
 343  68.94857
 344  102.1602
 345  128.8521
 346  105.3052
 347  97.79826
 348  4.014368
 349  52.56921
 350  264.8729
 351  347.1235
 352  424.2449
 353  300.2522
 354  199.914
 355  134.8787
 356  157.0305
 357  157.6309
 358  204.9979
 359  206.9797
 360  123.6004
 361  43.20283
 362  101.3696
 363  168.7332
 364  287.0419
 365  232.7172
 366  83.5993
 367  183.4612
 368  315.5994
 369  284.2139
 370  179.5907
 371  83.18463
 372  163.3122
 373  249.7659
 374  248.6746
 375  394.0296
 376  504.5443
 377  270.1057
 378  183.7129
 379  312.6743
 380  182.4966
 381  166.8682
 382  157.901
 383  125.375
 384  249.2307
 385  222.3267
 386  292.5715
 387  261.7571
 388  229.443
 389  309.0134
 390  176.7996
 391  -17.58334
 392  215.8384
 393  298.7417
 394  283.7482
 395  260.6046
 396  178.0467
 397  159.6018
 398  192.9189
 399  274.5119
 400  306.1586
 401  225.9885
 402  222.7261
 403  231.1552
 404  240.0488
 405  226.3059
 406  216.9711
 407  248.2745
 408  247.983
 409  245.0033
 410  183.8866
 411  209.1546
 412  229.6851
 413  191.3352
 414  206.2808
 415  154.061
 416  251.83
 417  306.6054
 418  332.5742
 419  221.4754
 420  250.989
 421  262.1191
 422  176.1772
 423  24.07357
 424  69.74152
 425  103.2917
 426  160.7614
 427  283.985
 428  229.392
 429  169.4638
 430  -41.72729
 431  34.42987
 432  258.4536
 433  218.6309
 434  122.6034
 435  176.7443
 436  249.1614
 437  258.1445
 438  137.9899
 439  8.737735
 440  144.1242
 441  275.3928
 442  302.8104
 443  213.2811
 444  62.47189
 445  122.2137
 446  137.7723
 447  229.3546
 448  306.7606
 449  206.7193
 450  255.9213
 451  224.0541
 452  257.4002
 453  155.4301
 454  243.0402
 455  252.1027
 456  128.3835
 457  251.6196
 458  325.798
 459  414.5622
 460  308.8447
 461  135.7436
 462  47.85136
 463  126.5557
 464  96.40209
 465  129.4305
 466  117.1521
 467  235.3557
 468  194.3896
 469  155.6969
 470  232.3179
 471  135.8018
 472  137.856
 473  136.5543
 474  232.0022
 475  129.1105
 476  166.5037
 477  211.5452
 478  204.6177
 479  170.4486
 480  195.9847
 481  202.3747
 482  212.3809
 483  49.708
 484  68.09765
 485  213.1664
 486  182.1881
 487  44.58392
 488  54.48911
 489  139.1446
 490  151.2612
 491  182.4712
 492  303.5478
 493  282.2607
 494  369.7792
 495  370.424
 496  297.6485
 497  179.5737
 498  222.0115
 499  201.8023
 500  144.7068
 501  75.36185
 502  250.4573
 503  227.8751
 504  292.0646
 505  286.9289
 506  394.1395
 507  388.1123
 508  524.0908
 509  488.0775
 510  638.6692
 511  842.0084
