# Input file       =  1185866322.111711_cleaned.dat
# Candidate        =  PSR_0332+5434
# Telescope        =  AR
# Epoch_topo       =  57969.304873978137
# Epoch_bary       =  N/A
# T_sample         =  0.002
# Data Folded      =  7340032
# Data Avg         =  0.00572619937234888
# Data StdDev      =  1.00001629796258 
# Profile Bins     =  512
# Profile Avg      =  82.0403416622859 
# Profile StdDev   =  119.734987781313 
# Reduced chi-sqr  =  1.660
# Prob(Noise)      <  3.56e-19   (~8.9 sigma)
# P_topo (ms)      =  714.468479844671  +/- 0.000148
# P'_topo (s/s)    =  -0                +/- 7.8e-11
# P''_topo (s/s^2) =  0                 +/- 3.44e-14
# P_bary (ms)      =  N/A
# P'_bary (s/s)    =  N/A
# P''_bary (s/s^2) =  N/A
# P_orb (s)        =  N/A
# asin(i)/c (s)    =  N/A
# eccentricity     =  N/A
# w (rad)          =  N/A
# T_peri           =  N/A
######################################################
   0  605.1885
   1  642.9041
   2  557.2828
   3  298.7369
   4  265.4269
   5  158.6521
   6  28.82576
   7  68.56076
   8  281.0507
   9  304.2903
  10  199.3254
  11  121.8339
  12  72.73991
  13  62.31495
  14  13.41709
  15  89.63086
  16  123.1568
  17  -69.72271
  18  -75.92746
  19  149.5757
  20  112.3601
  21  63.15908
  22  35.72217
  23  -80.45246
  24  83.97813
  25  147.2641
  26  108.1472
  27  190.4038
  28  33.56602
  29  -16.23727
  30  -20.75344
  31  -119.0853
  32  -56.38227
  33  69.37508
  34  246.6284
  35  129.638
  36  53.48277
  37  58.98453
  38  -33.24809
  39  -18.23877
  40  17.49045
  41  74.99318
  42  142.945
  43  142.7133
  44  247.4713
  45  292.1606
  46  179.1471
  47  165.6498
  48  105.7166
  49  169.0348
  50  53.27385
  51  35.16579
  52  67.30653
  53  108.7922
  54  213.7557
  55  5.978787
  56  -81.74888
  57  44.97213
  58  143.2266
  59  86.24181
  60  156.9133
  61  185.769
  62  166.883
  63  40.56286
  64  61.51348
  65  -75.08686
  66  135.0227
  67  105.3218
  68  94.96771
  69  212.4552
  70  245.1544
  71  199.6295
  72  161.2384
  73  119.6491
  74  197.6687
  75  -16.29754
  76  95.87357
  77  -2.792781
  78  29.45799
  79  73.20485
  80  -18.36395
  81  -63.03065
  82  -139.3105
  83  -73.57192
  84  64.33634
  85  196.1631
  86  197.3206
  87  200.0971
  88  14.69127
  89  -20.38302
  90  53.85677
  91  90.51035
  92  134.1028
  93  132.7732
  94  46.5399
  95  -26.28653
  96  30.09618
  97  168.5205
  98  158.1958
  99  116.1572
 100  45.46649
 101  -60.61536
 102  59.86652
 103  133.2867
 104  180.8983
 105  144.5669
 106  107.6729
 107  80.79224
 108  204.9961
 109  162.3106
 110  18.9737
 111  102.4946
 112  5.606632
 113  -13.13296
 114  70.58331
 115  -3.748255
 116  127.9767
 117  201.0281
 118  134.2179
 119  184.9443
 120  419.1144
 121  372.6004
 122  122.433
 123  -6.316802
 124  55.61097
 125  68.64472
 126  70.97963
 127  172.8692
 128  189.9733
 129  137.6014
 130  180.8799
 131  102.2955
 132  24.36777
 133  90.88898
 134  211.1752
 135  126.9804
 136  112.3593
 137  75.45754
 138  51.97141
 139  53.84855
 140  51.38066
 141  111.7007
 142  118.0775
 143  24.20249
 144  13.13756
 145  -44.08485
 146  56.08017
 147  22.90231
 148  -6.658157
 149  -34.70742
 150  94.13102
 151  120.8855
 152  148.29
 153  112.7678
 154  164.0011
 155  107.6774
 156  78.32217
 157  169.7398
 158  139.7925
 159  46.98421
 160  63.67476
 161  174.6846
 162  195.0571
 163  134.0527
 164  97.59405
 165  76.8976
 166  4.969407
 167  -47.71064
 168  -69.76871
 169  -12.41104
 170  -94.42944
 171  103.3372
 172  77.59461
 173  -36.33165
 174  42.21796
 175  52.13369
 176  189.9143
 177  58.2411
 178  90.36557
 179  24.52721
 180  -10.49584
 181  -24.06715
 182  54.44703
 183  76.94536
 184  -33.93975
 185  -11.47445
 186  -12.78651
 187  29.82496
 188  -71.36566
 189  -52.06203
 190  109.0228
 191  82.28574
 192  89.44296
 193  83.20566
 194  49.2868
 195  23.02984
 196  -6.639286
 197  -64.286
 198  40.82193
 199  106.5865
 200  147.5847
 201  49.49294
 202  -16.0117
 203  29.95354
 204  -16.02017
 205  -15.69258
 206  103.1824
 207  177.4859
 208  123.5475
 209  146.7293
 210  43.88954
 211  -16.03851
 212  57.77698
 213  48.61452
 214  -40.02421
 215  6.366335
 216  89.42583
 217  95.78797
 218  20.5128
 219  44.28896
 220  3.781825
 221  -21.2716
 222  149.3569
 223  72.09901
 224  -143.0943
 225  17.01959
 226  113.9006
 227  142.5593
 228  114.5593
 229  38.34715
 230  -5.423251
 231  40.41238
 232  76.06913
 233  101.8462
 234  202.1896
 235  258.792
 236  248.0574
 237  216.7397
 238  166.3048
 239  67.42108
 240  97.50211
 241  -23.05292
 242  -2.971666
 243  97.04443
 244  152.3892
 245  35.96056
 246  33.61967
 247  92.39321
 248  46.2384
 249  -58.59092
 250  -68.70005
 251  -51.44558
 252  -223.1234
 253  -87.88026
 254  46.06152
 255  34.77421
 256  69.63478
 257  78.86161
 258  8.413028
 259  -135.6742
 260  2.749731
 261  138.0382
 262  42.94804
 263  4.525915
 264  58.18673
 265  98.57214
 266  98.87009
 267  91.59337
 268  6.822962
 269  -61.132
 270  109.1371
 271  -33.45365
 272  81.83322
 273  112.1514
 274  105.9159
 275  78.51125
 276  -27.05192
 277  -83.07011
 278  1.786223
 279  133.7371
 280  19.19765
 281  86.02543
 282  122.101
 283  61.22065
 284  94.79594
 285  -19.98199
 286  39.2669
 287  88.42183
 288  -33.59611
 289  -35.50646
 290  109.3332
 291  236.7458
 292  132.6295
 293  55.10987
 294  66.09655
 295  52.32512
 296  -64.69099
 297  -101.5984
 298  -87.43897
 299  59.18348
 300  303.0813
 301  335.5817
 302  325.0945
 303  23.56057
 304  -81.08057
 305  -15.29851
 306  12.81558
 307  91.65286
 308  29.28421
 309  -193.1452
 310  -91.96651
 311  81.43328
 312  161.609
 313  45.79012
 314  40.82684
 315  111.0274
 316  105.3192
 317  87.7492
 318  115.366
 319  207.7955
 320  69.3213
 321  34.32938
 322  23.78305
 323  46.85422
 324  43.25227
 325  35.63086
 326  0.2490043
 327  -84.86568
 328  18.48673
 329  31.86071
 330  61.4243
 331  95.69264
 332  22.58079
 333  -62.10603
 334  -38.42774
 335  -95.29695
 336  -72.68734
 337  126.1506
 338  245.7401
 339  110.8979
 340  121.2242
 341  -1.065794
 342  -39.37102
 343  27.73982
 344  72.46214
 345  30.43219
 346  26.84386
 347  -5.05063
 348  25.83679
 349  -38.46348
 350  -90.09917
 351  13.10668
 352  152.1463
 353  134.7998
 354  181.3899
 355  192.3156
 356  257.3057
 357  153.8389
 358  -4.345009
 359  104.4027
 360  17.44982
 361  57.84488
 362  25.75344
 363  3.214885
 364  -8.556977
 365  28.60565
 366  -9.832014
 367  14.98717
 368  86.18563
 369  238.1315
 370  169.4819
 371  -35.46425
 372  140.433
 373  54.0666
 374  -92.91802
 375  -13.84922
 376  126.8298
 377  83.39938
 378  7.456124
 379  31.97443
 380  187.8812
 381  173.6416
 382  166.3227
 383  11.99257
 384  16.13697
 385  -101.8943
 386  -76.65893
 387  79.04066
 388  123.7212
 389  215.0649
 390  198.6721
 391  118.821
 392  104.8072
 393  79.98318
 394  152.3
 395  89.51668
 396  161.5399
 397  154.51
 398  170.0865
 399  121.6752
 400  127.4225
 401  14.18888
 402  21.54833
 403  -91.15108
 404  -192.2868
 405  -29.43729
 406  61.46169
 407  113.7286
 408  41.46601
 409  9.975004
 410  123.1563
 411  140.0803
 412  123.9469
 413  123.5918
 414  76.88199
 415  28.69968
 416  185.7033
 417  251.8762
 418  135.6486
 419  209.4632
 420  178.5429
 421  49.91443
 422  165.1465
 423  117.6403
 424  295.9521
 425  81.2402
 426  170.0356
 427  75.61052
 428  64.22785
 429  121.2904
 430  67.21195
 431  90.99731
 432  105.9095
 433  127.9361
 434  177.0644
 435  100.6099
 436  -36.69653
 437  11.49227
 438  78.49681
 439  141.4122
 440  79.88065
 441  71.14623
 442  44.06368
 443  68.67151
 444  206.6864
 445  151.6726
 446  129.6715
 447  44.10638
 448  86.45694
 449  12.02704
 450  59.97798
 451  123.0559
 452  187.3218
 453  120.5129
 454  177.7347
 455  145.7116
 456  131.8443
 457  236.8824
 458  132.4088
 459  9.843403
 460  176.7803
 461  53.52221
 462  -239.2826
 463  -118.5682
 464  45.2473
 465  66.04731
 466  219.4841
 467  221.1196
 468  197.9775
 469  146.5093
 470  62.71229
 471  136.9937
 472  47.35286
 473  -2.837217
 474  -4.826272
 475  31.75463
 476  -138.8153
 477  -192.1574
 478  -68.27144
 479  150.9858
 480  269.481
 481  217.0171
 482  225.652
 483  254.132
 484  137.4259
 485  -36.24259
 486  -18.92171
 487  203.3493
 488  118.5871
 489  30.58643
 490  62.77856
 491  181.7238
 492  99.88319
 493  -17.53156
 494  3.423553
 495  166.5146
 496  76.41953
 497  72.69352
 498  59.47169
 499  62.97908
 500  161.5518
 501  177.6763
 502  115.8109
 503  102.1634
 504  93.59092
 505  99.7009
 506  94.87682
 507  159.4991
 508  375.1351
 509  576.4897
 510  696.7238
 511  742.8352
