# Input file       =  1185405938.111920-PSRB0329-2ms-sampling-dd.dat
# Candidate        =  PSR_0332+5434
# Telescope        =  AR
# Epoch_topo       =  57963.976355462037
# Epoch_bary       =  N/A
# T_sample         =  0.002
# Data Folded      =  7208960
# Data Avg         =  5.27268188379408e-10
# Data StdDev      =  7.86814764286952 
# Profile Bins     =  512
# Profile Avg      =  -0.536406624176137
# Profile StdDev   =  933.627914324708 
# Reduced chi-sqr  =  0.529
# Prob(Noise)      <  1   (~0.0 sigma)
# P_topo (ms)      =  714.470384480613  +/- 0.000237
# P'_topo (s/s)    =  -0                +/- 1.27e-10
# P''_topo (s/s^2) =  0                 +/- 5.73e-14
# P_bary (ms)      =  N/A
# P'_bary (s/s)    =  N/A
# P''_bary (s/s^2) =  N/A
# P_orb (s)        =  N/A
# asin(i)/c (s)    =  N/A
# eccentricity     =  N/A
# w (rad)          =  N/A
# T_peri           =  N/A
######################################################
   0  -219.6175
   1  24.05593
   2  -300.8957
   3  -334.9569
   4  -171.313
   5  -593.2313
   6  -174.7651
   7  -595.54
   8  -778.2676
   9  -1006.167
  10  -796.7242
  11  -342.0785
  12  -523.8258
  13  -341.8614
  14  -227.5425
  15  101.018
  16  -512.501
  17  -899.2072
  18  -759.2075
  19  -282.5524
  20  -403.6832
  21  -151.1205
  22  -134.4443
  23  -353.3813
  24  -852.3196
  25  -499.2176
  26  -185.4992
  27  -464.5313
  28  -391.5057
  29  -328.6162
  30  -647.2874
  31  -785.1553
  32  -689.0292
  33  -388.878
  34  -348.7426
  35  -218.7981
  36  -218.6214
  37  -133.7356
  38  -836.1682
  39  -1354.88
  40  -496.7983
  41  -605.6244
  42  -397.522
  43  -362.9003
  44  -75.44664
  45  -534.3464
  46  -632.445
  47  -324.7418
  48  -626.5508
  49  -480.4481
  50  -626.7433
  51  -566.4595
  52  -347.0821
  53  -184.6331
  54  116.8722
  55  245.361
  56  -130.7678
  57  -417.2635
  58  -654.28
  59  -261.0763
  60  -130.8649
  61  -108.3111
  62  138.6323
  63  -144.3697
  64  215.3644
  65  -493.3985
  66  93.65311
  67  511.9747
  68  124.0592
  69  259.0166
  70  -103.0521
  71  -136.9946
  72  -148.594
  73  1.271957
  74  -795.0229
  75  -772.544
  76  -405.2551
  77  -460.1852
  78  -140.2875
  79  -112.0365
  80  145.9793
  81  -103.5906
  82  -613.5451
  83  -890.4752
  84  -532.0523
  85  -106.3499
  86  173.648
  87  531.334
  88  304.2578
  89  48.0914
  90  -253.2607
  91  -250.1372
  92  -475.4698
  93  -274.9476
  94  3.440398
  95  -51.39862
  96  -140.3473
  97  62.10911
  98  -165.2654
  99  16.34493
 100  202.4599
 101  -82.79043
 102  -167.0215
 103  -227.1647
 104  -229.816
 105  -103.2341
 106  119.4298
 107  -298.6378
 108  -282.9793
 109  106.2112
 110  44.57858
 111  88.02171
 112  -341.4861
 113  -530.4583
 114  95.82552
 115  53.67332
 116  -146.9891
 117  337.0595
 118  569.3279
 119  375.0388
 120  166.1686
 121  704.6114
 122  369.5687
 123  199.7698
 124  -143.2587
 125  -484.9167
 126  -129.963
 127  -137.6383
 128  -319.6637
 129  -3.479556
 130  19.96454
 131  -48.15406
 132  -663.5959
 133  -240.6366
 134  -715.0836
 135  -739.7316
 136  -572.7129
 137  -453.4084
 138  251.5735
 139  -87.61556
 140  -160.1619
 141  -486.0913
 142  -683.3055
 143  -241.4331
 144  -178.0721
 145  -323.0312
 146  -862.3261
 147  -505.3545
 148  23.50183
 149  -358.087
 150  4.488192
 151  201.4686
 152  87.11308
 153  34.28437
 154  -202.0602
 155  56.2254
 156  -59.47679
 157  -201.2198
 158  -273.4164
 159  -533.2969
 160  -762.2854
 161  -938.2336
 162  -71.78056
 163  -367.4245
 164  -79.35164
 165  292.4741
 166  -15.81061
 167  -422.4505
 168  -752.261
 169  -478.0369
 170  -637.4287
 171  -375.6967
 172  -245.4718
 173  -16.72779
 174  -57.55888
 175  -558.7086
 176  -843.1896
 177  -997.573
 178  -827.5425
 179  -1299.893
 180  -480.4436
 181  -54.11749
 182  -319.9468
 183  -71.39228
 184  -258.7213
 185  -458.0506
 186  -496.721
 187  -541.3163
 188  -271.2263
 189  -500.6119
 190  -401.2939
 191  309.5151
 192  221.1913
 193  -194.4803
 194  7.891072
 195  -38.9221
 196  -677.7077
 197  -916.4397
 198  -580.0265
 199  -702.0163
 200  -218.2294
 201  -303.7715
 202  -181.8621
 203  -243.9138
 204  -255.9316
 205  14.14931
 206  -376.6775
 207  -281.832
 208  -468.0744
 209  -684.822
 210  -498.126
 211  -789.26
 212  -395.8423
 213  -459.7226
 214  -212.6965
 215  -51.64207
 216  -514.2587
 217  112.787
 218  147.6691
 219  238.9228
 220  248.7056
 221  517.9372
 222  118.2374
 223  328.7621
 224  510.7152
 225  568.955
 226  793.0889
 227  579.9611
 228  150.2952
 229  338.2821
 230  24.49555
 231  -300.7789
 232  -210.7368
 233  21.18171
 234  179.9114
 235  307.7072
 236  752.6635
 237  274.0805
 238  -167.8505
 239  243.556
 240  -182.9247
 241  -291.4572
 242  -58.73063
 243  127.2159
 244  194.7485
 245  73.16141
 246  -118.3909
 247  66.39201
 248  639.3235
 249  574.1512
 250  545.8971
 251  797.0693
 252  -197.9704
 253  41.36981
 254  470.2656
 255  699.2877
 256  1066.894
 257  952.3287
 258  1517.14
 259  1196.512
 260  735.048
 261  182.4322
 262  798.5822
 263  1129.002
 264  634.1117
 265  1025.89
 266  1536.066
 267  1135.723
 268  1009.97
 269  1155.233
 270  725.2094
 271  367.2413
 272  376.35
 273  305.1158
 274  608.8486
 275  124.7802
 276  439.5131
 277  831.673
 278  470.242
 279  388.5406
 280  1108.122
 281  1062.653
 282  512.5699
 283  394.1515
 284  692.0071
 285  304.408
 286  880.2619
 287  1165.863
 288  719.0798
 289  886.858
 290  550.6443
 291  723.7437
 292  427.9635
 293  793.5673
 294  1030.999
 295  1152.666
 296  913.0645
 297  523.2089
 298  1026.86
 299  1037.579
 300  1221.503
 301  1436.406
 302  1222.613
 303  539.4919
 304  339.9904
 305  344.657
 306  78.24211
 307  532.0054
 308  1201.761
 309  727.3102
 310  985.8229
 311  523.804
 312  163.5087
 313  581.1244
 314  581.8326
 315  732.665
 316  308.438
 317  170.6529
 318  222.1942
 319  208.2977
 320  380.4672
 321  157.7111
 322  651.4332
 323  581.4385
 324  425.8935
 325  527.5806
 326  23.39108
 327  13.03698
 328  275.7675
 329  390.5685
 330  669.012
 331  906.8378
 332  981.4891
 333  634.8469
 334  872.4838
 335  543.123
 336  -209.6288
 337  -159.7231
 338  21.27965
 339  120.8959
 340  -43.02861
 341  46.32167
 342  378.9022
 343  -13.10472
 344  284.9387
 345  476.7394
 346  52.37662
 347  71.50064
 348  50.13057
 349  489.5756
 350  198.5366
 351  143.4153
 352  197.2913
 353  321.4605
 354  372.4722
 355  24.72656
 356  1584.643
 357  1035.68
 358  1095.97
 359  590.6428
 360  229.2107
 361  99.98994
 362  229.1626
 363  598.4395
 364  240.3001
 365  525.4584
 366  479.415
 367  312.1466
 368  50.29021
 369  230.8683
 370  -143.4236
 371  -228.0138
 372  -541.2897
 373  -529.8104
 374  -220.6207
 375  -43.84061
 376  243.3222
 377  116.7586
 378  132.1535
 379  -376.7847
 380  -547.4019
 381  -61.50728
 382  316.1267
 383  80.68008
 384  228.7685
 385  221.2065
 386  155.8223
 387  184.1296
 388  -349.6542
 389  133.9414
 390  -230.278
 391  -582.9108
 392  -533.3283
 393  -389.4752
 394  -325.0187
 395  -49.2527
 396  266.4244
 397  89.24267
 398  -25.16975
 399  306.2908
 400  78.02692
 401  492.3503
 402  88.9664
 403  -99.95956
 404  215.578
 405  252.632
 406  -451.8125
 407  -260.7857
 408  -139.6014
 409  -182.6895
 410  -326.6299
 411  -748.2164
 412  -726.6862
 413  -329.3724
 414  196.7976
 415  -306.6003
 416  -52.6885
 417  201.2212
 418  132.8424
 419  -230.8147
 420  198.1814
 421  -239.1047
 422  -504.3849
 423  -510.8654
 424  -447.4727
 425  -145.6746
 426  -414.5143
 427  -27.3354
 428  407.567
 429  270.9761
 430  134.1503
 431  97.33556
 432  -452.546
 433  -971.2516
 434  -235.2216
 435  -153.6718
 436  -203.0181
 437  -183.1679
 438  -242.3164
 439  -391.3738
 440  -414.1187
 441  -517.8458
 442  -327.0171
 443  -30.93663
 444  -527.5308
 445  -1214.625
 446  -614.33
 447  -405.4748
 448  -595.9272
 449  -67.5841
 450  -34.12064
 451  -144.4379
 452  -253.0083
 453  -713.6842
 454  -653.5643
 455  -582.342
 456  -4.177931
 457  171.2256
 458  465.8738
 459  -38.69193
 460  -374.5251
 461  -205.1185
 462  -390.1418
 463  -170.5332
 464  -33.87833
 465  25.98199
 466  -70.03313
 467  121.8886
 468  -220.1615
 469  -339.935
 470  521.4594
 471  449.7827
 472  256.5942
 473  305.9905
 474  486.1759
 475  592.0715
 476  1156.47
 477  1004.332
 478  416.5057
 479  -196.9388
 480  -456.1477
 481  -126.5754
 482  203.4581
 483  270.7904
 484  -77.88664
 485  -22.33584
 486  -685.1766
 487  -655.6659
 488  -628.4284
 489  21.63744
 490  340.2427
 491  426.9348
 492  759.0241
 493  441.0694
 494  -181.8949
 495  -586.895
 496  93.82653
 497  492.2062
 498  215.0137
 499  120.7996
 500  141.6014
 501  331.1916
 502  46.225
 503  152.9409
 504  -227.4262
 505  -186.2957
 506  -436.6067
 507  -639.736
 508  -394.1626
 509  -147.5069
 510  -262.6069
 511  -25.25278
