# Input file       =  1185248272.118458_cleaned.dat
# Candidate        =  PSR_0332+5434
# Telescope        =  AR
# Epoch_topo       =  57962.151517574748
# Epoch_bary       =  N/A
# T_sample         =  0.002
# Data Folded      =  7340032
# Data Avg         =  0.196213493525906
# Data StdDev      =  4.00411804715091 
# Profile Bins     =  512
# Profile Avg      =  2812.35826429238 
# Profile StdDev   =  479.425211796385 
# Reduced chi-sqr  =  1.452
# Prob(Noise)      <  9.15e-11   (~6.4 sigma)
# P_topo (ms)      =  714.471264672761  +/- 0.000323
# P'_topo (s/s)    =  -0                +/- 1.7e-10
# P''_topo (s/s^2) =  0                 +/- 7.53e-14
# P_bary (ms)      =  N/A
# P'_bary (s/s)    =  N/A
# P''_bary (s/s^2) =  N/A
# P_orb (s)        =  N/A
# asin(i)/c (s)    =  N/A
# eccentricity     =  N/A
# w (rad)          =  N/A
# T_peri           =  N/A
######################################################
   0  2826.094
   1  3105.631
   2  2956.569
   3  2854.927
   4  2831.896
   5  2797.627
   6  2546.715
   7  2577.135
   8  2882.306
   9  3072.95
  10  3180.969
  11  3461.122
  12  4148.832
  13  4328.811
  14  4482.516
  15  4115.965
  16  3541.302
  17  3214.671
  18  3255.929
  19  2886.769
  20  2429.922
  21  2512.244
  22  2645.839
  23  2414.004
  24  2383.881
  25  2618.265
  26  2678.479
  27  2776.7
  28  3068.021
  29  3015.746
  30  2957.324
  31  2681.709
  32  2329.445
  33  2066.202
  34  2154.772
  35  2140.753
  36  2414.696
  37  2646.162
  38  2536.893
  39  2588.119
  40  2857.115
  41  2744.202
  42  2721.448
  43  2904.482
  44  2675.244
  45  2316.787
  46  2266.618
  47  2383.515
  48  2632.271
  49  2458.704
  50  2499.035
  51  2459.99
  52  2285.416
  53  2230.868
  54  2708.389
  55  2927.788
  56  3140.215
  57  3244.041
  58  3127.008
  59  2950.977
  60  2765.01
  61  2851.714
  62  3020.214
  63  3008.11
  64  2948.962
  65  3033.045
  66  3148.778
  67  3084.683
  68  3245.808
  69  3079.392
  70  3106.093
  71  3305.884
  72  3540.766
  73  2730.203
  74  2774.807
  75  2995.982
  76  2968.534
  77  3037.622
  78  3282.266
  79  2980.555
  80  2977.948
  81  3101.658
  82  2922.714
  83  3049.774
  84  3419.011
  85  3687.294
  86  3694.149
  87  3388.366
  88  3162.19
  89  3061.399
  90  2901.716
  91  2968.733
  92  2866.223
  93  2829.433
  94  2740.975
  95  3141.509
  96  3533.396
  97  3234.758
  98  3098.941
  99  3071.649
 100  3093.787
 101  3052.61
 102  3341.487
 103  3583.137
 104  3326.612
 105  3596.713
 106  3433.252
 107  3454.761
 108  3492.91
 109  3090.49
 110  3141.415
 111  3139.268
 112  2997.243
 113  2990.254
 114  2965.018
 115  3020.406
 116  3018.491
 117  2973.339
 118  3152.834
 119  3069.972
 120  2722.783
 121  2917.441
 122  2861.894
 123  3188.864
 124  2879.08
 125  2877.812
 126  2928.859
 127  2659.576
 128  2980.13
 129  3344.898
 130  3326.521
 131  3265.579
 132  2982.231
 133  2866.353
 134  2891.028
 135  3123.081
 136  2864.151
 137  2669.779
 138  2585.554
 139  2667.326
 140  2430.738
 141  2577.674
 142  2708.662
 143  2712.338
 144  2683.213
 145  2654.564
 146  2670.326
 147  3003.942
 148  3074.3
 149  2651.054
 150  2530.654
 151  2710.379
 152  2912.981
 153  2824.009
 154  2875.998
 155  3004.577
 156  2668.222
 157  2721.45
 158  2865.086
 159  3203.341
 160  3082.469
 161  2969.413
 162  3086.542
 163  2872.659
 164  3253.037
 165  3012.391
 166  2820.618
 167  3013.87
 168  2865.748
 169  2875.494
 170  2855.527
 171  2799.726
 172  2612.443
 173  2433.66
 174  2571.672
 175  2646.716
 176  2541.182
 177  2732.964
 178  2598.2
 179  2594.375
 180  2686.505
 181  2535.068
 182  2296.417
 183  2034.7
 184  2052.78
 185  2255.081
 186  2545.876
 187  2118.061
 188  1963.277
 189  2252.307
 190  2290.976
 191  2096.48
 192  1877.186
 193  2177.716
 194  2056.709
 195  2023.815
 196  1822.286
 197  2075.901
 198  2220.094
 199  2000.423
 200  2226.528
 201  2436.745
 202  2605.334
 203  2907.19
 204  2832.852
 205  2418.633
 206  2456.692
 207  2569.581
 208  2810.043
 209  2968.945
 210  2870.39
 211  2605.549
 212  2945.701
 213  2871.354
 214  2913.386
 215  2967.815
 216  3001.461
 217  3055.875
 218  3234.668
 219  3448.52
 220  3362.538
 221  3104.981
 222  2990.152
 223  2931.21
 224  3110.52
 225  3071.983
 226  2679.08
 227  2615.935
 228  2834.825
 229  2830.514
 230  2580.783
 231  2535.614
 232  2608.101
 233  2785.072
 234  2749.35
 235  2826.7
 236  3015.091
 237  2862.235
 238  2646.051
 239  2339.213
 240  2704.675
 241  2748.991
 242  2836.495
 243  2662.642
 244  2595.871
 245  2412.624
 246  2447.434
 247  2051.427
 248  2020.872
 249  2090.953
 250  2139.91
 251  1707.747
 252  1862.437
 253  2163.554
 254  2357.585
 255  2576.813
 256  2676.084
 257  2441.366
 258  2432.634
 259  2524.298
 260  2545.342
 261  2472.356
 262  2221.36
 263  2226.926
 264  2399.487
 265  2401.662
 266  2129.534
 267  2171.782
 268  2194.191
 269  2331.497
 270  2409.53
 271  2201.509
 272  2150.39
 273  2512.037
 274  2528.199
 275  2415.376
 276  2542.251
 277  2411.472
 278  2217.582
 279  2161.94
 280  2294.047
 281  2381.672
 282  2363.892
 283  2582.831
 284  2663.661
 285  2773.286
 286  2528.779
 287  2595.146
 288  2832.518
 289  3053.69
 290  3270.353
 291  2979.201
 292  3047.407
 293  3075.89
 294  3147.419
 295  3170.319
 296  3065.949
 297  3072.73
 298  3295.983
 299  3433.414
 300  3235.82
 301  3318.098
 302  3384.241
 303  3246.447
 304  3012.157
 305  2994.019
 306  3152.389
 307  3126.977
 308  2974.573
 309  3180.228
 310  3087.108
 311  3072.676
 312  3268.552
 313  3240.259
 314  3178.006
 315  3210.58
 316  3033.857
 317  2864
 318  2941.604
 319  3086.944
 320  3424.486
 321  3419.619
 322  3210.735
 323  2881.253
 324  2635.234
 325  2809.105
 326  2957.344
 327  2950.012
 328  3033.214
 329  3102.589
 330  2741.998
 331  2547.655
 332  2635.825
 333  2537.506
 334  2526.836
 335  2641.983
 336  2817.632
 337  2588.157
 338  2460.882
 339  2680.403
 340  2816.419
 341  2794.958
 342  2723.906
 343  2908.05
 344  3030.667
 345  3199.711
 346  3060.011
 347  3028.394
 348  2953.752
 349  3073.073
 350  2931.449
 351  2982.113
 352  3074.955
 353  2890.603
 354  2836.681
 355  3026.876
 356  2988.146
 357  3151.567
 358  3290.006
 359  3263.76
 360  3377.292
 361  3406.603
 362  3168.755
 363  3465.768
 364  2990.144
 365  3291.207
 366  3757.649
 367  3622.232
 368  3481.068
 369  3588.946
 370  3616.756
 371  3359.551
 372  3382.858
 373  3450.624
 374  3557.5
 375  3567.294
 376  3704.006
 377  3650.824
 378  3163.972
 379  3281.757
 380  3489.192
 381  3764.824
 382  3513.035
 383  3085.609
 384  3229.912
 385  3617.07
 386  3390.423
 387  3302.742
 388  3265.403
 389  3016.895
 390  3100.27
 391  3497.562
 392  3151.425
 393  2968.124
 394  3192.313
 395  3317.505
 396  3459.015
 397  3357.575
 398  3363.941
 399  3087.505
 400  2578.16
 401  3066.889
 402  3010.689
 403  2883.727
 404  3295.537
 405  3577.595
 406  3133.792
 407  2775.92
 408  2697.398
 409  2565.233
 410  2751.031
 411  2727.03
 412  2468.532
 413  2318.089
 414  2566.052
 415  2661.103
 416  2472.103
 417  2497.485
 418  2124.08
 419  2185.989
 420  2465.689
 421  2581.024
 422  2137.067
 423  2361.838
 424  2486.497
 425  2426.326
 426  2496.193
 427  2631.47
 428  2721.567
 429  2541.924
 430  2359.127
 431  2262.271
 432  2162.635
 433  2550.236
 434  3042.08
 435  3053.12
 436  2674.397
 437  2549.23
 438  2611.333
 439  2557.811
 440  2862.201
 441  3040.868
 442  3015
 443  2859.177
 444  3048.214
 445  3174.125
 446  3234.354
 447  3098.506
 448  3178.454
 449  3054.289
 450  3108.33
 451  3259.607
 452  3072.798
 453  3184.237
 454  2918.86
 455  2531.733
 456  2586.108
 457  2591.393
 458  2833.112
 459  2968.215
 460  2723.803
 461  2306.699
 462  2565.18
 463  2579.975
 464  2393.778
 465  2163.118
 466  2526.856
 467  2741.71
 468  2612.951
 469  2420.448
 470  2545.854
 471  2561.128
 472  2527.936
 473  2602.838
 474  2512.198
 475  2532.562
 476  2510.668
 477  2485.445
 478  2239.466
 479  2109.819
 480  2222.823
 481  2161.933
 482  2202.884
 483  2285.225
 484  2389.688
 485  2248.918
 486  2268.763
 487  1808.954
 488  1820.137
 489  1963.2
 490  2084.676
 491  2143.025
 492  2084.746
 493  2335.819
 494  2232.908
 495  2420.386
 496  2380.594
 497  2504.672
 498  2541.389
 499  2426.433
 500  2341.895
 501  2394.831
 502  2310.471
 503  2227.489
 504  2404.666
 505  2639.186
 506  2854.325
 507  2955.868
 508  2965.161
 509  2768.124
 510  2602.596
 511  2916.778
