# Input file       =  1185061324.110495_cleaned.dat
# Candidate        =  PSR_0332+5434
# Telescope        =  AR
# Epoch_topo       =  57959.987767482584
# Epoch_bary       =  N/A
# T_sample         =  0.002
# Data Folded      =  7143424
# Data Avg         =  0.0213717482467747
# Data StdDev      =  1.00002531235137 
# Profile Bins     =  512
# Profile Avg      =  298.229958247031 
# Profile StdDev   =  118.121574340981 
# Reduced chi-sqr  =  1.293
# Prob(Noise)      <  8.08e-06   (~4.3 sigma)
# P_topo (ms)      =  714.472343136198  +/- 0.000189
# P'_topo (s/s)    =  -0                +/- 1.02e-10
# P''_topo (s/s^2) =  0                 +/- 4.64e-14
# P_bary (ms)      =  N/A
# P'_bary (s/s)    =  N/A
# P''_bary (s/s^2) =  N/A
# P_orb (s)        =  N/A
# asin(i)/c (s)    =  N/A
# eccentricity     =  N/A
# w (rad)          =  N/A
# T_peri           =  N/A
######################################################
   0  1039.626
   1  805.54
   2  722.5237
   3  484.2614
   4  377.674
   5  377.9146
   6  296.9139
   7  305.6847
   8  319.2502
   9  317.8367
  10  269.28
  11  308.295
  12  261.5102
  13  245.3858
  14  274.6616
  15  301.9957
  16  266.4129
  17  315.8099
  18  181.1017
  19  246.8803
  20  387.1089
  21  372.4013
  22  293.5353
  23  257.9377
  24  276.6277
  25  239.1618
  26  202.8285
  27  302.0297
  28  342.9457
  29  250.2422
  30  360.9431
  31  429.2031
  32  322.8647
  33  330.2507
  34  378.5982
  35  467.5271
  36  377.3294
  37  279.1349
  38  236.1486
  39  268.4936
  40  256.4
  41  207.4262
  42  209.7115
  43  357.5336
  44  317.2618
  45  397.0871
  46  282.521
  47  302.3956
  48  259.2623
  49  353.8947
  50  268.8615
  51  269.3274
  52  342.3748
  53  276.0115
  54  267.5996
  55  375.8172
  56  362.2607
  57  337.761
  58  344.4363
  59  300.462
  60  218.9757
  61  254.5401
  62  414.4141
  63  389.7093
  64  366.2039
  65  308.5187
  66  348.774
  67  186.2541
  68  118.9677
  69  228.297
  70  294.1893
  71  202.8675
  72  191.8118
  73  279.426
  74  335.3522
  75  309.6508
  76  268.1964
  77  210.888
  78  319.4734
  79  386.8263
  80  206.0674
  81  91.13317
  82  164.3283
  83  403.5823
  84  284.6479
  85  219.1371
  86  241.5466
  87  307.0054
  88  291.3548
  89  275.3582
  90  333.6024
  91  304.1265
  92  260.2706
  93  247.5476
  94  333.1957
  95  404.5681
  96  341.2029
  97  366.7291
  98  237.8892
  99  180.7298
 100  224.0838
 101  223.7595
 102  179.92
 103  235.2049
 104  357.9713
 105  172.35
 106  50.11176
 107  281.1706
 108  230.3124
 109  272.8781
 110  406.2906
 111  400.8403
 112  399.5177
 113  388.5179
 114  358.9508
 115  367.6735
 116  381.9092
 117  319.9819
 118  408.5591
 119  271.2995
 120  94.47726
 121  180.8092
 122  268.4824
 123  316.378
 124  218.5572
 125  269.9713
 126  328.5908
 127  355.0417
 128  309.5771
 129  469.8521
 130  329.5681
 131  293.4811
 132  269.3786
 133  297.625
 134  375.0756
 135  387.0497
 136  476.1792
 137  380.263
 138  315.1162
 139  180.3326
 140  356.0021
 141  334.9577
 142  336.7475
 143  310.6868
 144  372.4038
 145  323.8864
 146  405.8537
 147  305.9183
 148  242.8335
 149  398.151
 150  434.1274
 151  282.5581
 152  308.4151
 153  308.8467
 154  293.7821
 155  241.2337
 156  355.4985
 157  327.1296
 158  314.9195
 159  213.3467
 160  307.0162
 161  361.3948
 162  295.4995
 163  283.9213
 164  196.8776
 165  311.3278
 166  424.9147
 167  329.0913
 168  347.7351
 169  273.0328
 170  286.6141
 171  239.0415
 172  137.8807
 173  177.4864
 174  316.8521
 175  363.6124
 176  333.5644
 177  288.5718
 178  222.0349
 179  294.9621
 180  320.5179
 181  272.2405
 182  180.0423
 183  240.3851
 184  276.0711
 185  244.7915
 186  269.1496
 187  222.4018
 188  238.7197
 189  136.8074
 190  115.6675
 191  150.3272
 192  240.7478
 193  210.0905
 194  148.0038
 195  296.0978
 196  278.7416
 197  214.834
 198  281.0455
 199  317.3472
 200  183.7564
 201  197.5568
 202  182.2038
 203  381.652
 204  313.9271
 205  232.6597
 206  236.1503
 207  344.2306
 208  286.6298
 209  273.5623
 210  232.3546
 211  273.0448
 212  284.214
 213  257.7185
 214  305.3963
 215  363.634
 216  351.5426
 217  265.0671
 218  252.6297
 219  234.2918
 220  329.8957
 221  371.4967
 222  284.2142
 223  253.2164
 224  135.1438
 225  162.9118
 226  108.5741
 227  134.5202
 228  110.261
 229  132.5008
 230  268.2987
 231  226.5764
 232  197.8511
 233  198.3482
 234  317.0808
 235  392.2269
 236  275.7834
 237  221.0573
 238  309.6495
 239  324.0835
 240  261.3994
 241  238.1863
 242  353.3586
 243  281.8326
 244  290.1842
 245  279.5273
 246  273.7075
 247  267.5334
 248  287.2902
 249  207.0545
 250  373.4184
 251  253.7238
 252  276.2486
 253  241.9193
 254  314.2238
 255  324.135
 256  369.7672
 257  357.7523
 258  354.6278
 259  306.4323
 260  333.5463
 261  189.6323
 262  167.2575
 263  290.0495
 264  256.1765
 265  235.8404
 266  312.0783
 267  340.0075
 268  370.8183
 269  287.9688
 270  172.46
 271  221.9755
 272  314.9919
 273  423.4785
 274  311.4754
 275  349.1344
 276  326.8392
 277  234.9832
 278  368.6204
 279  502.196
 280  494.4185
 281  382.8921
 282  366.4371
 283  262.4608
 284  174.6185
 285  276.3692
 286  316.7774
 287  313.4491
 288  257.9668
 289  268.6696
 290  394.6576
 291  373.1057
 292  383.9701
 293  246.414
 294  301.7853
 295  397.704
 296  276.7259
 297  329.5698
 298  275.7558
 299  185.1133
 300  153.6427
 301  311.5839
 302  272.7925
 303  448.2849
 304  388.37
 305  240.7193
 306  216.6252
 307  299.5506
 308  335.0302
 309  299.0581
 310  325.8772
 311  386.5956
 312  298.6227
 313  288.0701
 314  263.2182
 315  213.276
 316  274.9275
 317  327.9136
 318  307.316
 319  234.9601
 320  230.0208
 321  278.1201
 322  353.3738
 323  270.371
 324  257.3053
 325  330.4284
 326  340.6235
 327  283.2054
 328  211.8776
 329  332.7771
 330  373.0668
 331  327.939
 332  317.3692
 333  237.1566
 334  255.406
 335  155.4191
 336  213.1698
 337  367.95
 338  385.2636
 339  309.4159
 340  271.8262
 341  244.7833
 342  283.6525
 343  330.4791
 344  396.3103
 345  317.4616
 346  324.9992
 347  328.3297
 348  171.5214
 349  165.3786
 350  193.1998
 351  198.9978
 352  159.0719
 353  168.213
 354  183.5509
 355  160.3034
 356  311.3283
 357  308.6498
 358  189.9062
 359  184.9414
 360  314.4003
 361  298.7424
 362  313.2968
 363  454.5754
 364  336.2275
 365  200.4462
 366  231.1007
 367  262.5034
 368  274.9892
 369  248.3764
 370  300.7786
 371  304.4137
 372  215.0856
 373  193.6356
 374  237.6618
 375  277.3922
 376  274.6187
 377  266.0923
 378  421.5913
 379  340.2673
 380  301.4196
 381  280.9506
 382  422.3162
 383  437.6906
 384  388.2905
 385  395.0742
 386  344.1961
 387  322.2592
 388  236.3646
 389  260.4406
 390  272.0431
 391  303.4046
 392  350.1536
 393  279.4961
 394  175.4231
 395  221.3835
 396  300.1029
 397  340.7237
 398  321.1717
 399  313.8428
 400  400.1172
 401  382.0495
 402  270.05
 403  200.1101
 404  212.341
 405  304.2548
 406  255.2283
 407  193.9152
 408  187.0516
 409  218.7998
 410  287.2213
 411  267.978
 412  256.4867
 413  257.5493
 414  319.8052
 415  226.5787
 416  411.9197
 417  397.0674
 418  362.0813
 419  410.1024
 420  209.379
 421  194.3408
 422  289.115
 423  276.8593
 424  322.5111
 425  338.3093
 426  416.1882
 427  348.8074
 428  79.30751
 429  39.93579
 430  176.3927
 431  183.4441
 432  63.48284
 433  -18.32472
 434  199.7911
 435  217.9629
 436  233.946
 437  257.4324
 438  271.8616
 439  278.7533
 440  243.0045
 441  193.4039
 442  232.219
 443  202.6249
 444  322.2599
 445  373.6962
 446  370.9558
 447  267.8055
 448  324.4879
 449  379.1705
 450  306.7501
 451  362.0919
 452  425.3839
 453  326.1796
 454  199.786
 455  226.2788
 456  305.7855
 457  265.2659
 458  273.8148
 459  303.3178
 460  300.7906
 461  371.0212
 462  372.8869
 463  392.1312
 464  301.2269
 465  294.9699
 466  369.862
 467  418.1486
 468  316.6249
 469  208.6573
 470  255.1748
 471  316.3252
 472  385.4888
 473  259.6862
 474  228.6755
 475  155.47
 476  222.2506
 477  363.2658
 478  277.3453
 479  237.5998
 480  323.7774
 481  309.4047
 482  326.6684
 483  346.7431
 484  371.8883
 485  435.9326
 486  401.9095
 487  350.2936
 488  388.4042
 489  410.5635
 490  434.9282
 491  428.2161
 492  382.5124
 493  392.1202
 494  298.2054
 495  268.9092
 496  366.9573
 497  369.2766
 498  313.401
 499  329.4171
 500  323.691
 501  399.4275
 502  411.9694
 503  406.7516
 504  390.2623
 505  343.3693
 506  414.9848
 507  483.3611
 508  486.133
 509  610.1493
 510  718.6722
 511  984.6802
