# Input file       =  1185233632.110816_cleaned.dat
# Candidate        =  PSR_0332+5434
# Telescope        =  AR
# Epoch_topo       =  57961.982073041851
# Epoch_bary       =  N/A
# T_sample         =  0.002
# Data Folded      =  7208960
# Data Avg         =  0.0252145429385425
# Data StdDev      =  1.00004508669388 
# Profile Bins     =  512
# Profile Avg      =  354.99651062432  
# Profile StdDev   =  118.664525743465 
# Reduced chi-sqr  =  1.522
# Prob(Noise)      <  2.18e-13   (~7.2 sigma)
# P_topo (ms)      =  714.471333948273  +/- 0.000311
# P'_topo (s/s)    =  -0                +/- 1.67e-10
# P''_topo (s/s^2) =  0                 +/- 7.5e-14
# P_bary (ms)      =  N/A
# P'_bary (s/s)    =  N/A
# P''_bary (s/s^2) =  N/A
# P_orb (s)        =  N/A
# asin(i)/c (s)    =  N/A
# eccentricity     =  N/A
# w (rad)          =  N/A
# T_peri           =  N/A
######################################################
   0  1180.013
   1  924.4742
   2  795.4776
   3  638.6701
   4  442.1558
   5  399.6428
   6  273.1572
   7  358.3207
   8  312.9711
   9  394.678
  10  347.3181
  11  412.2321
  12  552.8052
  13  387.928
  14  309.8531
  15  410.8896
  16  454.6786
  17  493.0563
  18  423.5293
  19  459.7735
  20  519.599
  21  345.0599
  22  246.6313
  23  390.8577
  24  408.2307
  25  357.9652
  26  249.8383
  27  312.2213
  28  331.1653
  29  358.0545
  30  471.2533
  31  456.3862
  32  433.0477
  33  371.7765
  34  376.3794
  35  430.5624
  36  423.0098
  37  373.2948
  38  420.3351
  39  398.1213
  40  334.8669
  41  400.9094
  42  329.4825
  43  328.0686
  44  350.2785
  45  311.8895
  46  427.998
  47  395.325
  48  337.2771
  49  453.4504
  50  443.0549
  51  381.4803
  52  377.5361
  53  339.3085
  54  399.0735
  55  402.15
  56  340.6646
  57  385.4992
  58  482.0108
  59  355.7593
  60  334.598
  61  343.5062
  62  319.3023
  63  282.1152
  64  382.3868
  65  406.1702
  66  305.8284
  67  344.795
  68  343.0796
  69  354.5642
  70  361.286
  71  304.694
  72  357.6137
  73  415.4916
  74  444.5722
  75  373.2609
  76  404.2932
  77  418.792
  78  476.9286
  79  439.2447
  80  339.9809
  81  280.7925
  82  284.8168
  83  332.7412
  84  391.6175
  85  399.3735
  86  492.5055
  87  492.0102
  88  438.1665
  89  612.1659
  90  424.3664
  91  343.3091
  92  370.5235
  93  438.4156
  94  426.0817
  95  275.3875
  96  403.5996
  97  352.109
  98  380.2156
  99  274.8935
 100  209.6471
 101  304.583
 102  413.2807
 103  485.7889
 104  459.3128
 105  450.1346
 106  336.0131
 107  355.2956
 108  396.2371
 109  366.1157
 110  323.3989
 111  340.0652
 112  331.9213
 113  413.8288
 114  528.7716
 115  371.4817
 116  327.4572
 117  323.3525
 118  417.3441
 119  421.1139
 120  504.9794
 121  460.9128
 122  392.9288
 123  355.6909
 124  393.0388
 125  443.0432
 126  346.347
 127  283.2382
 128  307.2702
 129  382.2733
 130  371.6155
 131  441.9117
 132  531.255
 133  414.9995
 134  343.9783
 135  494.927
 136  422.2526
 137  522.2044
 138  429.7279
 139  462.3398
 140  436.3945
 141  517.7938
 142  490.9478
 143  431.698
 144  348.441
 145  360.7027
 146  235.7738
 147  371.2559
 148  460.4395
 149  341.2071
 150  349.3529
 151  408.1606
 152  308.6846
 153  237.6092
 154  313.4065
 155  375.653
 156  403.485
 157  313.7945
 158  335.7599
 159  437.8035
 160  494.5403
 161  457.4848
 162  413.2841
 163  405.6354
 164  451.6609
 165  431.8221
 166  410.9648
 167  412.2619
 168  406.6302
 169  295.4579
 170  259.6313
 171  300.3498
 172  334.4539
 173  334.8399
 174  400.4014
 175  447.9083
 176  260.0108
 177  298.8315
 178  361.8843
 179  326.471
 180  333.839
 181  342.7352
 182  299.3054
 183  415.5674
 184  282.7953
 185  269.3649
 186  366.6272
 187  412.71
 188  429.4332
 189  346.4539
 190  297.3713
 191  354.6832
 192  406.2164
 193  354.1608
 194  243.9089
 195  220.8576
 196  384.3467
 197  402.1461
 198  369.5869
 199  399.3559
 200  410.72
 201  402.3847
 202  343.6048
 203  285.5003
 204  352.255
 205  437.7083
 206  447.6671
 207  376.1635
 208  283.622
 209  298.5643
 210  330.4019
 211  337.4853
 212  304.3675
 213  314.4755
 214  398.3513
 215  354.0186
 216  387.7337
 217  340.5149
 218  305.5826
 219  397.0106
 220  352.8049
 221  331.5086
 222  289.9961
 223  417.5345
 224  401.8531
 225  440.412
 226  424.057
 227  367.9479
 228  447.219
 229  385.053
 230  434.2634
 231  469.7112
 232  328.6419
 233  384.9425
 234  399.7627
 235  390.2083
 236  248.2917
 237  241.5515
 238  348.3987
 239  351.313
 240  263.0284
 241  214.9371
 242  274.125
 243  323.1927
 244  337.6097
 245  240.6453
 246  277.0974
 247  320.6121
 248  334.6855
 249  320.7905
 250  243.5614
 251  203.0741
 252  344.1352
 253  396.9332
 254  403.0232
 255  287.2196
 256  293.2861
 257  330.0433
 258  400.0948
 259  378.4667
 260  256.6231
 261  260.541
 262  299.4975
 263  289.6861
 264  278.7013
 265  279.2036
 266  365.1937
 267  360.8897
 268  347.2123
 269  234.1643
 270  226.7047
 271  413.2504
 272  387.9471
 273  376.8246
 274  323.6379
 275  236.3989
 276  247.9127
 277  285.6769
 278  389.2906
 279  325.8348
 280  409.4946
 281  427.8219
 282  258.7662
 283  303.8417
 284  303.2841
 285  315.2878
 286  340.1248
 287  329.8639
 288  394.4843
 289  438.3667
 290  524.4634
 291  354.8831
 292  296.0441
 293  335.3747
 294  410.5773
 295  307.796
 296  403.8129
 297  455.5184
 298  313.5633
 299  168.0433
 300  295.1684
 301  320.9716
 302  228.5164
 303  347.2422
 304  343.2148
 305  245.3149
 306  327.9898
 307  403.7276
 308  311.9775
 309  373.1445
 310  367.3233
 311  365.1523
 312  305.6194
 313  263.2869
 314  218.0801
 315  226.2231
 316  281.0625
 317  292.2003
 318  380.0838
 319  331.6697
 320  289.8667
 321  322.3543
 322  379.7538
 323  390.7837
 324  253.9688
 325  322.3092
 326  236.6461
 327  275.3383
 328  319.6756
 329  417.6186
 330  335.1797
 331  208.0639
 332  270.0202
 333  267.6286
 334  234.8443
 335  185.6027
 336  233.7962
 337  301.9357
 338  309.3287
 339  375.4091
 340  374.7252
 341  275.76
 342  270.9708
 343  274.3646
 344  259.955
 345  185.3943
 346  187.8071
 347  238.9678
 348  299.4568
 349  315.8719
 350  289.6134
 351  209.2941
 352  283.0288
 353  339.4475
 354  333.311
 355  329.444
 356  231.4497
 357  186.2218
 358  214.2815
 359  134.6606
 360  130.5483
 361  258.9178
 362  294.5875
 363  349.7152
 364  275.1037
 365  310.5708
 366  386.8734
 367  361.1896
 368  310.5479
 369  453.8592
 370  357.574
 371  333.4631
 372  307.9344
 373  405.6813
 374  476.9573
 375  222.0233
 376  253.5747
 377  366.5468
 378  301.5186
 379  409.5711
 380  365.6338
 381  348.8039
 382  362.8412
 383  266.859
 384  371.0844
 385  280.3203
 386  332.9324
 387  217.1425
 388  240.176
 389  269.0056
 390  252.6119
 391  252.0157
 392  223.7632
 393  263.9865
 394  220.6873
 395  193.7355
 396  281.2764
 397  187.1548
 398  161.9926
 399  246.2774
 400  267.0338
 401  189.2051
 402  431.9647
 403  348.2243
 404  316.1414
 405  297.6645
 406  347.423
 407  376.8496
 408  346.9219
 409  279.0272
 410  410.204
 411  325.3164
 412  329.3219
 413  455.544
 414  380.4196
 415  282.4637
 416  288.9601
 417  260.6202
 418  411.6216
 419  336.7939
 420  334.3847
 421  231.2022
 422  235.8596
 423  216.9208
 424  224.9622
 425  391.4761
 426  379.4115
 427  274.3825
 428  278.8125
 429  274.9648
 430  343.6695
 431  367.5146
 432  352.0464
 433  300.3915
 434  339.7696
 435  332.5385
 436  360.6295
 437  411.0538
 438  490.7106
 439  340.7209
 440  275.3716
 441  206.118
 442  246.983
 443  207.9385
 444  347.797
 445  321.1871
 446  235.6601
 447  272.6033
 448  379.2695
 449  312.4277
 450  380.8507
 451  289.1199
 452  324.2998
 453  469.1554
 454  379.0783
 455  272.141
 456  348.2156
 457  343.4104
 458  291.7336
 459  337.7913
 460  319.808
 461  238.0642
 462  299.0237
 463  341.6226
 464  313.6531
 465  311.5691
 466  366.0325
 467  290.903
 468  321.3091
 469  334.633
 470  260.6186
 471  338.2523
 472  429.2496
 473  377.4311
 474  217.452
 475  280.2666
 476  426.8414
 477  359.1221
 478  413.1718
 479  371.6277
 480  277.4509
 481  378.0717
 482  380.291
 483  334.3536
 484  318.1639
 485  255.5367
 486  413.2938
 487  391.0796
 488  229.6201
 489  132.2432
 490  316.7547
 491  387.3205
 492  342.6177
 493  134.49
 494  343.0442
 495  448.3778
 496  412.8676
 497  356.7517
 498  441.0202
 499  353.1254
 500  337.982
 501  490.3246
 502  545.4128
 503  568.6882
 504  569.4089
 505  511.2318
 506  371.8508
 507  465.0068
 508  770.5259
 509  815.9768
 510  982.2078
 511  1162.707
