# Input file       =  1185592917.121895_cleaned.dat
# Candidate        =  PSR_0332+5434
# Telescope        =  AR
# Epoch_topo       =  57966.140464373784
# Epoch_bary       =  N/A
# T_sample         =  0.002
# Data Folded      =  7340032
# Data Avg         =  0.1888026641318  
# Data StdDev      =  4.15286006517852 
# Profile Bins     =  512
# Profile Avg      =  2706.4334880538  
# Profile StdDev   =  497.234545251639 
# Reduced chi-sqr  =  1.406
# Prob(Noise)      <  3.35e-09   (~5.8 sigma)
# P_topo (ms)      =  714.469432770943  +/- 0.000915
# P'_topo (s/s)    =  -0                +/- 4.83e-10
# P''_topo (s/s^2) =  0                 +/- 2.13e-13
# P_bary (ms)      =  N/A
# P'_bary (s/s)    =  N/A
# P''_bary (s/s^2) =  N/A
# P_orb (s)        =  N/A
# asin(i)/c (s)    =  N/A
# eccentricity     =  N/A
# w (rad)          =  N/A
# T_peri           =  N/A
######################################################
   0  2724.554
   1  2482.793
   2  2357.365
   3  2492.05
   4  2707.727
   5  2506.196
   6  2271.315
   7  2203.138
   8  2403.05
   9  2301.902
  10  2518.276
  11  2554.561
  12  2785.536
  13  2457.874
  14  2561.802
  15  2704.961
  16  2486.628
  17  2371.496
  18  2619.45
  19  2522.813
  20  2429.779
  21  2682.436
  22  2146.561
  23  2055.16
  24  2357.69
  25  2310.566
  26  2325.509
  27  2629.346
  28  2168.46
  29  2637.611
  30  2421.702
  31  2168.657
  32  2079.603
  33  2285.857
  34  2343.262
  35  2485.064
  36  2606.147
  37  2601.001
  38  2559.492
  39  2704.563
  40  2447.264
  41  2555.477
  42  2769.09
  43  2852.806
  44  2828.687
  45  2708.547
  46  2648.989
  47  2643.546
  48  2579.119
  49  2635.298
  50  2527.052
  51  2721.823
  52  2597.737
  53  2643.94
  54  2796.259
  55  2725.938
  56  2552.923
  57  2612.63
  58  2778.836
  59  2811.474
  60  2434.996
  61  2521.223
  62  2688.916
  63  2423.199
  64  2634.289
  65  2925.354
  66  2601.999
  67  2363.361
  68  2281.687
  69  2551.093
  70  2472.858
  71  2659.222
  72  2865.355
  73  2584.515
  74  2216.906
  75  2259.475
  76  2382.579
  77  2396.405
  78  2600.505
  79  2942.389
  80  2798.339
  81  2881.109
  82  2686.935
  83  2564.344
  84  2767.847
  85  2833.337
  86  2805.505
  87  2670.209
  88  2739.713
  89  2677.838
  90  2615.249
  91  2517.454
  92  2700.93
  93  3072.158
  94  3127.335
  95  3091.827
  96  2753.337
  97  2914.472
  98  2844.359
  99  3007.252
 100  3105.358
 101  3112.243
 102  2870.735
 103  2825.787
 104  2698.787
 105  2779.382
 106  2954.63
 107  3130.882
 108  3019.066
 109  3046.458
 110  3130.316
 111  3080.997
 112  2916.351
 113  2901.429
 114  3128.132
 115  3202.521
 116  2911.3
 117  3104.636
 118  2888.863
 119  2718.787
 120  2748.722
 121  2636.966
 122  2657.469
 123  2880.639
 124  3110.159
 125  3111.172
 126  3084.563
 127  2569.22
 128  2868.523
 129  2817.832
 130  2598.732
 131  2710.933
 132  2859.231
 133  2887.752
 134  3153.573
 135  2737.962
 136  2990.147
 137  2539.77
 138  2346.34
 139  2506.563
 140  2886.986
 141  2834.762
 142  2938.416
 143  2966.118
 144  3201.719
 145  3283.748
 146  3065.241
 147  3265.868
 148  3091.406
 149  2889.679
 150  2754.179
 151  2956.433
 152  3158.191
 153  3053.065
 154  2814.814
 155  2860.546
 156  2938.236
 157  2852.53
 158  2807.576
 159  2954.168
 160  2902.446
 161  2743.935
 162  2925.856
 163  2910.957
 164  2801.464
 165  2919.531
 166  2939.423
 167  3098.616
 168  3015.69
 169  2946.275
 170  2771.469
 171  2632.036
 172  2966.806
 173  2998.733
 174  2775.105
 175  2830.998
 176  2616.46
 177  2643.413
 178  2669.924
 179  2762.185
 180  2731.598
 181  2925.856
 182  2890.799
 183  2665.246
 184  3032.411
 185  3160.965
 186  2858.482
 187  2767.698
 188  2848.805
 189  3104.673
 190  3046.038
 191  3011.675
 192  3244.882
 193  3188.141
 194  3228.592
 195  3268.047
 196  3500.241
 197  3413.621
 198  3424.048
 199  3719.605
 200  3576.563
 201  3215.466
 202  3071.115
 203  3321.526
 204  3454.922
 205  3359.694
 206  3133.174
 207  3159.059
 208  3346.496
 209  3296.093
 210  3394.756
 211  3413.468
 212  3079.332
 213  3518.946
 214  3544.606
 215  3324.845
 216  3454.456
 217  3454.066
 218  3834.818
 219  3886.309
 220  3664.552
 221  3407.66
 222  3695.007
 223  3954.447
 224  3611.956
 225  3653.821
 226  3678.152
 227  3982.697
 228  3451.72
 229  3399.712
 230  3100.854
 231  3166.206
 232  3229.591
 233  3316.932
 234  3447.209
 235  3183.652
 236  3174.884
 237  3487.594
 238  3347.974
 239  3330.748
 240  3237.054
 241  3027.222
 242  3304.449
 243  3268.654
 244  3330.986
 245  2968.251
 246  3112.795
 247  3465.984
 248  3246.32
 249  3435.31
 250  3269.471
 251  3109.43
 252  3116.21
 253  2981.035
 254  3304.316
 255  3339.751
 256  3094.554
 257  3040.79
 258  3118.915
 259  3093.146
 260  3134.48
 261  2691.523
 262  2939.373
 263  3137.721
 264  2664.84
 265  2648.495
 266  2526.836
 267  2493.004
 268  2275.285
 269  2233.316
 270  2255.421
 271  2442.507
 272  2745.15
 273  2413.134
 274  2387.025
 275  2276.029
 276  2669.256
 277  2697.158
 278  2685.277
 279  2724.891
 280  2714.754
 281  2389.273
 282  1801.72
 283  1860.516
 284  2272.15
 285  2322.318
 286  2421.671
 287  2410.063
 288  2312.321
 289  2582.562
 290  2551.174
 291  2688.053
 292  2410.468
 293  2156.247
 294  2066.183
 295  2390.559
 296  2468.988
 297  2366.787
 298  2077.269
 299  1946.984
 300  2151.127
 301  2189.8
 302  2171.752
 303  2110.397
 304  1976
 305  2208.33
 306  2398.252
 307  1964.165
 308  2062.254
 309  2421.849
 310  2074.66
 311  2348.136
 312  2220.397
 313  1917.907
 314  2205.624
 315  2285.911
 316  2563.636
 317  2442.751
 318  2456.094
 319  2480.429
 320  2204.95
 321  2038.117
 322  2439.443
 323  2367.12
 324  2294.563
 325  2149.641
 326  2403.771
 327  2272.249
 328  1793.254
 329  2072.521
 330  2363.584
 331  2322.087
 332  2161.599
 333  2356.288
 334  1995.234
 335  2054.076
 336  2301.399
 337  2181.304
 338  2210.335
 339  2194.315
 340  2029.098
 341  1962.517
 342  2263.821
 343  2375.588
 344  2129.727
 345  2108.562
 346  2406.839
 347  1973.402
 348  1881.519
 349  2018.531
 350  1842.868
 351  2194.482
 352  2321.36
 353  2356.992
 354  2240.577
 355  2108.062
 356  2094.637
 357  2198.289
 358  2210.284
 359  1879.781
 360  2049.51
 361  2464.415
 362  2103.929
 363  1841.734
 364  1858.362
 365  1888.691
 366  2041.444
 367  2025.972
 368  2166.311
 369  2262.113
 370  2209.888
 371  1978.89
 372  1972.677
 373  2199.799
 374  2563.244
 375  2399.156
 376  2241.373
 377  2393.266
 378  2216.644
 379  2269.905
 380  2549.555
 381  2582.291
 382  2237.93
 383  2456.584
 384  2473.909
 385  2309.932
 386  2372.522
 387  2027.359
 388  1994.407
 389  2349.498
 390  2491.153
 391  2772.333
 392  2372.889
 393  2229.01
 394  2286.903
 395  2475.456
 396  2651.756
 397  2539.824
 398  2348.454
 399  2313.438
 400  2333.394
 401  2483.497
 402  2712.017
 403  2658.304
 404  2486.935
 405  2482.002
 406  2518.321
 407  2700.927
 408  2778.093
 409  2646.389
 410  2287.351
 411  2403.622
 412  2955.435
 413  2964.951
 414  2946.513
 415  2956.22
 416  2802.91
 417  3049.593
 418  2850.077
 419  2523.488
 420  2879.104
 421  3009.199
 422  2875.589
 423  2793.95
 424  2898.866
 425  2750.563
 426  2658.895
 427  2914.204
 428  2928.069
 429  2741.775
 430  2816.812
 431  3056.536
 432  2876.835
 433  2718.392
 434  2843.448
 435  2703.951
 436  2460.095
 437  2760.229
 438  2997.595
 439  2954.816
 440  2508.989
 441  2322.928
 442  2800.542
 443  2856.182
 444  2419.067
 445  2486.27
 446  2446.071
 447  2312.987
 448  2459.622
 449  3080.151
 450  2734.886
 451  2481.486
 452  2526.63
 453  2686.863
 454  2876.627
 455  3035.682
 456  2900.312
 457  3083.831
 458  3369.279
 459  3706.164
 460  4023.717
 461  4208.52
 462  4132.868
 463  4147.218
 464  3830.012
 465  3358.269
 466  2903.036
 467  2693.894
 468  2629.845
 469  2437.602
 470  2189.724
 471  1924.614
 472  2575.75
 473  2658.071
 474  2623.349
 475  2789.8
 476  2642.814
 477  2604.78
 478  2614.502
 479  2488.778
 480  2370.71
 481  2312.975
 482  2594.382
 483  2738.779
 484  2487.75
 485  2580.368
 486  2524.158
 487  2324.485
 488  2674.474
 489  2649.506
 490  2830.161
 491  2829.752
 492  2796.976
 493  2805.099
 494  2679.088
 495  2593.009
 496  2650.056
 497  2611.258
 498  2683.924
 499  2916.578
 500  2846.714
 501  2998.23
 502  2917.256
 503  2825.484
 504  2938.133
 505  2840.092
 506  2776.537
 507  2917.529
 508  2964.484
 509  2798.435
 510  2838.497
 511  2818.469
