# Input file       =  1185851408.100563_cleaned.dat
# Candidate        =  PSR_0332+5434
# Telescope        =  AR
# Epoch_topo       =  57969.132258108366
# Epoch_bary       =  N/A
# T_sample         =  0.002
# Data Folded      =  7340032
# Data Avg         =  0.126742073202746
# Data StdDev      =  6.07162140133564 
# Profile Bins     =  512
# Profile Avg      =  1816.71412481133 
# Profile StdDev   =  726.973666112072 
# Reduced chi-sqr  =  0.875
# Prob(Noise)      <  0.98   (~0.0 sigma)
# P_topo (ms)      =  714.468212468009  +/- 0.000298
# P'_topo (s/s)    =  -0                +/- 1.57e-10
# P''_topo (s/s^2) =  0                 +/- 6.95e-14
# P_bary (ms)      =  N/A
# P'_bary (s/s)    =  N/A
# P''_bary (s/s^2) =  N/A
# P_orb (s)        =  N/A
# asin(i)/c (s)    =  N/A
# eccentricity     =  N/A
# w (rad)          =  N/A
# T_peri           =  N/A
######################################################
   0  2255.87
   1  3011.729
   2  2865.321
   3  3063.498
   4  1972.826
   5  1478.377
   6  1526.522
   7  2423.839
   8  2431.393
   9  2824.29
  10  2255.262
  11  2296.84
  12  2060.378
  13  2626.613
  14  3053.11
  15  2308.913
  16  2617.634
  17  3072.944
  18  2499.035
  19  2535.946
  20  2100.134
  21  2714.907
  22  2608.618
  23  2015.521
  24  2231.782
  25  1524.355
  26  1682.909
  27  2361.435
  28  1736.745
  29  1708.625
  30  1507.302
  31  876.2885
  32  1183.484
  33  1728.202
  34  2326.904
  35  2226.661
  36  2091.064
  37  1609.411
  38  1509.861
  39  2053.636
  40  2550.15
  41  2241.579
  42  2336.83
  43  2401.87
  44  2261.188
  45  2225.4
  46  2119.308
  47  1512.407
  48  1597.843
  49  1581.838
  50  2308.964
  51  2999.432
  52  2109.486
  53  1687.876
  54  1733.729
  55  1872.958
  56  1821.989
  57  2406.433
  58  2707.005
  59  2272.13
  60  2602.621
  61  2697.903
  62  2116.211
  63  1418.789
  64  1975.435
  65  1873.799
  66  2179.312
  67  1890.737
  68  1912.103
  69  1401.985
  70  1150.778
  71  1733.68
  72  1279.606
  73  1552.734
  74  1525.526
  75  1734.053
  76  1593.537
  77  1611.502
  78  1809.777
  79  2095.469
  80  2235.079
  81  1181.911
  82  1470.806
  83  1302.451
  84  1537.477
  85  1159.318
  86  1380.628
  87  1444.253
  88  1849.577
  89  1356.036
  90  2016.242
  91  2490.088
  92  2049.936
  93  1772.883
  94  1078.968
  95  888.1545
  96  1754.853
  97  1739.269
  98  1890.427
  99  2043.217
 100  2522.032
 101  2624.282
 102  2633.323
 103  2014.761
 104  1618.721
 105  1637.819
 106  1596.234
 107  2315.317
 108  2325.994
 109  2114.988
 110  2243.582
 111  2558.268
 112  2252.505
 113  2153.386
 114  1803.19
 115  1619.627
 116  1673.166
 117  2118.449
 118  2105.895
 119  2055.964
 120  1743.82
 121  1755.956
 122  1698.115
 123  1352.524
 124  1450.951
 125  1621.596
 126  2219.006
 127  1844.021
 128  2001.891
 129  1786.2
 130  1616.564
 131  1705.12
 132  1834.713
 133  2111.276
 134  2253.111
 135  1858.417
 136  1468.158
 137  1889.695
 138  2002.441
 139  1558.374
 140  1487.309
 141  1588.681
 142  1520.858
 143  1842.097
 144  2034.904
 145  1628.076
 146  1832.767
 147  1767.899
 148  1603.096
 149  1870.963
 150  2556.08
 151  2350.587
 152  1727.636
 153  1721.279
 154  1466.97
 155  1334.503
 156  2036.097
 157  1936.23
 158  2218.229
 159  2324.783
 160  1724.436
 161  1694.954
 162  1143.559
 163  923.5392
 164  2288.864
 165  2567.454
 166  2396.587
 167  1878.937
 168  1725.589
 169  1972.344
 170  1799.683
 171  963.163
 172  802.0939
 173  807.2944
 174  634.3799
 175  751.434
 176  1187.607
 177  1707.22
 178  1347.676
 179  1272.3
 180  1422.832
 181  1602.833
 182  1072.936
 183  896.5383
 184  1109.963
 185  1315.792
 186  1252.775
 187  1577.536
 188  1947.819
 189  1443.495
 190  1961.633
 191  2196.571
 192  1802.821
 193  1678.934
 194  1195.966
 195  1132.789
 196  558.8801
 197  930.585
 198  2164.938
 199  2017.439
 200  1564.649
 201  990.2613
 202  861.9137
 203  856.0894
 204  1378.019
 205  1307.743
 206  1304.808
 207  1254.215
 208  1031.439
 209  1041.251
 210  410.6979
 211  596.3005
 212  879.2744
 213  1054.6
 214  1172.916
 215  1127.886
 216  1546.822
 217  1054.661
 218  1313.399
 219  1737.718
 220  2141.078
 221  1416.676
 222  1341.413
 223  2151.917
 224  1798.644
 225  1830.46
 226  1325.484
 227  1611.835
 228  2241.986
 229  2173.101
 230  1971.125
 231  1790.596
 232  1860.651
 233  2427.196
 234  2048.315
 235  2467.012
 236  2411.935
 237  1541.665
 238  1717.118
 239  1876.045
 240  1667.999
 241  2335.339
 242  1934.012
 243  2004.05
 244  1828.883
 245  2028.168
 246  1989.956
 247  1860.985
 248  2196.569
 249  1760.26
 250  1610.847
 251  1477.473
 252  1021.578
 253  1485.971
 254  2022.18
 255  1955.673
 256  1517.841
 257  1648.92
 258  2060.104
 259  2169.066
 260  2197.686
 261  1753.628
 262  1665.942
 263  1575.937
 264  1711.285
 265  1467.334
 266  1606.443
 267  1800.091
 268  1911.751
 269  1496.022
 270  1510.141
 271  1498.994
 272  2007.389
 273  2446.021
 274  1536.727
 275  1359.662
 276  2221.247
 277  2093.554
 278  1833.204
 279  2120.072
 280  1787.977
 281  895.0537
 282  1278.213
 283  1727.066
 284  1918.754
 285  1757.188
 286  1605.777
 287  1643.881
 288  1685.784
 289  1256.844
 290  1871.849
 291  2182.497
 292  2435.845
 293  2401.837
 294  1765.221
 295  1692.988
 296  1535.878
 297  1945.797
 298  2045.533
 299  2370.438
 300  2399.211
 301  1922.102
 302  1973.954
 303  1464.038
 304  2395.9
 305  2271.385
 306  1181.439
 307  1648.434
 308  1426.395
 309  1190.928
 310  1661.656
 311  2246.551
 312  2338.949
 313  1998.937
 314  2046.037
 315  2368.435
 316  2303.411
 317  2350.649
 318  2247.856
 319  1989.32
 320  1900.769
 321  3137.901
 322  3469.986
 323  3467.346
 324  3790.653
 325  3536.233
 326  3944.166
 327  3891.634
 328  2848.465
 329  2301.536
 330  1817.957
 331  1894.395
 332  1706.214
 333  1990.041
 334  1818.342
 335  2226.364
 336  1821.349
 337  1738.482
 338  2155.011
 339  1349.089
 340  1320.496
 341  2081.492
 342  1705.006
 343  1454.622
 344  2059.568
 345  2070.583
 346  1505.495
 347  1636.394
 348  1579.57
 349  1925.977
 350  2572.734
 351  2300.625
 352  1683.02
 353  1102.679
 354  1547.311
 355  1801.234
 356  2255.471
 357  2539.324
 358  1469.476
 359  1116.795
 360  1158.841
 361  1223.024
 362  1715.364
 363  2532.352
 364  2353.242
 365  2318.511
 366  1731.783
 367  1912.326
 368  1512.652
 369  1396.796
 370  1641.375
 371  1478.571
 372  1459.617
 373  861.249
 374  965.0406
 375  1634.085
 376  1785.907
 377  1870.678
 378  1419.265
 379  1167.046
 380  1146.618
 381  1356.406
 382  2236.97
 383  1858.465
 384  1585.158
 385  2086.86
 386  2141.041
 387  1784.722
 388  1729.375
 389  2033.957
 390  2041.494
 391  1941.625
 392  1563.703
 393  1773.822
 394  1280.37
 395  1423.521
 396  2010.771
 397  2214.823
 398  1434.678
 399  900.2983
 400  1448.199
 401  1730.504
 402  1523.877
 403  1646.387
 404  2038.608
 405  1561.178
 406  1535.024
 407  1328.359
 408  1594.445
 409  1929.431
 410  1800.775
 411  1498.427
 412  1622.754
 413  1722.26
 414  1671.677
 415  2109.988
 416  1725.601
 417  1941.201
 418  1876.036
 419  1880.027
 420  1894.624
 421  1683.103
 422  1769.071
 423  1686.155
 424  1513.726
 425  1886.771
 426  2117.646
 427  2330.299
 428  2558.966
 429  2530.599
 430  1829.403
 431  1536.916
 432  1789.124
 433  2139.631
 434  1917.722
 435  1464.024
 436  1837.169
 437  1497.577
 438  1788.508
 439  1630.715
 440  1559.71
 441  1716.415
 442  1581.78
 443  1955.414
 444  1851.546
 445  1332.245
 446  812.0873
 447  1494.094
 448  1580.821
 449  1464.154
 450  1275.059
 451  1800.611
 452  1505.591
 453  1330.519
 454  1749.15
 455  2175.395
 456  2028.673
 457  1967.613
 458  2366.148
 459  1679.04
 460  1340.035
 461  1524.153
 462  2011.863
 463  1734.332
 464  1741.209
 465  1780.416
 466  2029.208
 467  1550.594
 468  1545.801
 469  1394.373
 470  1076.343
 471  995.1996
 472  1486
 473  1929.705
 474  1696.843
 475  1848.247
 476  2078.419
 477  2093.805
 478  1664.127
 479  2191.321
 480  1514.774
 481  1440.675
 482  1562.615
 483  1958.195
 484  1704.338
 485  1707.119
 486  2179.965
 487  1895.62
 488  1948.171
 489  1703.962
 490  2081.31
 491  2830.28
 492  2673.265
 493  2380.455
 494  2172.876
 495  2248.885
 496  1897.423
 497  1739.162
 498  1591.533
 499  2119.023
 500  2054.853
 501  2157.986
 502  2235.143
 503  1797.606
 504  1479.656
 505  1380.328
 506  1167.976
 507  882.9775
 508  1559.09
 509  1894.892
 510  1157.039
 511  1047.336
