# Input file       =  1185866322.111711_cleaned.dat
# Candidate        =  PSR_0332+5434
# Telescope        =  AR
# Epoch_topo       =  57969.304873978137
# Epoch_bary       =  N/A
# T_sample         =  0.002
# Data Folded      =  7340032
# Data Avg         =  0.0145599204645675
# Data StdDev      =  2.68325577315246 
# Profile Bins     =  512
# Profile Avg      =  208.63469158835  
# Profile StdDev   =  321.274361095032 
# Reduced chi-sqr  =  1.554
# Prob(Noise)      <  1.18e-14   (~7.6 sigma)
# P_topo (ms)      =  714.468480651171  +/- 0.000142
# P'_topo (s/s)    =  -0                +/- 7.47e-11
# P''_topo (s/s^2) =  0                 +/- 3.3e-14
# P_bary (ms)      =  N/A
# P'_bary (s/s)    =  N/A
# P''_bary (s/s^2) =  N/A
# P_orb (s)        =  N/A
# asin(i)/c (s)    =  N/A
# eccentricity     =  N/A
# w (rad)          =  N/A
# T_peri           =  N/A
######################################################
   0  -109.6463
   1  -39.10177
   2  196.8254
   3  381.2416
   4  292.8095
   5  246.8398
   6  126.941
   7  47.36597
   8  517.3102
   9  451.1758
  10  392.1894
  11  147.8012
  12  214.4874
  13  20.334
  14  94.02995
  15  272.8465
  16  536.2443
  17  344.6055
  18  500.7802
  19  420.7632
  20  347.3913
  21  667.0636
  22  479.4835
  23  28.77878
  24  323.0061
  25  168.0578
  26  -572.3748
  27  -327.9025
  28  71.83321
  29  246.3114
  30  551.7184
  31  641.4247
  32  554.8156
  33  301.045
  34  160.7697
  35  313.8401
  36  220.1212
  37  63.29546
  38  -4.777175
  39  24.06152
  40  -380.4704
  41  -535.4254
  42  -192.397
  43  279.8065
  44  659.2517
  45  590.1332
  46  662.8246
  47  731.872
  48  462.6614
  49  -64.1242
  50  -104.8365
  51  547.4633
  52  411.1997
  53  73.31392
  54  81.23445
  55  496.0244
  56  361.4749
  57  -27.38255
  58  44.43516
  59  576.1172
  60  352.5381
  61  180.9808
  62  191.9355
  63  147.5447
  64  392.4438
  65  475.1205
  66  294.5978
  67  275.4733
  68  240.4482
  69  254.6522
  70  224.1771
  71  339.169
  72  881.9863
  73  1375.495
  74  1688.905
  75  1868.846
  76  1524.053
  77  1622.068
  78  1507.741
  79  801.9797
  80  680.8108
  81  467.7239
  82  4.165387
  83  24.58354
  84  606.2152
  85  776.1304
  86  530.3834
  87  362.6669
  88  245.5976
  89  154.9613
  90  -19.2873
  91  189.5997
  92  353.8116
  93  -131.7753
  94  -260.0004
  95  300.711
  96  267.2318
  97  110.0157
  98  132.1011
  99  -169.9027
 100  207.4657
 101  447.7651
 102  233.407
 103  434.1455
 104  71.27124
 105  -17.12105
 106  -41.29887
 107  -284.096
 108  -141.682
 109  133.5468
 110  638.764
 111  306.0897
 112  106.8979
 113  131.6257
 114  -103.1102
 115  -2.848379
 116  113.4695
 117  220.4039
 118  301.8186
 119  413.4068
 120  563.6208
 121  775.1382
 122  537.5275
 123  553.6978
 124  370.7732
 125  525.0688
 126  211.6796
 127  34.71687
 128  230.4661
 129  341.9152
 130  691.7543
 131  154.2831
 132  -206.5563
 133  65.68675
 134  487.6741
 135  285.1863
 136  469.0897
 137  498.169
 138  442.525
 139  193.9554
 140  269.054
 141  -148.0635
 142  233.2857
 143  298.1595
 144  210.2055
 145  538.438
 146  706.7364
 147  643.4287
 148  418.3456
 149  244.4894
 150  593.9601
 151  90.2448
 152  230.4873
 153  -58.43011
 154  105.2286
 155  174.3424
 156  -72.74403
 157  -159.0217
 158  -344.6213
 159  -138.6352
 160  123.7738
 161  553.7857
 162  582.776
 163  482.2091
 164  57.80308
 165  -14.6738
 166  147.0373
 167  278.5014
 168  382.3665
 169  261.7922
 170  117.9278
 171  -10.56881
 172  111.0333
 173  419.2195
 174  361.204
 175  247.8397
 176  187.7863
 177  -153.1199
 178  131.4946
 179  337.609
 180  413.3513
 181  345.0869
 182  198.6091
 183  273.9183
 184  529.9291
 185  507.6232
 186  49.85365
 187  165.23
 188  -48.65973
 189  -124.0934
 190  224.4261
 191  23.29763
 192  292.6334
 193  451.6796
 194  307.8782
 195  353.7743
 196  964.4319
 197  983.4648
 198  270.1932
 199  10.84483
 200  124.0611
 201  199.5804
 202  79.07025
 203  396.6104
 204  547.558
 205  449.5355
 206  516.359
 207  280.3867
 208  46.96268
 209  173.9819
 210  426.0963
 211  339.3637
 212  274.0673
 213  213.4872
 214  60.42006
 215  203.2023
 216  128.4879
 217  279.707
 218  326.9504
 219  144.3802
 220  100.1598
 221  -87.72092
 222  41.20044
 223  12.2467
 224  -11.28645
 225  -101.0582
 226  182.8501
 227  352.6648
 228  350.5325
 229  227.8664
 230  413.8271
 231  310.2513
 232  106.717
 233  389.8804
 234  490.3252
 235  109.927
 236  78.50875
 237  439.0762
 238  586.3721
 239  332.3644
 240  189.3631
 241  174.5552
 242  -37.43615
 243  -87.83603
 244  -176.6045
 245  -6.943837
 246  -246.8905
 247  105.4758
 248  246.7012
 249  -130.8412
 250  77.09409
 251  119.5358
 252  502.8963
 253  160.7156
 254  192.8248
 255  147.5428
 256  -26.12941
 257  -60.80385
 258  62.46851
 259  278.4854
 260  -15.45397
 261  10.86448
 262  -36.9945
 263  55.49768
 264  -160.7753
 265  -163.3439
 266  253.1279
 267  228.0773
 268  209.1743
 269  307.7051
 270  89.4786
 271  149.469
 272  56.77071
 273  -171.3324
 274  8.142114
 275  273.2188
 276  412.7598
 277  127.1386
 278  -54.46037
 279  94.16757
 280  -19.16611
 281  -134.3217
 282  257.2144
 283  476.1016
 284  338.4145
 285  294.4272
 286  184.54
 287  -69.5461
 288  84.18545
 289  122.553
 290  -142.1008
 291  12.27184
 292  197.8814
 293  272.5235
 294  63.43964
 295  72.49306
 296  -1.115082
 297  -40.2547
 298  392.2422
 299  279.2718
 300  -378.0816
 301  -37.27892
 302  230.8727
 303  404.6533
 304  379.1034
 305  144.0496
 306  16.27242
 307  133.1445
 308  263.5343
 309  201.2412
 310  415.603
 311  669.8992
 312  611.0635
 313  569.5806
 314  386.377
 315  87.13184
 316  210.5669
 317  -65.54077
 318  -19.66929
 319  303.2922
 320  384.5092
 321  80.83813
 322  -72.96827
 323  176.9272
 324  199.3268
 325  -68.96101
 326  -205.9123
 327  -147.0913
 328  -536.9836
 329  -285.0971
 330  72.83862
 331  99.40483
 332  178.7322
 333  263.2377
 334  66.36407
 335  -331.2382
 336  29.43585
 337  320.5405
 338  186.7359
 339  41.09029
 340  213.059
 341  299.5359
 342  336.6187
 343  282.8591
 344  21.10158
 345  -265.8167
 346  158.7069
 347  -6.637107
 348  127.3005
 349  284.8348
 350  245.6633
 351  239.0575
 352  15.13033
 353  -139.9355
 354  -83.01525
 355  331.2842
 356  119.961
 357  134.6313
 358  338.3697
 359  162.4525
 360  353.1546
 361  -52.15873
 362  48.96339
 363  331.6381
 364  -9.336065
 365  -53.37923
 366  265.188
 367  688.397
 368  386.6262
 369  124.631
 370  164.0884
 371  107.1961
 372  -222.8389
 373  -228.6566
 374  -252.134
 375  60.43753
 376  609.2437
 377  897.7179
 378  951.2423
 379  222.1105
 380  -217.6234
 381  10.41587
 382  33.39071
 383  200.3032
 384  119.6806
 385  -292.3659
 386  -322.0976
 387  128.761
 388  453.6027
 389  209.0061
 390  40.96924
 391  171.8419
 392  274.724
 393  186.8042
 394  292.9352
 395  598.6581
 396  232.6426
 397  77.23631
 398  -9.962742
 399  109.9786
 400  107.3569
 401  47.47329
 402  -23.68571
 403  -248.2144
 404  -23.34838
 405  46.10508
 406  63.9921
 407  208.9115
 408  77.49273
 409  -211.4277
 410  -126.6588
 411  -287.2403
 412  -262.6458
 413  243.8735
 414  614.0297
 415  232.7724
 416  262.8335
 417  9.190759
 418  -127.0757
 419  -2.74857
 420  133.0061
 421  25.45399
 422  35.49827
 423  3.701951
 424  18.05452
 425  -71.63889
 426  -199.1734
 427  -17.14702
 428  341.0196
 429  281.8644
 430  403.3922
 431  452.9794
 432  662.1631
 433  426.7255
 434  15.60525
 435  236.9843
 436  13.84088
 437  70.42603
 438  55.7658
 439  -59.64536
 440  -131.4512
 441  73.76246
 442  -60.66134
 443  -46.08193
 444  161.8319
 445  561.1168
 446  547.2367
 447  -82.85907
 448  314.0034
 449  240.7922
 450  -233.7894
 451  -74.13871
 452  336.5557
 453  267.1045
 454  58.06636
 455  -37.39748
 456  449.1583
 457  486.6922
 458  475.9063
 459  18.2049
 460  -83.81355
 461  -238.8662
 462  -273.5833
 463  250.3669
 464  247.8997
 465  590.2695
 466  464.4916
 467  272.2735
 468  169.2031
 469  143.4566
 470  281.1902
 471  97.47394
 472  318.4251
 473  324.6325
 474  489.7265
 475  366.4436
 476  329.6193
 477  -2.473472
 478  47.15815
 479  -205.8851
 480  -497.567
 481  -150.4625
 482  219.7383
 483  248.2969
 484  182.5796
 485  28.35729
 486  297.8363
 487  290.0524
 488  246.1065
 489  348.2548
 490  209.0471
 491  13.41733
 492  361.0788
 493  635.7365
 494  371.1889
 495  417.3872
 496  452.7296
 497  28.07591
 498  368.3593
 499  210.2233
 500  749.3291
 501  283.7392
 502  363.7779
 503  276.988
 504  175.8805
 505  408.2052
 506  245.1185
 507  320.3153
 508  330.6448
 509  322.3228
 510  390.4132
 511  231.3646
