# Input file       =  1185420549.118118_cleaned.dat
# Candidate        =  PSR_0332+5434
# Telescope        =  AR
# Epoch_topo       =  57964.145464330068
# Epoch_bary       =  N/A
# T_sample         =  0.002
# Data Folded      =  7340032
# Data Avg         =  0.207219863200277
# Data StdDev      =  4.10206703590409 
# Profile Bins     =  512
# Profile Avg      =  2969.11103362605 
# Profile StdDev   =  491.152941629838 
# Reduced chi-sqr  =  1.695
# Prob(Noise)      <  9.73e-21   (~9.3 sigma)
# P_topo (ms)      =  714.470319035373  +/- 0.000869
# P'_topo (s/s)    =  -0                +/- 4.59e-10
# P''_topo (s/s^2) =  0                 +/- 2.02e-13
# P_bary (ms)      =  N/A
# P'_bary (s/s)    =  N/A
# P''_bary (s/s^2) =  N/A
# P_orb (s)        =  N/A
# asin(i)/c (s)    =  N/A
# eccentricity     =  N/A
# w (rad)          =  N/A
# T_peri           =  N/A
######################################################
   0  3687.424
   1  3296.652
   2  3299.241
   3  3593.688
   4  3788.681
   5  3599.527
   6  3577.417
   7  3562.183
   8  3455.596
   9  3297.025
  10  2992.205
  11  3104.59
  12  3358.352
  13  3661.877
  14  3406.411
  15  3330.488
  16  3557.914
  17  3269.323
  18  3193.941
  19  3564.347
  20  3566.669
  21  3458.219
  22  3365.906
  23  3583.81
  24  3916.591
  25  3719.69
  26  3569.158
  27  3722.798
  28  3853.26
  29  3776.98
  30  3725.004
  31  3918.79
  32  3888.208
  33  4152.898
  34  4058.176
  35  3938.932
  36  3616.064
  37  3768.614
  38  3602.919
  39  3525.389
  40  3252.809
  41  3499.438
  42  3703.069
  43  3622.985
  44  3456.237
  45  3210.579
  46  2959.082
  47  2630.835
  48  2877.031
  49  3428.153
  50  3620.198
  51  3645.405
  52  3241.33
  53  3004.222
  54  3080.779
  55  3404.505
  56  3431.027
  57  3355.124
  58  3353.795
  59  3244.948
  60  3258.834
  61  3105.821
  62  2952.568
  63  3373.719
  64  3383.997
  65  3396.94
  66  3170.308
  67  3214.137
  68  3254.676
  69  2981.691
  70  3114.401
  71  3213.532
  72  3431.269
  73  3099.546
  74  2918.545
  75  2646.126
  76  2560.025
  77  2485.305
  78  2869.993
  79  2831.621
  80  2854.988
  81  2840.525
  82  3120.334
  83  2905.467
  84  2527.308
  85  2487.358
  86  2582.779
  87  2502.536
  88  2551.032
  89  2741.729
  90  2669.726
  91  2653.619
  92  2489.513
  93  2559.879
  94  2526.165
  95  2640.524
  96  2569.164
  97  2495.115
  98  2239.917
  99  2550.309
 100  2884.565
 101  2842.552
 102  2893.281
 103  2911.685
 104  2549.834
 105  2606.664
 106  2506.188
 107  2569.521
 108  2635.634
 109  2695.07
 110  2712.808
 111  2599.583
 112  2255.487
 113  2013.914
 114  2271.971
 115  2647.08
 116  2853.239
 117  2808.308
 118  2762.546
 119  2706.844
 120  2632.437
 121  2639.861
 122  2781.088
 123  3143.623
 124  2884.213
 125  2877.595
 126  2821.468
 127  2795.161
 128  2498.935
 129  2683.183
 130  2794.314
 131  2730.005
 132  3004.829
 133  2988.271
 134  3114.878
 135  3092.716
 136  2798.015
 137  2884.693
 138  2921.843
 139  2983.373
 140  3329.246
 141  3328.269
 142  2733.241
 143  2632.728
 144  2753.496
 145  2726.664
 146  2715.018
 147  3096.637
 148  2848.533
 149  2819.13
 150  2838.616
 151  2652.464
 152  2691.689
 153  2494.06
 154  2550.454
 155  2567.389
 156  2188.7
 157  2371.262
 158  1931.878
 159  2018.179
 160  1956.62
 161  2168.297
 162  2216.415
 163  2029.64
 164  2350.64
 165  2645.905
 166  2322.08
 167  2175.735
 168  2010.85
 169  2190.243
 170  2276.568
 171  2374.713
 172  2269.872
 173  2254.062
 174  2044.16
 175  2178.205
 176  2465.302
 177  2646.845
 178  2509.834
 179  2515.505
 180  2055.735
 181  2056.172
 182  2317.992
 183  2209.133
 184  2161.258
 185  2210.115
 186  2416.93
 187  2460.937
 188  2246.051
 189  2371.154
 190  2487.218
 191  2007.051
 192  2113.982
 193  2447.8
 194  2702.032
 195  2491.112
 196  2331.836
 197  2428.969
 198  2507.134
 199  2586.08
 200  2860.776
 201  2793.702
 202  2797.196
 203  2550.614
 204  2837.452
 205  2981.265
 206  2881.867
 207  2531.758
 208  2703.828
 209  2471.819
 210  2415.264
 211  2567.173
 212  2931.167
 213  2851.493
 214  2733.125
 215  2747.298
 216  2778.366
 217  2610.373
 218  2624.124
 219  2945.989
 220  3114.268
 221  3192.087
 222  2871.198
 223  2917.918
 224  2882.066
 225  3087.206
 226  3182.342
 227  3030.141
 228  2489.741
 229  2493.083
 230  2876.685
 231  2697.373
 232  2586.262
 233  2593.447
 234  2599.229
 235  2335.815
 236  2369.473
 237  2614.368
 238  2636.052
 239  2553.88
 240  2395.604
 241  2426.448
 242  2562.899
 243  2458.216
 244  2478.739
 245  2545.091
 246  2879.286
 247  2721.776
 248  2719.615
 249  2409.022
 250  2222.071
 251  2462.127
 252  2544.547
 253  2596.864
 254  2633.843
 255  2624.832
 256  2587.926
 257  2309.059
 258  2459.214
 259  2411.58
 260  2220.472
 261  2394.591
 262  2646.469
 263  2560.194
 264  2545.96
 265  2346.312
 266  2322.832
 267  2380.734
 268  2529.395
 269  2624.712
 270  2783.269
 271  2716.669
 272  2468.467
 273  2509.613
 274  2548.581
 275  2680.588
 276  3079.773
 277  3127.62
 278  3138.838
 279  2854.56
 280  2747.287
 281  2482.382
 282  2504.017
 283  2348.81
 284  2290.874
 285  2352.661
 286  2600.73
 287  2405.558
 288  2247.344
 289  2387.2
 290  2212.147
 291  2242.651
 292  2397.504
 293  2273.36
 294  2333.133
 295  2483.515
 296  2487.344
 297  2520.194
 298  2637.313
 299  2769.722
 300  2755.98
 301  2830.636
 302  2721.667
 303  2888.511
 304  3098.265
 305  2560.755
 306  2597.135
 307  2426.341
 308  2284.588
 309  2776.464
 310  2741.467
 311  2407.985
 312  2515.659
 313  2684.606
 314  2450.987
 315  2115.827
 316  2374.974
 317  2787.551
 318  2841.842
 319  3140.998
 320  3260.457
 321  2985.099
 322  3105.318
 323  3790.646
 324  4122.612
 325  4075.875
 326  3997.592
 327  3645.801
 328  3021.938
 329  2763.223
 330  2575.088
 331  2541.618
 332  2800.583
 333  2684.445
 334  2757.4
 335  2712.073
 336  2623.47
 337  2600.072
 338  3110.555
 339  3029.541
 340  2868.946
 341  2889.137
 342  2856.699
 343  3157.66
 344  3454.039
 345  3398.094
 346  3313.964
 347  3176.431
 348  3071.99
 349  3145.67
 350  2966.406
 351  2881.061
 352  2894.558
 353  2897.312
 354  2730.518
 355  2782.756
 356  3034.54
 357  2944.59
 358  2823.075
 359  3029.352
 360  2910.173
 361  3137.719
 362  3188.626
 363  3125.028
 364  2952.889
 365  2839.455
 366  3290.354
 367  3579.413
 368  3550.404
 369  3328.627
 370  3174.751
 371  3333.804
 372  3416.437
 373  3552.637
 374  3548.93
 375  3453.195
 376  3601.151
 377  3704.891
 378  3513.535
 379  3316.936
 380  3221.292
 381  3190.272
 382  3358.143
 383  3501.991
 384  3483.83
 385  3353.926
 386  3393.556
 387  3066.678
 388  3072.535
 389  2886.893
 390  2991.453
 391  3223.888
 392  3102.059
 393  3138.922
 394  3037.403
 395  2828.089
 396  2831.979
 397  2878.902
 398  3054.661
 399  2934.079
 400  3012.042
 401  3046.713
 402  2838.985
 403  3044.718
 404  3276.714
 405  2717.687
 406  2420.838
 407  2809.164
 408  2964.499
 409  3095.286
 410  3179.261
 411  3104.459
 412  3040.092
 413  3200.889
 414  3383.886
 415  3102.997
 416  3248.477
 417  3313.61
 418  3207.504
 419  3025.01
 420  3192.879
 421  3578.234
 422  3470.54
 423  3567.007
 424  3170.877
 425  3439.585
 426  3434.938
 427  3508.292
 428  3553.415
 429  3444.652
 430  3597.223
 431  3658.659
 432  3505.74
 433  3665.842
 434  3678.486
 435  3642.239
 436  3575.096
 437  3567.637
 438  3793.294
 439  3511.827
 440  3380.767
 441  3469.771
 442  3669.554
 443  3535.599
 444  3547.134
 445  3287.391
 446  3336.45
 447  3363.735
 448  3386.054
 449  3356.013
 450  3445.56
 451  3297.664
 452  3327.824
 453  3275.111
 454  3287.366
 455  3430.782
 456  3223.879
 457  3471.95
 458  3489.674
 459  3404.506
 460  3486.158
 461  3610.402
 462  3563.452
 463  3673.908
 464  3657.816
 465  3405.046
 466  3350.237
 467  3089.99
 468  3108.673
 469  3207.485
 470  3350.029
 471  3453.186
 472  3384.955
 473  3188.513
 474  2790.169
 475  3031.283
 476  3118.849
 477  3332.437
 478  3314.034
 479  3402.934
 480  3212.047
 481  3001.4
 482  3237.237
 483  3155.697
 484  3477.104
 485  3285.493
 486  3216.853
 487  3323.089
 488  2987.792
 489  2982.276
 490  3192.019
 491  3633.552
 492  3627.393
 493  3758.272
 494  3835.696
 495  3612.389
 496  3491.851
 497  3388.515
 498  3198.325
 499  3219.279
 500  3526.299
 501  3664.437
 502  3724.308
 503  3716.627
 504  3445.748
 505  3370.407
 506  3298.922
 507  3215.968
 508  3470.589
 509  3932.3
 510  3795.346
 511  3697.941
