# Input file       =  1185492073.116015_cleaned.dat
# Candidate        =  PSR_0332+5434
# Telescope        =  AR
# Epoch_topo       =  57964.973288379806
# Epoch_bary       =  N/A
# T_sample         =  0.002
# Data Folded      =  7208960
# Data Avg         =  0.211363594690125
# Data StdDev      =  5.45578281462231 
# Profile Bins     =  256
# Profile Avg      =  5952.11867199456 
# Profile StdDev   =  915.531726347285 
# Reduced chi-sqr  =  0.395
# Prob(Noise)      <  1   (~0.0 sigma)
# P_topo (ms)      =  714.469931918997  +/- 0.000132
# P'_topo (s/s)    =  -0                +/- 7.1e-11
# P''_topo (s/s^2) =  0                 +/- 3.19e-14
# P_bary (ms)      =  N/A
# P'_bary (s/s)    =  N/A
# P''_bary (s/s^2) =  N/A
# P_orb (s)        =  N/A
# asin(i)/c (s)    =  N/A
# eccentricity     =  N/A
# w (rad)          =  N/A
# T_peri           =  N/A
######################################################
   0  6516.87
   1  5822.043
   2  5698.092
   3  5832.893
   4  6108.422
   5  6204.03
   6  6195.463
   7  5749.092
   8  6496.328
   9  5224.4
  10  5397.714
  11  5558.569
  12  5853.084
  13  6238.6
  14  5827.505
  15  5621.28
  16  6150.189
  17  6426.728
  18  6213.358
  19  6339.816
  20  5039.278
  21  5918.273
  22  6117.76
  23  6336.142
  24  5636.445
  25  5092.452
  26  6097.141
  27  6075.068
  28  6455.881
  29  4875.04
  30  5232.905
  31  6076.642
  32  6360.089
  33  5809.811
  34  6078.583
  35  6130.146
  36  6107.241
  37  6575.843
  38  5233.89
  39  6262.366
  40  6033.745
  41  6362.355
  42  5500.583
  43  6094.936
  44  6421.556
  45  5984.892
  46  5891.614
  47  6215.224
  48  5825.8
  49  6355.259
  50  6543.271
  51  5821.979
  52  5000.096
  53  6312.24
  54  6458.09
  55  5638.68
  56  5926.163
  57  6206.206
  58  5218.804
  59  6417.153
  60  6095.522
  61  5312.146
  62  4873.697
  63  5603.081
  64  5330.219
  65  6295.06
  66  6044.27
  67  5039.792
  68  6020.473
  69  6247.624
  70  5532.87
  71  5458.268
  72  5983.083
  73  5453.275
  74  6095.426
  75  5506.248
  76  5923.76
  77  5294.102
  78  5950.206
  79  5691.107
  80  6175.782
  81  6083.315
  82  6892.327
  83  5930.852
  84  5428.209
  85  5350.126
  86  6275.559
  87  6372.625
  88  6117.949
  89  6210.712
  90  5718.506
  91  5835.878
  92  6307.148
  93  5377.993
  94  6216.747
  95  6096.148
  96  6508.527
  97  5662.209
  98  5860.88
  99  5880.136
 100  5537.886
 101  6460.789
 102  6292.075
 103  5799.494
 104  5394.621
 105  6878.445
 106  5465.688
 107  6153.338
 108  5568.745
 109  5795.897
 110  5745.489
 111  5997.439
 112  6270.753
 113  6180.974
 114  5686.224
 115  6285
 116  5811.989
 117  5968.114
 118  6417.863
 119  6188.86
 120  5860.637
 121  5758.24
 122  6408.861
 123  6976.71
 124  6569.868
 125  5567.1
 126  5766.937
 127  5704.216
 128  5595.842
 129  5963.07
 130  5663.508
 131  5736.599
 132  5529.805
 133  5751.114
 134  6171.625
 135  5486.621
 136  5574.083
 137  5889.318
 138  5719.253
 139  5252.066
 140  6214.128
 141  5848.372
 142  5251.738
 143  5124.971
 144  5096.297
 145  5250.933
 146  5988.782
 147  5728.511
 148  5924.754
 149  5581.564
 150  6175.092
 151  6667.843
 152  5544.824
 153  5598.475
 154  5980.393
 155  5761.339
 156  6201.949
 157  5532.479
 158  5343.522
 159  6252.178
 160  6440.788
 161  7564.412
 162  8264.276
 163  7983.392
 164  7465.439
 165  6319.965
 166  6389.746
 167  6011.354
 168  6280.907
 169  5802.953
 170  6468.879
 171  6153.556
 172  6046.595
 173  6779.775
 174  5412.242
 175  5212.502
 176  4692.712
 177  6414.325
 178  5772.319
 179  5729.373
 180  5539.261
 181  5640.061
 182  5419.267
 183  6221.395
 184  5910.457
 185  5272.75
 186  5174.684
 187  5296.001
 188  5789.985
 189  5669.899
 190  5742.902
 191  5791.013
 192  5932.807
 193  6087.74
 194  6405.575
 195  6183.287
 196  6537.974
 197  6050.771
 198  5554.716
 199  6076.634
 200  6372.844
 201  5924.197
 202  6350.651
 203  5454.768
 204  5093.721
 205  6622.183
 206  6161.072
 207  6279.852
 208  5866.769
 209  5812.21
 210  6040.965
 211  5524.365
 212  5074.977
 213  5330.056
 214  6813.181
 215  5629.01
 216  6108.017
 217  5243.95
 218  6190.5
 219  6597.766
 220  7092.974
 221  5448.646
 222  5736.421
 223  6075.671
 224  6458.807
 225  6957.968
 226  6734.683
 227  5806.844
 228  5790.435
 229  5828.424
 230  5776.119
 231  5760.814
 232  6273.979
 233  5716.604
 234  6232.387
 235  6030.203
 236  5932.355
 237  6020.165
 238  6406.41
 239  5763.022
 240  5610.246
 241  6537.326
 242  5946.661
 243  6387.963
 244  5331.954
 245  5926.955
 246  6216.551
 247  7129.454
 248  5687.477
 249  6017.49
 250  5779.42
 251  6291.74
 252  6166.323
 253  5767.895
 254  5452.509
 255  6476.469
