# Input file       =  1185061324.110495_cleaned.dat
# Candidate        =  PSR_0332+5434
# Telescope        =  AR
# Epoch_topo       =  57959.987767482584
# Epoch_bary       =  N/A
# T_sample         =  0.002
# Data Folded      =  7143424
# Data Avg         =  0.0213717482467747
# Data StdDev      =  1.00002531235137 
# Profile Bins     =  512
# Profile Avg      =  298.229960201497 
# Profile StdDev   =  118.121574340981 
# Reduced chi-sqr  =  1.296
# Prob(Noise)      <  6.79e-06   (~4.4 sigma)
# P_topo (ms)      =  714.472343908669  +/- 0.000188
# P'_topo (s/s)    =  -0                +/- 1.02e-10
# P''_topo (s/s^2) =  0                 +/- 4.63e-14
# P_bary (ms)      =  N/A
# P'_bary (s/s)    =  N/A
# P''_bary (s/s^2) =  N/A
# P_orb (s)        =  N/A
# asin(i)/c (s)    =  N/A
# eccentricity     =  N/A
# w (rad)          =  N/A
# T_peri           =  N/A
######################################################
   0  285.1889
   1  297.7679
   2  157.3526
   3  294.3415
   4  389.8798
   5  357.5032
   6  276.5506
   7  252.3547
   8  288.7656
   9  228.5419
  10  211.0797
  11  319.0535
  12  328.0222
  13  253.0369
  14  399.8026
  15  405.4994
  16  316.8041
  17  344.4123
  18  390.5103
  19  462.8438
  20  340.5442
  21  279.0692
  22  243.2502
  23  270.9787
  24  247.0845
  25  193.9582
  26  236.5005
  27  356.6644
  28  330.0818
  29  386.3958
  30  267.2842
  31  304.7392
  32  264.7697
  33  362.2204
  34  241.6432
  35  299.5014
  36  327.981
  37  271.1114
  38  277.9234
  39  397.3829
  40  346.1687
  41  337.5544
  42  341.1948
  43  285.1997
  44  212.332
  45  295.9054
  46  407.2597
  47  392.4594
  48  346.6622
  49  320.3709
  50  326.7844
  51  163.8207
  52  127.2384
  53  261.9163
  54  275.0774
  55  188.4395
  56  202.8568
  57  300.593
  58  328.1299
  59  308.6441
  60  249.9566
  61  221.0111
  62  353.1549
  63  362.22
  64  168.8625
  65  85.35489
  66  219.9238
  67  404.8635
  68  246.2222
  69  240.2965
  70  241.9282
  71  319.6213
  72  274.4449
  73  287.8031
  74  333.8468
  75  296.0299
  76  254.5564
  77  261.8731
  78  353.6779
  79  391.0893
  80  345.7909
  81  346.7188
  82  215.7818
  83  187.1411
  84  225.2238
  85  226.9913
  86  166.9229
  87  278.2338
  88  337.5886
  89  123.121
  90  86.65106
  91  305.5479
  92  200.5105
  93  315.3391
  94  406.3293
  95  404.6104
  96  397.7275
  97  384.3367
  98  350.3622
  99  384.7157
 100  363.8325
 101  343.8242
 102  391.2156
 103  228.7021
 104  86.10696
 105  211.3838
 106  279.518
 107  306.1731
 108  202.0988
 109  306.7336
 110  330.562
 111  341.1317
 112  332.6126
 113  470.0376
 114  306.5603
 115  287.5328
 116  279.2581
 117  297.5478
 118  387.5587
 119  396.983
 120  476.5412
 121  377.7583
 122  270.2919
 123  196.2511
 124  368.9663
 125  328.3908
 126  334.8968
 127  315.6133
 128  374.2667
 129  333.1994
 130  413.5762
 131  268.6383
 132  257.3125
 133  427.5519
 134  401.4152
 135  270.3813
 136  320.9844
 137  308.3339
 138  279.4556
 139  260.5611
 140  359.5083
 141  320.0311
 142  301.3709
 143  208.7788
 144  343.2895
 145  343.7798
 146  302.6229
 147  257.9449
 148  209.5598
 149  340.9536
 150  419.2095
 151  319.8025
 152  343.9248
 153  258.8211
 154  289.3037
 155  212.0098
 156  142.0379
 157  201.4252
 158  343.7981
 159  353.4525
 160  329.3723
 161  266.4423
 162  213.6288
 163  318.0346
 164  323.743
 165  255.3693
 166  188.2023
 167  241.4355
 168  271.1629
 169  244.4009
 170  264.232
 171  217.7005
 172  232.9856
 173  118.2071
 174  136.7687
 175  147.4913
 176  263.0286
 177  175.9897
 178  167.1096
 179  313.3177
 180  267.1308
 181  217.7667
 182  303.8289
 183  288.4967
 184  175.3936
 185  194.7597
 186  198.6525
 187  404.9378
 188  292.7317
 189  228.4512
 190  252.9179
 191  338.6905
 192  286.2694
 193  253.1118
 194  237.7428
 195  285.0627
 196  284.6887
 197  263.9949
 198  309.5255
 199  377.3235
 200  331.2975
 201  252.4686
 202  254.1856
 203  231.3242
 204  358.6568
 205  345.0015
 206  293.5098
 207  221.443
 208  145.6294
 209  145.6963
 210  110.6323
 211  139.4318
 212  98.56102
 213  167.4579
 214  266.0139
 215  211.7419
 216  194.3867
 217  216.2563
 218  346.263
 219  375.457
 220  253.7476
 221  228.2176
 222  324.9299
 223  332.6995
 224  229.01
 225  272.5489
 226  349.7294
 227  280.3233
 228  280.5851
 229  284.6877
 230  262.6771
 231  284.5081
 232  263.0992
 233  228.7016
 234  370.1654
 235  239.7319
 236  282.1459
 237  246.3141
 238  323.2539
 239  327.6306
 240  373.2258
 241  351.5256
 242  348.3815
 243  311.7187
 244  319.3591
 245  158.9509
 246  195.1565
 247  300.1464
 248  245.3575
 249  247.2455
 250  318.2371
 251  335.8734
 252  377.062
 253  250.4677
 254  186.805
 255  222.8204
 256  361.4136
 257  410.8253
 258  296.65
 259  358.7962
 260  302.893
 261  242.1505
 262  395.0561
 263  526.6474
 264  462.9908
 265  382.6576
 266  351.5006
 267  240.3834
 268  185.5435
 269  290.0337
 270  331.0254
 271  292.9185
 272  257.8684
 273  273.992
 274  410.1331
 275  366.5588
 276  381.6858
 277  215.9981
 278  347.5891
 279  364.7833
 280  278.0015
 281  335.0909
 282  265.5003
 283  159.8545
 284  183.6842
 285  311.272
 286  292.5322
 287  465.2595
 288  356.5417
 289  216.4758
 290  238.9406
 291  308.2
 292  333.5326
 293  290.6952
 294  337.791
 295  398.56
 296  271.0235
 297  301.9442
 298  236.65
 299  223.7174
 300  291.3735
 301  326.6328
 302  295.569
 303  223.0596
 304  244.0372
 305  283.4445
 306  350.6393
 307  250.7711
 308  279.725
 309  341.7527
 310  332.7558
 311  263.0446
 312  221.8472
 313  361.9904
 314  354.2901
 315  337.5757
 316  294.4792
 317  239.8168
 318  236.4702
 319  147.2992
 320  251.7318
 321  387.7513
 322  367.3682
 323  292.3898
 324  268.03
 325  247.1719
 326  307.4038
 327  334.978
 328  393.5211
 329  299.5313
 330  339.6063
 331  306.9031
 332  146.8129
 333  184.4853
 334  187.9435
 335  198.8203
 336  152.848
 337  175.377
 338  181.5317
 339  164.5893
 340  346.5968
 341  274.2861
 342  185.5224
 343  204.4259
 344  328.2014
 345  278.072
 346  345.2011
 347  457.7151
 348  303.8899
 349  194.4229
 350  238.1254
 351  267.1447
 352  268.0791
 353  250.8565
 354  306.9379
 355  290.2493
 356  207.7225
 357  199.3183
 358  243.3036
 359  284.9152
 360  263.9952
 361  291.4718
 362  428.0952
 363  324.3074
 364  297.2103
 365  295.2962
 366  447.3045
 367  416.9081
 368  401.0645
 369  376.8398
 370  340.1396
 371  308.4389
 372  233.1909
 373  266.4977
 374  277.1101
 375  305.5018
 376  350.5247
 377  253.8866
 378  174.9485
 379  244.9759
 380  308.4857
 381  345.9762
 382  302.2216
 383  322.2106
 384  421.2396
 385  362.7035
 386  256.6696
 387  176.3537
 388  246.0039
 389  297.2779
 390  235.2107
 391  195.7067
 392  181.6623
 393  244.0626
 394  294.8905
 395  254.5567
 396  253.0522
 397  270.4303
 398  304.6544
 399  243.8881
 400  440.8383
 401  370.4705
 402  382.1598
 403  378.1043
 404  193.0356
 405  208.2005
 406  295.8724
 407  268.6522
 408  337.4836
 409  335.6467
 410  433.6111
 411  308.5636
 412  43.45598
 413  73.92078
 414  181.5349
 415  173.7658
 416  24.68857
 417  8.54974
 418  226.9055
 419  214.6594
 420  236.2457
 421  261.7372
 422  270.5367
 423  280.9656
 424  229.616
 425  200.2051
 426  230.3865
 427  210.3736
 428  341.5414
 429  377.6948
 430  357.9765
 431  251.8132
 432  352.9392
 433  369.6767
 434  301.1466
 435  389.9216
 436  408.0903
 437  308.9026
 438  177.9118
 439  257.0933
 440  298.771
 441  262.9557
 442  278.2109
 443  291.5409
 444  327.1838
 445  367.119
 446  383.997
 447  385.1194
 448  280.062
 449  316.7107
 450  372.267
 451  414.5393
 452  290.3753
 453  207.5178
 454  270.2358
 455  338.529
 456  369.4141
 457  245.1321
 458  218.6203
 459  146.9291
 460  265.2152
 461  355.74
 462  256.0914
 463  250.8161
 464  329.9789
 465  306.9799
 466  328.9191
 467  352.8891
 468  388.6956
 469  436.0121
 470  383.0772
 471  348.0533
 472  408.4736
 473  407.6684
 474  445.4171
 475  412.2007
 476  380.6656
 477  385.815
 478  281.406
 479  278.7075
 480  387.214
 481  347.9923
 482  325.7901
 483  321.2245
 484  326.2082
 485  414.9709
 486  398.3751
 487  407.7787
 488  376.8277
 489  362.3239
 490  431.0925
 491  484.1529
 492  501.0812
 493  627.6625
 494  763.4235
 495  1032.676
 496  1002.236
 497  773.4188
 498  696.908
 499  433.1217
 500  384.5526
 501  363.592
 502  287.5753
 503  312.7229
 504  314.7188
 505  324.3256
 506  260.1011
 507  319.8027
 508  244.7933
 509  237.469
 510  294.2298
 511  290.4291
