# Input file       =  1185592917.121895_cleaned.dat
# Candidate        =  PSR_0332+5434
# Telescope        =  AR
# Epoch_topo       =  57966.140464373784
# Epoch_bary       =  N/A
# T_sample         =  0.002
# Data Folded      =  7340032
# Data Avg         =  0.1888026641318  
# Data StdDev      =  4.15286006517852 
# Profile Bins     =  256
# Profile Avg      =  5412.86697689679 
# Profile StdDev   =  703.195837575286 
# Reduced chi-sqr  =  1.857
# Prob(Noise)      <  2.68e-15   (~7.8 sigma)
# P_topo (ms)      =  714.469432738065  +/- 0.000918
# P'_topo (s/s)    =  -0                +/- 4.84e-10
# P''_topo (s/s^2) =  0                 +/- 2.14e-13
# P_bary (ms)      =  N/A
# P'_bary (s/s)    =  N/A
# P''_bary (s/s^2) =  N/A
# P_orb (s)        =  N/A
# asin(i)/c (s)    =  N/A
# eccentricity     =  N/A
# w (rad)          =  N/A
# T_peri           =  N/A
######################################################
   0  4753.506
   1  5529.798
   2  5767.294
   3  6245.052
   4  6344.3
   5  6319.562
   6  5595.401
   7  6164.884
   8  5835.332
   9  5755.177
  10  5660.622
  11  5855.543
  12  5739.1
  13  5677.591
  14  5891.98
  15  6094.723
  16  5649.274
  17  5682.602
  18  5731.257
  19  5397.352
  20  5343.389
  21  5499.868
  22  5774.109
  23  5868.4
  24  5900.4
  25  5665.131
  26  6136.953
  27  6317.834
  28  6409.104
  29  6827.812
  30  6874.604
  31  7208.756
  32  6241.045
  33  6872.681
  34  6435.239
  35  6535.258
  36  6745.919
  37  6441.707
  38  7083.45
  39  6749.183
  40  7416.602
  41  7449.531
  42  7229.862
  43  7474.859
  44  7411.605
  45  7341.147
  46  6413.616
  47  6419.874
  48  6786.845
  49  6382.878
  50  6774.243
  51  6513.37
  52  6415.47
  53  6557.26
  54  6119.376
  55  6712.843
  56  6680.082
  57  6191.801
  58  6359.698
  59  6331.423
  60  6206.806
  61  6179.745
  62  5697.357
  63  5674.026
  64  5153.084
  65  4698.922
  66  4520.924
  67  5247.884
  68  4741.418
  69  5021.521
  70  5388.147
  71  5423.435
  72  4002.035
  73  4233.959
  74  4783.052
  75  4731.213
  76  5185.823
  77  5019.129
  78  4230.921
  79  4897.521
  80  4305.717
  81  4172.41
  82  4359.926
  83  4044.42
  84  4618.767
  85  4073.057
  86  4466.852
  87  4513.468
  88  4190.6
  89  4890.384
  90  4910.006
  91  4564.625
  92  4576.978
  93  4615.303
  94  4618.016
  95  3918.708
  96  4577.619
  97  4479.019
  98  4267.014
  99  4401.379
 100  4392.604
 101  4168.851
 102  4329.517
 103  4404.084
 104  4566.417
 105  3845.779
 106  3823.649
 107  4572.831
 108  4563.683
 109  4222.899
 110  4335.344
 111  4022.473
 112  4463.784
 113  3704.792
 114  3974.155
 115  4245.539
 116  4413.573
 117  3943.319
 118  4890.46
 119  4612
 120  4554.438
 121  4915.825
 122  4755.227
 123  4952.357
 124  4633.99
 125  4011.814
 126  4952.444
 127  5066.414
 128  4504.047
 129  5201.101
 130  4854.891
 131  4667.212
 132  5238.686
 133  5104.547
 134  5011.817
 135  5511.86
 136  4808.883
 137  5524.607
 138  5929.45
 139  5727.476
 140  5817.583
 141  5511.581
 142  5846.076
 143  5714.161
 144  5377.371
 145  5863.873
 146  5601.489
 147  5856.522
 148  5588.743
 149  5128.432
 150  5809.404
 151  5304.463
 152  5289.146
 153  5177.869
 154  4880.265
 155  4911.002
 156  5725.808
 157  5071.321
 158  5605.312
 159  5920.803
 160  6614.842
 161  7840.186
 162  8336.918
 163  7823.638
 164  6117.555
 165  5255.771
 166  4484.292
 167  4698.259
 168  5300.321
 169  5383.02
 170  5224.206
 171  4830.585
 172  5007.83
 173  5128.7
 174  5060.544
 175  5102.879
 176  5493.91
 177  5611.606
 178  5469.919
 179  5255.168
 180  5332.486
 181  5772.898
 182  5902.468
 183  5764.516
 184  5574.862
 185  5904.812
 186  5653.588
 187  5471.609
 188  4806.869
 189  5266.896
 190  4667.209
 191  4642.393
 192  4851.411
 193  5366.731
 194  5062.058
 195  5079.924
 196  5083.49
 197  4949.976
 198  4674.18
 199  4504.213
 200  4672.241
 201  4794.45
 202  4964.449
 203  4246.992
 204  4683.452
 205  5165.964
 206  5158.374
 207  5085.881
 208  5416.011
 209  5679.609
 210  5338.69
 211  5176.296
 212  5197.522
 213  5290.832
 214  5476.307
 215  5232.105
 216  5486.876
 217  5111.634
 218  5223.508
 219  5171.58
 220  5446.49
 221  4631.549
 222  5050.932
 223  5587.576
 224  4647.161
 225  4670.856
 226  5121.694
 227  5746.863
 228  5490.561
 229  5414.309
 230  5589.561
 231  5426.634
 232  5216.188
 233  5320.526
 234  6255.414
 235  5805.417
 236  5773.488
 237  6157.438
 238  5923.05
 239  5481.707
 240  5805.677
 241  6121.122
 242  6232.114
 243  5916.107
 244  6105.051
 245  6054.57
 246  5961.799
 247  5410.902
 248  5337.739
 249  6063.125
 250  6116.298
 251  5490.323
 252  5349.55
 253  5618.141
 254  6035.566
 255  5744.104
