# Input file       =  1185952524.105534_cleaned.dat
# Candidate        =  PSR_0332+5434
# Telescope        =  AR
# Epoch_topo       =  57970.302582239980
# Epoch_bary       =  N/A
# T_sample         =  0.002
# Data Folded      =  7340032
# Data Avg         =  0.0042042066971654
# Data StdDev      =  1.00002591028935 
# Profile Bins     =  512
# Profile Avg      =  60.259364765666  
# Profile StdDev   =  119.736138694384 
# Reduced chi-sqr  =  1.372
# Prob(Noise)      <  4.38e-08   (~5.4 sigma)
# P_topo (ms)      =  714.468105442078  +/- 0.000241
# P'_topo (s/s)    =  -0                +/- 1.27e-10
# P''_topo (s/s^2) =  0                 +/- 5.61e-14
# P_bary (ms)      =  N/A
# P'_bary (s/s)    =  N/A
# P''_bary (s/s^2) =  N/A
# P_orb (s)        =  N/A
# asin(i)/c (s)    =  N/A
# eccentricity     =  N/A
# w (rad)          =  N/A
# T_peri           =  N/A
######################################################
   0  702.7817
   1  661.2444
   2  520.2686
   3  270.3727
   4  46.51393
   5  28.28074
   6  14.00784
   7  81.66438
   8  -109.5208
   9  44.36661
  10  148.1998
  11  86.80759
  12  171.5327
  13  246.7009
  14  123.5263
  15  -10.80843
  16  -59.76719
  17  136.6382
  18  78.15647
  19  59.61571
  20  40.02229
  21  50.49804
  22  115.9953
  23  63.20632
  24  85.72331
  25  24.90956
  26  133.5517
  27  96.54255
  28  21.47932
  29  58.99642
  30  -10.32976
  31  63.36647
  32  257.2934
  33  227.8229
  34  135.1419
  35  72.4269
  36  -113.2782
  37  -9.286018
  38  58.13967
  39  99.73319
  40  53.33507
  41  112.6405
  42  72.34873
  43  139.0728
  44  98.50075
  45  106.6775
  46  -16.82207
  47  15.29436
  48  109.2738
  49  121.702
  50  125.4238
  51  46.71372
  52  -77.08768
  53  -135.0076
  54  79.30061
  55  130.5939
  56  152.9078
  57  36.6959
  58  66.84167
  59  143.8352
  60  114.0335
  61  96.652
  62  216.7883
  63  197.6053
  64  142.3569
  65  -69.11566
  66  -13.61555
  67  -106.807
  68  6.505023
  69  95.78455
  70  88.08487
  71  24.92092
  72  70.18812
  73  24.46383
  74  51.74785
  75  312.8213
  76  264.3805
  77  5.227962
  78  -17.02824
  79  23.51777
  80  0.09147286
  81  113.6928
  82  192.1393
  83  108.1849
  84  39.81169
  85  162.4542
  86  73.46309
  87  9.413487
  88  128.042
  89  115.3146
  90  17.77427
  91  1.289294
  92  12.96671
  93  50.78095
  94  44.14013
  95  124.3291
  96  -34.12558
  97  -136.0968
  98  -99.43069
  99  9.870342
 100  -81.20847
 101  -34.10596
 102  -57.72281
 103  88.24299
 104  6.586266
 105  129.0256
 106  60.55826
 107  19.42579
 108  3.129344
 109  46.92986
 110  -20.03403
 111  -16.68338
 112  -17.38101
 113  -4.148762
 114  27.30851
 115  62.92614
 116  166.8476
 117  146.1086
 118  42.61282
 119  58.24368
 120  163.8315
 121  65.57111
 122  41.62196
 123  69.86935
 124  185.4486
 125  185.8668
 126  126.8173
 127  127.8772
 128  220.1871
 129  128.8479
 130  85.12026
 131  60.75541
 132  -12.72019
 133  117.654
 134  190.0239
 135  55.37542
 136  59.90366
 137  163.6084
 138  97.14697
 139  -81.06424
 140  -9.248141
 141  117.1406
 142  56.20457
 143  30.76998
 144  -19.7676
 145  -14.25647
 146  55.60536
 147  108.655
 148  118.875
 149  -94.25847
 150  -43.72625
 151  112.1821
 152  144.0371
 153  54.67177
 154  72.23051
 155  12.5885
 156  -90.01987
 157  -108.086
 158  9.608257
 159  40.94909
 160  -97.60837
 161  -30.32767
 162  -45.53638
 163  -81.05088
 164  24.79202
 165  95.46539
 166  84.91062
 167  65.14286
 168  86.91749
 169  97.87512
 170  44.5603
 171  118.2865
 172  85.4493
 173  -21.16319
 174  11.2706
 175  113.6083
 176  27.78394
 177  -81.79629
 178  13.3019
 179  144.3468
 180  31.33888
 181  -49.42376
 182  -18.32496
 183  -21.60741
 184  0.0751569
 185  -46.65578
 186  -85.93488
 187  -3.243464
 188  72.80084
 189  28.3425
 190  10.10668
 191  127.5082
 192  160.468
 193  93.89005
 194  46.62115
 195  28.0138
 196  22.9856
 197  221.3154
 198  98.8063
 199  16.42792
 200  20.33394
 201  106.1041
 202  59.02388
 203  -37.5596
 204  34.94662
 205  16.20841
 206  160.9998
 207  300.0019
 208  186.7002
 209  14.81405
 210  -17.55874
 211  51.19693
 212  41.74053
 213  84.28102
 214  137.9192
 215  139.1068
 216  133.1549
 217  64.06743
 218  108.7931
 219  97.14435
 220  89.74281
 221  138.5091
 222  131.1198
 223  53.94173
 224  98.51338
 225  143.3314
 226  47.00817
 227  -16.70283
 228  -2.044096
 229  -22.7478
 230  41.43154
 231  78.2862
 232  -5.186198
 233  98.31759
 234  82.64051
 235  52.89259
 236  -22.18043
 237  126.8528
 238  177.6235
 239  29.44134
 240  84.33791
 241  155.7567
 242  31.87155
 243  49.83963
 244  120.0917
 245  185.1313
 246  88.87154
 247  88.46301
 248  63.63046
 249  -61.74347
 250  -7.548412
 251  87.48303
 252  63.43974
 253  -133.8154
 254  -66.82371
 255  72.07131
 256  142.0087
 257  103.1984
 258  87.76915
 259  25.07161
 260  4.249035
 261  76.07299
 262  16.63899
 263  93.30335
 264  29.67927
 265  -3.379469
 266  -78.38421
 267  48.31177
 268  35.07844
 269  89.45473
 270  124.3193
 271  63.98264
 272  55.68341
 273  54.33826
 274  -104.8258
 275  -51.83883
 276  48.80114
 277  25.06658
 278  106.2572
 279  87.15443
 280  147.5745
 281  123.9721
 282  28.13273
 283  154.318
 284  132.5271
 285  281.5204
 286  172.0761
 287  -52.46708
 288  -14.70814
 289  -1.929162
 290  33.6378
 291  119.2601
 292  169.0926
 293  199.5845
 294  200.1719
 295  151.786
 296  114.8059
 297  3.653061
 298  170.906
 299  142.9734
 300  51.22162
 301  69.33081
 302  -34.55268
 303  -68.17429
 304  58.53654
 305  80.67802
 306  73.31417
 307  119.7836
 308  223.3899
 309  68.01231
 310  89.02567
 311  -8.242578
 312  73.77657
 313  159.6303
 314  98.33481
 315  80.31156
 316  151.0578
 317  100.4736
 318  70.77599
 319  193.6854
 320  292.7834
 321  133.8035
 322  -53.87672
 323  -67.40487
 324  1.003055
 325  59.40698
 326  54.18494
 327  69.53975
 328  -25.88577
 329  13.88826
 330  -140.5297
 331  -26.05714
 332  139.5887
 333  -6.462626
 334  100.0055
 335  167.3798
 336  162.5321
 337  142.531
 338  177.0328
 339  153.5822
 340  217.1663
 341  215.1564
 342  157.7801
 343  66.3989
 344  78.73007
 345  51.59396
 346  52.60452
 347  24.88416
 348  22.03197
 349  64.81409
 350  63.67488
 351  103.4385
 352  171.1111
 353  35.85556
 354  8.299293
 355  125.9727
 356  192.158
 357  29.88192
 358  25.76647
 359  73.66305
 360  60.92348
 361  29.01788
 362  142.6475
 363  135.9637
 364  11.98758
 365  -128.5491
 366  -95.1525
 367  -39.86846
 368  -3.492717
 369  62.86358
 370  -27.05173
 371  -120.5114
 372  -20.19019
 373  83.67642
 374  17.4525
 375  -47.68605
 376  107.8791
 377  48.40665
 378  112.4807
 379  95.47654
 380  181.3923
 381  219.0163
 382  147.4518
 383  45.6786
 384  -72.5293
 385  -69.44519
 386  152.2182
 387  -1.896182
 388  -153.4887
 389  -13.6212
 390  48.01361
 391  13.64434
 392  45.70792
 393  88.41099
 394  -19.20289
 395  -25.98467
 396  -44.54136
 397  -24.57819
 398  -72.71653
 399  -210.3822
 400  -146.7281
 401  -7.572125
 402  169.9304
 403  128.0969
 404  21.69102
 405  -6.194357
 406  2.794343
 407  171.4899
 408  6.119541
 409  -27.1188
 410  80.61009
 411  139.179
 412  69.54203
 413  75.01985
 414  142.7446
 415  151.3701
 416  84.96291
 417  103.7704
 418  112.7108
 419  -3.27663
 420  104.9779
 421  80.93325
 422  79.46939
 423  136.7304
 424  2.875737
 425  -64.8184
 426  76.86385
 427  49.21265
 428  3.914508
 429  39.34398
 430  88.24435
 431  -6.773992
 432  -77.69135
 433  8.03756
 434  66.68678
 435  -26.08519
 436  -89.22309
 437  36.64943
 438  48.9524
 439  -9.567851
 440  -158.3051
 441  -65.21516
 442  -38.80396
 443  103.7781
 444  117.3814
 445  114.6574
 446  21.21685
 447  -19.36031
 448  -23.16232
 449  -102.906
 450  28.56796
 451  94.10233
 452  67.10254
 453  -7.00226
 454  65.8941
 455  -10.33693
 456  -2.848711
 457  31.39886
 458  -26.81013
 459  -58.03801
 460  13.1978
 461  -24.94851
 462  -66.90055
 463  -98.49092
 464  -90.22652
 465  58.77638
 466  67.60517
 467  111.4426
 468  -13.38317
 469  -143.0477
 470  -0.8108898
 471  -63.69779
 472  -10.70365
 473  -35.2976
 474  -42.79569
 475  -0.797047
 476  12.20141
 477  28.96499
 478  -196.5043
 479  -44.66459
 480  2.143046
 481  5.385107
 482  16.93186
 483  26.53016
 484  -51.37973
 485  -19.37496
 486  36.95353
 487  127.5376
 488  126.2773
 489  33.03498
 490  54.45199
 491  -57.14056
 492  -127.0788
 493  -15.98983
 494  77.89345
 495  79.73586
 496  19.24271
 497  108.1855
 498  189.72
 499  133.9621
 500  109.408
 501  145.1087
 502  210.2652
 503  -17.83873
 504  12.32066
 505  91.68539
 506  211.122
 507  221.0674
 508  405.5005
 509  377.5684
 510  496.6244
 511  598.1616
