# Input file       =  1185334429.098027-PSRB0329-2ms-sampling-dd.dat
# Candidate        =  PSR_0332+5434
# Telescope        =  AR
# Epoch_topo       =  57963.148704838277
# Epoch_bary       =  N/A
# T_sample         =  0.002
# Data Folded      =  7340032
# Data Avg         =  8.75772310428403e-10
# Data StdDev      =  5.1134646959549  
# Profile Bins     =  512
# Profile Avg      =  0.431417241810843
# Profile StdDev   =  612.250654452077 
# Reduced chi-sqr  =  0.749
# Prob(Noise)      <  1   (~0.0 sigma)
# P_topo (ms)      =  714.470784554526  +/- 0.00117
# P'_topo (s/s)    =  -0                +/- 6.17e-10
# P''_topo (s/s^2) =  0                 +/- 2.72e-13
# P_bary (ms)      =  N/A
# P'_bary (s/s)    =  N/A
# P''_bary (s/s^2) =  N/A
# P_orb (s)        =  N/A
# asin(i)/c (s)    =  N/A
# eccentricity     =  N/A
# w (rad)          =  N/A
# T_peri           =  N/A
######################################################
   0  -111.0021
   1  95.39509
   2  -214.5394
   3  -457.0684
   4  -336.0328
   5  0.604076
   6  -276.8679
   7  -132.2109
   8  -451.7214
   9  -808.516
  10  -756.7299
  11  -489.7418
  12  -402.665
  13  -402.2423
  14  -93.65831
  15  -212.3947
  16  -242.4073
  17  -119.3003
  18  1.990201
  19  -385.4229
  20  -596.1993
  21  -340.4288
  22  -298.0763
  23  37.17867
  24  67.09426
  25  41.49277
  26  -150.6995
  27  -183.7937
  28  -97.04285
  29  70.16533
  30  304.9033
  31  438.3789
  32  192.6827
  33  -171.3828
  34  -354.4341
  35  -105.2246
  36  153.1411
  37  303.0095
  38  187.5916
  39  237.2724
  40  119.438
  41  1.839876
  42  -241.8587
  43  -218.5975
  44  -474.2627
  45  -112.9385
  46  462.1434
  47  480.4985
  48  396.9261
  49  204.4145
  50  97.58813
  51  -250.9805
  52  -44.1155
  53  -107.185
  54  270.5064
  55  266.1163
  56  397.5335
  57  342.8544
  58  206.7768
  59  517.7502
  60  464.2057
  61  422.0879
  62  400.5569
  63  141.0506
  64  57.30795
  65  -92.51985
  66  -93.84261
  67  335.2536
  68  427.0039
  69  368.1709
  70  -4.434852
  71  -229.9193
  72  247.2487
  73  123.7441
  74  -86.13516
  75  109.306
  76  -190.3299
  77  -269.0067
  78  -143.3849
  79  112.2037
  80  206.615
  81  342.1122
  82  514.9915
  83  93.73164
  84  69.94501
  85  130.9789
  86  168.548
  87  407.4698
  88  290.0281
  89  723.7185
  90  419.7622
  91  151.0511
  92  215.3666
  93  652.0975
  94  413.5562
  95  327.4579
  96  667.1802
  97  695.3105
  98  809.409
  99  755.9835
 100  707.719
 101  785.2899
 102  538.7139
 103  434.3367
 104  609.5341
 105  479.6221
 106  328.5932
 107  178.792
 108  189.0634
 109  43.3918
 110  -264.4178
 111  72.94511
 112  478.3458
 113  262.5764
 114  492.1198
 115  403.051
 116  57.17109
 117  16.64123
 118  160.4252
 119  154.7086
 120  166.2403
 121  429.906
 122  599.4813
 123  330.1314
 124  500.5291
 125  225.9964
 126  320.0671
 127  581.6788
 128  596.644
 129  449.7188
 130  390.65
 131  76.5462
 132  -85.97391
 133  -166.5123
 134  130.5159
 135  256.3212
 136  402.0937
 137  241.2659
 138  6.029366
 139  -22.8702
 140  50.72726
 141  169.0876
 142  288.7013
 143  16.12521
 144  485.4305
 145  475.9747
 146  243.0193
 147  425.5116
 148  540.472
 149  344.2354
 150  272.826
 151  393.666
 152  276.3846
 153  364.8944
 154  455.4896
 155  267.4117
 156  557.3355
 157  662.0575
 158  703.905
 159  255.3617
 160  345.9793
 161  618.8735
 162  560.9628
 163  269.0741
 164  118.8844
 165  294.5314
 166  273.1102
 167  330.2848
 168  215.3418
 169  274.943
 170  124.3473
 171  394.0466
 172  328.0218
 173  240.1982
 174  200.0636
 175  124.525
 176  104.7991
 177  -64.66614
 178  336.5732
 179  603.0584
 180  291.2045
 181  -56.4363
 182  11.9738
 183  -29.32734
 184  47.87617
 185  -41.22442
 186  462.8278
 187  665.5331
 188  447.0271
 189  -118.2209
 190  -192.52
 191  -368.794
 192  -357.8603
 193  -334.1513
 194  -212.2863
 195  -49.31815
 196  57.51372
 197  -23.11841
 198  -217.2155
 199  -21.21775
 200  59.31896
 201  -157.0903
 202  -292.3887
 203  -420.5114
 204  -847.1645
 205  -472.2777
 206  -223.4082
 207  -209.7531
 208  -50.34476
 209  30.9358
 210  -189.4404
 211  -331.4975
 212  -464.6341
 213  -636.9696
 214  -242.163
 215  -151.2621
 216  -306.4432
 217  -427.0503
 218  -217.4763
 219  -270.1079
 220  45.78884
 221  7.95705
 222  -160.5013
 223  -524.0035
 224  -265.4664
 225  -46.13257
 226  -180.8241
 227  65.95257
 228  392.3557
 229  624.6918
 230  325.6846
 231  -22.94963
 232  20.83226
 233  299.4547
 234  358.7585
 235  583.2789
 236  642.8232
 237  224.1089
 238  -22.16888
 239  234.9704
 240  318.8019
 241  354.9652
 242  431.5858
 243  163.9908
 244  -20.81673
 245  2.615297
 246  17.36035
 247  230.8098
 248  149.2093
 249  332.1786
 250  259.3657
 251  42.95675
 252  262.5642
 253  237.0652
 254  336.4554
 255  379.3045
 256  411.3325
 257  236.0224
 258  175.9877
 259  -10.80202
 260  74.32654
 261  214.5844
 262  158.8324
 263  198.5766
 264  328.5984
 265  453.3075
 266  180.2789
 267  202.4335
 268  70.33496
 269  92.81143
 270  194.8904
 271  32.19578
 272  35.69009
 273  127.8355
 274  -192.9597
 275  -156.702
 276  27.25992
 277  2.343363
 278  269.0541
 279  117.7266
 280  226.2365
 281  317.24
 282  116.157
 283  80.10921
 284  106.2064
 285  159.7248
 286  112.5771
 287  67.61113
 288  332.7685
 289  399.0565
 290  405.2529
 291  517.0114
 292  476.1789
 293  140.7709
 294  75.18769
 295  270.6195
 296  524.4495
 297  439.5751
 298  447.8653
 299  478.8953
 300  680.9503
 301  1253.862
 302  1372.201
 303  1471.433
 304  1314.364
 305  1116.191
 306  243.2001
 307  90.22887
 308  -227.3165
 309  -309.6678
 310  -103.9842
 311  13.67555
 312  18.52454
 313  -237.6798
 314  -193.9016
 315  -71.96839
 316  -129.247
 317  -146.1468
 318  -83.44862
 319  11.03791
 320  -375.7946
 321  -786.5666
 322  -563.3135
 323  -389.5868
 324  -694.4996
 325  -973.4783
 326  -1115.066
 327  -748.5199
 328  -634.3336
 329  -662.3074
 330  -390.418
 331  -149.4366
 332  -345.8565
 333  -680.0618
 334  -718.5305
 335  -485.0616
 336  -263.9413
 337  -152.2462
 338  -389.7901
 339  -137.6036
 340  -6.006611
 341  -428.8855
 342  -573.7315
 343  -372.5334
 344  -319.3577
 345  -373.2522
 346  -192.6915
 347  -508.8977
 348  -155.9337
 349  -69.69939
 350  -97.3819
 351  -150.7605
 352  -65.17662
 353  57.12593
 354  -230.4667
 355  -160.9479
 356  -215.9946
 357  -390.3141
 358  -502.0164
 359  -497.3004
 360  -379.4499
 361  -635.0383
 362  -645.8528
 363  -833.0093
 364  -930.2914
 365  -485.1406
 366  -489.3537
 367  -531.432
 368  -372.2188
 369  -268.8326
 370  -422.7854
 371  -732.3889
 372  -441.3289
 373  -427.3468
 374  -398.6346
 375  -250.301
 376  -396.4158
 377  -262.2068
 378  -80.11118
 379  -464.2119
 380  -355.8033
 381  -220.736
 382  13.07034
 383  -209.021
 384  -297.3548
 385  -197.8882
 386  -328.0145
 387  -310.5705
 388  -171.332
 389  -395.551
 390  -122.4394
 391  -144.1693
 392  -533.9193
 393  -449.8064
 394  -234.5237
 395  -79.87423
 396  -365.8543
 397  -606.2426
 398  -588.2291
 399  -599.8032
 400  -517.094
 401  -466.9861
 402  -590.2859
 403  -462.5491
 404  -670.6517
 405  -559.5761
 406  -578.2591
 407  -663.6865
 408  -728.7108
 409  -654.3325
 410  -638.1921
 411  -840.6939
 412  -556.3178
 413  -487.6044
 414  -686.457
 415  -282.4512
 416  -290.0724
 417  -544.2062
 418  -100.9886
 419  -295.4615
 420  -57.10366
 421  -174.5547
 422  -296.6089
 423  -229.9888
 424  -490.3163
 425  -623.1191
 426  -552.2465
 427  -568.1083
 428  -735.1168
 429  -616.7123
 430  -846.0638
 431  -680.0125
 432  -571.4016
 433  -461.3979
 434  -309.3755
 435  -374.0975
 436  -92.28391
 437  34.38182
 438  -90.15738
 439  -207.8301
 440  -412.6471
 441  -655.9973
 442  -279.8589
 443  -94.51673
 444  17.8782
 445  62.25544
 446  -111.8479
 447  59.04782
 448  125.6887
 449  58.14908
 450  -253.2246
 451  -204.2539
 452  56.71201
 453  95.75005
 454  -59.29628
 455  -281.9461
 456  -218.3086
 457  -412.5423
 458  -211.5492
 459  236.4891
 460  316.0224
 461  -19.09923
 462  120.045
 463  35.6539
 464  -94.5336
 465  97.82831
 466  276.4601
 467  433.0584
 468  305.7507
 469  220.4844
 470  84.03814
 471  343.9775
 472  293.0371
 473  199.878
 474  399.6628
 475  368.3442
 476  684.9467
 477  673.9438
 478  452.5484
 479  252.2017
 480  435.968
 481  799.0901
 482  586.691
 483  295.1284
 484  384.4598
 485  419.0776
 486  371.2066
 487  86.80235
 488  108.7823
 489  160.4548
 490  224.1155
 491  196.1227
 492  -251.7985
 493  -259.842
 494  -438.3078
 495  -256.9289
 496  78.32178
 497  -20.38707
 498  -285.6067
 499  -268.4896
 500  -269.9202
 501  -110.966
 502  2.069247
 503  -226.0947
 504  -193.8971
 505  -127.1411
 506  -111.5597
 507  -149.5082
 508  -74.13318
 509  51.58123
 510  39.6552
 511  4.052451
