# Input file       =  1185851408.100563-PSRB0329-2ms-sampling-dd.dat
# Candidate        =  PSR_0332+5434
# Telescope        =  AR
# Epoch_topo       =  57969.132258108366
# Epoch_bary       =  N/A
# T_sample         =  0.002
# Data Folded      =  7340032
# Data Avg         =  4.37540136210474e-10
# Data StdDev      =  186.676192028422 
# Profile Bins     =  512
# Profile Avg      =  -0.419303935135735
# Profile StdDev   =  22351.3072908152 
# Reduced chi-sqr  =  1.093
# Prob(Noise)      <  0.0707   (~1.5 sigma)
# P_topo (ms)      =  714.468212520885  +/- 0.000325
# P'_topo (s/s)    =  -0                +/- 1.72e-10
# P''_topo (s/s^2) =  0                 +/- 7.58e-14
# P_bary (ms)      =  N/A
# P'_bary (s/s)    =  N/A
# P''_bary (s/s^2) =  N/A
# P_orb (s)        =  N/A
# asin(i)/c (s)    =  N/A
# eccentricity     =  N/A
# w (rad)          =  N/A
# T_peri           =  N/A
######################################################
   0  -9169.927
   1  -8950.455
   2  -10815.64
   3  -13191.06
   4  -12028.93
   5  -8686.909
   6  -5358.207
   7  -4242.555
   8  -3975.226
   9  -8527.97
  10  -12544.78
  11  -9857.013
  12  -3636.137
  13  -334.6981
  14  1234.861
  15  -669.086
  16  -7743.031
  17  -14120.3
  18  -10556.62
  19  -7877.709
  20  -4731.295
  21  -5965.984
  22  -8256.992
  23  -12174.63
  24  -16054.7
  25  -15602.95
  26  -15041.19
  27  -12058.89
  28  -6399.167
  29  -5252.621
  30  -5212.968
  31  -6201.867
  32  -11678.71
  33  -14146.25
  34  -10517.58
  35  -5724.281
  36  -4107.996
  37  -6463.967
  38  -9190.51
  39  -13008.77
  40  -14641.68
  41  -14881.52
  42  -14485.78
  43  -14702.5
  44  -14192.94
  45  -15603.29
  46  -16894.78
  47  -16324.28
  48  -15650.2
  49  -13449.77
  50  -7791.964
  51  -5336.103
  52  -1445.839
  53  8187.584
  54  11535.5
  55  16886.79
  56  26267.44
  57  13395.83
  58  12323.38
  59  11474.94
  60  34896.97
  61  31107.69
  62  30338.2
  63  19068.17
  64  4538.518
  65  -3270.368
  66  -7740.644
  67  -9030.488
  68  -12128.88
  69  -12852.38
  70  -13636.85
  71  -13723.41
  72  -12834.32
  73  -11869.94
  74  -11943.26
  75  -12327.72
  76  -12892.8
  77  -12892.8
  78  -12401.32
  79  -12706.62
  80  -12215.61
  81  -11849.43
  82  -12187.64
  83  -12531.27
  84  -12875.39
  85  -13292.38
  86  -13377.67
  87  -12883.74
  88  -12951.48
  89  -12334.94
  90  -10272.11
  91  -9651.663
  92  -7310.422
  93  -4273.208
  94  -6338.356
  95  -8178.149
  96  -5960.524
  97  -1570.362
  98  2395.198
  99  4483.852
 100  -3257.734
 101  -4915.806
 102  -10127.4
 103  -3432.2
 104  18900.03
 105  37989.66
 106  50409.62
 107  60700.75
 108  47502.98
 109  29351.08
 110  -1910.336
 111  51508.76
 112  77194.6
 113  93349.5
 114  75961.14
 115  44761.5
 116  18097.79
 117  -312.3363
 118  3877.938
 119  5016.01
 120  1949.484
 121  33.95317
 122  -2254.89
 123  -5986.465
 124  1375.731
 125  5256.572
 126  8972.246
 127  5941.15
 128  4534.274
 129  2136.288
 130  382.1993
 131  -48.15063
 132  -1659.08
 133  -2652.793
 134  2676.771
 135  7168.764
 136  11483.84
 137  11286.04
 138  6580.925
 139  4874.793
 140  369.0894
 141  8213.219
 142  9244.385
 143  7440.138
 144  3666.026
 145  -1211.153
 146  -2105.971
 147  -2946.192
 148  -5411.738
 149  -3923.254
 150  -7096.689
 151  -5728.09
 152  -4000.653
 153  -1534.851
 154  -1969.456
 155  -4905.074
 156  -6010.523
 157  -10089.24
 158  -11072.72
 159  -12911.38
 160  -13761.93
 161  -14130.33
 162  -15740.23
 163  -13079.91
 164  -10508.64
 165  -9041.894
 166  -9351.888
 167  -8326.085
 168  -7698.674
 169  -6531.212
 170  -7492.123
 171  -8307.572
 172  -8448.729
 173  -7894.507
 174  -7186.301
 175  -6547.303
 176  -6367.333
 177  -5993.634
 178  -7019.799
 179  -7648.802
 180  -7817.925
 181  -8901.645
 182  -10568.12
 183  -8632.887
 184  -7984.34
 185  -8689.769
 186  -8576.875
 187  -9357.851
 188  -9970.835
 189  -11227.91
 190  -11568.65
 191  -11705.23
 192  -11189.31
 193  -10904.03
 194  -6785.936
 195  -764.2278
 196  20949.11
 197  31263.21
 198  39965.25
 199  41912.61
 200  19860.9
 201  11475.75
 202  24978.9
 203  55804.25
 204  68869.82
 205  63575.01
 206  34954.33
 207  14227.3
 208  -6066.3
 209  -10227.67
 210  -10422.98
 211  -11587.74
 212  -9967.309
 213  -11275.85
 214  -10310.59
 215  -9253.459
 216  -10851
 217  -12507.85
 218  -13537.86
 219  -8068.555
 220  -8031.475
 221  -7603.367
 222  -8842.462
 223  -11676.81
 224  -12450.52
 225  -11420.82
 226  -5643.846
 227  -4358.276
 228  -1165.4
 229  -117.1938
 230  -4463.72
 231  -5529.76
 232  -4769.396
 233  1324.512
 234  3279.095
 235  7277.29
 236  3327.729
 237  557.6433
 238  -5798.46
 239  -6388.922
 240  -5037.806
 241  -3726.14
 242  -3750.383
 243  -4264.797
 244  -8581.214
 245  -10861.32
 246  -10209.91
 247  -5815.386
 248  -5255.503
 249  -5307.399
 250  -7873.174
 251  -12036.36
 252  -12695.66
 253  -10196.72
 254  -8459.979
 255  -6847.967
 256  -6775.633
 257  -8086.96
 258  -9219.247
 259  -5434.63
 260  -4495.932
 261  -7415.425
 262  -8129.937
 263  -8823.815
 264  -7250.025
 265  -5067.441
 266  -5213.208
 267  -6339.835
 268  -10242.04
 269  -12807.63
 270  -13531.06
 271  -12992.43
 272  -12056.73
 273  -10439.47
 274  -9915.114
 275  -8523.31
 276  -6285.065
 277  -4609.714
 278  -1548.094
 279  710.3832
 280  -1715.006
 281  -439.1082
 282  2722.287
 283  6774.766
 284  4751.371
 285  4390.254
 286  4460.564
 287  809.1704
 288  -656.3455
 289  914.0175
 290  -28.3237
 291  -3140.697
 292  -4503.524
 293  -4006.904
 294  -4326.487
 295  -3852.906
 296  -3197.648
 297  -4546.508
 298  -6951.894
 299  -3657.685
 300  -3107.836
 301  -2250.78
 302  -3048.159
 303  -936.5604
 304  -3087.634
 305  -4652.32
 306  -3622.471
 307  -2225.91
 308  -2539.874
 309  -1309.441
 310  -2911.506
 311  -3711.81
 312  -4658.889
 313  -2431.801
 314  1578.814
 315  -101.2024
 316  604.3113
 317  -626.5474
 318  2078.481
 319  1088.862
 320  2279.658
 321  -1631.965
 322  -2157.085
 323  -3026.804
 324  -4067.903
 325  -3819.467
 326  -6218.761
 327  -7299.575
 328  -10801.93
 329  -9146.64
 330  -8579.309
 331  -8481.399
 332  -8954.021
 333  -10582.91
 334  -11838.57
 335  -10309.98
 336  -6708.526
 337  -662.2335
 338  841.3323
 339  948.4671
 340  -1454.012
 341  -4284.601
 342  -4128.297
 343  -689.243
 344  5184.013
 345  5066.519
 346  6573.046
 347  3840.246
 348  5350.183
 349  6457.394
 350  11699.81
 351  14973.95
 352  14808.03
 353  21883.2
 354  12831.2
 355  17582.27
 356  16127.74
 357  32399.75
 358  30989.43
 359  27114.1
 360  19903.09
 361  5031.724
 362  -2902.248
 363  -9012.984
 364  -12668.09
 365  -12764.86
 366  -11094.48
 367  -11390.28
 368  -10552.32
 369  -11049.88
 370  -10785.58
 371  -8415.664
 372  -9407.81
 373  -9410.73
 374  -8756.031
 375  -10040.02
 376  -7431.749
 377  -4124.544
 378  850.0482
 379  5318.764
 380  3593.551
 381  -972.4467
 382  -3378.824
 383  -3582.951
 384  267.2329
 385  3592.313
 386  5524.794
 387  1967.507
 388  -1942.582
 389  -3682.889
 390  -9711.644
 391  -8712.194
 392  -6812.058
 393  -3798.85
 394  -4225.465
 395  -4987.117
 396  -5963.84
 397  -9481.89
 398  -7944.626
 399  -4892.059
 400  -4777.155
 401  -4634.895
 402  -5709.917
 403  -8931.587
 404  -8561.82
 405  -6331.615
 406  883.1472
 407  897.2783
 408  -1188.832
 409  -2657.496
 410  -7111.567
 411  -5954.731
 412  -6053.293
 413  -1057.997
 414  -1096.732
 415  -3318.326
 416  -7975.382
 417  -9407.379
 418  -9739.666
 419  -7163.913
 420  -5761.406
 421  -9720.394
 422  -10367.44
 423  -10499.97
 424  -6380.557
 425  -3927.582
 426  482.1927
 427  821.8304
 428  -90.8299
 429  -1844.553
 430  -9054.94
 431  -6795.374
 432  -4898.286
 433  2824.395
 434  5375.079
 435  9515.672
 436  17281.09
 437  15667.12
 438  19076.09
 439  20118.16
 440  5223.625
 441  5913.93
 442  17294.98
 443  45316.2
 444  45930.22
 445  44099.07
 446  25568.09
 447  15908.39
 448  17298.54
 449  24953.45
 450  22853.41
 451  5849.932
 452  6579.492
 453  10147.39
 454  24830.3
 455  23581.48
 456  16886.12
 457  8720.552
 458  -10798
 459  -13180.89
 460  -14846.28
 461  -15203.79
 462  -14187.56
 463  -13590.66
 464  -14017.97
 465  -14905.32
 466  -13545.49
 467  -12286.97
 468  -11298.78
 469  -11675.86
 470  -12002.75
 471  -13952.68
 472  -12548.88
 473  -9680.968
 474  -2915.938
 475  20865.39
 476  37126.16
 477  55684.08
 478  59801.93
 479  44154.82
 480  27202.79
 481  23667.59
 482  59890.94
 483  85558.24
 484  101280.2
 485  72644.47
 486  47474.79
 487  15572.95
 488  -2894.2
 489  -3631.167
 490  -4023.98
 491  -9801.094
 492  -10280.64
 493  -2450.704
 494  3410.617
 495  3607.837
 496  4629.005
 497  386.975
 498  -2873.705
 499  -6882.749
 500  -9934.394
 501  -13545.34
 502  -12147.17
 503  -10228.38
 504  -9214.416
 505  -9223.798
 506  -10245.1
 507  -12595.12
 508  -14081.93
 509  -13076.61
 510  -12306.59
 511  -9382.089
