# Input file       =  1185664428.103452-PSRB0329-2ms-sampling-dd.dat
# Candidate        =  PSR_0332+5434
# Telescope        =  AR
# Epoch_topo       =  57966.968137771437
# Epoch_bary       =  N/A
# T_sample         =  0.002
# Data Folded      =  7208960
# Data Avg         =  4.17286501561267e-10
# Data StdDev      =  5.73009798092355 
# Profile Bins     =  512
# Profile Avg      =  -0.0103108178097973
# Profile StdDev   =  679.928703632562 
# Reduced chi-sqr  =  0.571
# Prob(Noise)      <  1   (~0.0 sigma)
# P_topo (ms)      =  714.46906937444   +/- 7.52e-05
# P'_topo (s/s)    =  -0                +/- 4.04e-11
# P''_topo (s/s^2) =  0                 +/- 1.82e-14
# P_bary (ms)      =  N/A
# P'_bary (s/s)    =  N/A
# P''_bary (s/s^2) =  N/A
# P_orb (s)        =  N/A
# asin(i)/c (s)    =  N/A
# eccentricity     =  N/A
# w (rad)          =  N/A
# T_peri           =  N/A
######################################################
   0  37.84231
   1  31.55313
   2  -53.30438
   3  12.31368
   4  360.1223
   5  105.5069
   6  -362.7439
   7  -211.9676
   8  -196.3308
   9  33.97839
  10  -161.8888
  11  56.92316
  12  -197.6654
  13  -401.3458
  14  -226.9467
  15  -42.49038
  16  -490.395
  17  -491.8172
  18  -266.1706
  19  461.5591
  20  175.0068
  21  -4.460996
  22  457.5037
  23  -41.90772
  24  -434.5594
  25  -786.6155
  26  -174.2661
  27  -33.02905
  28  -372.2721
  29  -19.49542
  30  -148.0387
  31  -579.6746
  32  -1115.248
  33  -780.2767
  34  -137.5314
  35  -306.3731
  36  -469.7114
  37  -74.97134
  38  276.9116
  39  -47.10174
  40  -424.7944
  41  140.7588
  42  -33.46978
  43  -375.7446
  44  -366.4292
  45  -19.22303
  46  407.1921
  47  118.5833
  48  77.14334
  49  54.58303
  50  -168.569
  51  -216.3107
  52  -216.4082
  53  -15.58402
  54  -276.599
  55  151.5324
  56  116.8764
  57  -156.991
  58  -219.8103
  59  -189.5558
  60  131.9423
  61  256.1028
  62  220.0164
  63  160.1294
  64  -376.5803
  65  -507.5144
  66  -408.8664
  67  -178.8709
  68  146.9063
  69  69.63354
  70  13.41213
  71  -120.3075
  72  -588.9769
  73  -688.0946
  74  84.97486
  75  121.8756
  76  319.9533
  77  384.8859
  78  248.9252
  79  53.93743
  80  -175.1654
  81  -197.2164
  82  43.37236
  83  -140.7587
  84  145.3488
  85  166.6395
  86  140.3731
  87  45.58285
  88  -207.4497
  89  164.2282
  90  16.40585
  91  97.3485
  92  -93.15524
  93  12.47227
  94  240.5238
  95  -66.0178
  96  -231.0017
  97  -559.4763
  98  -433.6784
  99  -359.9605
 100  -163.8021
 101  53.15424
 102  73.2342
 103  464.7617
 104  287.6341
 105  -249.5539
 106  -709.1259
 107  -635.7625
 108  -259.6997
 109  -252.3387
 110  -325.5434
 111  133.5644
 112  176.9049
 113  -42.58411
 114  -482.8726
 115  -773.8363
 116  -513.7559
 117  -469.3843
 118  -213.4693
 119  -251.6384
 120  -17.88581
 121  179.3453
 122  -156.5106
 123  -391.9012
 124  -745.218
 125  -495.3488
 126  -247.0453
 127  -124.6487
 128  6.148769
 129  214.7011
 130  299.924
 131  -381.7885
 132  -448.7618
 133  -625.9169
 134  -93.73804
 135  -43.38914
 136  181.0388
 137  536.9532
 138  -196.0684
 139  -647.9406
 140  -625.024
 141  -448.5082
 142  -531.2642
 143  247.814
 144  420.052
 145  302.5163
 146  -102.2012
 147  4.700993
 148  -12.73146
 149  332.4678
 150  249.925
 151  870.5516
 152  1692.519
 153  1565.696
 154  1239.349
 155  838.7067
 156  681.506
 157  -95.32736
 158  35.03423
 159  -97.96062
 160  -58.06337
 161  -306.7858
 162  -81.39584
 163  146.7158
 164  -412.1061
 165  -169.748
 166  85.34335
 167  290.8354
 168  -140.4151
 169  -134.1869
 170  147.0625
 171  133.4831
 172  -645.9344
 173  -451.226
 174  -102.9039
 175  -173.8727
 176  -193.7668
 177  -385.7323
 178  505.9565
 179  -266.6648
 180  -332.597
 181  -392.687
 182  -424.9065
 183  50.94692
 184  172.2708
 185  340.0253
 186  225.5684
 187  -39.3085
 188  -206.1815
 189  -186.6513
 190  -734.8772
 191  -478.3044
 192  -34.7734
 193  3.089151
 194  -72.83102
 195  -64.63973
 196  -152.1378
 197  -291.4407
 198  -635.1645
 199  -166.0705
 200  41.08723
 201  -30.12665
 202  180.5813
 203  81.79128
 204  728.6381
 205  187.4241
 206  -230.6354
 207  -161.2103
 208  -399.5374
 209  -149.5065
 210  107.3998
 211  549.1057
 212  276.502
 213  -483.8019
 214  -352.8408
 215  -537.5973
 216  -381.5338
 217  -52.24583
 218  440.9984
 219  414.8795
 220  -89.23889
 221  -26.79136
 222  -104.8441
 223  -281.2002
 224  -174.086
 225  -35.39758
 226  10.10348
 227  28.57867
 228  143.3991
 229  -127.1568
 230  -369.3397
 231  52.73439
 232  268.7213
 233  780.4282
 234  842.0067
 235  842.5004
 236  730.7468
 237  233.1193
 238  462.9417
 239  149.1818
 240  686.2905
 241  937.4691
 242  478.7441
 243  648.5989
 244  313.8611
 245  501.6569
 246  35.18847
 247  -246.5863
 248  -7.129224
 249  7.861375
 250  268.7036
 251  694.4435
 252  551.7529
 253  306.4381
 254  31.16137
 255  18.58638
 256  -441.8509
 257  -62.87912
 258  676.2455
 259  393.043
 260  475.9268
 261  380.6299
 262  234.7538
 263  -461.7856
 264  -311.4355
 265  79.6318
 266  -120.9316
 267  277.885
 268  541.0973
 269  643.9604
 270  325.0739
 271  -244.8108
 272  -490.6452
 273  -477.9235
 274  -313.806
 275  -102.539
 276  -73.12727
 277  44.15257
 278  459.303
 279  35.88078
 280  -303.9252
 281  -546.9099
 282  -226.4642
 283  173.8487
 284  240.7014
 285  169.5215
 286  389.0042
 287  15.26284
 288  -305.1262
 289  -264.5408
 290  -319.3631
 291  -377.3234
 292  -357.4661
 293  218.7852
 294  465.4449
 295  516.45
 296  -21.09149
 297  -428.6364
 298  -426.6116
 299  -80.60097
 300  99.87879
 301  60.3276
 302  495.7042
 303  620.2059
 304  -152.9863
 305  -356.4939
 306  -560.6072
 307  -311.2044
 308  -327.8056
 309  -106.428
 310  271.2201
 311  -183.0392
 312  -133.2863
 313  -272.0314
 314  -369.2935
 315  197.8003
 316  -262.0031
 317  -151.1894
 318  240.7087
 319  132.5207
 320  51.2156
 321  -59.00198
 322  -95.66926
 323  -285.4361
 324  -225.8634
 325  235.511
 326  103.7799
 327  191.7625
 328  130.4307
 329  -6.56254
 330  -651.7852
 331  -713.3931
 332  -319.5325
 333  -198.7113
 334  205.7481
 335  -161.3769
 336  -149.4388
 337  -455.7045
 338  -655.1237
 339  -243.448
 340  -486.3912
 341  -486.8561
 342  59.83276
 343  -194.3689
 344  -494.8892
 345  -610.8678
 346  -721.5554
 347  -99.32726
 348  -622.765
 349  -554.7516
 350  -385.942
 351  -95.36475
 352  -29.01464
 353  -141.1891
 354  -363.6397
 355  -622.5336
 356  -662.8171
 357  -597.9686
 358  -569.2388
 359  -534.8433
 360  -100.1556
 361  120.3344
 362  -452.8562
 363  -317.6463
 364  -432.511
 365  -199.8907
 366  -356.3673
 367  -623.8066
 368  -299.5938
 369  -205.8384
 370  -110.8326
 371  -528.908
 372  -365.5528
 373  16.98879
 374  -61.49614
 375  22.52878
 376  -174.4197
 377  211.7299
 378  -137.6956
 379  -493.2738
 380  -581.7745
 381  -607.9412
 382  -245.759
 383  -525.2174
 384  -85.02802
 385  423.5528
 386  232.8973
 387  -80.01155
 388  -150.4292
 389  -216.8068
 390  -229.2116
 391  -56.95719
 392  243.7236
 393  199.6367
 394  411.2513
 395  370.5808
 396  256.1467
 397  -117.8513
 398  88.66695
 399  36.5971
 400  -1.177671
 401  238.6253
 402  467.4446
 403  429.6126
 404  149.0108
 405  -92.85627
 406  -163.9991
 407  -67.54052
 408  -43.95236
 409  266.3446
 410  236.8464
 411  188.8454
 412  0.1933215
 413  15.44783
 414  180.2719
 415  290.8386
 416  153.0367
 417  266.1139
 418  530.2166
 419  41.57394
 420  6.395193
 421  665.1847
 422  186.8564
 423  434.9215
 424  5.354941
 425  287.4789
 426  324.5478
 427  300.8944
 428  650.0354
 429  342.6139
 430  955.4435
 431  924.9418
 432  460.2218
 433  404.7704
 434  500.3278
 435  687.1567
 436  498.3661
 437  400.0867
 438  720.0657
 439  986.6553
 440  723.4391
 441  238.103
 442  497.5764
 443  478.3741
 444  235.5652
 445  39.44322
 446  237.041
 447  484.5413
 448  83.98339
 449  381.4355
 450  692.1135
 451  634.6213
 452  506.0983
 453  48.9207
 454  107.849
 455  -108.1611
 456  239.7077
 457  661.4615
 458  658.5695
 459  433.3372
 460  508.7857
 461  -59.63486
 462  147.8562
 463  238.031
 464  460.5808
 465  84.53415
 466  -66.36618
 467  270.5803
 468  605.2036
 469  251.5968
 470  82.83646
 471  298.709
 472  442.3899
 473  -226.8954
 474  -138.8754
 475  -103.6497
 476  29.08762
 477  209.4775
 478  242.8025
 479  242.3665
 480  -264.8194
 481  -359.3281
 482  -2.650409
 483  104.2332
 484  468.0871
 485  342.3527
 486  203.3797
 487  170.4221
 488  -280.6118
 489  -339.4282
 490  244.803
 491  649.9153
 492  146.3679
 493  22.17349
 494  -226.8784
 495  -48.30291
 496  -273.3213
 497  62.04516
 498  681.4343
 499  444.0499
 500  61.62801
 501  -17.74236
 502  301.7973
 503  -65.675
 504  170.155
 505  483.9166
 506  149.6457
 507  106.5518
 508  140.0163
 509  -164.7596
 510  -547.9465
 511  -370.063
