# Input file       =  1185866322.111711-PSRB0329-2ms-sampling-dd.dat
# Candidate        =  PSR_0332+5434
# Telescope        =  AR
# Epoch_topo       =  57969.304873978137
# Epoch_bary       =  N/A
# T_sample         =  0.002
# Data Folded      =  7340032
# Data Avg         =  -1.02370935337412e-10
# Data StdDev      =  4.92709228778363 
# Profile Bins     =  512
# Profile Avg      =  -0.178592950815947
# Profile StdDev   =  589.935720124881 
# Reduced chi-sqr  =  0.651
# Prob(Noise)      <  1   (~0.0 sigma)
# P_topo (ms)      =  714.468480651171  +/- 0.00178
# P'_topo (s/s)    =  -0                +/- 9.41e-10
# P''_topo (s/s^2) =  0                 +/- 4.16e-13
# P_bary (ms)      =  N/A
# P'_bary (s/s)    =  N/A
# P''_bary (s/s^2) =  N/A
# P_orb (s)        =  N/A
# asin(i)/c (s)    =  N/A
# eccentricity     =  N/A
# w (rad)          =  N/A
# T_peri           =  N/A
######################################################
   0  -351.115
   1  103.214
   2  440.7062
   3  470.8719
   4  -58.14275
   5  -239.1945
   6  -199.8644
   7  -87.67074
   8  547.5523
   9  566.9562
  10  550.4894
  11  5.454746
  12  -135.2744
  13  -160.4884
  14  84.2098
  15  213.722
  16  388.1349
  17  57.52646
  18  17.79949
  19  -17.88933
  20  133.1063
  21  639.9259
  22  540.9895
  23  111.0974
  24  168.0797
  25  -127.2877
  26  -686.3732
  27  -391.0917
  28  38.62462
  29  466.6003
  30  818.8534
  31  646.8323
  32  278.777
  33  -46.3513
  34  -273.6413
  35  43.16238
  36  125.1236
  37  -92.82767
  38  -44.51226
  39  -91.83766
  40  -291.8069
  41  -790.2623
  42  -369.02
  43  230.1202
  44  527.5089
  45  529.9537
  46  643.7117
  47  980.2791
  48  345.4561
  49  -161.6138
  50  -336.9544
  51  377.9588
  52  409.7631
  53  0.5606064
  54  70.91341
  55  531.2972
  56  406.7986
  57  -225.0282
  58  -75.78317
  59  412.2856
  60  453.5961
  61  275.7421
  62  300.5049
  63  250.32
  64  150.2166
  65  224.0283
  66  -60.78596
  67  -22.79631
  68  80.48196
  69  113.1134
  70  134.9677
  71  106.8195
  72  582.9951
  73  1129.863
  74  1524.023
  75  1801.825
  76  1603.747
  77  1632.722
  78  1140.672
  79  159.2667
  80  -46.73882
  81  48.75056
  82  -111.3043
  83  -1.879842
  84  600.1323
  85  624.9241
  86  108.0677
  87  -120.6568
  88  -41.9628
  89  80.9912
  90  122.3492
  91  190.0484
  92  450.8098
  93  -11.04075
  94  -404.6943
  95  291.4443
  96  342.3697
  97  255.781
  98  2.456733
  99  -240.7877
 100  49.07076
 101  114.9577
 102  63.66212
 103  154.2528
 104  -23.33816
 105  -216.4915
 106  -352.2566
 107  -588.6671
 108  -578.1821
 109  -110.5286
 110  457.5534
 111  223.242
 112  35.56311
 113  -18.49702
 114  -134.3508
 115  -378.2209
 116  -338.8631
 117  -190.2006
 118  -72.94438
 119  -9.792453
 120  80.21394
 121  503.8923
 122  307.9365
 123  426.4998
 124  193.3266
 125  416.1413
 126  0.2123232
 127  -51.24628
 128  14.62927
 129  136.0264
 130  635.7103
 131  -27.4898
 132  -282.5874
 133  -210.6664
 134  506.0161
 135  77.0331
 136  215.8856
 137  352.6332
 138  131.2007
 139  0.6506504
 140  -66.86028
 141  -320.8572
 142  6.068073
 143  274.4394
 144  73.90638
 145  83.4437
 146  155.3186
 147  53.02785
 148  -89.17062
 149  19.1703
 150  487.6522
 151  22.40514
 152  -68.59625
 153  -448.2569
 154  -259.6965
 155  -103.3042
 156  -240.3404
 157  -283.3191
 158  -460.9223
 159  -425.0044
 160  -159.6737
 161  234.8003
 162  220.7268
 163  162.5922
 164  -134.0039
 165  -355.839
 166  -335.8535
 167  -229.0721
 168  -128.2125
 169  -88.94586
 170  -278.5295
 171  -269.9665
 172  -133.3751
 173  173.9869
 174  36.10827
 175  -168.348
 176  99.27378
 177  -591.3062
 178  -115.7911
 179  114.6959
 180  232.7718
 181  120.6514
 182  -293.3846
 183  -99.68974
 184  201.4507
 185  306.8531
 186  -291.7774
 187  -70.05396
 188  -302.084
 189  -624.6133
 190  -65.23643
 191  -144.1118
 192  151.3618
 193  367.9635
 194  198.9824
 195  169.0005
 196  914.2451
 197  915.2841
 198  197.9859
 199  -245.1292
 200  -312.3016
 201  -122.1137
 202  -185.982
 203  163.8766
 204  281.574
 205  405.9088
 206  501.6527
 207  -127.5649
 208  -233.5421
 209  -119.5435
 210  341.8169
 211  131.6498
 212  -56.40421
 213  91.90047
 214  -182.721
 215  -65.24332
 216  17.25968
 217  312.9644
 218  163.6196
 219  -208.904
 220  -215.1128
 221  -350.7799
 222  -270.1983
 223  -142.5238
 224  19.78284
 225  130.2163
 226  319.1185
 227  202.5868
 228  211.6219
 229  -147.4363
 230  238.7312
 231  357.2562
 232  210.5968
 233  418.2051
 234  537.3495
 235  75.02879
 236  -176.8978
 237  27.02007
 238  351.9594
 239  238.5117
 240  125.0875
 241  1.255536
 242  -383.0074
 243  -284.9318
 244  -382.794
 245  -231.8002
 246  -503.6208
 247  -58.09921
 248  -46.63533
 249  -535.5825
 250  -283.1424
 251  -344.6981
 252  213.4679
 253  -253.41
 254  -186.6822
 255  -301.9348
 256  -572.2731
 257  -291.1772
 258  -170.6599
 259  176.491
 260  -260.3259
 261  -137.8774
 262  -138.5231
 263  -41.44057
 264  -390.7751
 265  -253.487
 266  171.9076
 267  263.3716
 268  212.3997
 269  0.1460112
 270  -234.8867
 271  -162.8932
 272  -136.6552
 273  -285.7064
 274  -66.98365
 275  163.6537
 276  320.6304
 277  230.0883
 278  -232.1159
 279  -15.79668
 280  -186.2099
 281  -423.1859
 282  32.99467
 283  134.2419
 284  56.29359
 285  42.22397
 286  -93.12796
 287  -379.7726
 288  -128.5406
 289  10.04194
 290  -333.6618
 291  -281.5098
 292  -77.44268
 293  -67.49943
 294  -454.1487
 295  -376.698
 296  -273.231
 297  70.63503
 298  324.0626
 299  261.4929
 300  -463.2781
 301  -168.4543
 302  -164.4191
 303  -110.4775
 304  178.1242
 305  -92.04568
 306  4.101032
 307  168.7832
 308  124.5079
 309  -60.35184
 310  119.7148
 311  328.2963
 312  289.3744
 313  225.1656
 314  133.7581
 315  -271.4838
 316  -299.8926
 317  -563.1661
 318  -633.3431
 319  -237.9032
 320  -156.8204
 321  -441.0586
 322  -495.2117
 323  -371.7401
 324  -393.2183
 325  -579.5542
 326  -433.3544
 327  -431.0054
 328  -957.3612
 329  -752.7079
 330  -136.977
 331  -16.36742
 332  -62.11111
 333  58.97758
 334  -159.9365
 335  -572.0026
 336  -429.6827
 337  87.61916
 338  -35.91564
 339  -19.34644
 340  155.317
 341  316.1957
 342  76.41766
 343  62.33667
 344  -388.9192
 345  -689.8792
 346  -180.2898
 347  -371.1241
 348  41.99722
 349  42.44672
 350  161.1828
 351  107.653
 352  -420.6281
 353  -553.2609
 354  -461.7729
 355  37.84069
 356  -189.7003
 357  -322.3888
 358  113.6307
 359  -64.34936
 360  127.0025
 361  -399.2066
 362  -323.8018
 363  226.8651
 364  -309.8122
 365  -366.8639
 366  96.83394
 367  424.3793
 368  82.3789
 369  -367.2926
 370  -42.56396
 371  -1.75217
 372  -354.1896
 373  -351.3487
 374  -400.1172
 375  -90.15302
 376  221.5553
 377  468.6869
 378  517.0131
 379  -99.15189
 380  -329.5057
 381  -56.7379
 382  -105.0003
 383  30.75729
 384  -225.1156
 385  -861.5339
 386  -886.0963
 387  -327.5919
 388  2.923354
 389  -339.5306
 390  -314.7644
 391  -156.579
 392  117.8106
 393  222.6965
 394  108.3586
 395  347.2319
 396  -162.8147
 397  -174.188
 398  -306.2617
 399  -274.2897
 400  44.8498
 401  -113.366
 402  -263.0146
 403  -717.8829
 404  -577.9874
 405  -312.5251
 406  -243.0164
 407  -149.4801
 408  -335.3783
 409  -516.9642
 410  -397.914
 411  -524.473
 412  -330.3083
 413  261.8827
 414  459.2452
 415  160.2264
 416  -67.69702
 417  -155.5137
 418  -628.8459
 419  -526.9479
 420  -308.7245
 421  -325.9575
 422  -182.454
 423  -393.5736
 424  -148.7447
 425  -197.8748
 426  -407.1143
 427  -384.117
 428  -113.6279
 429  -122.1819
 430  75.23657
 431  161.8078
 432  672.092
 433  343.0605
 434  -170.6785
 435  -85.07028
 436  -347.0511
 437  -338.4375
 438  -239.3656
 439  -5.477368
 440  -56.60865
 441  -90.99088
 442  -363.147
 443  -268.2362
 444  -48.79728
 445  398.3108
 446  662.5103
 447  -121.9224
 448  65.51679
 449  -57.88507
 450  -466.7274
 451  -276.4702
 452  266.73
 453  312.7998
 454  33.07582
 455  -198.1174
 456  192.5124
 457  224.214
 458  347.2368
 459  96.64548
 460  49.16991
 461  -287.8104
 462  -445.8286
 463  63.96498
 464  5.224182
 465  401.5648
 466  506.2619
 467  448.6116
 468  64.84989
 469  -96.13598
 470  73.5131
 471  -92.86707
 472  249.8502
 473  308.8495
 474  545.3373
 475  463.4802
 476  615.788
 477  57.54336
 478  -104.6234
 479  -352.7877
 480  -427.8556
 481  -158.1274
 482  40.03148
 483  204.1822
 484  183.4617
 485  -69.56519
 486  -76.16043
 487  -83.51418
 488  -206.681
 489  -74.68829
 490  -188.8471
 491  -222.0983
 492  147.4682
 493  546.5721
 494  184.1279
 495  134.0902
 496  436.1142
 497  -71.57763
 498  166.1291
 499  137.4852
 500  793.8831
 501  247.2868
 502  225.5416
 503  11.0912
 504  -117.3486
 505  219.9009
 506  289.2751
 507  213.0521
 508  191.6812
 509  -9.916248
 510  137.6108
 511  -1.531397
