# Input file       =  1185679067.110193-PSRB0329-2ms-sampling-dd.dat
# Candidate        =  PSR_0332+5434
# Telescope        =  AR
# Epoch_topo       =  57967.137570719824
# Epoch_bary       =  N/A
# T_sample         =  0.002
# Data Folded      =  7340032
# Data Avg         =  6.1617150652483e-10
# Data StdDev      =  2.78098193743151 
# Profile Bins     =  512
# Profile Avg      =  0.00462191135777112
# Profile StdDev   =  332.975411477617 
# Reduced chi-sqr  =  1.193
# Prob(Noise)      <  0.00173   (~2.9 sigma)
# P_topo (ms)      =  714.469011379659  +/- 0.000296
# P'_topo (s/s)    =  -0                +/- 1.56e-10
# P''_topo (s/s^2) =  0                 +/- 6.9e-14
# P_bary (ms)      =  N/A
# P'_bary (s/s)    =  N/A
# P''_bary (s/s^2) =  N/A
# P_orb (s)        =  N/A
# asin(i)/c (s)    =  N/A
# eccentricity     =  N/A
# w (rad)          =  N/A
# T_peri           =  N/A
######################################################
   0  -307.3893
   1  -298.2975
   2  -231.1246
   3  -304.2952
   4  -291.209
   5  -520.9489
   6  -342.6447
   7  -435.9156
   8  -406.8855
   9  -382.1696
  10  -483.742
  11  -500.0559
  12  -354.9665
  13  -78.10151
  14  39.37266
  15  -71.80605
  16  -97.75038
  17  -205.1308
  18  -242.1847
  19  -95.39832
  20  99.41947
  21  -81.09998
  22  -217.3888
  23  -78.38756
  24  98.70233
  25  -102.7302
  26  -436.0276
  27  -351.3773
  28  -206.9867
  29  -288.9686
  30  -339.2598
  31  -237.3414
  32  -411.8142
  33  -418.7719
  34  -208.9486
  35  71.56308
  36  96.15913
  37  -248.0875
  38  -299.7057
  39  -135.6298
  40  -149.7197
  41  -287.9793
  42  -500.2312
  43  -224.2718
  44  168.1998
  45  -178.2587
  46  -102.5479
  47  -13.18608
  48  -18.66608
  49  -132.8528
  50  -170.9965
  51  -241.3421
  52  -262.4696
  53  252.9938
  54  212.769
  55  120.3753
  56  91.83144
  57  150.3741
  58  258.4273
  59  407.7227
  60  366.8534
  61  0.1420681
  62  -119.0019
  63  8.431566
  64  54.31136
  65  -30.45676
  66  -202.456
  67  -249.0164
  68  -77.69805
  69  219.6351
  70  189.4214
  71  110.2381
  72  113.9444
  73  -238.3695
  74  -222.9728
  75  -108.4709
  76  215.9257
  77  102.6681
  78  93.41637
  79  18.09416
  80  182.0424
  81  78.38428
  82  51.68272
  83  156.4237
  84  349.1636
  85  -80.57981
  86  68.93104
  87  308.2152
  88  337.326
  89  190.1111
  90  39.14069
  91  295.3275
  92  185.6496
  93  64.77348
  94  369.6051
  95  328.9387
  96  -13.23574
  97  143.9564
  98  -117.5134
  99  103.7072
 100  139.2268
 101  198.8491
 102  52.18726
 103  -105.0158
 104  -196.1049
 105  -140.2517
 106  27.6401
 107  -224.5188
 108  -286.636
 109  -93.19331
 110  -115.1618
 111  5.727614
 112  -131.4476
 113  42.5094
 114  31.04911
 115  -86.12389
 116  88.70652
 117  129.9889
 118  -50.69018
 119  249.4932
 120  129.6208
 121  -170.6117
 122  -17.88378
 123  197.2656
 124  262.4114
 125  74.69119
 126  57.88205
 127  318.8983
 128  502.1707
 129  173.231
 130  -115.0161
 131  106.4885
 132  -170.4836
 133  47.21685
 134  -138.2985
 135  224.0357
 136  40.70295
 137  -289.6024
 138  -143.0442
 139  174.9266
 140  -237.8003
 141  85.06298
 142  4.916955
 143  -158.0674
 144  -4.231898
 145  142.7198
 146  140.3119
 147  84.73413
 148  -145.1231
 149  -47.69049
 150  203.4005
 151  -121.1386
 152  79.33817
 153  127.8556
 154  -185.5891
 155  92.62115
 156  194.4176
 157  306.0996
 158  105.3079
 159  14.11748
 160  280.5992
 161  261.7579
 162  176.7281
 163  77.57596
 164  20.98112
 165  10.91721
 166  149.8506
 167  -39.7268
 168  89.05739
 169  179.9447
 170  101.5564
 171  21.63606
 172  56.5209
 173  85.70412
 174  209.1262
 175  270.5148
 176  87.70943
 177  22.39477
 178  -24.79737
 179  398.8885
 180  371.8104
 181  552.7018
 182  706.6555
 183  404.3893
 184  207.9262
 185  488.9863
 186  279.433
 187  33.83334
 188  286.7136
 189  340.0735
 190  266.5394
 191  167.1248
 192  411.9704
 193  371.5841
 194  210.476
 195  -24.82443
 196  -63.85823
 197  109.0929
 198  253.4084
 199  213.2352
 200  170.2796
 201  551.5561
 202  530.5681
 203  136.8187
 204  -318.9769
 205  -583.763
 206  -79.64231
 207  280.7584
 208  453.5252
 209  137.5693
 210  -137.0543
 211  48.18462
 212  301.4205
 213  408.3804
 214  352.2285
 215  22.91911
 216  -6.02196
 217  33.70119
 218  -113.318
 219  -67.92489
 220  25.09555
 221  42.62157
 222  -91.8939
 223  156.2058
 224  206.7508
 225  31.08671
 226  -64.39056
 227  71.95529
 228  73.04764
 229  -132.0715
 230  73.76929
 231  369.5153
 232  285.7206
 233  25.93125
 234  116.9093
 235  168.6657
 236  -186.5736
 237  -425.4433
 238  -253.8244
 239  -195.2446
 240  -250.9952
 241  -476.9194
 242  -363.2212
 243  -371.9444
 244  22.86464
 245  133.7658
 246  25.77526
 247  -83.75798
 248  -142.5811
 249  -209.2468
 250  -25.19848
 251  209.7443
 252  -53.20985
 253  -16.31879
 254  129.924
 255  365.1859
 256  88.63916
 257  -133.093
 258  83.00856
 259  123.9081
 260  91.99341
 261  -134.1795
 262  -179.5473
 263  -138.1996
 264  41.11837
 265  -401.6582
 266  -299.8616
 267  43.61332
 268  -264.823
 269  -654.6508
 270  -391.2233
 271  -164.1983
 272  -81.6255
 273  -90.18505
 274  -13.25993
 275  202.226
 276  24.59488
 277  -57.49526
 278  209.8714
 279  -366.1532
 280  -519.9225
 281  -476.2852
 282  -246.229
 283  122.2043
 284  167.8379
 285  154.4925
 286  54.79592
 287  -69.09324
 288  -396.9554
 289  -167.5536
 290  -68.24052
 291  175.2157
 292  -121.4304
 293  -504.7029
 294  -165.5753
 295  174.0702
 296  -126.4432
 297  -81.26723
 298  -76.51944
 299  128.5029
 300  84.40033
 301  -4.200382
 302  7.925279
 303  28.31496
 304  231.9157
 305  54.52522
 306  144.1365
 307  206.6228
 308  -122.557
 309  -195.9043
 310  26.76774
 311  75.66278
 312  -153.0222
 313  0.4486335
 314  -113.0478
 315  -134.2288
 316  -78.42697
 317  -35.91552
 318  267.0586
 319  71.41251
 320  -121.6495
 321  -78.94695
 322  285.5322
 323  234.0555
 324  102.2489
 325  8.993577
 326  -104.4606
 327  -103.2757
 328  -81.23598
 329  -133.2971
 330  -107.756
 331  -148.3299
 332  -39.00584
 333  25.68094
 334  150.3475
 335  555.9374
 336  245.3378
 337  110.4711
 338  -337.5927
 339  -112.981
 340  11.18164
 341  155.4395
 342  241.5452
 343  -257.8823
 344  -288.9403
 345  58.20956
 346  77.32465
 347  230.4987
 348  333.1339
 349  160.1322
 350  -266.2075
 351  -218.3906
 352  -69.71564
 353  -297.6225
 354  -257.9246
 355  124.7647
 356  -163.7107
 357  -224.0594
 358  19.15169
 359  -89.44366
 360  -150.4846
 361  -169.8661
 362  -168.2907
 363  -70.26984
 364  54.82361
 365  -300.2444
 366  -121.0782
 367  203.2008
 368  -82.53509
 369  -265.3847
 370  -83.13059
 371  -25.04278
 372  -156.2898
 373  -3.646559
 374  136.0133
 375  89.99696
 376  -80.21434
 377  -188.6619
 378  -45.1397
 379  120.6113
 380  129.9804
 381  -21.68527
 382  -85.70927
 383  -205.9868
 384  -268.1959
 385  -39.47592
 386  -12.98251
 387  -248.1057
 388  -172.8842
 389  -82.47371
 390  -85.03365
 391  -94.92845
 392  -93.05515
 393  -237.666
 394  -185.541
 395  -208.2298
 396  -211.8602
 397  172.8077
 398  -59.35889
 399  -274.067
 400  -212.381
 401  -166.8141
 402  83.72778
 403  19.06727
 404  76.00945
 405  -295.4941
 406  -346.4111
 407  -101.8518
 408  81.3896
 409  259.8372
 410  169.3696
 411  77.57317
 412  -148.0814
 413  -227.159
 414  -14.53489
 415  -119.1256
 416  -250.5933
 417  -303.2655
 418  -26.20048
 419  -107.7657
 420  -96.61217
 421  -58.55207
 422  -73.40559
 423  64.28382
 424  90.37392
 425  -143.9135
 426  -242.757
 427  -301.0659
 428  -521.9687
 429  -46.7084
 430  67.44705
 431  81.84621
 432  329.3898
 433  365.8623
 434  -38.30833
 435  121.2644
 436  160.9768
 437  -118.9754
 438  -153.6036
 439  -185.9159
 440  -92.31973
 441  -83.50414
 442  -40.24611
 443  -123.0927
 444  39.48613
 445  -115.8438
 446  -163.675
 447  -77.49501
 448  -179.8341
 449  -415.1606
 450  -611.7557
 451  -416.402
 452  -308.6636
 453  -219.6065
 454  -211.0453
 455  -332.6418
 456  -477.5587
 457  -206.8004
 458  -327.067
 459  12.81758
 460  120.7924
 461  -125.7856
 462  -297.6295
 463  -80.19553
 464  -230.1128
 465  -290.1815
 466  -155.5879
 467  -31.48142
 468  -101.271
 469  -205.2273
 470  -238.2096
 471  -1.175016
 472  -5.867513
 473  -92.85034
 474  -119.7036
 475  -82.48737
 476  82.97691
 477  103.2108
 478  208.2598
 479  741.6893
 480  443.3539
 481  538.7803
 482  801.3478
 483  1025.224
 484  1359.868
 485  1778.705
 486  1780.98
 487  1140.693
 488  605.632
 489  173.741
 490  67.2058
 491  -82.18544
 492  233.5078
 493  188.4573
 494  104.6696
 495  18.14825
 496  -1.833307
 497  -230.6105
 498  -314.1578
 499  -53.97227
 500  452.6724
 501  218.1299
 502  93.5941
 503  -105.6543
 504  147.3564
 505  177.5211
 506  229.3635
 507  290.36
 508  -12.87862
 509  74.57815
 510  174.6794
 511  15.54533
