# Input file       =  1185263182.108499-PSRB0329-2ms-sampling-dd.dat
# Candidate        =  PSR_0332+5434
# Telescope        =  AR
# Epoch_topo       =  57962.324086903922
# Epoch_bary       =  N/A
# T_sample         =  0.002
# Data Folded      =  7340032
# Data Avg         =  8.25588748014284e-10
# Data StdDev      =  7.42698470709351 
# Profile Bins     =  512
# Profile Avg      =  -1.21328116232438
# Profile StdDev   =  889.255430104113 
# Reduced chi-sqr  =  0.430
# Prob(Noise)      <  1   (~0.0 sigma)
# P_topo (ms)      =  714.47151537403   +/- 0.00263
# P'_topo (s/s)    =  -0                +/- 1.39e-09
# P''_topo (s/s^2) =  0                 +/- 6.12e-13
# P_bary (ms)      =  N/A
# P'_bary (s/s)    =  N/A
# P''_bary (s/s^2) =  N/A
# P_orb (s)        =  N/A
# asin(i)/c (s)    =  N/A
# eccentricity     =  N/A
# w (rad)          =  N/A
# T_peri           =  N/A
######################################################
   0  -617.7636
   1  -998.8071
   2  -956.8364
   3  -919.5585
   4  -340.4281
   5  -465.5946
   6  -665.8789
   7  -458.724
   8  -131.2134
   9  76.24285
  10  216.128
  11  108.2326
  12  -49.74163
  13  -83.52212
  14  -193.827
  15  -70.21606
  16  -254.5722
  17  -72.45589
  18  -29.3482
  19  -343.4441
  20  -305.3274
  21  -264.8717
  22  -146.8395
  23  -107.2756
  24  66.81838
  25  238.9785
  26  -248.1056
  27  -216.3849
  28  21.64858
  29  198.5355
  30  156.3284
  31  -77.18652
  32  552.9822
  33  25.36285
  34  -0.3773332
  35  16.4099
  36  -257.5251
  37  -185.1002
  38  -217.2952
  39  240.9134
  40  166.6093
  41  374.1228
  42  -448.1645
  43  -424.3535
  44  -492.7613
  45  -363.0768
  46  -196.3978
  47  -243.1882
  48  -73.79034
  49  49.53811
  50  14.24823
  51  137.7589
  52  236.6721
  53  119.9085
  54  -191.2149
  55  -210.1699
  56  -261.8042
  57  -263.9315
  58  271.5434
  59  -25.23335
  60  -61.54728
  61  182.6903
  62  -402.816
  63  -360.4118
  64  -175.8703
  65  -242.8429
  66  106.6265
  67  416.0278
  68  375.3549
  69  320.5149
  70  302.9568
  71  416.958
  72  302.3864
  73  463.8503
  74  296.1826
  75  490.2921
  76  551.4723
  77  679.8876
  78  720.3328
  79  604.1279
  80  880.4869
  81  880.8817
  82  524.2086
  83  538.6919
  84  217.6899
  85  507.2523
  86  458.1906
  87  105.5791
  88  -291.2953
  89  -692.2465
  90  -531.816
  91  153.4314
  92  192.8463
  93  178.7353
  94  -31.53782
  95  251.6475
  96  10.6742
  97  241.9282
  98  51.03748
  99  695.9219
 100  981.2969
 101  1266.509
 102  1366.44
 103  1072.065
 104  759.2241
 105  620.7261
 106  932.8536
 107  924.3504
 108  968.7044
 109  870.607
 110  654.4558
 111  935.2224
 112  809.5303
 113  716.9308
 114  704.8498
 115  1029.145
 116  595.9623
 117  156.0316
 118  227.5833
 119  -296.3385
 120  -91.86945
 121  242.2114
 122  279.7358
 123  484.9179
 124  439.9335
 125  117.6867
 126  28.6138
 127  154.795
 128  236.8733
 129  -0.03310008
 130  -23.90579
 131  197.4742
 132  326.3468
 133  707.099
 134  683.2043
 135  531.024
 136  773.8962
 137  657.2056
 138  461.971
 139  244.7492
 140  280.1671
 141  558.8582
 142  418.0333
 143  455.298
 144  53.87427
 145  265.705
 146  328.1951
 147  374.8248
 148  232.1036
 149  238.0457
 150  622.326
 151  -21.23701
 152  -73.51073
 153  169.2194
 154  683.465
 155  661.8797
 156  621.9907
 157  465.9114
 158  -29.99458
 159  -25.41208
 160  9.69087
 161  53.7613
 162  -145.5052
 163  393.6395
 164  276.4075
 165  -415.8319
 166  46.30182
 167  191.8189
 168  -246.1436
 169  -363.7071
 170  -597.7006
 171  -491.2095
 172  -207.8122
 173  238.969
 174  952.405
 175  794.2925
 176  399.6912
 177  243.4659
 178  131.3982
 179  -49.27228
 180  238.3528
 181  377.9446
 182  215.1723
 183  359.7205
 184  -68.10131
 185  -187.1817
 186  -210.6341
 187  -56.19664
 188  -31.63298
 189  104.1387
 190  589.4177
 191  445.0209
 192  133.4236
 193  47.47628
 194  332.8681
 195  355.7986
 196  94.25101
 197  308.2695
 198  315.2546
 199  -306.7519
 200  -747.4565
 201  -325.1337
 202  -21.20703
 203  92.23395
 204  -219.3166
 205  -398.5439
 206  -642.5718
 207  -557.8771
 208  -308.5166
 209  -381.4659
 210  -446.1221
 211  -332.8661
 212  -306.6851
 213  -274.2509
 214  -273.4434
 215  20.90328
 216  104.4421
 217  158.8412
 218  -107.3152
 219  -334.692
 220  293.7795
 221  336.4294
 222  393.7621
 223  74.94563
 224  283.3218
 225  -233.8466
 226  -483.2861
 227  -526.3387
 228  -316.4671
 229  -433.5346
 230  -449.0699
 231  -200.2146
 232  -501.6684
 233  -306.4974
 234  -112.0656
 235  286.8087
 236  598.2228
 237  850.0863
 238  1263.88
 239  1408.332
 240  1321.41
 241  445.989
 242  316.6502
 243  150.8275
 244  -214.1588
 245  -103.7358
 246  146.7353
 247  68.10439
 248  200.8585
 249  299.9447
 250  183.0746
 251  -51.54677
 252  -123.9245
 253  231.1697
 254  95.603
 255  -268.1461
 256  -94.16252
 257  -23.85235
 258  -294.5813
 259  -116.1605
 260  249.156
 261  -82.52111
 262  -459.9448
 263  -246.5239
 264  -468.4366
 265  -372.499
 266  -247.3397
 267  -281.9214
 268  -382.5658
 269  -449.8943
 270  -637.5229
 271  -456.8702
 272  -489.1428
 273  -577.1427
 274  -616.5941
 275  -210.5999
 276  270.9578
 277  -136.1733
 278  -400.355
 279  -539.5093
 280  -596.6531
 281  -508.8661
 282  -418.182
 283  -411.5348
 284  -477.5651
 285  -500.0395
 286  -401.2308
 287  363.5293
 288  220.7952
 289  97.91373
 290  -140.6709
 291  -422.8036
 292  -266.7079
 293  -30.37859
 294  293.0468
 295  260.2139
 296  95.41626
 297  146.891
 298  173.2716
 299  151.0075
 300  565.8846
 301  603.6478
 302  97.07314
 303  -208.8105
 304  -93.57411
 305  -246.6503
 306  25.65703
 307  413.8629
 308  491.6808
 309  547.9459
 310  553.4241
 311  188.4038
 312  -149.8609
 313  -444.2731
 314  25.10104
 315  106.01
 316  26.28551
 317  81.1105
 318  114.6748
 319  -310.9421
 320  -93.10959
 321  -171.5313
 322  100.2127
 323  -8.748717
 324  -247.092
 325  -554.6354
 326  -645.7956
 327  -52.83968
 328  -103.2343
 329  35.26472
 330  -295.9371
 331  -450.0453
 332  -573.1586
 333  -130.9645
 334  -144.0657
 335  -286.7176
 336  -27.43727
 337  -423.5038
 338  -439.9
 339  -332.3017
 340  34.45202
 341  341.2451
 342  -252.9292
 343  -311.5906
 344  -442.3533
 345  -344.2726
 346  -350.1533
 347  -410.8305
 348  -605.4817
 349  55.06493
 350  -193.7936
 351  -471.236
 352  -362.7695
 353  -352.447
 354  -247.3259
 355  -347.6712
 356  -16.08518
 357  331.8606
 358  -18.36501
 359  116.3442
 360  71.99026
 361  -136.9287
 362  -269.4763
 363  -516.1445
 364  -534.1198
 365  -475.4976
 366  -594.6102
 367  -617.8153
 368  -337.0473
 369  -154.3977
 370  -142.8259
 371  -588.4749
 372  -397.3098
 373  -701.6286
 374  -719.0573
 375  -808.8113
 376  -480.4485
 377  -289.9062
 378  -548.9725
 379  -663.2029
 380  -934.9034
 381  -1034.384
 382  -693.1008
 383  -488.2725
 384  -833.6414
 385  -705.171
 386  -185.0665
 387  2.835479
 388  -221.1816
 389  -65.53575
 390  -129.5321
 391  -133.9002
 392  -158.8917
 393  -230.3851
 394  421.3219
 395  121.0847
 396  255.3619
 397  170.6052
 398  -42.81031
 399  51.08561
 400  -164.4768
 401  9.100863
 402  77.35043
 403  16.86599
 404  -71.31191
 405  -408.6245
 406  -598.9125
 407  -425.0572
 408  -426.501
 409  -206.3115
 410  -35.3158
 411  -210.7235
 412  -383.0551
 413  -875.4373
 414  -789.2717
 415  -537.2531
 416  -173.6795
 417  -200.3497
 418  -353.678
 419  -535.4713
 420  -702.0784
 421  -680.9117
 422  -657.7275
 423  -388.335
 424  -2.946739
 425  104.0622
 426  -346.7792
 427  -503.3058
 428  -35.84467
 429  334.2187
 430  102.7662
 431  -310.111
 432  -393.0756
 433  -111.8126
 434  -108.2314
 435  -55.60353
 436  118.6139
 437  9.688791
 438  -171.942
 439  -161.8749
 440  2.192446
 441  76.31477
 442  23.32556
 443  -210.7609
 444  0.429315
 445  -168.9072
 446  -65.04888
 447  -131.5426
 448  -284.9361
 449  -214.9929
 450  -593.9215
 451  -466.6835
 452  26.51556
 453  209.1562
 454  161.0763
 455  49.86563
 456  23.91714
 457  266.1299
 458  384.3978
 459  333.4662
 460  315.7333
 461  663.8919
 462  237.5204
 463  -89.17908
 464  -429.6813
 465  -39.53731
 466  49.1064
 467  -216.7484
 468  -120.4261
 469  -308.3589
 470  -26.91134
 471  -6.339992
 472  12.99462
 473  -44.12545
 474  268.7668
 475  589.3895
 476  468.434
 477  1054.838
 478  693.8434
 479  43.53903
 480  89.65485
 481  1093.303
 482  1068.292
 483  1125.279
 484  1384.242
 485  273.1068
 486  119.5943
 487  48.72911
 488  -256.6877
 489  -564.7615
 490  91.51159
 491  221.0377
 492  224.6135
 493  -8.271495
 494  131.5023
 495  385.1955
 496  448.5022
 497  516.1006
 498  599.9472
 499  176.2451
 500  -132.3466
 501  -56.99184
 502  -299.9014
 503  293.1802
 504  50.46037
 505  -62.0582
 506  -358.5484
 507  -643.2446
 508  -653.9785
 509  -386.2859
 510  -470.7889
 511  -536.7257
