# Input file       =  1185851408.100563_cleaned.dat
# Candidate        =  PSR_0332+5434
# Telescope        =  AR
# Epoch_topo       =  57969.132258108366
# Epoch_bary       =  N/A
# T_sample         =  0.002
# Data Folded      =  7340032
# Data Avg         =  0.00655586423126173
# Data StdDev      =  1.00022656473759 
# Profile Bins     =  512
# Profile Avg      =  93.8588138889425 
# Profile StdDev   =  119.760163660734 
# Reduced chi-sqr  =  1.534
# Prob(Noise)      <  7.64e-14   (~7.4 sigma)
# P_topo (ms)      =  714.468212520885  +/- 0.000199
# P'_topo (s/s)    =  -0                +/- 1.05e-10
# P''_topo (s/s^2) =  0                 +/- 4.63e-14
# P_bary (ms)      =  N/A
# P'_bary (s/s)    =  N/A
# P''_bary (s/s^2) =  N/A
# P_orb (s)        =  N/A
# asin(i)/c (s)    =  N/A
# eccentricity     =  N/A
# w (rad)          =  N/A
# T_peri           =  N/A
######################################################
   0  -19.98101
   1  78.46832
   2  57.99591
   3  103.6786
   4  155.7813
   5  153.6214
   6  106.4923
   7  131.348
   8  151.6038
   9  35.62334
  10  15.55378
  11  126.9931
  12  100.6064
  13  13.90165
  14  14.03276
  15  -50.47149
  16  -105.9359
  17  -0.558654
  18  74.06754
  19  12.46518
  20  162.2874
  21  73.83466
  22  137.4079
  23  -25.28037
  24  -129.1275
  25  68.39768
  26  40.92963
  27  117.6082
  28  158.6112
  29  81.90179
  30  78.06438
  31  194.3968
  32  121.7125
  33  -36.16043
  34  49.70677
  35  96.44141
  36  101.9142
  37  39.94998
  38  31.20406
  39  52.13514
  40  44.10895
  41  -53.1173
  42  -12.14814
  43  -41.21657
  44  145.8048
  45  169.4113
  46  51.66938
  47  39.6898
  48  86.21117
  49  32.04985
  50  27.13791
  51  68.40427
  52  175.192
  53  187.6084
  54  119.5421
  55  70.79401
  56  -50.09609
  57  -51.65287
  58  105.0309
  59  132.5862
  60  106.1782
  61  87.58529
  62  105.3726
  63  162.7964
  64  93.01788
  65  52.38323
  66  66.96177
  67  32.8574
  68  14.61416
  69  60.18475
  70  115.8962
  71  114.7381
  72  116.0206
  73  49.40151
  74  -82.01169
  75  -3.388997
  76  36.83823
  77  22.35915
  78  58.43909
  79  44.2215
  80  -48.04738
  81  70.27937
  82  150.0246
  83  35.99521
  84  9.63324
  85  150.0163
  86  98.1918
  87  41.43343
  88  98.14051
  89  114.9312
  90  -87.52512
  91  -19.20581
  92  238.0127
  93  66.49534
  94  75.13395
  95  57.77466
  96  14.33532
  97  15.92959
  98  51.19083
  99  6.741523
 100  54.04554
 101  107.468
 102  55.0596
 103  -31.37286
 104  -56.74764
 105  -93.27456
 106  -10.28851
 107  58.09639
 108  43.5955
 109  8.95785
 110  156.0155
 111  20.61057
 112  -70.63859
 113  93.36238
 114  220.81
 115  74.79938
 116  89.14698
 117  257.1614
 118  169.7576
 119  -3.272993
 120  -45.11971
 121  239.0065
 122  210.7065
 123  85.47378
 124  38.7497
 125  59.22485
 126  -23.76682
 127  56.5755
 128  100.1307
 129  120.987
 130  164.6975
 131  149.0142
 132  85.45448
 133  15.21312
 134  -29.81522
 135  9.38643
 136  74.04314
 137  58.92923
 138  96.41689
 139  65.10774
 140  39.42519
 141  87.21905
 142  105.791
 143  -6.650578
 144  48.38789
 145  71.42235
 146  -1.939792
 147  125.0455
 148  113.5868
 149  18.32855
 150  -11.95169
 151  92.32445
 152  200.9277
 153  47.44688
 154  -0.157903
 155  -121.4659
 156  -82.42385
 157  71.39664
 158  211.6945
 159  79.27358
 160  51.34019
 161  9.472074
 162  68.34306
 163  -40.08162
 164  -11.78917
 165  -50.30315
 166  164.6749
 167  205.2753
 168  101.7125
 169  54.12206
 170  141.3565
 171  112.5075
 172  110.2717
 173  173.8728
 174  -8.866393
 175  -102.1721
 176  80.42059
 177  172.2359
 178  228.9343
 179  98.06128
 180  0.4172086
 181  60.97194
 182  90.25909
 183  93.65678
 184  175.7138
 185  138.7375
 186  131.8565
 187  102.9251
 188  205.9364
 189  309.1456
 190  136.6702
 191  103.6516
 192  66.48302
 193  107.4317
 194  154.113
 195  163.3948
 196  147.7352
 197  95.53592
 198  186.3654
 199  92.52798
 200  5.574315
 201  121.8883
 202  194.0825
 203  42.55408
 204  18.82364
 205  112.112
 206  106.639
 207  -4.39984
 208  51.17458
 209  130.5341
 210  214.8496
 211  219.5683
 212  159.1096
 213  223.2064
 214  224.9246
 215  332.424
 216  510.0649
 217  866.2194
 218  894.3154
 219  891.9857
 220  874.2493
 221  600.4514
 222  292.1755
 223  149.51
 224  34.49067
 225  96.71904
 226  177.8598
 227  164.414
 228  142.3651
 229  247.7307
 230  33.83371
 231  57.38946
 232  217.398
 233  10.93176
 234  59.2584
 235  218.406
 236  27.27083
 237  -35.31208
 238  112.4915
 239  172.1004
 240  120.0506
 241  99.58674
 242  52.57321
 243  212.5574
 244  74.15736
 245  43.14977
 246  -9.157399
 247  66.91562
 248  71.19225
 249  90.30541
 250  119.932
 251  146.8579
 252  50.56394
 253  35.89952
 254  -109.9776
 255  -109.4832
 256  198.3138
 257  160.6852
 258  132.6742
 259  198.451
 260  1.410517
 261  117.2386
 262  39.86297
 263  2.877446
 264  63.40274
 265  57.36188
 266  68.96092
 267  64.76987
 268  56.55009
 269  237.9231
 270  148.6406
 271  96.27496
 272  63.43596
 273  74.97811
 274  34.08261
 275  -13.20811
 276  12.48362
 277  99.5156
 278  103.2218
 279  138.0054
 280  129.9701
 281  50.9812
 282  89.06783
 283  18.41342
 284  145.3652
 285  153.3571
 286  21.74971
 287  75.77796
 288  42.47705
 289  116.3187
 290  140.4885
 291  91.36568
 292  87.39295
 293  15.50565
 294  78.08073
 295  39.79869
 296  -23.45662
 297  43.69793
 298  61.22287
 299  81.57063
 300  106.3169
 301  8.158468
 302  65.46779
 303  220.9649
 304  80.26529
 305  99.06629
 306  45.25168
 307  70.95719
 308  130.1926
 309  161.2953
 310  132.9575
 311  114.9578
 312  174.7613
 313  223.3637
 314  230.3691
 315  86.22983
 316  79.83707
 317  114.5541
 318  29.96106
 319  72.71481
 320  133.7909
 321  218.8521
 322  201.4012
 323  130.0003
 324  151.92
 325  119.5249
 326  128.0901
 327  129.1064
 328  117.925
 329  -12.56879
 330  -29.3984
 331  32.834
 332  30.62061
 333  1.029574
 334  -8.987167
 335  134.9899
 336  129.9621
 337  176.0754
 338  215.7733
 339  208.4875
 340  115.0649
 341  147.4304
 342  37.12675
 343  19.09824
 344  -74.6593
 345  115.7596
 346  115.0061
 347  27.39287
 348  189.2057
 349  264.2803
 350  213.152
 351  150.0422
 352  205.9102
 353  -22.26569
 354  -16.75778
 355  131.6631
 356  135.1785
 357  -20.13379
 358  100.6908
 359  91.26244
 360  168.3967
 361  75.6506
 362  69.37786
 363  96.52702
 364  107.9945
 365  96.64857
 366  227.4496
 367  169.6934
 368  61.20209
 369  60.8044
 370  128.5783
 371  164.0501
 372  44.22284
 373  146.6154
 374  20.61727
 375  -6.583353
 376  91.4965
 377  133.0104
 378  124.9004
 379  37.47274
 380  140.2387
 381  110.4361
 382  137.1858
 383  48.07132
 384  35.4989
 385  8.546177
 386  120.8902
 387  168.8738
 388  160.1629
 389  140.9359
 390  99.98106
 391  62.44402
 392  -30.38088
 393  98.59505
 394  113.2711
 395  92.7635
 396  200.6333
 397  159.8902
 398  106.363
 399  97.70151
 400  22.86251
 401  9.728614
 402  132.7787
 403  132.0747
 404  -61.46535
 405  -145.0096
 406  104.1221
 407  157.9502
 408  163.7114
 409  143.7385
 410  -27.99324
 411  -61.72113
 412  -9.572804
 413  133.4993
 414  59.82135
 415  261.8282
 416  132.716
 417  62.30048
 418  -12.34691
 419  139.5125
 420  236.2608
 421  127.7355
 422  25.98567
 423  85.06582
 424  77.51808
 425  82.75839
 426  -24.0522
 427  107.36
 428  282.2524
 429  146.3324
 430  131.1278
 431  99.23153
 432  81.87969
 433  149.6447
 434  84.74662
 435  114.327
 436  1.537158
 437  -122.5256
 438  -61.49196
 439  52.05528
 440  185.3006
 441  177.409
 442  80.41168
 443  82.47757
 444  92.08851
 445  68.89808
 446  133.9138
 447  57.95943
 448  119.4333
 449  123.8278
 450  99.02996
 451  115.4821
 452  58.20404
 453  -82.22518
 454  -82.69143
 455  35.26885
 456  70.4757
 457  182.8654
 458  123.6589
 459  21.47335
 460  76.41711
 461  130.9972
 462  175.7389
 463  123.8587
 464  145.9901
 465  71.94555
 466  81.87375
 467  195.9669
 468  224.3795
 469  128.7574
 470  55.92862
 471  -25.69431
 472  146.6612
 473  91.1179
 474  109.2947
 475  52.01178
 476  44.86953
 477  84.21777
 478  31.23427
 479  166.2951
 480  177.9828
 481  143.2671
 482  88.15643
 483  79.38817
 484  99.72638
 485  116.2991
 486  142.6922
 487  -76.35735
 488  5.955744
 489  106.0789
 490  106.552
 491  45.6143
 492  106.7393
 493  53.89863
 494  111.8251
 495  59.34724
 496  5.902453
 497  110.3885
 498  73.78574
 499  115.8589
 500  139.3359
 501  91.72559
 502  134.1729
 503  85.43047
 504  21.3947
 505  127.1482
 506  160.4298
 507  203.2086
 508  194.7187
 509  100.0478
 510  114.3215
 511  109.4746
