# Input file       =  1185922931.11324_cleaned.dat
# Candidate        =  PSR_0332+5434
# Telescope        =  AR
# Epoch_topo       =  57969.960070755093
# Epoch_bary       =  N/A
# T_sample         =  0.002
# Data Folded      =  7208960
# Data Avg         =  0.141734984873753
# Data StdDev      =  4.90431643479535 
# Profile Bins     =  512
# Profile Avg      =  1995.73942909738 
# Profile StdDev   =  581.942145983483 
# Reduced chi-sqr  =  0.460
# Prob(Noise)      <  1   (~0.0 sigma)
# P_topo (ms)      =  714.467885083095  +/- 0.000146
# P'_topo (s/s)    =  -0                +/- 7.83e-11
# P''_topo (s/s^2) =  0                 +/- 3.52e-14
# P_bary (ms)      =  N/A
# P'_bary (s/s)    =  N/A
# P''_bary (s/s^2) =  N/A
# P_orb (s)        =  N/A
# asin(i)/c (s)    =  N/A
# eccentricity     =  N/A
# w (rad)          =  N/A
# T_peri           =  N/A
######################################################
   0  1918.008
   1  1813.705
   2  1766.198
   3  2049.495
   4  1709.71
   5  1997.97
   6  2366.18
   7  2202.646
   8  2201.053
   9  1543.489
  10  1834.125
  11  1816.733
  12  1609.357
  13  2149.298
  14  2069.385
  15  2373.022
  16  2178.551
  17  2560.755
  18  1627.82
  19  1898.582
  20  2303.137
  21  1775.131
  22  2160.512
  23  2390.91
  24  2255.719
  25  1960.484
  26  2181.962
  27  2109.084
  28  1764.919
  29  2039.055
  30  1988.63
  31  2230.031
  32  2275.296
  33  2116.482
  34  2191.373
  35  2512.267
  36  1971.144
  37  2032.908
  38  1973.901
  39  2051.267
  40  2221.35
  41  2261.747
  42  2010.117
  43  2036.755
  44  2109.497
  45  1631.831
  46  2018.836
  47  2284.504
  48  2465.279
  49  2488.815
  50  2600.366
  51  2092.257
  52  1759.149
  53  2158.987
  54  2116.036
  55  1750.352
  56  2268.997
  57  2069.365
  58  2169.295
  59  2312.234
  60  1952.776
  61  1989.572
  62  1784.255
  63  1499.176
  64  1525.685
  65  2105.933
  66  2162.377
  67  1788.224
  68  2286.742
  69  1960.793
  70  1830.808
  71  1797.828
  72  1698.585
  73  2185.347
  74  2125.62
  75  1968.483
  76  2114.972
  77  2417.572
  78  1873.241
  79  1907.56
  80  2121.478
  81  2112.855
  82  2629.109
  83  2153.474
  84  2150.832
  85  2484.399
  86  2318.964
  87  1832.585
  88  2150.12
  89  2414.045
  90  2680.36
  91  2667.537
  92  2099.924
  93  2123.939
  94  2075.105
  95  1997.56
  96  1694.975
  97  1995.57
  98  2235.407
  99  2141.792
 100  2066.683
 101  1809.623
 102  2016.687
 103  2286.523
 104  2205.423
 105  1729.972
 106  2134.86
 107  2083.657
 108  1849.423
 109  2107.434
 110  1758.049
 111  1986.201
 112  2307.671
 113  2112.075
 114  2004.357
 115  1866.585
 116  2099.118
 117  2145.358
 118  1932.581
 119  1806.466
 120  1918.274
 121  2265.921
 122  2046.049
 123  2681.126
 124  2769.406
 125  2383.864
 126  1990.114
 127  2222.211
 128  1758.381
 129  1469.746
 130  1608.875
 131  1833.475
 132  1880.15
 133  2326.094
 134  2168.527
 135  2279.79
 136  2020.266
 137  1815.035
 138  1950.541
 139  2024.213
 140  2159.363
 141  1831.232
 142  2503.995
 143  2261.834
 144  2154.154
 145  1750.545
 146  1485.596
 147  1969.994
 148  2270.221
 149  2571.316
 150  2324.416
 151  2046.793
 152  1966.548
 153  1812.881
 154  1779.198
 155  1782.306
 156  2189.247
 157  2296.406
 158  2320.227
 159  2216.268
 160  2050.113
 161  1897.533
 162  2208.273
 163  2089.562
 164  1842.854
 165  1820.11
 166  1737.37
 167  2075.812
 168  2138.686
 169  2164.136
 170  2240.318
 171  2330.91
 172  1766.305
 173  1895.588
 174  2019.263
 175  2056.356
 176  1943.39
 177  1851.432
 178  1840.872
 179  1804.077
 180  2207.917
 181  2049.439
 182  1750.051
 183  1855.421
 184  1595.032
 185  2152.482
 186  2603.009
 187  2438.492
 188  2283.634
 189  1920.176
 190  1801.943
 191  1836.048
 192  1859.664
 193  1772.62
 194  1906.377
 195  1666.65
 196  1522.868
 197  1896.637
 198  2244.796
 199  2257.716
 200  2112.47
 201  1705.015
 202  1772.726
 203  1816.536
 204  1998.215
 205  2307.463
 206  2404.203
 207  2282.731
 208  1594.005
 209  2041.131
 210  1952.122
 211  1914.118
 212  1873.845
 213  1769.462
 214  1643.337
 215  1727.984
 216  1935.039
 217  1573.637
 218  1611.023
 219  2052.227
 220  2127.73
 221  2085.105
 222  2179.841
 223  1814.278
 224  1913.099
 225  2001.009
 226  1947.505
 227  1959.419
 228  1662.137
 229  1894.637
 230  2027.559
 231  2108.189
 232  2163.366
 233  2327.086
 234  2295.538
 235  1892.424
 236  2040.595
 237  1811.259
 238  1744.573
 239  2075.836
 240  2141.517
 241  2304.525
 242  2256.085
 243  2014.359
 244  1622.425
 245  1783.64
 246  1712.515
 247  1529.089
 248  2057.876
 249  2194.29
 250  2361.379
 251  1886.334
 252  1917.676
 253  1670.235
 254  1596.044
 255  1643.476
 256  1433.124
 257  2040.383
 258  1689.228
 259  2000.231
 260  2081.594
 261  2103.316
 262  2167.039
 263  2452.255
 264  2142.978
 265  1686.344
 266  1975.135
 267  1860.44
 268  1434.755
 269  1806.797
 270  1643.86
 271  1841.787
 272  1942.595
 273  1863.401
 274  1830.422
 275  1915.454
 276  1804.807
 277  1519.451
 278  1514.527
 279  1558.207
 280  1642.578
 281  1847.847
 282  2030.619
 283  2112.421
 284  2209.212
 285  1997.371
 286  1674.318
 287  1829.204
 288  1608.253
 289  1622.657
 290  1764.647
 291  1991.317
 292  1888.199
 293  2229.808
 294  2338.365
 295  1773.861
 296  2174.739
 297  1942.61
 298  1796.76
 299  1624.37
 300  1730.34
 301  2093.403
 302  1897.898
 303  2104.325
 304  2306.922
 305  2088.982
 306  2009.631
 307  1824.135
 308  2091.618
 309  1541.409
 310  1376.482
 311  1613.301
 312  2032.375
 313  2228.808
 314  2296.968
 315  2465.791
 316  2364.342
 317  2135.434
 318  1330.832
 319  1569.529
 320  1978.65
 321  1834.656
 322  2011.847
 323  2066.972
 324  2348.052
 325  1928.27
 326  2208.665
 327  2092.735
 328  2042.763
 329  1821.161
 330  1877.347
 331  2221.496
 332  1946.295
 333  2600.013
 334  2222.185
 335  1870.282
 336  2011.365
 337  1752.148
 338  2021.42
 339  1749.523
 340  1399.18
 341  1582.166
 342  2029.143
 343  1881.271
 344  2024.709
 345  2015.775
 346  1783.539
 347  1812.861
 348  1593.636
 349  1957.654
 350  1949.708
 351  1908.716
 352  1755.802
 353  1589.838
 354  2091.168
 355  2066.898
 356  2025.184
 357  2143.697
 358  1894.888
 359  1424.354
 360  1810.782
 361  1766.686
 362  1532.561
 363  2084.972
 364  2102.2
 365  1909.443
 366  1897.993
 367  2074.142
 368  1990.256
 369  2155.688
 370  2064.657
 371  1507.09
 372  1678.542
 373  1249.388
 374  1579.146
 375  2136.218
 376  2102.888
 377  1975.072
 378  1833.855
 379  1777.12
 380  1717.773
 381  1801.716
 382  1750.434
 383  1757.511
 384  1959.604
 385  1552.183
 386  1875.941
 387  1924.34
 388  1779.893
 389  2139.51
 390  1939.594
 391  1906.79
 392  1518.796
 393  1653.238
 394  1513.799
 395  1901.813
 396  2097.747
 397  1791.165
 398  1702.637
 399  1864.98
 400  2233.377
 401  1799.956
 402  2167.372
 403  2039.3
 404  2235.864
 405  2193.578
 406  1727.917
 407  2045.382
 408  1908.514
 409  1965.9
 410  2151.948
 411  2188.106
 412  2259.089
 413  2143.415
 414  2442.191
 415  2664.125
 416  3055.542
 417  3392.515
 418  3406.319
 419  3197.522
 420  2942.138
 421  2231.827
 422  2240.726
 423  1983.686
 424  1871.185
 425  2096.964
 426  2285.63
 427  1728.666
 428  1786.353
 429  2195.855
 430  2093.175
 431  1857.866
 432  1794.747
 433  1988.79
 434  2142.404
 435  2134.667
 436  2422.08
 437  2333.418
 438  2076.859
 439  1355.486
 440  1485.755
 441  2302.104
 442  2092.666
 443  1734.542
 444  2183.989
 445  1913.588
 446  2149.019
 447  2196.389
 448  1996.967
 449  1781.798
 450  1750.902
 451  2182.239
 452  2452.494
 453  2691.447
 454  2105.153
 455  1669.313
 456  1794.796
 457  2047.483
 458  2182.639
 459  1936.407
 460  2036.107
 461  2035.647
 462  2210.465
 463  2214.489
 464  2329.902
 465  2324.575
 466  1805.77
 467  1869.572
 468  1806.699
 469  1906.789
 470  1940.579
 471  1919.358
 472  1701.042
 473  1569.918
 474  2137.765
 475  1975.039
 476  1973.029
 477  2110.729
 478  2435.009
 479  1847.047
 480  1322.444
 481  1607.61
 482  1778.278
 483  1768.957
 484  2096.625
 485  2115.457
 486  2218.777
 487  1605.799
 488  1944.386
 489  2087.996
 490  1733.007
 491  1753.483
 492  1741.977
 493  1796.722
 494  1815.14
 495  1970.434
 496  2320.421
 497  2014.94
 498  1680.605
 499  1325.291
 500  1236.611
 501  1795.315
 502  1874.296
 503  1903.714
 504  2180.306
 505  1926.651
 506  1995.271
 507  2145.991
 508  2155.4
 509  1846.931
 510  2238.385
 511  2308.834
