# Input file       =  1185607824.109255_cleaned.dat
# Candidate        =  PSR_0332+5434
# Telescope        =  AR
# Epoch_topo       =  57966.312998949710
# Epoch_bary       =  N/A
# T_sample         =  0.002
# Data Folded      =  7340032
# Data Avg         =  0.391463496533106
# Data StdDev      =  6.27102658444315 
# Profile Bins     =  1024
# Profile Avg      =  2806.00960566142 
# Profile StdDev   =  530.930457840364 
# Reduced chi-sqr  =  1.378
# Prob(Noise)      <  8.4e-15   (~7.7 sigma)
# P_topo (ms)      =  714.469693194827  +/- 0.000781
# P'_topo (s/s)    =  -0                +/- 4.12e-10
# P''_topo (s/s^2) =  0                 +/- 1.82e-13
# P_bary (ms)      =  N/A
# P'_bary (s/s)    =  N/A
# P''_bary (s/s^2) =  N/A
# P_orb (s)        =  N/A
# asin(i)/c (s)    =  N/A
# eccentricity     =  N/A
# w (rad)          =  N/A
# T_peri           =  N/A
######################################################
   0  2390.869
   1  2411.658
   2  2434.338
   3  2388.977
   4  2296.338
   5  2320.242
   6  2433.445
   7  2495.803
   8  2342.705
   9  2235.273
  10  2308.858
  11  2330.915
  12  2271.275
  13  2241.816
  14  2183.761
  15  2244.175
  16  2341.434
  17  2470.384
  18  2500.841
  19  2554.815
  20  2621.225
  21  2670.953
  22  2544.209
  23  2507.626
  24  2558.268
  25  2482.913
  26  2588.072
  27  2570.401
  28  2696.474
  29  2603.847
  30  2671.16
  31  2710.123
  32  2673.024
  33  2680.124
  34  2488.377
  35  2330.485
  36  2303.405
  37  2307.933
  38  2289.104
  39  2230.871
  40  2315.698
  41  2278.105
  42  2392.445
  43  2447.963
  44  2312.118
  45  2208.812
  46  2173.229
  47  2231.227
  48  2209.596
  49  2268.513
  50  2365.219
  51  2341.229
  52  2250.209
  53  2118.864
  54  2119.097
  55  2230.721
  56  2261.685
  57  2182.619
  58  2119.369
  59  2141.634
  60  2214.71
  61  2358.18
  62  2355.781
  63  2399.607
  64  2477.577
  65  2569.152
  66  2439.08
  67  2365.032
  68  2354.112
  69  2422.309
  70  2539.365
  71  2612.524
  72  2639.223
  73  2600.062
  74  2526.036
  75  2555.54
  76  2614.11
  77  2591
  78  2501.34
  79  2571.778
  80  2679.949
  81  2674.248
  82  2704.516
  83  2676.434
  84  2698.624
  85  2580.673
  86  2546.206
  87  2465.271
  88  2477.516
  89  2521.211
  90  2589.779
  91  2595.006
  92  2621.686
  93  2738.199
  94  2801.242
  95  2736.571
  96  2528.059
  97  2519.466
  98  2479.315
  99  2476.762
 100  2503.503
 101  2656.87
 102  2569.158
 103  2455.625
 104  2410.063
 105  2441.862
 106  2379.07
 107  2449.967
 108  2467.289
 109  2417.136
 110  2323.79
 111  2324.603
 112  2312.406
 113  2183.315
 114  2139.656
 115  2084.796
 116  1998.095
 117  1900.412
 118  1920.223
 119  2040.455
 120  2098.595
 121  2207.255
 122  2188.228
 123  2148.819
 124  2234.854
 125  2330.306
 126  2414.504
 127  2189.681
 128  2134.473
 129  2320.146
 130  2383.286
 131  2400.638
 132  2379.273
 133  2450.69
 134  2543.317
 135  2599.342
 136  2565.878
 137  2669.252
 138  2653.649
 139  2647.683
 140  2601.025
 141  2690.61
 142  2745.669
 143  2670.251
 144  2592.951
 145  2549.833
 146  2615.606
 147  2682.047
 148  2713.887
 149  2673.505
 150  2785.947
 151  2760.44
 152  2726.084
 153  2645.45
 154  2494.189
 155  2531.375
 156  2573.679
 157  2657.276
 158  2608.57
 159  2607.352
 160  2611.878
 161  2699.536
 162  2761.385
 163  2709.223
 164  2690.044
 165  2742.641
 166  2701.948
 167  2707.479
 168  2602.946
 169  2723.995
 170  2642.221
 171  2773.703
 172  2742.176
 173  2668.37
 174  2672.698
 175  2755.509
 176  2765.592
 177  2644.497
 178  2476.356
 179  2531.989
 180  2588.062
 181  2635.307
 182  2621.208
 183  2609.37
 184  2631.746
 185  2596.185
 186  2662.2
 187  2715.614
 188  2883.956
 189  2811.605
 190  2639.056
 191  2489.73
 192  2439.794
 193  2446.331
 194  2429.797
 195  2479.994
 196  2439.653
 197  2440.589
 198  2452.033
 199  2550.712
 200  2515.72
 201  2674.998
 202  2699.883
 203  2772.817
 204  2673.071
 205  2702.077
 206  2755.663
 207  2938.481
 208  3049.401
 209  3020.173
 210  2897.917
 211  2828.493
 212  2801.431
 213  2874.005
 214  2972.985
 215  3072.573
 216  2945.057
 217  2849.912
 218  2787.984
 219  2818.558
 220  2904.207
 221  2875.792
 222  2981.422
 223  3174.465
 224  3287.318
 225  3121.428
 226  2950.01
 227  2958.874
 228  2963.672
 229  2936.39
 230  2888.759
 231  2830.258
 232  2797.948
 233  2836.241
 234  2944.783
 235  2998.172
 236  2843.669
 237  2759.903
 238  2715.518
 239  2801.732
 240  2886.877
 241  2936.601
 242  2953.128
 243  2836.744
 244  2874.442
 245  2805.521
 246  2916.728
 247  2959.949
 248  3096.297
 249  3076.311
 250  3121.293
 251  3053.367
 252  2993.184
 253  2992.064
 254  2924.258
 255  2962.493
 256  2996.764
 257  3043.288
 258  3003.93
 259  3055.014
 260  3149.984
 261  3112.292
 262  3063.501
 263  3005.61
 264  2930.648
 265  2773.642
 266  2739.846
 267  2780.715
 268  2797.703
 269  2673.87
 270  2502.301
 271  2536.065
 272  2662.01
 273  2758.287
 274  2760.46
 275  2666.642
 276  2758.772
 277  2849.931
 278  2959.452
 279  2914.635
 280  2903.08
 281  2907.439
 282  2802.334
 283  2742.605
 284  2627.816
 285  2617.107
 286  2643.844
 287  2860.746
 288  2865.038
 289  2706.942
 290  2652.789
 291  2777.492
 292  2980.924
 293  2885.28
 294  2839.526
 295  2849.2
 296  2874.22
 297  2772.355
 298  2739.543
 299  2769.489
 300  2626.129
 301  2576.699
 302  2584.801
 303  2703.79
 304  2658.448
 305  2795.867
 306  2896.372
 307  2909.983
 308  2871.444
 309  2917.743
 310  3026.974
 311  3055.291
 312  3137.05
 313  3150.759
 314  3165.914
 315  3164.504
 316  3155.556
 317  3051.731
 318  2956.678
 319  2993.732
 320  3118.862
 321  3203.885
 322  3148.758
 323  3167.354
 324  3253.846
 325  3361.821
 326  3307.217
 327  3318.029
 328  3212.622
 329  3255.956
 330  3259.746
 331  3418.265
 332  3449.651
 333  3494.909
 334  3586.741
 335  3641.229
 336  3620.482
 337  3454.929
 338  3411.491
 339  3267.735
 340  3187.656
 341  3088.177
 342  3048.779
 343  3287.144
 344  3336.915
 345  3373.609
 346  3296.052
 347  3374.353
 348  3557.978
 349  3564.375
 350  3538.304
 351  3342.576
 352  3361.601
 353  3280.368
 354  3220.945
 355  3161.004
 356  3083.994
 357  3167.505
 358  3154.602
 359  3120.523
 360  3085.991
 361  3122.019
 362  3205.043
 363  3209.495
 364  3179.116
 365  3197.428
 366  3238.33
 367  3314.47
 368  3235.955
 369  3143.457
 370  3079.45
 371  3019.349
 372  3084.962
 373  3096.678
 374  3216.435
 375  3207.063
 376  3210.878
 377  3272.957
 378  3362.586
 379  3362.521
 380  3304.83
 381  3183.765
 382  3173.431
 383  3091.422
 384  3072.901
 385  3254.62
 386  3195.479
 387  3049.055
 388  2903.557
 389  3001.096
 390  3059.047
 391  3126.14
 392  3167.111
 393  3256.064
 394  3251.387
 395  3195.633
 396  3181.928
 397  3081.406
 398  3146.173
 399  3138.432
 400  3220.232
 401  3201.119
 402  3170.33
 403  3120.072
 404  3159.535
 405  3415.188
 406  3557.198
 407  3501.365
 408  3431.625
 409  3351.995
 410  3339.241
 411  3268.305
 412  3160.108
 413  2955.536
 414  2885.984
 415  2895.383
 416  3045.697
 417  3079.699
 418  3131.674
 419  3170.028
 420  3154.113
 421  3208.391
 422  3342.982
 423  3431.207
 424  3410.368
 425  3365.272
 426  3372.956
 427  3355.065
 428  3093.183
 429  2960.73
 430  2977.707
 431  3166.237
 432  3236.26
 433  3355.053
 434  3335.65
 435  3466.954
 436  3463.854
 437  3489.736
 438  3477.77
 439  3504.405
 440  3581.115
 441  3391.828
 442  3259.331
 443  3146.657
 444  3285.147
 445  3279.341
 446  3237.654
 447  3171.067
 448  3192.524
 449  3437.342
 450  3465.519
 451  3493.225
 452  3409.387
 453  3417.475
 454  3401.083
 455  3393.396
 456  3498.284
 457  3524.358
 458  3598.84
 459  3479.091
 460  3311.39
 461  3185.496
 462  3182.584
 463  3320.254
 464  3252.757
 465  3242.329
 466  3197.334
 467  3107.179
 468  3194.028
 469  3345.799
 470  3568.095
 471  3581.843
 472  3504.344
 473  3438.408
 474  3271.329
 475  3090.041
 476  2961.831
 477  3001.127
 478  3210.978
 479  3258.131
 480  3184.137
 481  2989.967
 482  2982.512
 483  3023.601
 484  3129.274
 485  3064.264
 486  3042.242
 487  2971.32
 488  2950.67
 489  2990.588
 490  2901.156
 491  2966.717
 492  2973.19
 493  2959.345
 494  2837.819
 495  2694.029
 496  2854.553
 497  2869.049
 498  3058.15
 499  3087.047
 500  3090.854
 501  2832.29
 502  2785.378
 503  2892.472
 504  2985.545
 505  3103.604
 506  3166.956
 507  3163.327
 508  3029.104
 509  2983.284
 510  3098.425
 511  3106.97
 512  3033.512
 513  3062.392
 514  3078.442
 515  3035.932
 516  2857.432
 517  2875.262
 518  2948.781
 519  2838.808
 520  2730.717
 521  2744.906
 522  2885.497
 523  2975.026
 524  2881.546
 525  2876.52
 526  2779.787
 527  2830.285
 528  2851.805
 529  2837.567
 530  2788.339
 531  2765.353
 532  2807.73
 533  2794.867
 534  2700.066
 535  2585.229
 536  2543.811
 537  2494.393
 538  2489.692
 539  2567.622
 540  2606.483
 541  2620.731
 542  2712.64
 543  2718.125
 544  2690.494
 545  2524.886
 546  2443.692
 547  2392.286
 548  2440.24
 549  2529.233
 550  2588.386
 551  2652.533
 552  2710.136
 553  2739.084
 554  2709.291
 555  2695.446
 556  2639.435
 557  2749.425
 558  2782.296
 559  2709.663
 560  2587.776
 561  2469.272
 562  2356.541
 563  2292.45
 564  2144.727
 565  2293.114
 566  2329.984
 567  2465.869
 568  2371.076
 569  2405.012
 570  2518.183
 571  2595.835
 572  2694.49
 573  2672.102
 574  2712.596
 575  2561.73
 576  2560.474
 577  2644.24
 578  2731.13
 579  2686.96
 580  2518.631
 581  2538.426
 582  2631.849
 583  2749.645
 584  2745.342
 585  2709.283
 586  2680.467
 587  2637.889
 588  2559.746
 589  2501.561
 590  2567.069
 591  2676.201
 592  2740.301
 593  2800.42
 594  2790.183
 595  2792.825
 596  2780.441
 597  2800.744
 598  2741.745
 599  2647.413
 600  2568.87
 601  2519.141
 602  2617.577
 603  2566.511
 604  2448.469
 605  2430.415
 606  2513.809
 607  2554.056
 608  2575.746
 609  2632.363
 610  2730.025
 611  2583.521
 612  2592.884
 613  2545.721
 614  2459.266
 615  2338.753
 616  2438.723
 617  2550.653
 618  2489.628
 619  2407.148
 620  2588.018
 621  2753.333
 622  2823.909
 623  2784.248
 624  2735.447
 625  2643.667
 626  2606.738
 627  2744.521
 628  2795.586
 629  2852.931
 630  2801.733
 631  2778.436
 632  2874.528
 633  2819.781
 634  2875.609
 635  2876.423
 636  2997.77
 637  3210.219
 638  3340.897
 639  3344.198
 640  3185.967
 641  3087.598
 642  3130.955
 643  3199.269
 644  3198.565
 645  3217.47
 646  3315.038
 647  3433.028
 648  3572.398
 649  3487.229
 650  3542.488
 651  3454.622
 652  3438.894
 653  3433.853
 654  3353.852
 655  3282.822
 656  3146.329
 657  3040.235
 658  2964.429
 659  2859.729
 660  2771.792
 661  2592.022
 662  2604.112
 663  2654.636
 664  2804.972
 665  2883.349
 666  2924.992
 667  2981.985
 668  2946.834
 669  2833.677
 670  2685.576
 671  2568.861
 672  2697.011
 673  2903.954
 674  3015.499
 675  3031.414
 676  2995.736
 677  3071.086
 678  3118.346
 679  2973.789
 680  2827.72
 681  2653.203
 682  2568.294
 683  2518.481
 684  2570.42
 685  2723.473
 686  2812.346
 687  2725.377
 688  2623.896
 689  2568.828
 690  2784.882
 691  2823.721
 692  2654.729
 693  2363.406
 694  2301.367
 695  2366.703
 696  2406.389
 697  2383.822
 698  2361.115
 699  2423.853
 700  2580.19
 701  2651.936
 702  2859.15
 703  2834.272
 704  2869.003
 705  2778.55
 706  2720.522
 707  2692.487
 708  2610.839
 709  2578.191
 710  2629.335
 711  2767.486
 712  2907.675
 713  2947.464
 714  2746.901
 715  2707.986
 716  2470.081
 717  2533.49
 718  2545.512
 719  2741.122
 720  2769.341
 721  2842.037
 722  2887.68
 723  2994.948
 724  3119.061
 725  3235.115
 726  3188.415
 727  3155.189
 728  3096.604
 729  2974.5
 730  2834.122
 731  2775.432
 732  2842.404
 733  3003.58
 734  3227.314
 735  3388.81
 736  3342.386
 737  3044.611
 738  2896.277
 739  3003.945
 740  3048.421
 741  3022.781
 742  3014.939
 743  3098.468
 744  3114.539
 745  3086.678
 746  3118.596
 747  3013.017
 748  3000.579
 749  2904.774
 750  3006.902
 751  2994.953
 752  2978.882
 753  2892.098
 754  2898.816
 755  3010.795
 756  2972.261
 757  3087.063
 758  3112.102
 759  3239.993
 760  3225.879
 761  3227.055
 762  2945.071
 763  2803.555
 764  2927.337
 765  3134.719
 766  3236.203
 767  3121.485
 768  3018.474
 769  2999.495
 770  3029.889
 771  3113.155
 772  3263.477
 773  3285.888
 774  3064.1
 775  3097.457
 776  3084.046
 777  3060.829
 778  2848.572
 779  2873.867
 780  2875.213
 781  2792.424
 782  2792.829
 783  2827.194
 784  3041.624
 785  3137.586
 786  3188.253
 787  3107.367
 788  3066.991
 789  3124.392
 790  3128.679
 791  3163.869
 792  3137.534
 793  3162.63
 794  3201.162
 795  3117.822
 796  3212.211
 797  3271.602
 798  3323.142
 799  3237.312
 800  3318.515
 801  3295.462
 802  3274.478
 803  3173.185
 804  3094.108
 805  3056.572
 806  3091.929
 807  3085.05
 808  3121.002
 809  3124.754
 810  3146.731
 811  3105.518
 812  3165.792
 813  3059.85
 814  2968.556
 815  2865.688
 816  2957.453
 817  3058.662
 818  3035.742
 819  3035.335
 820  3126.94
 821  3122.004
 822  3073.599
 823  2995.84
 824  3091.098
 825  3033.857
 826  3001.75
 827  3015.9
 828  3019.448
 829  2977.32
 830  2910.884
 831  3054.28
 832  3093.67
 833  2938.263
 834  2820.08
 835  2820.308
 836  2804.742
 837  2855.144
 838  2968.997
 839  3044.577
 840  3013.794
 841  3011.251
 842  3088.399
 843  3021.628
 844  2832.07
 845  2776.221
 846  2757.216
 847  2811.979
 848  2751.623
 849  2791.608
 850  2872.174
 851  2907.968
 852  3010.877
 853  3097.187
 854  3020.333
 855  2918.881
 856  2933.415
 857  2991.154
 858  3038.303
 859  3047.651
 860  2946.882
 861  2995.398
 862  3056.965
 863  3170.124
 864  3060.644
 865  3000.627
 866  3094.999
 867  3048.483
 868  2950.107
 869  2848.559
 870  2993.818
 871  3020.513
 872  2944.845
 873  2845.675
 874  2866.729
 875  2898.488
 876  2887.925
 877  2920.878
 878  2867.062
 879  2845.988
 880  2900.388
 881  2749.935
 882  2800.456
 883  2730.404
 884  2864.52
 885  2780.884
 886  2734.297
 887  2678.265
 888  2751.841
 889  2816.773
 890  2807.664
 891  2866.974
 892  2967.362
 893  2858.101
 894  2724.076
 895  2679.935
 896  2694.711
 897  2664.98
 898  2542.369
 899  2545.273
 900  2645.05
 901  2724.01
 902  2637.005
 903  2609.49
 904  2720.514
 905  2828.504
 906  2868.738
 907  2838.203
 908  2801.599
 909  2784.599
 910  2722.684
 911  2774.02
 912  2823.721
 913  2932.913
 914  2855.011
 915  2738.355
 916  2764.676
 917  2668.123
 918  2838.008
 919  2820.83
 920  2833.785
 921  2879.47
 922  2933.561
 923  3010.13
 924  2967.173
 925  2926.752
 926  2767.611
 927  2708.559
 928  2681.786
 929  2606.594
 930  2559.657
 931  2591.107
 932  2581.345
 933  2464.034
 934  2370.393
 935  2404.914
 936  2627.113
 937  2823.33
 938  2792.813
 939  2630.562
 940  2435.902
 941  2422.623
 942  2413.111
 943  2319.089
 944  2387.197
 945  2378.092
 946  2392.534
 947  2243.556
 948  2293.954
 949  2238.337
 950  2268.965
 951  2386.697
 952  2544.073
 953  2490.674
 954  2397.202
 955  2458.392
 956  2521.398
 957  2522.838
 958  2430.343
 959  2456.486
 960  2421.247
 961  2356.839
 962  2384.321
 963  2379.704
 964  2383.402
 965  2378.677
 966  2474.082
 967  2559.978
 968  2519.208
 969  2571.069
 970  2637.465
 971  2683.96
 972  2591.006
 973  2503.926
 974  2503.365
 975  2632
 976  2647.051
 977  2559.674
 978  2293.968
 979  2248.802
 980  2270.239
 981  2345.123
 982  2399.533
 983  2526.538
 984  2493.6
 985  2457.375
 986  2324.916
 987  2332.577
 988  2179.097
 989  2069.618
 990  2194.165
 991  2392.785
 992  2505.89
 993  2463.646
 994  2391.472
 995  2300.161
 996  2002.761
 997  1857.01
 998  1877.573
 999  1967.978
1000  2003.493
1001  2125.61
1002  2141.713
1003  2140.847
1004  2106.971
1005  2172.456
1006  2233.946
1007  2229.524
1008  2173.699
1009  2148.452
1010  1927.673
1011  1886.866
1012  1885.24
1013  1915.227
1014  1855.647
1015  1830.892
1016  1983.768
1017  2056.848
1018  2143.769
1019  2303.154
1020  2371.892
1021  2436.92
1022  2365.958
1023  2425.852
