# Input file       =  1185248272.118458_cleaned.dat
# Candidate        =  PSR_0332+5434
# Telescope        =  AR
# Epoch_topo       =  57962.151517574748
# Epoch_bary       =  N/A
# T_sample         =  0.002
# Data Folded      =  7340032
# Data Avg         =  0.0373415950138734
# Data StdDev      =  1.00016367744216 
# Profile Bins     =  512
# Profile Avg      =  535.267494271433 
# Profile StdDev   =  119.752633973903 
# Reduced chi-sqr  =  1.575
# Prob(Noise)      <  1.71e-15   (~7.9 sigma)
# P_topo (ms)      =  714.47126395698   +/- 0.000297
# P'_topo (s/s)    =  -0                +/- 1.57e-10
# P''_topo (s/s^2) =  0                 +/- 6.93e-14
# P_bary (ms)      =  N/A
# P'_bary (s/s)    =  N/A
# P''_bary (s/s^2) =  N/A
# P_orb (s)        =  N/A
# asin(i)/c (s)    =  N/A
# eccentricity     =  N/A
# w (rad)          =  N/A
# T_peri           =  N/A
######################################################
   0  1089.118
   1  968.6047
   2  737.8148
   3  641.2209
   4  616.4863
   5  498.1277
   6  379.9435
   7  420.1525
   8  469.4161
   9  374.8009
  10  390.7112
  11  449.8152
  12  463.1389
  13  538.2422
  14  649.847
  15  597.7783
  16  551.1803
  17  500.8679
  18  400.9633
  19  338.0032
  20  325.9577
  21  339.6458
  22  462.574
  23  518.6033
  24  430.7675
  25  454.6155
  26  569.1589
  27  531.6765
  28  571.1004
  29  578.0273
  30  447.7437
  31  403.8969
  32  393.0655
  33  432.8805
  34  477.5285
  35  439.6536
  36  453.4304
  37  402.9587
  38  407.0154
  39  380.7627
  40  525.8745
  41  566.9539
  42  657.744
  43  627.2332
  44  598.0317
  45  539.0573
  46  529.7511
  47  501.8416
  48  482.7323
  49  466.5852
  50  489.1807
  51  480.6626
  52  507.3797
  53  474.0916
  54  510.0569
  55  454.9375
  56  460.4067
  57  570.8529
  58  638.2125
  59  375.2934
  60  452.3584
  61  499.2579
  62  533.137
  63  507.2173
  64  584.6793
  65  469.1539
  66  486.0961
  67  566.8896
  68  519.502
  69  541.2448
  70  665.6375
  71  736.3439
  72  712.9224
  73  579.7036
  74  526.3522
  75  479.2934
  76  462.4336
  77  446.2315
  78  452.0237
  79  463.77
  80  427.449
  81  563.0427
  82  628.444
  83  552.4824
  84  552.6177
  85  551.8247
  86  550.2079
  87  530.7419
  88  619.3619
  89  646.0764
  90  535.6404
  91  686.8344
  92  666.5177
  93  677.824
  94  661.3013
  95  543.9208
  96  590.6916
  97  559.6567
  98  544.3731
  99  522.2747
 100  509.5321
 101  507.9545
 102  530.218
 103  554.6387
 104  668.3652
 105  574.5126
 106  539.3425
 107  543.3609
 108  514.5426
 109  606.7637
 110  540.936
 111  527.4155
 112  541.3247
 113  490.772
 114  578.0807
 115  676.8793
 116  682.5624
 117  672.1898
 118  547.3998
 119  509.6878
 120  493.3159
 121  583.0139
 122  489.763
 123  448.3266
 124  437.7652
 125  458.6082
 126  375.5798
 127  454.8347
 128  497.7528
 129  485.706
 130  501.3636
 131  489.9074
 132  473.8761
 133  574.5676
 134  566.803
 135  474.2848
 136  405.0638
 137  464.9967
 138  486.72
 139  440.1607
 140  466.3719
 141  495.3478
 142  388.9096
 143  453.1858
 144  465.144
 145  530.0374
 146  500.9316
 147  494.0714
 148  516.7479
 149  434.3611
 150  607.4281
 151  498.6382
 152  532.767
 153  609.9592
 154  531.811
 155  546.6088
 156  517.6445
 157  475.0212
 158  407.322
 159  365.9501
 160  459.3033
 161  482.7021
 162  477.4905
 163  518.3567
 164  468.2375
 165  471.1428
 166  493.1898
 167  459.1437
 168  396.5895
 169  341.5069
 170  309.0923
 171  414.6769
 172  463.022
 173  336.9059
 174  329.5013
 175  467.1866
 176  431.2851
 177  361.6416
 178  344.9563
 179  458.6603
 180  407.5573
 181  384.8988
 182  328.2666
 183  376.7066
 184  442.2502
 185  360.9854
 186  427.2357
 187  468.7766
 188  561.0972
 189  645.3395
 190  575.1407
 191  460.1461
 192  464.7219
 193  473.7
 194  584.9705
 195  595.9036
 196  516.8216
 197  473.8178
 198  579.6305
 199  532.2775
 200  544.2795
 201  561.9261
 202  535.3328
 203  528.3219
 204  603.2121
 205  687.3413
 206  640.5247
 207  552.1478
 208  552.0757
 209  523.4213
 210  605.9863
 211  542.5772
 212  459.5181
 213  445.724
 214  513.447
 215  467.5656
 216  440.6962
 217  444.5356
 218  453.2708
 219  501.3703
 220  415.142
 221  464.685
 222  556.858
 223  543.9316
 224  468.7473
 225  411.0055
 226  541.0126
 227  580.1461
 228  556.1459
 229  537.8256
 230  494.2836
 231  454.0556
 232  474.0303
 233  376.5483
 234  383.4432
 235  439.3009
 236  402.4442
 237  292.9015
 238  366.6848
 239  434.6029
 240  513.6232
 241  586.1108
 242  601.1434
 243  482.3291
 244  487.9608
 245  502.3454
 246  506.7588
 247  471.6133
 248  408.4449
 249  443.2183
 250  512.4753
 251  505.5847
 252  417.3304
 253  437.7362
 254  411.2415
 255  401.3726
 256  435.6566
 257  415.3112
 258  437.7627
 259  589.0591
 260  508.215
 261  470.9966
 262  562.9297
 263  536.2252
 264  493.1916
 265  479.8277
 266  488.5582
 267  517.1984
 268  559.3236
 269  609.9599
 270  671.6953
 271  618.9134
 272  536.0995
 273  557.5764
 274  650.7733
 275  721.0865
 276  750.4189
 277  615.1245
 278  627.5327
 279  603.5281
 280  644.2676
 281  659.2455
 282  647.7065
 283  628.0466
 284  730.5378
 285  769.258
 286  708.177
 287  773.4523
 288  791.0579
 289  735.9457
 290  590.8758
 291  643.6298
 292  649.2027
 293  641.8159
 294  590.315
 295  699.3366
 296  661.2788
 297  652.222
 298  747.8192
 299  693.1437
 300  668.0774
 301  674.3003
 302  611.0204
 303  593.2743
 304  634.1497
 305  666.0251
 306  766.0007
 307  756.1992
 308  680.5051
 309  605.5488
 310  539.7057
 311  606.4205
 312  600.0878
 313  568.175
 314  619.4521
 315  643.2804
 316  560.0842
 317  524.6949
 318  567.7731
 319  525.9851
 320  538.8448
 321  601.4105
 322  637.4395
 323  530.6638
 324  509.0715
 325  590.6715
 326  638.6389
 327  598.3124
 328  552.5373
 329  578.489
 330  628.5561
 331  710.3149
 332  663.0729
 333  635.8587
 334  632.393
 335  659.4464
 336  579.8145
 337  583.0874
 338  625.6088
 339  604.8344
 340  567.2493
 341  601.1469
 342  600.7412
 343  667.0101
 344  705.9143
 345  645.3252
 346  697.0895
 347  686.6708
 348  661.8353
 349  717.9363
 350  521.038
 351  662.4995
 352  802.053
 353  696.2522
 354  684.8427
 355  666.0299
 356  614.0389
 357  540.9929
 358  585.4871
 359  616.8234
 360  706.8967
 361  724.2665
 362  770.7902
 363  679.3431
 364  566.9041
 365  593.452
 366  662.9523
 367  790.4164
 368  712.1455
 369  554.2369
 370  621.4037
 371  704.4896
 372  631.4539
 373  631.2321
 374  620.1732
 375  548.6368
 376  606.8481
 377  738.5948
 378  564.9747
 379  506.2535
 380  605.2813
 381  641.0112
 382  713.0488
 383  632.421
 384  672.712
 385  568.7289
 386  471.0576
 387  588.6382
 388  523.0834
 389  539.3789
 390  690.6505
 391  738.7855
 392  651.4871
 393  610.5748
 394  515.8575
 395  470.3081
 396  503.0819
 397  484.3199
 398  399.9288
 399  419.0635
 400  507.7953
 401  505.7769
 402  484.5107
 403  462.9444
 404  340.575
 405  387.7453
 406  489.7075
 407  508.7187
 408  413.4113
 409  467.4092
 410  528.9438
 411  523.6336
 412  502.0784
 413  558.9289
 414  567.7039
 415  557.1827
 416  514.1501
 417  506.0722
 418  413.682
 419  547.0682
 420  643.9945
 421  608.6285
 422  490.2542
 423  491.8723
 424  500.3929
 425  443.9358
 426  484.9883
 427  522.7291
 428  460.4159
 429  447.3295
 430  552.1849
 431  627.6693
 432  632.3774
 433  603.6974
 434  649.3447
 435  549.383
 436  580.2558
 437  588.1789
 438  541.7163
 439  600.8015
 440  575.1384
 441  441.7003
 442  446.3496
 443  405.9509
 444  500.2586
 445  587.2165
 446  519.5304
 447  403.1157
 448  498.343
 449  435.6816
 450  386.2946
 451  357.9387
 452  525.799
 453  585.0084
 454  467.2466
 455  389.1182
 456  456.5196
 457  505.186
 458  486.913
 459  493.636
 460  444.2763
 461  468.0316
 462  450.1215
 463  439.752
 464  368.9505
 465  333.3144
 466  381.9054
 467  385.8166
 468  411.987
 469  450.0605
 470  486.1758
 471  470.478
 472  446.2312
 473  240.3891
 474  280.4843
 475  391.3899
 476  417.6679
 477  429.2734
 478  392.5581
 479  441.2285
 480  382.8912
 481  493.1587
 482  465.7221
 483  515.4022
 484  533.4918
 485  487.76
 486  427.7561
 487  418.288
 488  392.2976
 489  430.6945
 490  452.0413
 491  521.8679
 492  510.3788
 493  518.8619
 494  527.5538
 495  461.1128
 496  429.2618
 497  559.9146
 498  548.8295
 499  579.2037
 500  562.9647
 501  535.7617
 502  521.5193
 503  505.6416
 504  440.1561
 505  471.8008
 506  550.269
 507  631.6606
 508  684.8622
 509  804.629
 510  1037.028
 511  1070.918
