# Input file       =  1185952524.105534_cleaned.dat
# Candidate        =  PSR_0332+5434
# Telescope        =  AR
# Epoch_topo       =  57970.302582239980
# Epoch_bary       =  N/A
# T_sample         =  0.002
# Data Folded      =  7340032
# Data Avg         =  0.00898784455369289
# Data StdDev      =  2.6997657381689  
# Profile Bins     =  256
# Profile Avg      =  257.652173559037 
# Profile StdDev   =  457.146159444969 
# Reduced chi-sqr  =  1.503
# Prob(Noise)      <  3.47e-07   (~5.0 sigma)
# P_topo (ms)      =  714.46810620128   +/- 0.000249
# P'_topo (s/s)    =  -0                +/- 1.32e-10
# P''_topo (s/s^2) =  0                 +/- 5.81e-14
# P_bary (ms)      =  N/A
# P'_bary (s/s)    =  N/A
# P''_bary (s/s^2) =  N/A
# P_orb (s)        =  N/A
# asin(i)/c (s)    =  N/A
# eccentricity     =  N/A
# w (rad)          =  N/A
# T_peri           =  N/A
######################################################
   0  99.44958
   1  -70.98021
   2  795.7411
   3  294.9632
   4  1.783161
   5  886.2847
   6  86.15004
   7  381.7483
   8  -71.87892
   9  383.7599
  10  1206.328
  11  -222.8185
  12  148.3659
  13  458.308
  14  473.0396
  15  609.4997
  16  569.5746
  17  708.0352
  18  367.0602
  19  274.0485
  20  -288.1768
  21  -4.746723
  22  176.3348
  23  253.1034
  24  -22.80521
  25  580.7331
  26  300.4726
  27  352.0123
  28  343.5694
  29  485.3101
  30  146.0152
  31  -255.332
  32  275.3236
  33  -539.7079
  34  579.9727
  35  480.682
  36  47.55812
  37  237.8492
  38  195.8565
  39  -429.5129
  40  119.7709
  41  479.5367
  42  173.3401
  43  -209.0244
  44  -155.3481
  45  286.5028
  46  541.2942
  47  290.3551
  48  845.9423
  49  1131.678
  50  -244.3462
  51  9.944223
  52  644.8281
  53  1093.855
  54  646.4749
  55  363.3577
  56  400.2596
  57  -24.05075
  58  -5.235682
  59  250.768
  60  872.0681
  61  330.5552
  62  37.97779
  63  571.0338
  64  608.0862
  65  363.2639
  66  1193.294
  67  12.22845
  68  -192.4798
  69  307.4246
  70  127.8858
  71  -460.9247
  72  100.1326
  73  340.3813
  74  788.6444
  75  638.271
  76  720.0735
  77  730.553
  78  301.6662
  79  169.3847
  80  106.2057
  81  176.3405
  82  510.6802
  83  -11.5009
  84  767.5759
  85  255.3393
  86  289.2641
  87  425.8893
  88  212.9077
  89  -741.0521
  90  -185.4535
  91  -27.46082
  92  -459.9139
  93  243.5723
  94  149.0392
  95  430.2424
  96  581.8024
  97  693.0471
  98  -66.11726
  99  220.4431
 100  -534.2519
 101  -49.05828
 102  134.6497
 103  126.1457
 104  -232.6748
 105  -443.3851
 106  -979.7078
 107  313.2463
 108  239.2945
 109  -131.8267
 110  305.106
 111  183.9605
 112  588.7624
 113  587.3435
 114  602.6462
 115  396.2556
 116  367.4529
 117  458.1555
 118  295.0429
 119  10.18339
 120  59.69588
 121  342.6158
 122  -443.7131
 123  116.8525
 124  -334.9017
 125  208.2353
 126  -590.0283
 127  -283.2216
 128  728.217
 129  303.2511
 130  -114.6747
 131  -192.1463
 132  226.3715
 133  147.3982
 134  -18.58824
 135  -9.884159
 136  -76.2276
 137  -148.7446
 138  -438.7909
 139  380.4792
 140  287.7685
 141  -299.2808
 142  25.19386
 143  -201.0317
 144  -39.51854
 145  -653.142
 146  -40.41144
 147  34.33934
 148  55.03185
 149  108.5308
 150  601.5188
 151  129.5438
 152  -617.6653
 153  46.33146
 154  231.8595
 155  911.0813
 156  650.5425
 157  744.1475
 158  52.86019
 159  800.7494
 160  1629.681
 161  2174.892
 162  3425.137
 163  2877.032
 164  688.4764
 165  67.53664
 166  -223.775
 167  555.5003
 168  711.3367
 169  777.1913
 170  -164.363
 171  631.5443
 172  382.2317
 173  498.6446
 174  337.352
 175  382.8228
 176  304.4413
 177  117.5027
 178  881.2352
 179  863.8738
 180  -170.0826
 181  74.31168
 182  356.2961
 183  556.9539
 184  536.0604
 185  66.31098
 186  428.2677
 187  638.3525
 188  -167.7374
 189  -241.1197
 190  648.231
 191  161.9812
 192  653.161
 193  883.7094
 194  876.0073
 195  -179.3995
 196  -138.6862
 197  328.636
 198  181.9082
 199  173.3597
 200  1265.327
 201  -291.9647
 202  -52.39252
 203  737.9754
 204  251.7446
 205  518.4026
 206  336.175
 207  180.4685
 208  -25.54853
 209  241.2049
 210  163.8563
 211  -729.5274
 212  -259.7555
 213  -43.15015
 214  183.3045
 215  314.4702
 216  51.90744
 217  16.71189
 218  21.22264
 219  18.13276
 220  587.0633
 221  268.9697
 222  587.1257
 223  168.6442
 224  657.6682
 225  611.7608
 226  811.158
 227  482.3521
 228  40.81136
 229  829.2229
 230  156.5158
 231  635.7589
 232  -205.2785
 233  475.7065
 234  -120.9158
 235  61.2628
 236  548.6053
 237  -254.9539
 238  520.7523
 239  321.9437
 240  -387.6546
 241  -290.649
 242  -239.754
 243  -366.8134
 244  -20.68104
 245  635.5557
 246  290.1336
 247  407.2635
 248  445.5091
 249  82.90825
 250  321.3035
 251  -157.0836
 252  354.4193
 253  -256.8264
 254  -101.8594
 255  -415.6009
