# Input file       =  1185836768.110852_cleaned.dat
# Candidate        =  PSR_0332+5434
# Telescope        =  AR
# Epoch_topo       =  57968.962813783008
# Epoch_bary       =  N/A
# T_sample         =  0.002
# Data Folded      =  7208960
# Data Avg         =  0.0131445138954937
# Data StdDev      =  0.999984520745855
# Profile Bins     =  512
# Profile Avg      =  185.093379122434 
# Profile StdDev   =  118.657339037992 
# Reduced chi-sqr  =  1.437
# Prob(Noise)      <  2.99e-10   (~6.2 sigma)
# P_topo (ms)      =  714.468265302819  +/- 0.000127
# P'_topo (s/s)    =  -0                +/- 6.8e-11
# P''_topo (s/s^2) =  0                 +/- 3.06e-14
# P_bary (ms)      =  N/A
# P'_bary (s/s)    =  N/A
# P''_bary (s/s^2) =  N/A
# P_orb (s)        =  N/A
# asin(i)/c (s)    =  N/A
# eccentricity     =  N/A
# w (rad)          =  N/A
# T_peri           =  N/A
######################################################
   0  264.926
   1  195.0836
   2  29.43389
   3  66.00636
   4  98.70499
   5  145.6222
   6  279.7439
   7  240.572
   8  185.7101
   9  -21.75428
  10  12.6183
  11  230.2862
  12  249.6438
  13  110.1967
  14  175.4974
  15  231.1469
  16  266.0969
  17  162.1483
  18  18.8054
  19  113.0607
  20  258.0303
  21  301.9353
  22  234.6315
  23  78.44296
  24  114.2478
  25  129.7856
  26  216.5697
  27  308.3394
  28  217.875
  29  251.1632
  30  213.4432
  31  271.2356
  32  154.1539
  33  239.5737
  34  262.4881
  35  135.19
  36  223.7256
  37  319.1141
  38  404.6826
  39  333.754
  40  155.2916
  41  53.53973
  42  111.876
  43  110.2147
  44  114.4495
  45  119.5664
  46  213.9891
  47  213.7296
  48  148.356
  49  235.6148
  50  148.2946
  51  136.9748
  52  134.5655
  53  222.8009
  54  147.9777
  55  143.6103
  56  213.9306
  57  211.1746
  58  161.9507
  59  193.2724
  60  204.0308
  61  229.8447
  62  77.77264
  63  46.47703
  64  191.4849
  65  200.9342
  66  52.56924
  67  48.92746
  68  130.1685
  69  151.1544
  70  160.5044
  71  303.6989
  72  277.4544
  73  355.2576
  74  383.0422
  75  305.147
  76  198.2486
  77  208.7628
  78  217.7205
  79  150.8553
  80  60.99746
  81  236.9461
  82  228.7961
  83  288.4295
  84  279.4864
  85  387.8806
  86  374.0314
  87  520.8623
  88  493.3263
  89  602.1128
  90  820.62
  91  865.7198
  92  673.4312
  93  495.6937
  94  287.4606
  95  145.5469
  96  241.1277
  97  335.8672
  98  369.2976
  99  333.0629
 100  197.6746
 101  288.3488
 102  271.9403
 103  193.3268
 104  163.3679
 105  99.39765
 106  417.5578
 107  357.1752
 108  138.998
 109  120.1611
 110  347.2596
 111  258.9615
 112  116.295
 113  85.45387
 114  216.4355
 115  258.3683
 116  123.6731
 117  204.2837
 118  215.6918
 119  226.2056
 120  257.8029
 121  166.0051
 122  103.7859
 123  175.2035
 124  187.8647
 125  240.1029
 126  126.9554
 127  122.5645
 128  150.391
 129  141.2872
 130  183.9693
 131  118.4217
 132  307.998
 133  268.8762
 134  96.1265
 135  99.99787
 136  223.5524
 137  230.882
 138  151.9124
 139  80.85023
 140  111.3301
 141  162.3619
 142  282.5375
 143  212.417
 144  82.41703
 145  168.756
 146  213.7889
 147  114.9111
 148  132.8169
 149  189.7073
 150  125.9117
 151  160.2408
 152  66.07812
 153  203.7961
 154  308.5651
 155  239.1411
 156  141.0058
 157  193.4714
 158  265.7824
 159  127.1851
 160  157.0337
 161  249.3403
 162  325.6631
 163  172.1218
 164  129.1548
 165  102.6462
 166  137.8443
 167  70.89453
 168  28.52846
 169  156.8038
 170  202.4954
 171  138.0634
 172  151.6857
 173  249.7612
 174  165.72
 175  175.9403
 176  216.2334
 177  235.4021
 178  245.641
 179  253.3768
 180  237.6121
 181  175.9672
 182  169.5619
 183  173.7179
 184  167.2148
 185  188.0598
 186  -5.510266
 187  -35.43145
 188  -46.67568
 189  -27.36495
 190  186.5241
 191  165.7003
 192  167.8466
 193  223.7835
 194  227.701
 195  194.6018
 196  215.0405
 197  208.8174
 198  156.8087
 199  41.7344
 200  26.47532
 201  152.3571
 202  228.4849
 203  219.7289
 204  271.1476
 205  196.268
 206  19.06118
 207  55.5407
 208  35.41345
 209  151.0412
 210  108.1456
 211  68.35292
 212  126.5875
 213  92.53811
 214  83.85549
 215  130.071
 216  -62.75535
 217  21.55089
 218  88.70987
 219  67.24452
 220  80.33179
 221  123.8914
 222  125.1389
 223  128.7526
 224  82.84509
 225  106.5578
 226  168.5723
 227  111.1352
 228  240.0831
 229  206.5849
 230  208.3182
 231  221.3515
 232  260.2052
 233  175.4046
 234  151.6923
 235  171.6232
 236  295.4519
 237  304.5032
 238  92.62153
 239  149.6628
 240  236.6942
 241  286.4247
 242  229.5146
 243  161.3232
 244  83.82832
 245  184.8683
 246  294.8981
 247  153.7917
 248  20.9297
 249  74.16302
 250  225.6206
 251  200.0636
 252  178.7483
 253  235.0889
 254  235.5657
 255  192.4533
 256  122.9221
 257  330.9721
 258  265.5664
 259  174.3387
 260  118.9528
 261  208.5731
 262  301.4629
 263  134.6245
 264  54.58778
 265  221.3172
 266  314.5387
 267  325.7178
 268  263.176
 269  173.3919
 270  115.9539
 271  43.2992
 272  88.42673
 273  180.5596
 274  92.05394
 275  131.1169
 276  74.86154
 277  219.4987
 278  158.9638
 279  168.6339
 280  159.9845
 281  246.6699
 282  228.7303
 283  172.338
 284  -50.55802
 285  21.70418
 286  114.2305
 287  143.1957
 288  52.47739
 289  132.4617
 290  101.4495
 291  173.375
 292  200.7029
 293  211.1073
 294  102.3887
 295  129.6835
 296  91.45149
 297  144.2571
 298  193.8699
 299  167.132
 300  209.7136
 301  230.2723
 302  225.478
 303  261.5178
 304  310.3967
 305  288.715
 306  170.5685
 307  148.4116
 308  119.6999
 309  114.0268
 310  182.363
 311  218.4177
 312  162.3816
 313  79.53159
 314  181.8877
 315  171.0295
 316  128.1999
 317  220.2131
 318  225.9728
 319  -14.87152
 320  117.8333
 321  196.2965
 322  134.5033
 323  34.65817
 324  -8.394466
 325  -28.33915
 326  137.1051
 327  191.5474
 328  86.59241
 329  119.9398
 330  279.5615
 331  217.283
 332  122.8846
 333  97.72556
 334  117.8304
 335  111.7268
 336  158.4415
 337  219.102
 338  309.9253
 339  252.1626
 340  182.7231
 341  215.0817
 342  292.4682
 343  295.1034
 344  286.8795
 345  106.6772
 346  -43.74542
 347  32.2778
 348  47.77013
 349  45.31369
 350  32.44259
 351  100.9621
 352  79.20821
 353  200.7795
 354  119.4963
 355  140.9108
 356  65.52979
 357  17.03725
 358  105.3307
 359  106.5041
 360  153.7599
 361  322.4533
 362  124.7674
 363  138.8397
 364  177.6297
 365  165.8575
 366  185.5893
 367  178.0345
 368  368.6771
 369  234.0655
 370  49.47574
 371  35.02105
 372  97.0359
 373  212.8712
 374  250.63
 375  225.2229
 376  138.289
 377  149.5723
 378  104.7903
 379  190.7642
 380  209.225
 381  -7.738119
 382  180.0385
 383  235.0213
 384  215.9478
 385  176.2085
 386  122.085
 387  189.2684
 388  200.9671
 389  302.7131
 390  214.7987
 391  242.7108
 392  223.4098
 393  108.3656
 394  144.5364
 395  253.216
 396  259.4644
 397  116.3128
 398  -3.094003
 399  163.1331
 400  235.8236
 401  247.3219
 402  186.9002
 403  251.0859
 404  279.9128
 405  225.1736
 406  161.387
 407  90.48841
 408  178.4183
 409  185.008
 410  338.7143
 411  96.48136
 412  168.9477
 413  300.9088
 414  309.5729
 415  158.3652
 416  236.6879
 417  291.6483
 418  296.3625
 419  198.469
 420  92.53503
 421  129.9337
 422  202.3656
 423  105.5597
 424  92.50002
 425  203.0298
 426  198.9538
 427  115.8985
 428  215.2888
 429  192.5718
 430  41.86968
 431  106.6597
 432  145.6674
 433  66.52004
 434  58.95767
 435  102.6825
 436  124.1961
 437  109.0258
 438  97.79327
 439  22.62833
 440  31.14812
 441  238.6635
 442  339.038
 443  419.3651
 444  321.4926
 445  213.4556
 446  133.1413
 447  160.1282
 448  155.8781
 449  196.1897
 450  211.3185
 451  138.4611
 452  42.37776
 453  85.03951
 454  163.3193
 455  273.6542
 456  255.2792
 457  93.0698
 458  159.2873
 459  311.7179
 460  289.0063
 461  200.9967
 462  78.19053
 463  151.0523
 464  248.8384
 465  245.3545
 466  360.4669
 467  516.5551
 468  311.4756
 469  171.8591
 470  303.2678
 471  210.6172
 472  141.6568
 473  188.3107
 474  97.92123
 475  250.1929
 476  222.5786
 477  288.5712
 478  266.3427
 479  219.5735
 480  309.3158
 481  217.54
 482  -18.35788
 483  172.4684
 484  305.677
 485  280.4525
 486  263.2421
 487  201.7361
 488  147.808
 489  196.6948
 490  247.6654
 491  325.0559
 492  218.0261
 493  239.4583
 494  210.7248
 495  247.2534
 496  226.4728
 497  220.5533
 498  238.3472
 499  258.8174
 500  249.3668
 501  186.2214
 502  205.6883
 503  225.1909
 504  200.027
 505  201.5513
 506  156.6584
 507  236.277
 508  299.4308
 509  336.782
 510  234.9971
 511  244.5468
