# Input file       =  1185578274.108979_cleaned.dat
# Candidate        =  PSR_0332+5434
# Telescope        =  AR
# Epoch_topo       =  57965.970985057626
# Epoch_bary       =  N/A
# T_sample         =  0.002
# Data Folded      =  7208960
# Data Avg         =  0.146777216357772
# Data StdDev      =  4.74019270899246 
# Profile Bins     =  256
# Profile Avg      =  4133.41911910819 
# Profile StdDev   =  795.448968835669 
# Reduced chi-sqr  =  0.574
# Prob(Noise)      <  1   (~0.0 sigma)
# P_topo (ms)      =  714.469493012331  +/- 0.000109
# P'_topo (s/s)    =  -0                +/- 5.88e-11
# P''_topo (s/s^2) =  0                 +/- 2.64e-14
# P_bary (ms)      =  N/A
# P'_bary (s/s)    =  N/A
# P''_bary (s/s^2) =  N/A
# P_orb (s)        =  N/A
# asin(i)/c (s)    =  N/A
# eccentricity     =  N/A
# w (rad)          =  N/A
# T_peri           =  N/A
######################################################
   0  3780.031
   1  3517.628
   2  4187.302
   3  4630.794
   4  3543.946
   5  4594.556
   6  4789.652
   7  4155.28
   8  3908.294
   9  4384.58
  10  4616.021
  11  4181.493
  12  2974.179
  13  4320.484
  14  4856.961
  15  4462.175
  16  4391.954
  17  4300.839
  18  4012.85
  19  3681.862
  20  4407.934
  21  3846.348
  22  4568.279
  23  4440.482
  24  3439.662
  25  3707.423
  26  4759.1
  27  4566.709
  28  3916.584
  29  3457.763
  30  4261.677
  31  5047.968
  32  4326.843
  33  3256.346
  34  3604.678
  35  4084.573
  36  3965.101
  37  4361.335
  38  4227.58
  39  4086.921
  40  3752.041
  41  3851.817
  42  3745.833
  43  4559.471
  44  4399.025
  45  3770.018
  46  3371.932
  47  4165.64
  48  4206.825
  49  3577.024
  50  3793.161
  51  4492.183
  52  4718.593
  53  3455.288
  54  4037.142
  55  4242.42
  56  3891.607
  57  4396.593
  58  3634.134
  59  4472.692
  60  3885.583
  61  3886.312
  62  4004.882
  63  3913.349
  64  4616.927
  65  4355.962
  66  3726.586
  67  3579.208
  68  3936.566
  69  4678.546
  70  3988.189
  71  3372.989
  72  4007.41
  73  4230.866
  74  4626.471
  75  4151.766
  76  3638.375
  77  3674.644
  78  4222.16
  79  4559.718
  80  4785.71
  81  4161.178
  82  2806.903
  83  3889.617
  84  4151.896
  85  3883.011
  86  3720.116
  87  3416.79
  88  4271.914
  89  4790.446
  90  4178.27
  91  3758.393
  92  4236.111
  93  3902.801
  94  3608.283
  95  3505.215
  96  4432.844
  97  4717.105
  98  3995.409
  99  4048.386
 100  3548.77
 101  4171.344
 102  4297.951
 103  4292.967
 104  3906.356
 105  4621.006
 106  5016.992
 107  4882.017
 108  4060.528
 109  4668.959
 110  4671.121
 111  4280.732
 112  4589.536
 113  4626.03
 114  4516.608
 115  4548.464
 116  4493.87
 117  4493.9
 118  4310.882
 119  3762.278
 120  4445.544
 121  4708.056
 122  4780.621
 123  4124.684
 124  3538.897
 125  4269.336
 126  4347.199
 127  4077.509
 128  4371.059
 129  4481.233
 130  3921.621
 131  3371.833
 132  3438.828
 133  3959.329
 134  3484.781
 135  4323.878
 136  3791.364
 137  3560.97
 138  4135.142
 139  4475.942
 140  4477.508
 141  3544.963
 142  3905.761
 143  4437.38
 144  4351.503
 145  3700.624
 146  4491.603
 147  4272.855
 148  4313.233
 149  4173.511
 150  4301.744
 151  4801.892
 152  4261.706
 153  4265.256
 154  4684.651
 155  4715.661
 156  4017.027
 157  3676.642
 158  3989.355
 159  4451.062
 160  4963.654
 161  5720.347
 162  7238.294
 163  6609.923
 164  4695.987
 165  4518.013
 166  4125.979
 167  3678.855
 168  3493.66
 169  4575.454
 170  4338.526
 171  4951.413
 172  3869.861
 173  3150.365
 174  3295.109
 175  3655.535
 176  3870.592
 177  4440.599
 178  3579.223
 179  3359.231
 180  3945.696
 181  4564.603
 182  3963.399
 183  4162.76
 184  4152.464
 185  3599.026
 186  3813.92
 187  4159.186
 188  3951.026
 189  3281.148
 190  3282.134
 191  4310.399
 192  4539.258
 193  4026.656
 194  3124.009
 195  3916.966
 196  4826.967
 197  4411.26
 198  4374.879
 199  3633.197
 200  3750.352
 201  4030.419
 202  3972.118
 203  4108.73
 204  4948.087
 205  3488.105
 206  3982.095
 207  3971.834
 208  4730.985
 209  3765.325
 210  3726.434
 211  4040.966
 212  4614.446
 213  4321.975
 214  3991.272
 215  3507.14
 216  3675.68
 217  3915.549
 218  4754.63
 219  4101.689
 220  3715.944
 221  3436.277
 222  4120.357
 223  3977.602
 224  3409.993
 225  4117.388
 226  3777.113
 227  3246.908
 228  4615.49
 229  4938.192
 230  3962.163
 231  3724.77
 232  4008.174
 233  4223.561
 234  4121.487
 235  4073.409
 236  3956.779
 237  4108.58
 238  4073.173
 239  4341.505
 240  4004.485
 241  4774.15
 242  3817.077
 243  3123.549
 244  4170.464
 245  5231.151
 246  5032.469
 247  3891.252
 248  3462.434
 249  3811.466
 250  4521.582
 251  4148.844
 252  3611.253
 253  3819.557
 254  4978.861
 255  4563.816
