# Input file       =  1185592917.121895_cleaned.dat
# Candidate        =  PSR_0332+5434
# Telescope        =  AR
# Epoch_topo       =  57966.140464373784
# Epoch_bary       =  N/A
# T_sample         =  0.002
# Data Folded      =  7340032
# Data Avg         =  0.0337302944771145
# Data StdDev      =  1.00024455068687 
# Profile Bins     =  512
# Profile Avg      =  483.529129622544 
# Profile StdDev   =  119.762317173053 
# Reduced chi-sqr  =  1.360
# Prob(Noise)      <  9.74e-08   (~5.2 sigma)
# P_topo (ms)      =  714.469431955746  +/- 0.000228
# P'_topo (s/s)    =  -0                +/- 1.2e-10
# P''_topo (s/s^2) =  0                 +/- 5.3e-14
# P_bary (ms)      =  N/A
# P'_bary (s/s)    =  N/A
# P''_bary (s/s^2) =  N/A
# P_orb (s)        =  N/A
# asin(i)/c (s)    =  N/A
# eccentricity     =  N/A
# w (rad)          =  N/A
# T_peri           =  N/A
######################################################
   0  1047.042
   1  1051.096
   2  850.3666
   3  689.2278
   4  548.5121
   5  531.8013
   6  483.8195
   7  463.0851
   8  351.4256
   9  400.6021
  10  590.3127
  11  525.0303
  12  538.5189
  13  584.8062
  14  520.6242
  15  516.3301
  16  488.6313
  17  436.5571
  18  444.1426
  19  433.6431
  20  581.5469
  21  503.9247
  22  447.2759
  23  511.0718
  24  416.0868
  25  453.2826
  26  578.3704
  27  542.11
  28  552.3686
  29  527.3137
  30  484.6327
  31  505.7298
  32  473.0176
  33  488.9345
  34  485.6177
  35  430.4507
  36  454.0835
  37  430.329
  38  432.9265
  39  509.1201
  40  475.3713
  41  478.2431
  42  467.8637
  43  450.5304
  44  431.6831
  45  569.1362
  46  530.6136
  47  493.9539
  48  514.689
  49  524.3611
  50  496.3731
  51  437.7346
  52  412.0373
  53  487.1973
  54  483.7591
  55  423.4842
  56  384.3852
  57  388.7873
  58  366.1889
  59  374.783
  60  404.5872
  61  509.7392
  62  465.9349
  63  390.4645
  64  491.4684
  65  426.5578
  66  373.0935
  67  384.825
  68  463.6982
  69  355.5995
  70  433.9268
  71  472.7973
  72  269.9258
  73  323.5893
  74  370.9823
  75  337.8417
  76  404.4247
  77  396.4878
  78  364.418
  79  434.0957
  80  319.0609
  81  348.1299
  82  399.1486
  83  444.1408
  84  413.5236
  85  448.9188
  86  457.1844
  87  417.0099
  88  473.7488
  89  432.379
  90  397.8462
  91  487.3572
  92  476.2593
  93  495.3073
  94  404.5784
  95  359.7212
  96  406.1505
  97  426.909
  98  462.9946
  99  423.8236
 100  388.1536
 101  432.8219
 102  397.9464
 103  473.2452
 104  462.0629
 105  467.5934
 106  381.2062
 107  396.5052
 108  485.1573
 109  467.7303
 110  329.1134
 111  442.0593
 112  411.6464
 113  383.5209
 114  492.7879
 115  550.3545
 116  406.036
 117  362.1443
 118  375.0031
 119  375.2886
 120  384.6947
 121  425.9767
 122  501.2228
 123  315.5377
 124  260.3092
 125  294.9777
 126  236.6065
 127  274.8251
 128  419.8841
 129  504.5934
 130  463.6106
 131  502.4261
 132  439.0651
 133  429.9396
 134  448.6625
 135  390.7117
 136  428.128
 137  430.058
 138  397.7574
 139  438.3526
 140  398.9063
 141  409.4937
 142  485.0068
 143  562.298
 144  553.7792
 145  482.3664
 146  453.5653
 147  465.0376
 148  488.3544
 149  537.2387
 150  588.9579
 151  475.9247
 152  456.244
 153  391.335
 154  410.7415
 155  481.5763
 156  553.2213
 157  522.5405
 158  495.0009
 159  561.4177
 160  517.0695
 161  451.5403
 162  406.7745
 163  401.2589
 164  544.9741
 165  519.3058
 166  447.923
 167  504.8645
 168  402.8865
 169  400.8528
 170  352.8616
 171  392.6993
 172  456.7518
 173  542.9292
 174  527.9542
 175  586.712
 176  417.4276
 177  367.5472
 178  475.5308
 179  416.821
 180  341.3408
 181  437.8443
 182  429.6001
 183  486.8035
 184  486.8898
 185  429.3207
 186  473.3695
 187  268.8172
 188  279.4983
 189  376.7283
 190  436.302
 191  425.832
 192  486.1264
 193  523.3731
 194  618.5284
 195  546.2842
 196  545.5842
 197  596.6981
 198  428.7145
 199  353.0803
 200  303.7672
 201  410.2495
 202  452.5107
 203  411.3928
 204  367.8799
 205  419.5526
 206  403.3326
 207  407.3894
 208  400.7506
 209  543.1274
 210  444.1421
 211  416.4437
 212  482.3083
 213  500.7484
 214  491.8441
 215  494.733
 216  547.9738
 217  547.0165
 218  538.1341
 219  500.8505
 220  455.834
 221  449.1734
 222  541.756
 223  477.5075
 224  456.0068
 225  490.9638
 226  387.8903
 227  463.2771
 228  453.0027
 229  484.4305
 230  442.2093
 231  493.5179
 232  427.1927
 233  413.614
 234  533.9367
 235  436.5678
 236  425.3502
 237  468.2409
 238  506.1769
 239  580.0666
 240  525.6232
 241  513.8675
 242  565.4836
 243  555.8693
 244  548.6316
 245  591.0489
 246  647.2173
 247  585.417
 248  646.8426
 249  725.9622
 250  616.2646
 251  516.8293
 252  483.2107
 253  580.7747
 254  585.7831
 255  554.0707
 256  503.4118
 257  545.3967
 258  619.4719
 259  556.3736
 260  610.6654
 261  550.8828
 262  518.1608
 263  653.2065
 264  552.2232
 265  542.71
 266  523.3622
 267  616.9362
 268  720.2674
 269  703.5556
 270  606.2659
 271  593.55
 272  679.4733
 273  682.2109
 274  585.9023
 275  567.072
 276  690.0676
 277  669.8485
 278  522.0991
 279  528.217
 280  458.3573
 281  525.8604
 282  586.9374
 283  657.4702
 284  583.1221
 285  494.8611
 286  587.7129
 287  673.5688
 288  602.5872
 289  620.3585
 290  520.3952
 291  566.1142
 292  587.5659
 293  630.834
 294  543.7739
 295  489.6839
 296  618.0139
 297  600.7866
 298  575.0906
 299  664.2269
 300  549.0978
 301  484.5514
 302  454.0171
 303  468.7699
 304  589.6827
 305  573.1454
 306  465.9987
 307  512.5967
 308  536.7533
 309  521.8754
 310  499.2262
 311  403.7699
 312  572.2885
 313  507.2981
 314  465.2411
 315  490.2478
 316  409.1528
 317  409.8795
 318  363.3475
 319  426.2461
 320  413.0035
 321  571.2087
 322  506.3764
 323  440.1345
 324  396.1867
 325  400.0165
 326  515.2465
 327  495.4078
 328  508.2491
 329  524.0934
 330  526.915
 331  399.5121
 332  266.6912
 333  346.6678
 334  491.3223
 335  533.7518
 336  506.6399
 337  525.6238
 338  485.739
 339  485.046
 340  537.0779
 341  567.7866
 342  463.7955
 343  426.0815
 344  452.7847
 345  517.0225
 346  492.4924
 347  410.3065
 348  371.9728
 349  409.785
 350  482.6129
 351  449.2514
 352  464.388
 353  404.0266
 354  368.2151
 355  537.4399
 356  450.4261
 357  326.1254
 358  416.4475
 359  443.67
 360  424.2509
 361  531.7045
 362  344.5193
 363  358.5982
 364  391.3902
 365  445.5924
 366  460.449
 367  416.1542
 368  453.9053
 369  429.5831
 370  323.0695
 371  398.5028
 372  497.422
 373  489.3663
 374  444.5945
 375  406.2937
 376  462.3693
 377  368.9923
 378  354.3794
 379  504.88
 380  563.2195
 381  495.479
 382  527.6374
 383  525.7229
 384  379.8167
 385  466.152
 386  421.7051
 387  435.3036
 388  481.4979
 389  441.9355
 390  369.6849
 391  373.0453
 392  485.7046
 393  481.8152
 394  376.7632
 395  415.0941
 396  473.549
 397  318.7169
 398  359.8887
 399  339.5168
 400  358.9216
 401  475.253
 402  484.2703
 403  517.0398
 404  421.1646
 405  394.6054
 406  423.6749
 407  411.8009
 408  401.5364
 409  368.8528
 410  513.1766
 411  527.1389
 412  365.8604
 413  300.7404
 414  356.5449
 415  424.7456
 416  448.412
 417  459.3197
 418  506.0999
 419  513.4203
 420  449.558
 421  365.4948
 422  322.334
 423  479.7347
 424  500.4357
 425  393.5895
 426  416.5266
 427  442.2449
 428  349.2204
 429  399.8882
 430  516.4462
 431  453.0732
 432  349.1756
 433  500.7678
 434  460.6304
 435  444.4546
 436  420.1345
 437  363.2954
 438  421.3345
 439  491.9683
 440  548.934
 441  531.1519
 442  391.9531
 443  437.8918
 444  458.5694
 445  567.0753
 446  557.8276
 447  534.5857
 448  516.3954
 449  511.1042
 450  527.5832
 451  475.5795
 452  587.73
 453  518.2441
 454  489.8916
 455  538.5381
 456  520.905
 457  560.62
 458  528.2124
 459  479.9258
 460  371.7744
 461  536.4898
 462  620.4805
 463  609.5099
 464  655.4354
 465  580.1587
 466  541.128
 467  632.1691
 468  442.586
 469  487.12
 470  600.3372
 471  580.0449
 472  581.9909
 473  597.1319
 474  600.7031
 475  480.5846
 476  513.121
 477  540.6611
 478  519.0978
 479  485.8517
 480  539.6768
 481  583.4673
 482  510.4763
 483  499.8384
 484  544.2708
 485  471.2257
 486  478.7285
 487  568.2925
 488  617.2926
 489  561.533
 490  365.3702
 491  469.294
 492  661.7682
 493  578.539
 494  438.1494
 495  447.7235
 496  443.4782
 497  411.1908
 498  558.6071
 499  611.2989
 500  500.7417
 501  441.4005
 502  522.5858
 503  545.2231
 504  587.6216
 505  628.5193
 506  626.3007
 507  752.7737
 508  819.671
 509  912.6743
 510  1021.291
 511  1052.774
