# Input file       =  1185162103.119705_cleaned.dat
# Candidate        =  PSR_0332+5434
# Telescope        =  AR
# Epoch_topo       =  57961.154191200287
# Epoch_bary       =  N/A
# T_sample         =  0.002
# Data Folded      =  7340032
# Data Avg         =  0.162324476047486
# Data StdDev      =  3.65265044418336 
# Profile Bins     =  256
# Profile Avg      =  4643.90809230183 
# Profile StdDev   =  618.496300899762 
# Reduced chi-sqr  =  1.111
# Prob(Noise)      <  0.108   (~1.2 sigma)
# P_topo (ms)      =  714.47175952683   +/- 0.000581
# P'_topo (s/s)    =  -0                +/- 3.06e-10
# P''_topo (s/s^2) =  0                 +/- 1.35e-13
# P_bary (ms)      =  N/A
# P'_bary (s/s)    =  N/A
# P''_bary (s/s^2) =  N/A
# P_orb (s)        =  N/A
# asin(i)/c (s)    =  N/A
# eccentricity     =  N/A
# w (rad)          =  N/A
# T_peri           =  N/A
######################################################
   0  4307.869
   1  4458.089
   2  5043.429
   3  4750.411
   4  4614.343
   5  5095.467
   6  5149.525
   7  5628.555
   8  5397.492
   9  5746.787
  10  5125.18
  11  5937.121
  12  5530.48
  13  5114.293
  14  5524.959
  15  5257.349
  16  5013.58
  17  4996.4
  18  5112.342
  19  5316.102
  20  5558.231
  21  4833.789
  22  4338.394
  23  4485.28
  24  5033.047
  25  5062.922
  26  4517.861
  27  4660.997
  28  5010.047
  29  4803.893
  30  4760.636
  31  4835.145
  32  4848.375
  33  4934.438
  34  4655.768
  35  4207.565
  36  4871.044
  37  4844.574
  38  4846.719
  39  4647.676
  40  4611.057
  41  4704.578
  42  4666.646
  43  4724.72
  44  4917.5
  45  5200.259
  46  4732.743
  47  4344.782
  48  4330.152
  49  5259.904
  50  4278.673
  51  4191.396
  52  3697.688
  53  4715.601
  54  4342.061
  55  4245.983
  56  4766.069
  57  4551.699
  58  4246.533
  59  4041.282
  60  3889.055
  61  4141.577
  62  4071.636
  63  4215.777
  64  3688.307
  65  3918.659
  66  4307.229
  67  4848.799
  68  4215.31
  69  3911.347
  70  4235.246
  71  3708.623
  72  3939.127
  73  4822.133
  74  5167.377
  75  3730.27
  76  4553.625
  77  4603.771
  78  4160.88
  79  4165.255
  80  4522.101
  81  4214.414
  82  4429.416
  83  4152.383
  84  4356.213
  85  3859.494
  86  4538.483
  87  4654.324
  88  4553.121
  89  4436.858
  90  4684.938
  91  4689.65
  92  3746.128
  93  4045.854
  94  4860.34
  95  4304.782
  96  4727.887
  97  4375.35
  98  4694.369
  99  4855.031
 100  4501.725
 101  3980.385
 102  4216.668
 103  4511.25
 104  4018.104
 105  3534.558
 106  4377.149
 107  4237.978
 108  4034.705
 109  3975.826
 110  4302.914
 111  3679.742
 112  3805.933
 113  4528.743
 114  4149.978
 115  4145.485
 116  5018.91
 117  5245.216
 118  5062.853
 119  4811.931
 120  4788.921
 121  4106.64
 122  4225.986
 123  4509.66
 124  3903.206
 125  4465.656
 126  4343.437
 127  3586.587
 128  4276.27
 129  3950.681
 130  4009.692
 131  3926.067
 132  4228.55
 133  4900.872
 134  4668.74
 135  4776.485
 136  4389.331
 137  5304.18
 138  4245.575
 139  4265.506
 140  4209.369
 141  4204.983
 142  3893.231
 143  4130.825
 144  3973.042
 145  4210.035
 146  4121.413
 147  4493.781
 148  4734.808
 149  4696.11
 150  5238.849
 151  4950.978
 152  4124.379
 153  4702.597
 154  4847.876
 155  4501.143
 156  4525.361
 157  4867.636
 158  4647.939
 159  4387.59
 160  4719.46
 161  6390.503
 162  6917.262
 163  7466.696
 164  5484.161
 165  3979.863
 166  4009.631
 167  4054.587
 168  5097.205
 169  4127.312
 170  4376.837
 171  4833.424
 172  4020.439
 173  4200.1
 174  4455.556
 175  4211.585
 176  3831.576
 177  4137.669
 178  4149.862
 179  3914.755
 180  4038.439
 181  4153.111
 182  4626.276
 183  4287.517
 184  5162.206
 185  5455.76
 186  4756.401
 187  5328.148
 188  5437.667
 189  5063.639
 190  5055.215
 191  4409.886
 192  3886.011
 193  4750.987
 194  5171.455
 195  4612.271
 196  4814.442
 197  3924.211
 198  4615.653
 199  5143.84
 200  4356.183
 201  4827.393
 202  4956.636
 203  4581.093
 204  4945.594
 205  4946.626
 206  4371.676
 207  3998.764
 208  4714.22
 209  4626.352
 210  4523.234
 211  4492.023
 212  4488.956
 213  4958.861
 214  5383.062
 215  4760.759
 216  5073.449
 217  4694.949
 218  4835.211
 219  5095.854
 220  4756.18
 221  4447.593
 222  4776.782
 223  5209.159
 224  3883.898
 225  4515.196
 226  4547.811
 227  4960.213
 228  4686.713
 229  5409.813
 230  5427.455
 231  6197.147
 232  6414.984
 233  5966.759
 234  6253.929
 235  5744.658
 236  5000.284
 237  5088.426
 238  5026.43
 239  5181.979
 240  4582.455
 241  4614.469
 242  4832.628
 243  4562.667
 244  4635.606
 245  4908.636
 246  5170.85
 247  5143.615
 248  4862.159
 249  5445.434
 250  5340.788
 251  4539.626
 252  4162.561
 253  4698.904
 254  4860.021
 255  4367.456
