# Input file       =  1185664428.103452_cleaned.dat
# Candidate        =  PSR_0332+5434
# Telescope        =  AR
# Epoch_topo       =  57966.968137771437
# Epoch_bary       =  N/A
# T_sample         =  0.002
# Data Folded      =  7208960
# Data Avg         =  0.0151163567528315
# Data StdDev      =  1.00010248571782 
# Profile Bins     =  512
# Profile Avg      =  212.832446214456 
# Profile StdDev   =  118.671336664337 
# Reduced chi-sqr  =  1.469
# Prob(Noise)      <  2.17e-11   (~6.6 sigma)
# P_topo (ms)      =  714.46906937444   +/- 0.000189
# P'_topo (s/s)    =  -0                +/- 1.02e-10
# P''_topo (s/s^2) =  0                 +/- 4.57e-14
# P_bary (ms)      =  N/A
# P'_bary (s/s)    =  N/A
# P''_bary (s/s^2) =  N/A
# P_orb (s)        =  N/A
# asin(i)/c (s)    =  N/A
# eccentricity     =  N/A
# w (rad)          =  N/A
# T_peri           =  N/A
######################################################
   0  78.69727
   1  151.7983
   2  80.03609
   3  228.7859
   4  351.3693
   5  218.7748
   6  143.4877
   7  147.3354
   8  177.3368
   9  209.8804
  10  202.0471
  11  136.6102
  12  25.33136
  13  64.51979
  14  187.4883
  15  290.7958
  16  126.9488
  17  124.425
  18  107.52
  19  274.5411
  20  180.3094
  21  246.4627
  22  326.1788
  23  177.8268
  24  156.0932
  25  84.13889
  26  175.041
  27  77.40668
  28  53.24217
  29  119.6529
  30  156.0694
  31  39.99917
  32  -0.9510282
  33  86.10686
  34  151.8849
  35  177.6141
  36  127.7602
  37  267.4183
  38  373.5913
  39  267.1774
  40  96.36348
  41  209.5787
  42  149.5836
  43  136.9422
  44  230.4552
  45  217.4891
  46  297.6013
  47  193.0005
  48  105.2007
  49  309.4583
  50  303.075
  51  254.9066
  52  271.5226
  53  178.6247
  54  115.395
  55  212.8315
  56  198.2838
  57  233.7322
  58  210.0998
  59  314.7064
  60  280.2876
  61  301.2072
  62  262.8904
  63  246.2527
  64  182.8772
  65  176.2138
  66  196.0315
  67  186.2665
  68  296.1188
  69  225.9456
  70  203.5173
  71  187.1346
  72  67.86684
  73  58.57885
  74  145.1718
  75  148.2082
  76  188.6003
  77  127.6417
  78  147.6957
  79  201.7813
  80  184.892
  81  172.2657
  82  211.6104
  83  85.19209
  84  124.5901
  85  183.5518
  86  82.53468
  87  61.00399
  88  219.4509
  89  307.4264
  90  347.494
  91  352.5954
  92  300.8863
  93  211.1456
  94  143.9193
  95  151.5238
  96  18.14766
  97  111.1368
  98  180.1879
  99  160.8567
 100  205.1799
 101  172.308
 102  278.6576
 103  357.7187
 104  239.4408
 105  104.835
 106  58.27604
 107  136.1163
 108  195.2606
 109  121.4454
 110  143.8843
 111  174.5081
 112  164.5049
 113  100.5889
 114  125.4502
 115  12.14709
 116  167.7338
 117  140.2113
 118  168.7107
 119  242.4989
 120  198.6319
 121  195.638
 122  128.6595
 123  99.94367
 124  118.9942
 125  143.1549
 126  355.8826
 127  286.1759
 128  148.4615
 129  220.5632
 130  279.3915
 131  219.2527
 132  182.5285
 133  63.92884
 134  252.9376
 135  208.3124
 136  218.6707
 137  306.8031
 138  187.1281
 139  129.8407
 140  191.1603
 141  142.697
 142  107.5995
 143  366.1172
 144  297.5003
 145  347.9768
 146  360.499
 147  407.5929
 148  382.6207
 149  408.2773
 150  405.0701
 151  566.4451
 152  877.8559
 153  1002.806
 154  916.7103
 155  731.6987
 156  612.5708
 157  413.7574
 158  316.6062
 159  193.5144
 160  227.4977
 161  185.2065
 162  273.1495
 163  363.0029
 164  282.0058
 165  298.0076
 166  291.0869
 167  338.5597
 168  212.1026
 169  178.131
 170  223.2896
 171  252.7184
 172  188.0282
 173  249.2691
 174  287.6445
 175  314.3818
 176  190.3611
 177  49.2113
 178  293.0571
 179  151.333
 180  191.5874
 181  349.624
 182  247.3463
 183  221.8108
 184  196.7763
 185  235.0053
 186  241.3208
 187  273.1208
 188  325.3672
 189  348.5262
 190  168.705
 191  200.2571
 192  197.0918
 193  282.0696
 194  369.6515
 195  250.0059
 196  226.3479
 197  305.9295
 198  128.2823
 199  157.8283
 200  175.0865
 201  296.0577
 202  262.2502
 203  177.8347
 204  426.6491
 205  370.1608
 206  237.0866
 207  257.7263
 208  282.1431
 209  403.3665
 210  313.5894
 211  268.2462
 212  191.718
 213  49.23771
 214  139.9039
 215  162.8529
 216  188.9154
 217  231.9785
 218  353.3627
 219  254.1833
 220  179.3436
 221  144.1967
 222  220.4577
 223  217.6033
 224  252.1391
 225  341.1187
 226  201.3825
 227  170.7726
 228  232.5895
 229  170.7369
 230  187.3843
 231  284.4706
 232  253.3064
 233  290.1301
 234  213.0287
 235  205.3391
 236  137.1621
 237  132.5472
 238  197.2208
 239  243.2524
 240  340.7153
 241  324.4333
 242  233.9703
 243  184.6725
 244  143.5418
 245  236.9721
 246  273.2414
 247  218.0985
 248  189.1826
 249  177.0381
 250  263.6498
 251  365.8355
 252  185.7812
 253  196.7051
 254  258.8182
 255  261.55
 256  149.365
 257  196.5621
 258  411.2161
 259  286.7547
 260  268.229
 261  358.6816
 262  329.5728
 263  122.7353
 264  145.4687
 265  180.0759
 266  142.6617
 267  136.945
 268  273.7473
 269  282.3728
 270  276.0542
 271  163.1281
 272  177.0305
 273  248.6412
 274  292.0996
 275  299.3959
 276  152.544
 277  188.9144
 278  272.3838
 279  198.2694
 280  167.0728
 281  183.9582
 282  234.2268
 283  315.988
 284  341.6685
 285  195.8636
 286  290.1528
 287  237.2565
 288  156.0594
 289  141.0289
 290  187.7699
 291  96.14256
 292  114.5987
 293  268.128
 294  334.2571
 295  348.5941
 296  169.5313
 297  134.7018
 298  133.5993
 299  190.4761
 300  252.135
 301  116.037
 302  217.6654
 303  334.8187
 304  248.1261
 305  167.0017
 306  203.0503
 307  318.3539
 308  130.0209
 309  246.1538
 310  304.8225
 311  267.753
 312  266.895
 313  105.9967
 314  59.16506
 315  251.7002
 316  241.1523
 317  223.9048
 318  331.3182
 319  299.2612
 320  204.1132
 321  290.6725
 322  274.2431
 323  172.7481
 324  155.5347
 325  308.6732
 326  263.83
 327  161.2097
 328  273.6131
 329  289.4024
 330  80.50842
 331  84.5949
 332  217.1026
 333  353.869
 334  360.6266
 335  174.4619
 336  221.218
 337  183.4711
 338  171.0949
 339  249.4357
 340  102.5305
 341  102.2247
 342  276.756
 343  166.2032
 344  87.31699
 345  54.41331
 346  101.0752
 347  183.724
 348  99.29453
 349  50.30651
 350  205.1765
 351  210.932
 352  281.2787
 353  296.5097
 354  69.79719
 355  134.9313
 356  17.0159
 357  175.5853
 358  168.7789
 359  158.8878
 360  294.7178
 361  202.1072
 362  105.331
 363  150.4585
 364  215.9192
 365  244.3822
 366  267.8246
 367  184.1982
 368  175.3301
 369  191.4441
 370  244.1237
 371  239.6543
 372  164.6291
 373  201.3103
 374  284.8344
 375  147.7917
 376  162.9868
 377  295.5965
 378  267.2907
 379  97.74721
 380  66.27216
 381  35.73332
 382  182.1731
 383  114.6175
 384  106.957
 385  298.7613
 386  286.687
 387  169.8214
 388  172.4794
 389  184.9158
 390  277.7697
 391  216.4226
 392  326.6462
 393  305.9463
 394  271.4678
 395  309.0261
 396  202.2963
 397  123.966
 398  225.8115
 399  181.6931
 400  148.1792
 401  183.3539
 402  237.948
 403  250.7512
 404  215.2288
 405  207.6412
 406  163.9079
 407  114.2457
 408  119.9487
 409  157.8128
 410  144.5621
 411  214.9909
 412  125.7953
 413  168.5482
 414  140.4052
 415  321.8519
 416  197.0735
 417  203.5598
 418  250.1524
 419  84.39438
 420  113.581
 421  227.3006
 422  124.842
 423  172.0872
 424  125.5974
 425  185.0979
 426  181.1322
 427  288.609
 428  264.7056
 429  164.4363
 430  217.3784
 431  297.9336
 432  213.755
 433  224.6181
 434  306.7429
 435  257.451
 436  272.0362
 437  209.4239
 438  303.5951
 439  363.0569
 440  292.4413
 441  272.1674
 442  344.58
 443  349.6845
 444  203.5801
 445  204.6583
 446  257.0706
 447  184.416
 448  82.42233
 449  190.0238
 450  333.4082
 451  319.6649
 452  226.2863
 453  155.1472
 454  159.8229
 455  215.7426
 456  135.3655
 457  227.6995
 458  285.1223
 459  253.4801
 460  222.0493
 461  94.15022
 462  213.3898
 463  173.4265
 464  212.6954
 465  101.5375
 466  174.8755
 467  281.4517
 468  333.9915
 469  190.068
 470  78.65363
 471  183.6416
 472  345.2639
 473  203.2113
 474  140.7517
 475  115.7361
 476  70.44495
 477  179.8245
 478  237.6603
 479  187.39
 480  139.6002
 481  71.20601
 482  192.1601
 483  127.9867
 484  183.6168
 485  165.0909
 486  152.8702
 487  233.6376
 488  77.33328
 489  83.62066
 490  106.511
 491  243.3767
 492  64.3632
 493  65.98466
 494  52.97388
 495  110.617
 496  157.4223
 497  100.0665
 498  271.9753
 499  380.4039
 500  197.362
 501  211.7727
 502  283.3673
 503  213.5092
 504  171.5935
 505  125.4082
 506  62.62235
 507  145.7453
 508  207.7368
 509  121.6298
 510  69.98862
 511  83.18326
