# Input file       =  1185750573.115542_cleaned.dat
# Candidate        =  PSR_0332+5434
# Telescope        =  AR
# Epoch_topo       =  57967.965186522473
# Epoch_bary       =  N/A
# T_sample         =  0.002
# Data Folded      =  7208960
# Data Avg         =  0.0300907341025996
# Data StdDev      =  1.00044186680315 
# Profile Bins     =  512
# Profile Avg      =  423.69202410165  
# Profile StdDev   =  118.711607344203 
# Reduced chi-sqr  =  1.248
# Prob(Noise)      <  0.000106   (~3.7 sigma)
# P_topo (ms)      =  714.468660468008  +/- 0.000222
# P'_topo (s/s)    =  -0                +/- 1.19e-10
# P''_topo (s/s^2) =  0                 +/- 5.37e-14
# P_bary (ms)      =  N/A
# P'_bary (s/s)    =  N/A
# P''_bary (s/s^2) =  N/A
# P_orb (s)        =  N/A
# asin(i)/c (s)    =  N/A
# eccentricity     =  N/A
# w (rad)          =  N/A
# T_peri           =  N/A
######################################################
   0  430.0765
   1  456.985
   2  413.3904
   3  652.3956
   4  704.5376
   5  588.7888
   6  499.9522
   7  516.9667
   8  408.2787
   9  431.106
  10  528.0561
  11  509.3167
  12  473.7544
  13  449.9586
  14  362.3964
  15  363.1364
  16  328.4926
  17  227.5948
  18  348.3183
  19  410.7158
  20  485.7787
  21  486.3886
  22  461.54
  23  418.772
  24  418.2675
  25  496.4561
  26  398.6521
  27  445.6603
  28  310.9516
  29  399.8561
  30  431.1905
  31  389.5186
  32  404.2673
  33  445.6471
  34  337.1618
  35  390.4207
  36  360.3573
  37  337.0636
  38  332.3358
  39  463.4444
  40  480.2553
  41  267.3808
  42  359.9619
  43  466.9687
  44  465.5849
  45  520.2518
  46  377.4492
  47  342.3276
  48  380.8921
  49  338.8669
  50  338.7421
  51  431.2975
  52  341.5582
  53  284.3549
  54  390.0048
  55  340.485
  56  277.5673
  57  473.2948
  58  478.6401
  59  415.1911
  60  449.412
  61  501.7536
  62  583.1854
  63  499.97
  64  558.8174
  65  617.6543
  66  522.9579
  67  443.3539
  68  303.5258
  69  290.3814
  70  271.7065
  71  286.1903
  72  433.7685
  73  523.3399
  74  420.5708
  75  424.4847
  76  554.0674
  77  423.6922
  78  480.8072
  79  483.0175
  80  383.4065
  81  411.7189
  82  461.9389
  83  459.3961
  84  496.3026
  85  318.3547
  86  356.9245
  87  488.2596
  88  471.6768
  89  546.883
  90  554.7074
  91  527.9801
  92  426.7998
  93  439.8351
  94  352.2856
  95  304.491
  96  318.7776
  97  332.7961
  98  238.7334
  99  390.5453
 100  487.9095
 101  405.7533
 102  376.2033
 103  429.3084
 104  327.7286
 105  337.4078
 106  300.9485
 107  507.0788
 108  446.5733
 109  479.3362
 110  618.4892
 111  492.3366
 112  293.8283
 113  314.0664
 114  351.6587
 115  322.1353
 116  476.5932
 117  485.9171
 118  448.6143
 119  513.7723
 120  541.9639
 121  550.1573
 122  579.5438
 123  557.1425
 124  592.5154
 125  607.7946
 126  888.8603
 127  1015.839
 128  976.9548
 129  1035.835
 130  824.0626
 131  686.8071
 132  616.6207
 133  482.0947
 134  395.7417
 135  394.1476
 136  475.684
 137  387.23
 138  459.9341
 139  488.1447
 140  362.9818
 141  339.3837
 142  371.1352
 143  444.3829
 144  270.6377
 145  490.6031
 146  394.9958
 147  239.2561
 148  360.3346
 149  429.987
 150  418.0203
 151  439.7467
 152  542.7224
 153  545.3185
 154  472.012
 155  369.1233
 156  290.6081
 157  336.8122
 158  424.7696
 159  459.0241
 160  456.2838
 161  441.2637
 162  454.5099
 163  556.1727
 164  400.6122
 165  493.2849
 166  415.398
 167  355.0923
 168  410.5829
 169  502.1788
 170  448.1367
 171  401.2357
 172  430.7721
 173  390.4934
 174  373.3883
 175  339.7847
 176  325.7129
 177  331.3606
 178  405.9161
 179  481.7685
 180  435.3651
 181  352.5083
 182  336.4195
 183  444.0869
 184  326.9436
 185  250.1276
 186  289.3767
 187  503.1562
 188  476.3785
 189  506.5385
 190  477.4048
 191  443.7342
 192  381.0789
 193  417.2485
 194  422.2451
 195  356.7531
 196  465.0174
 197  429.4445
 198  258.4822
 199  294.9217
 200  291.6859
 201  453.8665
 202  569.4824
 203  588.3964
 204  357.2123
 205  455.8669
 206  441.4525
 207  347.8487
 208  291.2495
 209  442.1674
 210  463.1257
 211  365.5442
 212  478.5843
 213  322.1283
 214  254.0082
 215  298.3589
 216  408.3541
 217  486.3232
 218  510.8819
 219  457.831
 220  306.6624
 221  333.2209
 222  311.271
 223  327.2639
 224  357.8742
 225  402.1384
 226  350.4671
 227  260.573
 228  340.3846
 229  360.0043
 230  275.0786
 231  316.1664
 232  293.6216
 233  295.6425
 234  437.3691
 235  432.3868
 236  305.26
 237  266.9135
 238  385.5418
 239  497.0527
 240  547.5117
 241  628.7083
 242  375.3541
 243  357.1475
 244  472.6138
 245  475.716
 246  471.2081
 247  490.2004
 248  446.4875
 249  409.0455
 250  365.7229
 251  333.3894
 252  465.3697
 253  436.926
 254  499.7787
 255  431.5766
 256  424.4095
 257  452.684
 258  502.929
 259  564.2222
 260  448.5128
 261  489.0627
 262  489.9134
 263  381.6225
 264  391.8671
 265  432.2635
 266  419.9709
 267  394.9762
 268  493.1169
 269  517.7526
 270  448.5586
 271  546.9972
 272  467.0074
 273  416.896
 274  410.567
 275  361.4963
 276  471.9463
 277  417.9967
 278  386.1226
 279  393.7203
 280  330.205
 281  445.2961
 282  469.0334
 283  412.9134
 284  496.1682
 285  433.7914
 286  333.9349
 287  393.7934
 288  368.7447
 289  383.5765
 290  426.9843
 291  600.0158
 292  448.1896
 293  461.7379
 294  359.91
 295  412.5016
 296  435.6568
 297  358.5491
 298  476.7174
 299  480.486
 300  375.691
 301  324.5703
 302  449.0027
 303  561.0377
 304  382.1669
 305  317.6734
 306  391.3117
 307  322.2171
 308  396.2043
 309  477.0483
 310  505.433
 311  518.1872
 312  491.006
 313  505.2285
 314  389.3779
 315  363.8543
 316  398.119
 317  469.6472
 318  460.695
 319  404.4017
 320  337.8663
 321  379.3265
 322  416.7204
 323  359.9789
 324  469.2893
 325  556.1251
 326  525.0987
 327  519.2126
 328  453.4722
 329  505.5673
 330  525.4931
 331  557.5402
 332  521.6567
 333  483.2515
 334  451.1445
 335  337.505
 336  299.4232
 337  187.4047
 338  278.1118
 339  510.1808
 340  453.3904
 341  418.8259
 342  425.1386
 343  477.9167
 344  444.9066
 345  374.9217
 346  428.5322
 347  327.0437
 348  356.8978
 349  432.2501
 350  484.7498
 351  485.3443
 352  461.7053
 353  461.1967
 354  541.221
 355  394.5916
 356  326.6277
 357  455.6318
 358  484.248
 359  399.6415
 360  403.4277
 361  292.0727
 362  320.8315
 363  353.4358
 364  417.2493
 365  454.1585
 366  413.6945
 367  406.9752
 368  282.1248
 369  331.115
 370  573.4181
 371  504.3803
 372  402.5653
 373  517.586
 374  466.4303
 375  412.6443
 376  470.0941
 377  473.2513
 378  399.2526
 379  609.7037
 380  515.3524
 381  375.9297
 382  407.5547
 383  426.5177
 384  388.9142
 385  398.5959
 386  402.0372
 387  390.5797
 388  437.9801
 389  414.1875
 390  364.8871
 391  347.2238
 392  462.6491
 393  369.4285
 394  370.8044
 395  519.0217
 396  462.2365
 397  458.7858
 398  393.3528
 399  289.8789
 400  272.5862
 401  427.0638
 402  514.1282
 403  405.6874
 404  404.4525
 405  364.5687
 406  290.4582
 407  396.5097
 408  386.2082
 409  293.8394
 410  349.2813
 411  499.356
 412  492.1761
 413  383.4018
 414  304.3728
 415  186.6532
 416  352.777
 417  410.002
 418  542.2993
 419  552.2635
 420  466.5106
 421  427.4432
 422  391.5838
 423  405.4076
 424  309.0728
 425  453.3186
 426  400.0504
 427  370.6951
 428  276.7435
 429  273.5789
 430  326.8973
 431  405.232
 432  372.283
 433  465.5861
 434  509.8289
 435  344.3416
 436  334.5446
 437  418.8491
 438  393.6322
 439  293.9507
 440  344.281
 441  358.8566
 442  257.3612
 443  368.554
 444  473.4756
 445  356.1441
 446  302.4099
 447  444.0761
 448  423.6979
 449  400.745
 450  454.6829
 451  458.6451
 452  335.3947
 453  478.9899
 454  407.1307
 455  528.8679
 456  381.2063
 457  398.7261
 458  443.523
 459  423.3744
 460  485.1149
 461  477.455
 462  423.4062
 463  504.2356
 464  371.6198
 465  398.8738
 466  400.7005
 467  378.2474
 468  414.3054
 469  417.4804
 470  460.32
 471  483.1263
 472  436.7363
 473  436.0024
 474  489.9816
 475  479.1045
 476  429.8542
 477  464.078
 478  492.6074
 479  505.7825
 480  416.6288
 481  406.5453
 482  273.8837
 483  302.8307
 484  396.4376
 485  446.948
 486  495.1347
 487  447.9045
 488  393.9923
 489  367.2163
 490  356.5083
 491  344.9736
 492  437.325
 493  278.0891
 494  409.1118
 495  496.7414
 496  321.0207
 497  411.5239
 498  469.3702
 499  403.27
 500  448.6724
 501  415.0322
 502  305.9721
 503  349.321
 504  382.0063
 505  366.295
 506  497.1913
 507  325.9302
 508  393.7228
 509  425.9888
 510  469.6592
 511  407.8126
