# Input file       =  1186469541.113911_cleaned.dat
# Candidate        =  PSR_0332+5434
# Telescope        =  AR
# Epoch_topo       =  57976.286575392485
# Epoch_bary       =  N/A
# T_sample         =  0.002
# Data Folded      =  7340032
# Data Avg         =  0.00369245206235101
# Data StdDev      =  1.0000231747502  
# Profile Bins     =  512
# Profile Avg      =  52.8454833214718 
# Profile StdDev   =  119.735811159975 
# Reduced chi-sqr  =  1.224
# Prob(Noise)      <  0.00039   (~3.4 sigma)
# P_topo (ms)      =  714.466155413044  +/- 0.000159
# P'_topo (s/s)    =  -0                +/- 8.4e-11
# P''_topo (s/s^2) =  0                 +/- 3.71e-14
# P_bary (ms)      =  N/A
# P'_bary (s/s)    =  N/A
# P''_bary (s/s^2) =  N/A
# P_orb (s)        =  N/A
# asin(i)/c (s)    =  N/A
# eccentricity     =  N/A
# w (rad)          =  N/A
# T_peri           =  N/A
######################################################
   0  14.37381
   1  16.03971
   2  120.0099
   3  25.93796
   4  99.45314
   5  48.96209
   6  -123.5196
   7  51.79348
   8  192.8957
   9  132.2851
  10  85.45631
  11  70.58909
  12  123.8671
  13  36.75647
  14  -0.863441
  15  -76.10372
  16  -130.5208
  17  20.88251
  18  48.82881
  19  -51.25653
  20  -101.6565
  21  -99.00863
  22  29.54694
  23  57.92871
  24  54.03559
  25  56.63055
  26  2.614794
  27  27.15493
  28  83.10433
  29  108.9955
  30  42.73531
  31  -94.91772
  32  -44.91147
  33  -19.95574
  34  42.42199
  35  5.289587
  36  52.03603
  37  -26.46639
  38  25.60694
  39  7.720971
  40  99.03883
  41  199.3449
  42  66.48797
  43  1.545094
  44  248.5502
  45  299.1219
  46  316.903
  47  527.6793
  48  549.7542
  49  523.9282
  50  480.6707
  51  375.054
  52  256.2403
  53  81.1985
  54  109.8774
  55  114.737
  56  151.0774
  57  112.7926
  58  144.8592
  59  139.2912
  60  -19.92838
  61  149.2076
  62  154.4635
  63  92.9976
  64  129.7824
  65  -102.0377
  66  -155.2036
  67  24.18938
  68  -64.43284
  69  -5.433745
  70  45.6414
  71  -96.69427
  72  -49.75735
  73  122.341
  74  50.87328
  75  -57.65554
  76  -5.027349
  77  82.86954
  78  78.33836
  79  15.69633
  80  90.10285
  81  -135.5857
  82  -79.71728
  83  -129.9586
  84  -75.31257
  85  -173.4993
  86  -20.75466
  87  106.4372
  88  43.86609
  89  130.1105
  90  50.52136
  91  -23.94238
  92  -54.28172
  93  -130.2801
  94  105.7156
  95  14.98942
  96  -16.82322
  97  33.72139
  98  124.9684
  99  168.0531
 100  -13.79752
 101  23.35099
 102  8.006718
 103  -36.14568
 104  -41.33843
 105  -74.75391
 106  -31.71904
 107  98.67192
 108  238.4303
 109  191.8286
 110  122.5345
 111  7.197843
 112  104.1227
 113  60.20002
 114  24.31526
 115  193.9513
 116  110.4066
 117  85.20158
 118  -27.19535
 119  -40.84789
 120  -9.680649
 121  -39.45126
 122  1.712198
 123  235.1316
 124  173.2187
 125  183.3115
 126  43.13464
 127  72.52219
 128  123.9946
 129  50.32476
 130  63.40234
 131  11.14751
 132  -2.16218
 133  79.62649
 134  183.5312
 135  97.45663
 136  108.8648
 137  70.43618
 138  157.0581
 139  208.2718
 140  177.1388
 141  182.9715
 142  111.8819
 143  79.22675
 144  -40.16977
 145  88.84763
 146  54.65812
 147  -12.57139
 148  -62.87123
 149  -3.309892
 150  -16.5258
 151  -16.74659
 152  -82.28561
 153  -59.78788
 154  -67.37799
 155  -59.35377
 156  23.72344
 157  20.49254
 158  64.58968
 159  44.14336
 160  34.95908
 161  83.1059
 162  -13.74205
 163  30.10956
 164  111.0772
 165  63.14169
 166  71.79224
 167  75.03948
 168  146.9324
 169  128.1258
 170  54.77117
 171  -42.62952
 172  59.67776
 173  33.94586
 174  -15.31679
 175  -28.1318
 176  6.812748
 177  7.347144
 178  -110.0733
 179  -21.28903
 180  -6.630808
 181  118.6404
 182  143.0081
 183  157.4568
 184  175.2255
 185  98.91162
 186  19.37868
 187  94.02599
 188  64.44845
 189  42.15467
 190  14.73967
 191  107.863
 192  117.7641
 193  143.8552
 194  77.00794
 195  134.3707
 196  92.65991
 197  3.26737
 198  44.08597
 199  51.08693
 200  180.5691
 201  194.4435
 202  78.54921
 203  120.8417
 204  172.2158
 205  84.25584
 206  189.4716
 207  66.66922
 208  58.46578
 209  -33.97381
 210  18.4955
 211  90.65572
 212  184.5696
 213  145.7728
 214  -15.31002
 215  -51.97792
 216  99.83355
 217  68.95534
 218  4.623421
 219  98.10405
 220  52.42818
 221  -15.97834
 222  4.54253
 223  174.7968
 224  117.4944
 225  49.42127
 226  90.40569
 227  37.08244
 228  73.01492
 229  147.4897
 230  5.138897
 231  -9.728412
 232  -38.9135
 233  20.59971
 234  57.09505
 235  97.64674
 236  22.18745
 237  1.289936
 238  -100.1005
 239  -42.32789
 240  141.5914
 241  65.76472
 242  -75.69605
 243  24.32586
 244  94.05789
 245  62.41768
 246  -109.6492
 247  66.84879
 248  156.5112
 249  174.2262
 250  160.7931
 251  96.88407
 252  59.00439
 253  82.25068
 254  59.57944
 255  -16.9461
 256  72.90477
 257  27.43707
 258  127.7009
 259  128.2755
 260  213.5207
 261  287.0001
 262  183.0835
 263  131.5212
 264  50.09129
 265  43.4351
 266  -95.30342
 267  -27.7767
 268  -12.32396
 269  221.154
 270  265.1785
 271  177.2377
 272  97.18044
 273  -11.13964
 274  73.35762
 275  67.72802
 276  190.4404
 277  147.8799
 278  99.89852
 279  101.8349
 280  167.159
 281  145.2355
 282  4.771394
 283  99.45634
 284  144.1072
 285  22.79228
 286  75.06374
 287  49.92397
 288  3.129996
 289  54.14157
 290  57.97634
 291  176.9115
 292  50.74969
 293  -13.96247
 294  -14.31021
 295  68.1905
 296  117.1867
 297  65.32195
 298  -5.013727
 299  -23.85269
 300  -32.01826
 301  105.0948
 302  66.25608
 303  16.80976
 304  -14.23406
 305  181.1917
 306  96.74396
 307  105.2428
 308  25.03007
 309  -5.417459
 310  -109.4785
 311  -18.83644
 312  75.59083
 313  47.29997
 314  149.6995
 315  82.00763
 316  -19.74603
 317  143.143
 318  134.501
 319  -9.608716
 320  34.17326
 321  25.70987
 322  18.00407
 323  129.5135
 324  221.7162
 325  186.6456
 326  48.88515
 327  161.9461
 328  70.85593
 329  -0.52323
 330  180.671
 331  205.8358
 332  -0.1038076
 333  20.56479
 334  232.8427
 335  175.715
 336  65.51915
 337  15.92945
 338  140.5927
 339  97.46679
 340  -107.1511
 341  2.019818
 342  159.802
 343  183.7281
 344  114.8582
 345  165.7869
 346  248.5833
 347  135.1151
 348  203.8508
 349  108.1042
 350  -8.801242
 351  87.01794
 352  31.25132
 353  -2.99253
 354  33.67046
 355  101.4427
 356  155.1167
 357  12.25292
 358  -25.60321
 359  72.8129
 360  36.58818
 361  -9.765329
 362  59.23359
 363  46.42516
 364  14.47777
 365  -22.87459
 366  -105.4465
 367  0.9682091
 368  82.84064
 369  97.87132
 370  83.62961
 371  135.7543
 372  27.74583
 373  -20.19436
 374  -7.818906
 375  5.474051
 376  38.46505
 377  -28.41773
 378  42.99127
 379  76.54239
 380  -4.46542
 381  -9.990672
 382  33.27181
 383  53.35057
 384  131.5004
 385  164.8559
 386  25.16859
 387  -66.15403
 388  -31.00934
 389  37.61917
 390  11.15687
 391  11.78569
 392  38.01968
 393  -53.72692
 394  107.2853
 395  230.2195
 396  149.0271
 397  42.79852
 398  115.9767
 399  137.9699
 400  80.50613
 401  103.4612
 402  -31.23653
 403  -35.85805
 404  24.99932
 405  75.5237
 406  61.48289
 407  8.730021
 408  -66.62705
 409  -36.26875
 410  154.1886
 411  34.83177
 412  -5.796228
 413  70.95792
 414  80.08232
 415  49.93592
 416  130.2512
 417  131.8592
 418  27.03452
 419  151.3631
 420  -34.66544
 421  -155.794
 422  -138.7387
 423  -26.94759
 424  34.4671
 425  43.44806
 426  -111.5904
 427  -124.1828
 428  -85.70895
 429  4.161005
 430  112.0243
 431  -6.518651
 432  7.443535
 433  5.833992
 434  2.046363
 435  -58.64146
 436  -29.0425
 437  55.33424
 438  -1.31912
 439  -55.01421
 440  -84.61376
 441  -9.512852
 442  -123.342
 443  -84.77174
 444  -54.73255
 445  -48.58624
 446  15.37004
 447  19.32135
 448  -45.15858
 449  -135.8506
 450  -108.0351
 451  10.83012
 452  0.6339595
 453  -37.77594
 454  -81.53185
 455  -96.82864
 456  23.10423
 457  -46.96897
 458  30.97511
 459  57.7226
 460  18.11498
 461  -25.96993
 462  -79.4443
 463  28.09719
 464  18.32842
 465  103.1191
 466  92.5338
 467  36.18446
 468  93.67834
 469  47.2924
 470  -56.00731
 471  -14.71809
 472  5.955462
 473  -6.693202
 474  9.940856
 475  30.08619
 476  99.01237
 477  -8.807986
 478  99.99112
 479  103.5711
 480  118.0042
 481  59.95898
 482  68.76793
 483  -37.23598
 484  59.67579
 485  49.56467
 486  42.96908
 487  -26.82528
 488  -64.88789
 489  -93.61158
 490  36.48641
 491  1.674162
 492  -93.22649
 493  -5.207027
 494  13.74352
 495  45.92997
 496  114.9781
 497  84.62845
 498  82.84032
 499  -27.78891
 500  -4.691052
 501  92.43893
 502  165.4817
 503  214.3073
 504  235.1479
 505  222.5061
 506  103.8007
 507  -128.9469
 508  -222.8272
 509  19.94514
 510  119.5954
 511  80.43531
