# Input file       =  1186297159.116241_cleaned.dat
# Candidate        =  PSR_0332+5434
# Telescope        =  AR
# Epoch_topo       =  57974.291413382416
# Epoch_bary       =  N/A
# T_sample         =  0.002
# Data Folded      =  7340032
# Data Avg         =  0.0111660025240528
# Data StdDev      =  0.999931930335423
# Profile Bins     =  512
# Profile Avg      =  160.094919273616 
# Profile StdDev   =  119.724886189141 
# Reduced chi-sqr  =  1.218
# Prob(Noise)      <  0.000511   (~3.3 sigma)
# P_topo (ms)      =  714.46674756521   +/- 0.000159
# P'_topo (s/s)    =  -0                +/- 8.41e-11
# P''_topo (s/s^2) =  0                 +/- 3.71e-14
# P_bary (ms)      =  N/A
# P'_bary (s/s)    =  N/A
# P''_bary (s/s^2) =  N/A
# P_orb (s)        =  N/A
# asin(i)/c (s)    =  N/A
# eccentricity     =  N/A
# w (rad)          =  N/A
# T_peri           =  N/A
######################################################
   0  292.0971
   1  235.4591
   2  199.8022
   3  92.20209
   4  93.17368
   5  72.44162
   6  158.5979
   7  170.2701
   8  119.2494
   9  -3.678225
  10  58.55368
  11  43.49788
  12  89.15966
  13  147.3403
  14  123.5729
  15  153.9292
  16  135.1872
  17  180.8931
  18  213.8468
  19  211.7431
  20  146.5445
  21  179.9462
  22  244.9118
  23  243.3602
  24  245.5467
  25  128.6591
  26  101.4637
  27  15.50488
  28  186.4753
  29  114.0605
  30  49.39245
  31  29.80898
  32  87.00511
  33  103.6328
  34  57.02804
  35  41.81903
  36  80.28104
  37  104.2912
  38  131.5993
  39  27.42644
  40  93.0297
  41  58.23347
  42  53.98249
  43  26.94377
  44  43.95256
  45  68.87965
  46  104.812
  47  70.25805
  48  240.7602
  49  155.3328
  50  57.26373
  51  48.68169
  52  91.87471
  53  211.5313
  54  157.5297
  55  -21.21408
  56  75.96199
  57  90.94675
  58  11.28957
  59  89.49641
  60  160.5093
  61  83.98788
  62  8.169963
  63  131.6775
  64  179.0331
  65  175.1435
  66  197.3641
  67  155.5869
  68  141.2137
  69  67.77332
  70  185.2116
  71  292.1255
  72  288.5072
  73  241.4909
  74  213.342
  75  124.4309
  76  198.4576
  77  195.4926
  78  137.6398
  79  105.714
  80  4.836836
  81  78.5732
  82  109.6583
  83  24.27385
  84  -43.88038
  85  91.00932
  86  210.9426
  87  303.2405
  88  202.4846
  89  150.7684
  90  51.24395
  91  -148.1319
  92  1.110692
  93  53.61257
  94  18.46449
  95  119.0354
  96  145.3593
  97  120.3676
  98  45.07976
  99  112.1211
 100  156.2448
 101  59.654
 102  196.869
 103  283.5742
 104  240.3901
 105  187.7194
 106  150.8226
 107  172.697
 108  296.8134
 109  352.8558
 110  202.4918
 111  224.7576
 112  166.0962
 113  107.1063
 114  168.3071
 115  124.4299
 116  125.3681
 117  112.5374
 118  142.2862
 119  156.7601
 120  201.2823
 121  230.6284
 122  212.6786
 123  5.199496
 124  72.17197
 125  139.884
 126  86.20042
 127  59.74715
 128  150.9606
 129  209.7013
 130  161.7981
 131  213.5958
 132  291.0301
 133  228.6816
 134  335.1766
 135  210.3531
 136  191.6057
 137  174.1567
 138  266.8746
 139  341.3112
 140  182.7452
 141  193.2539
 142  166.8002
 143  209.0501
 144  194.9978
 145  12.07205
 146  205.0278
 147  254.6838
 148  87.436
 149  303.7375
 150  262.7245
 151  155.9276
 152  145.0254
 153  123.9049
 154  188.5106
 155  111.6394
 156  167.1721
 157  158.4762
 158  205.3198
 159  299.1857
 160  181.6484
 161  197.6915
 162  123.5702
 163  141.7895
 164  156.0114
 165  233.6009
 166  158.9758
 167  112.2934
 168  170.7775
 169  148.9315
 170  50.02291
 171  144.7926
 172  190.6893
 173  178.0672
 174  220.0253
 175  308.2704
 176  228.9967
 177  206.7489
 178  392.3354
 179  343.5333
 180  292.8387
 181  176.9334
 182  326.9725
 183  183.9349
 184  26.79461
 185  158.8037
 186  248.6268
 187  328.4177
 188  280.2734
 189  255.7478
 190  184.7
 191  109.1131
 192  101.7169
 193  124.379
 194  252.5952
 195  185.6994
 196  72.15067
 197  55.50219
 198  141.9186
 199  331.8565
 200  153.2914
 201  97.80751
 202  61.00553
 203  241.2196
 204  319.6108
 205  211.918
 206  180.8252
 207  73.56735
 208  44.57386
 209  99.1373
 210  210.0799
 211  270.0674
 212  199.5603
 213  104.1558
 214  72.39771
 215  70.92024
 216  117.6969
 217  195.733
 218  272.4629
 219  340.226
 220  199.8352
 221  38.13264
 222  82.07632
 223  214.2759
 224  141.468
 225  175.8238
 226  135.0095
 227  113.3421
 228  170.7561
 229  279.3707
 230  278.3757
 231  374.1382
 232  212.1559
 233  199.878
 234  270.0979
 235  315.66
 236  219.3153
 237  186.0479
 238  216.3221
 239  143.1395
 240  266.5993
 241  319.9264
 242  311.061
 243  180.2631
 244  99.60801
 245  171.3184
 246  261.1635
 247  157.7225
 248  180.7245
 249  143.0513
 250  156.7541
 251  223.4798
 252  310.7067
 253  251.0345
 254  240.5357
 255  162.5585
 256  138.6685
 257  176.0955
 258  105.1044
 259  93.99968
 260  299.4107
 261  180.9302
 262  159.2431
 263  213.2203
 264  184.7816
 265  147.0776
 266  103.9815
 267  144.8958
 268  185.5563
 269  266.6767
 270  194.938
 271  200.8197
 272  186.0544
 273  164.0393
 274  291.5243
 275  135.5468
 276  142.3627
 277  152.0391
 278  154.4011
 279  71.2618
 280  140.9891
 281  157.9028
 282  169.2062
 283  117.1713
 284  155.2189
 285  138.8178
 286  136.5736
 287  246.9824
 288  251.0987
 289  201.368
 290  255.302
 291  159.4826
 292  113.0165
 293  167.4655
 294  162.9526
 295  210.0823
 296  180.9738
 297  208.9982
 298  268.1933
 299  346.6063
 300  103.94
 301  58.28074
 302  90.91411
 303  131.2325
 304  110.5874
 305  174.197
 306  294.4093
 307  317.237
 308  258.3068
 309  167.6829
 310  -30.84256
 311  109.9014
 312  244.2838
 313  162.8839
 314  -28.23651
 315  101.2451
 316  123.6126
 317  253.3505
 318  317.1194
 319  178.0273
 320  175.8245
 321  234.3031
 322  164.3729
 323  45.15206
 324  109.9729
 325  286.9296
 326  277.8886
 327  71.91428
 328  72.50597
 329  107.4658
 330  10.33466
 331  64.30256
 332  160.3621
 333  256.3199
 334  286.9442
 335  90.8595
 336  159.5778
 337  56.29597
 338  80.35178
 339  130.7437
 340  166.8849
 341  273.1622
 342  283.1168
 343  157.5682
 344  15.26601
 345  -52.31926
 346  93.35804
 347  85.42993
 348  93.20374
 349  133.7314
 350  73.66796
 351  12.85072
 352  90.63663
 353  99.42046
 354  58.24315
 355  23.38006
 356  16.18285
 357  9.581982
 358  79.90148
 359  84.31414
 360  149.3826
 361  205.8732
 362  189.1258
 363  327.4922
 364  289.1338
 365  193.6723
 366  181.4644
 367  133.1657
 368  282.1979
 369  182.2106
 370  157.2439
 371  194.199
 372  155.1389
 373  83.45868
 374  68.33956
 375  121.175
 376  65.84545
 377  128.0948
 378  77.11179
 379  179.3746
 380  111.2701
 381  49.98277
 382  20.81746
 383  57.69048
 384  58.27534
 385  18.37741
 386  281.8828
 387  213.8288
 388  159.3503
 389  169.222
 390  81.18384
 391  83.30624
 392  38.54594
 393  -107.3687
 394  -15.75884
 395  -37.70554
 396  34.63533
 397  268.5028
 398  243.3241
 399  197.0168
 400  69.02615
 401  58.33704
 402  56.76223
 403  -12.83352
 404  3.392952
 405  55.24017
 406  96.02325
 407  48.71396
 408  121.1148
 409  142.7402
 410  119.6332
 411  129.788
 412  144.5005
 413  268.7079
 414  185.3759
 415  187.4983
 416  211.7987
 417  234.8933
 418  237.6087
 419  255.6445
 420  276.4056
 421  96.51566
 422  35.41196
 423  150.9053
 424  38.21434
 425  43.70677
 426  143.7588
 427  129.4069
 428  126.1893
 429  100.4766
 430  115.241
 431  120.7291
 432  148.6155
 433  250.5388
 434  431.8329
 435  546.0905
 436  547.0677
 437  593.0217
 438  684.1332
 439  611.1702
 440  270.3679
 441  90.72282
 442  127.37
 443  185.7753
 444  158.5253
 445  97.03358
 446  141.6523
 447  304.9721
 448  228.883
 449  135.1104
 450  197.5255
 451  319.0219
 452  112.6334
 453  129.8095
 454  356.6489
 455  331.3045
 456  157.3546
 457  212.3877
 458  211.4251
 459  165.5032
 460  259.2831
 461  234.1635
 462  242.6475
 463  219.1489
 464  231.3673
 465  275.3027
 466  91.80289
 467  91.00126
 468  112.2388
 469  81.10285
 470  101.9606
 471  160.3458
 472  291.4346
 473  214.3081
 474  85.33357
 475  89.38696
 476  163.8828
 477  182.95
 478  238.8171
 479  237.4351
 480  93.04292
 481  157.0852
 482  130.1674
 483  131.2256
 484  190.371
 485  99.59969
 486  130.1469
 487  113.9295
 488  119.877
 489  98.50275
 490  135.5551
 491  198.186
 492  239.7577
 493  57.82257
 494  34.78001
 495  152.5327
 496  166.4025
 497  165.4172
 498  187.0583
 499  112.5454
 500  200.1685
 501  285.4612
 502  117.3973
 503  101.4227
 504  31.87912
 505  127.436
 506  157.4319
 507  166.2823
 508  163.3614
 509  92.72874
 510  46.40316
 511  201.1096
