# Input file       =  1186555642.111134_cleaned.dat
# Candidate        =  PSR_0332+5434
# Telescope        =  AR
# Epoch_topo       =  57977.283114712198
# Epoch_bary       =  N/A
# T_sample         =  0.002
# Data Folded      =  7340032
# Data Avg         =  0.0204139170642261
# Data StdDev      =  2.72824960750184 
# Profile Bins     =  512
# Profile Avg      =  292.656867389974 
# Profile StdDev   =  326.661609499915 
# Reduced chi-sqr  =  1.303
# Prob(Noise)      <  4.32e-06   (~4.4 sigma)
# P_topo (ms)      =  714.465878826899  +/- 0.000249
# P'_topo (s/s)    =  -0                +/- 1.31e-10
# P''_topo (s/s^2) =  0                 +/- 5.79e-14
# P_bary (ms)      =  N/A
# P'_bary (s/s)    =  N/A
# P''_bary (s/s^2) =  N/A
# P_orb (s)        =  N/A
# asin(i)/c (s)    =  N/A
# eccentricity     =  N/A
# w (rad)          =  N/A
# T_peri           =  N/A
######################################################
   0  244.3138
   1  145.0676
   2  -40.94319
   3  -91.31573
   4  -171.7843
   5  -9.428031
   6  338.1129
   7  98.04428
   8  -22.45417
   9  -82.74442
  10  -192.3589
  11  -52.36141
  12  227.9632
  13  144.3899
  14  -106.9067
  15  569.0721
  16  627.2712
  17  298.4226
  18  236.606
  19  309.006
  20  492.7859
  21  394.4311
  22  262.0248
  23  -16.63428
  24  -54.39404
  25  78.02779
  26  498.679
  27  295.7828
  28  251.2889
  29  285.6302
  30  206.2467
  31  342.1315
  32  406.8462
  33  444.4412
  34  231.423
  35  43.00745
  36  196.9864
  37  225.9644
  38  467.0891
  39  494.1033
  40  691.894
  41  351.4555
  42  403.0436
  43  586.0772
  44  618.8129
  45  368.7874
  46  339.2041
  47  545.799
  48  272.6072
  49  472.3389
  50  303.7428
  51  425.0134
  52  296.4082
  53  661.918
  54  750.819
  55  922.0576
  56  1241.65
  57  1882.273
  58  1999.202
  59  1770.85
  60  1390.515
  61  892.3163
  62  538.7608
  63  709.2368
  64  533.1703
  65  365.4795
  66  375.4337
  67  442.4404
  68  401.5093
  69  560.6118
  70  697.9685
  71  666.4314
  72  835.8561
  73  688.1478
  74  817.3763
  75  530.8371
  76  494.7381
  77  434.9253
  78  199.8141
  79  372.0653
  80  470.1343
  81  429.2868
  82  417.5885
  83  487.698
  84  555.4921
  85  46.03646
  86  -427.1971
  87  193.8617
  88  558.1318
  89  286.9847
  90  -49.64807
  91  72.98932
  92  547.5726
  93  818.4025
  94  613.962
  95  448.7587
  96  23.90296
  97  -227.9473
  98  -2.959679
  99  32.85647
 100  -26.14992
 101  -21.80537
 102  67.47875
 103  393.4835
 104  574.3188
 105  449.8253
 106  528.374
 107  412.1909
 108  448.3641
 109  449.1086
 110  498.3286
 111  424.6721
 112  578.0581
 113  363.941
 114  850.5221
 115  723.1566
 116  390.8672
 117  243.7419
 118  236.7702
 119  199.3174
 120  7.636556
 121  86.09118
 122  161.9076
 123  122.8259
 124  203.9903
 125  13.83588
 126  419.1934
 127  501.85
 128  34.10512
 129  415.4875
 130  630.7996
 131  587.2888
 132  457.4839
 133  482.6611
 134  550.0578
 135  398.4067
 136  251.434
 137  206.5537
 138  -137.2022
 139  285.059
 140  438.7744
 141  529.751
 142  466.5834
 143  382.7067
 144  880.009
 145  644.0572
 146  215.5271
 147  473.5258
 148  569.6164
 149  457.4027
 150  527.9894
 151  658.0362
 152  355.0273
 153  142.5119
 154  199.1855
 155  553.1807
 156  617.3162
 157  240.047
 158  599.2448
 159  503.5015
 160  333.7944
 161  316.6842
 162  159.5811
 163  261.4182
 164  34.17783
 165  -102.6737
 166  142.8224
 167  79.46194
 168  93.97881
 169  136.0885
 170  -188.3784
 171  -89.23645
 172  79.15697
 173  50.22323
 174  279.2555
 175  190.8885
 176  99.51707
 177  131.1545
 178  3.208488
 179  69.5171
 180  254.0905
 181  222.0138
 182  43.48151
 183  -126.7148
 184  -50.21003
 185  159.0314
 186  439.4992
 187  258.9071
 188  193.1539
 189  99.04482
 190  603.9101
 191  663.985
 192  559.989
 193  409.6053
 194  122.7379
 195  388.7002
 196  459.6328
 197  210.0529
 198  80.46773
 199  191.9082
 200  379.9106
 201  578.4918
 202  361.7174
 203  205.8374
 204  211.9753
 205  392.1375
 206  358.9951
 207  139.0477
 208  281.6272
 209  325.843
 210  419.8848
 211  574.534
 212  283.1339
 213  141.0058
 214  115.722
 215  503.0213
 216  642.9421
 217  626.1671
 218  660.6896
 219  571.8358
 220  541.1083
 221  410.0465
 222  343.4492
 223  373.5681
 224  423.8244
 225  620.1139
 226  311.6205
 227  294.6537
 228  339.5403
 229  191.3523
 230  238.8585
 231  98.16508
 232  260.2332
 233  58.36569
 234  461.1391
 235  243.6735
 236  150.0247
 237  536.1958
 238  293.7325
 239  172.7676
 240  137.9496
 241  367.8255
 242  454.4479
 243  -3.815925
 244  259.0461
 245  489.932
 246  452.5093
 247  300.8635
 248  305.0908
 249  447.198
 250  296.2863
 251  -219.6836
 252  139.6014
 253  165.2498
 254  216.38
 255  358.6247
 256  394.7819
 257  349.9778
 258  341.7966
 259  396.5246
 260  452.2713
 261  718.715
 262  373.7069
 263  275.2833
 264  90.57596
 265  164.0921
 266  338.9198
 267  277.5959
 268  417.8745
 269  530.1229
 270  607.8766
 271  457.7785
 272  126.4386
 273  537.5254
 274  696.32
 275  548.2246
 276  383.3615
 277  32.20823
 278  219.3571
 279  476.8339
 280  541.5581
 281  485.8625
 282  369.5676
 283  428.9699
 284  535.4893
 285  692.8168
 286  516.6241
 287  -17.43173
 288  -27.26363
 289  74.0481
 290  293.217
 291  308.5882
 292  280.9244
 293  218.9004
 294  418.6611
 295  491.5796
 296  418.752
 297  338.6926
 298  267.7944
 299  159.4314
 300  478.2472
 301  433.7039
 302  224.6674
 303  607.0222
 304  653.1471
 305  392.2896
 306  220.6308
 307  -56.3154
 308  -86.78454
 309  151.5393
 310  380.1129
 311  142.6762
 312  11.09261
 313  170.9312
 314  52.03894
 315  248.6757
 316  460.6171
 317  198.9812
 318  232.5243
 319  430.4662
 320  143.2823
 321  241.6826
 322  215.9295
 323  317.3081
 324  420.7213
 325  -171.9514
 326  242.6225
 327  348.3678
 328  63.28209
 329  30.88249
 330  341.4585
 331  403.4475
 332  160.0297
 333  8.770219
 334  235.667
 335  152.0393
 336  80.10954
 337  -145.0188
 338  109.3994
 339  509.7138
 340  137.9809
 341  -189.3353
 342  -44.70363
 343  70.27665
 344  91.90294
 345  126.0638
 346  184.3101
 347  -19.21968
 348  67.87406
 349  6.608833
 350  270.0547
 351  230.8842
 352  221.0966
 353  271.5801
 354  -45.91549
 355  128.8135
 356  185.3006
 357  485.649
 358  480.1176
 359  85.70427
 360  -207.5901
 361  -86.40202
 362  417.7244
 363  335.8317
 364  -95.8947
 365  40.73534
 366  249.7718
 367  79.95188
 368  83.09274
 369  360.4535
 370  259.081
 371  535.8444
 372  490.346
 373  238.7907
 374  45.70941
 375  174.4622
 376  448.3441
 377  240.34
 378  -311.7741
 379  239.2707
 380  497.1554
 381  433.6036
 382  498.0284
 383  -238.2695
 384  -212.0129
 385  142.0428
 386  476.9553
 387  -28.43592
 388  -207.4227
 389  -139.2753
 390  -164.4052
 391  -103.4377
 392  218.8563
 393  280.1539
 394  0.1012988
 395  -60.20856
 396  68.22807
 397  64.73909
 398  160.6473
 399  169.0858
 400  266.978
 401  43.41483
 402  13.76808
 403  -172.5708
 404  56.6372
 405  331.7333
 406  419.6454
 407  324.4205
 408  338.8492
 409  137.4297
 410  148.4808
 411  273.6964
 412  624.4031
 413  137.1326
 414  421.4709
 415  464.7518
 416  583.423
 417  467.5021
 418  582.7003
 419  220.8148
 420  292.2337
 421  392.8745
 422  233.8958
 423  253.253
 424  297.0269
 425  347.6935
 426  621.5599
 427  734.026
 428  766.5767
 429  458.5167
 430  173.3832
 431  68.09802
 432  -59.64077
 433  167.5738
 434  264.9984
 435  190.8645
 436  156.1114
 437  410.049
 438  336.4421
 439  115.7653
 440  41.03851
 441  81.1206
 442  -310.8612
 443  59.70787
 444  126.8372
 445  326.2606
 446  -17.23066
 447  -101.7687
 448  167.6213
 449  44.65088
 450  202.4192
 451  2.711545
 452  413.7085
 453  125.3147
 454  -139.692
 455  253.4299
 456  29.88887
 457  73.24121
 458  273.3275
 459  50.15591
 460  -99.54514
 461  234.9905
 462  295.4792
 463  161.2691
 464  95.61849
 465  239.007
 466  354.1478
 467  75.573
 468  -78.76094
 469  -134.2505
 470  177.2992
 471  -1.309182
 472  -55.87024
 473  29.86687
 474  -32.08529
 475  -106.3545
 476  235.9877
 477  393.8729
 478  73.81328
 479  90.9037
 480  176.8909
 481  413.6724
 482  351.2339
 483  511.9737
 484  584.7419
 485  473.687
 486  774.7454
 487  356.0684
 488  170.3467
 489  291.0033
 490  248.2635
 491  324.0593
 492  396.3122
 493  409.1892
 494  605.3716
 495  792.0309
 496  548.2441
 497  268.6497
 498  18.95287
 499  159.5884
 500  334.8443
 501  61.87806
 502  314.3309
 503  253.271
 504  182.3712
 505  233.2086
 506  303.3599
 507  286.8181
 508  665.7531
 509  864.0449
 510  663.9857
 511  397.9544
