# Input file       =  1186038713.111496_cleaned.dat
# Candidate        =  PSR_0332+5434
# Telescope        =  AR
# Epoch_topo       =  57971.300140179352
# Epoch_bary       =  N/A
# T_sample         =  0.002
# Data Folded      =  7340032
# Data Avg         =  0.0143653273678085
# Data StdDev      =  2.56965470746754 
# Profile Bins     =  512
# Profile Avg      =  205.85643186216  
# Profile StdDev   =  307.672560564939 
# Reduced chi-sqr  =  1.168
# Prob(Noise)      <  0.00511   (~2.6 sigma)
# P_topo (ms)      =  714.467745859772  +/- 0.00016
# P'_topo (s/s)    =  -0                +/- 8.44e-11
# P''_topo (s/s^2) =  0                 +/- 3.72e-14
# P_bary (ms)      =  N/A
# P'_bary (s/s)    =  N/A
# P''_bary (s/s^2) =  N/A
# P_orb (s)        =  N/A
# asin(i)/c (s)    =  N/A
# eccentricity     =  N/A
# w (rad)          =  N/A
# T_peri           =  N/A
######################################################
   0  0.7786838
   1  115.5073
   2  307.564
   3  219.1693
   4  215.245
   5  -112.8075
   6  83.38985
   7  94.91597
   8  -130.7289
   9  27.70787
  10  -0.9584784
  11  230.7981
  12  637.8306
  13  307.6892
  14  412.6121
  15  206.214
  16  17.88006
  17  91.83311
  18  236.9714
  19  -19.77961
  20  64.52306
  21  254.4106
  22  293.0789
  23  -126.7495
  24  -169.4057
  25  1.358003
  26  308.3235
  27  318.8643
  28  273.1317
  29  49.21349
  30  -132.6822
  31  194.3398
  32  464.5441
  33  376.1839
  34  48.88933
  35  -3.94941
  36  -133.0302
  37  -230.8334
  38  23.38725
  39  229.7969
  40  169.5667
  41  80.96935
  42  448.1626
  43  260.0704
  44  162.3605
  45  243.7482
  46  55.79774
  47  133.2247
  48  365.4266
  49  339.6444
  50  29.66036
  51  110.6839
  52  126.8294
  53  248.5317
  54  541.1672
  55  433.7979
  56  482.7464
  57  267.3854
  58  61.01315
  59  89.20619
  60  285.0131
  61  88.83674
  62  77.60536
  63  80.78333
  64  159.1425
  65  263.4837
  66  315.9629
  67  108.0714
  68  122.7923
  69  326.3887
  70  224.8334
  71  4.291522
  72  -154.543
  73  3.98699
  74  110.3802
  75  93.95721
  76  135.4297
  77  -176.2551
  78  100.972
  79  75.58648
  80  243.5645
  81  376.41
  82  193.0002
  83  156.9034
  84  170.8408
  85  270.468
  86  315.4938
  87  208.7852
  88  290.11
  89  141.468
  90  174.9799
  91  -18.89413
  92  38.89977
  93  62.01298
  94  218.916
  95  125.3149
  96  206.316
  97  346.0415
  98  337.3579
  99  209.9663
 100  28.51792
 101  149.8897
 102  417.9143
 103  420.8251
 104  272.5992
 105  250.5726
 106  611.033
 107  507.9734
 108  41.7622
 109  122.2322
 110  269.8045
 111  112.6656
 112  188.1029
 113  322.7511
 114  402.0147
 115  309.2289
 116  252.2334
 117  -1.541667
 118  77.29572
 119  209.2582
 120  470.369
 121  435.0175
 122  128.9122
 123  357.8992
 124  272.3936
 125  313.0986
 126  462.3075
 127  444.6771
 128  264.957
 129  210.4544
 130  304.1766
 131  175.7021
 132  -11.23057
 133  -76.30206
 134  232.0863
 135  54.49204
 136  252.2507
 137  175.3071
 138  126.4651
 139  211.6452
 140  302.29
 141  315.1709
 142  91.68396
 143  233.4841
 144  448.9994
 145  317.2198
 146  116.5452
 147  -112.9326
 148  -0.1064074
 149  198.3154
 150  165.7175
 151  193.1559
 152  8.976059
 153  545.7006
 154  372.8583
 155  133.4077
 156  180.278
 157  112.653
 158  103.7464
 159  434.1044
 160  733.9296
 161  530.6061
 162  285.2706
 163  236.6562
 164  566.4251
 165  369.8393
 166  -119.4163
 167  -157.8408
 168  89.20316
 169  556.5753
 170  463.4569
 171  389.1872
 172  300.6487
 173  380.6427
 174  626.998
 175  416.7627
 176  335.6404
 177  655.8815
 178  399.9998
 179  289.1813
 180  216.7448
 181  461.4674
 182  389.257
 183  388.7001
 184  378.9659
 185  355.6901
 186  366.4066
 187  298.1294
 188  225.5715
 189  204.6207
 190  596.7261
 191  603.6839
 192  593.7114
 193  662.4735
 194  603.2276
 195  147.1124
 196  298.58
 197  0.04912438
 198  -3.561564
 199  367.5782
 200  299.9686
 201  196.8093
 202  195.7403
 203  387.4289
 204  -149.8191
 205  -137.6142
 206  454.2059
 207  339.6266
 208  404.6832
 209  242.0668
 210  95.89507
 211  129.9263
 212  250.96
 213  414.2255
 214  329.6436
 215  389.8912
 216  407.9966
 217  325.1638
 218  180.1234
 219  258.8708
 220  406.7667
 221  256.9067
 222  431.8197
 223  511.8301
 224  485.9505
 225  43.822
 226  -146.3835
 227  232.6568
 228  631.4565
 229  448.1115
 230  352.3797
 231  4.289198
 232  -48.71785
 233  373.6859
 234  218.307
 235  248.1353
 236  249.6384
 237  154.5699
 238  292.4831
 239  131.4315
 240  169.3377
 241  40.45693
 242  -18.46651
 243  131.7097
 244  325.7152
 245  597.2734
 246  507.6707
 247  183.0769
 248  110.935
 249  267.7892
 250  363.0648
 251  402.6147
 252  194.779
 253  48.86809
 254  233.3226
 255  338.0824
 256  296.1642
 257  288.946
 258  511.7198
 259  195.0193
 260  361.6178
 261  255.0682
 262  -104.272
 263  -161.8806
 264  -176.0428
 265  -179.857
 266  182.8591
 267  249.8292
 268  20.69231
 269  -159.5073
 270  243.9128
 271  -22.67169
 272  29.14871
 273  132.6914
 274  351.3267
 275  343.1402
 276  142.9656
 277  -29.62562
 278  -87.08532
 279  -15.44924
 280  262.2177
 281  87.39194
 282  -57.76779
 283  66.86454
 284  -154.3731
 285  -37.43781
 286  -34.72535
 287  -262.169
 288  14.54392
 289  119.9143
 290  376.0763
 291  357.1834
 292  424.124
 293  548.8243
 294  87.43177
 295  338.5396
 296  500.7079
 297  459.2011
 298  553.8734
 299  361.9946
 300  143.5587
 301  -93.35165
 302  253.6443
 303  622.742
 304  333.7891
 305  89.38399
 306  110.0225
 307  391.4956
 308  501.6541
 309  252.979
 310  274.7449
 311  367.7389
 312  10.68368
 313  204.1501
 314  82.73558
 315  -45.09617
 316  199.1092
 317  545.4332
 318  461.208
 319  -40.11445
 320  -128.7499
 321  865.5887
 322  1371.925
 323  1624.214
 324  1855.921
 325  1728.547
 326  1042.927
 327  620.4423
 328  701.9164
 329  273.1473
 330  94.60347
 331  204.2268
 332  434.0944
 333  510.5262
 334  338.7136
 335  -140.7334
 336  -35.29192
 337  397.0993
 338  365.3467
 339  338.1446
 340  421.6347
 341  376.4152
 342  288.755
 343  481.0865
 344  289.2153
 345  100.1406
 346  119.2374
 347  198.3125
 348  238.1899
 349  378.3513
 350  -70.00887
 351  137.6481
 352  196.4632
 353  286.7086
 354  -241.1233
 355  1.751014
 356  152.0549
 357  167.2383
 358  72.04899
 359  -40.23787
 360  24.92339
 361  72.79448
 362  -324.8666
 363  208.9206
 364  390.6227
 365  400.7672
 366  3.817739
 367  -207.6156
 368  124.4828
 369  168.0244
 370  425.6209
 371  257.3142
 372  12.607
 373  -231.3945
 374  -263.5216
 375  -200.7581
 376  61.21626
 377  28.3206
 378  -65.57664
 379  215.433
 380  223.1355
 381  -186.4575
 382  -217.2413
 383  -132.8983
 384  -23.1317
 385  -53.3599
 386  -330.353
 387  67.40594
 388  53.14705
 389  -189.0292
 390  -165.1249
 391  -283.7085
 392  -88.60014
 393  248.9659
 394  226.1997
 395  99.38974
 396  235.5941
 397  360.3448
 398  204.5225
 399  173.5194
 400  -49.51485
 401  175.3216
 402  24.3395
 403  4.711318
 404  231.7298
 405  589.3277
 406  255.132
 407  319.9689
 408  284.2072
 409  433.4095
 410  92.24351
 411  196.4049
 412  348.6635
 413  334.1599
 414  93.11436
 415  139.3679
 416  207.8842
 417  133.9168
 418  155.9126
 419  19.06284
 420  300.646
 421  310.9048
 422  180.2583
 423  86.50346
 424  -216.0799
 425  -46.46025
 426  -17.95699
 427  14.68419
 428  184.2824
 429  316.2713
 430  349.8342
 431  474.5938
 432  328.0345
 433  313.4788
 434  139.4338
 435  311.5844
 436  140.8322
 437  -258.4278
 438  -19.34136
 439  349.983
 440  308.3306
 441  198.5493
 442  205.9324
 443  228.1544
 444  392.78
 445  182.3203
 446  14.9725
 447  21.54687
 448  72.57734
 449  -34.01615
 450  272.2959
 451  418.1978
 452  -24.04607
 453  68.4549
 454  222.1145
 455  99.69519
 456  80.8632
 457  110.3799
 458  269.1384
 459  633.4024
 460  332.5429
 461  271.9065
 462  399.7592
 463  102.2677
 464  329.6027
 465  414.1411
 466  -175.8036
 467  46.03708
 468  266.373
 469  335.3922
 470  460.2124
 471  182.4827
 472  180.2598
 473  209.8258
 474  246.1862
 475  283.942
 476  142.4377
 477  -54.31785
 478  87.28051
 479  33.28827
 480  60.86089
 481  -47.8045
 482  -116.5589
 483  123.5212
 484  278.13
 485  324.9242
 486  260.6329
 487  118.2736
 488  355.6312
 489  116.8907
 490  80.63863
 491  -63.93909
 492  410.5451
 493  476.5357
 494  -39.22161
 495  -378.3041
 496  -202.694
 497  223.2417
 498  276.3694
 499  67.73094
 500  -78.55398
 501  16.77579
 502  -3.550275
 503  66.3703
 504  77.32217
 505  100.9077
 506  112.6101
 507  114.7777
 508  92.46119
 509  57.24108
 510  159.1943
 511  -34.84415
