# Input file       =  1186095281.118897_cleaned.dat
# Candidate        =  PSR_0332+5434
# Telescope        =  AR
# Epoch_topo       =  57971.954862487233
# Epoch_bary       =  N/A
# T_sample         =  0.002
# Data Folded      =  7208960
# Data Avg         =  0.0188757889417852
# Data StdDev      =  1.0000956671843  
# Profile Bins     =  512
# Profile Avg      =  265.752183789345 
# Profile StdDev   =  118.670527582771 
# Reduced chi-sqr  =  1.549
# Prob(Noise)      <  1.94e-14   (~7.6 sigma)
# P_topo (ms)      =  714.467167244483  +/- 0.000161
# P'_topo (s/s)    =  -0                +/- 8.66e-11
# P''_topo (s/s^2) =  0                 +/- 3.89e-14
# P_bary (ms)      =  N/A
# P'_bary (s/s)    =  N/A
# P''_bary (s/s^2) =  N/A
# P_orb (s)        =  N/A
# asin(i)/c (s)    =  N/A
# eccentricity     =  N/A
# w (rad)          =  N/A
# T_peri           =  N/A
######################################################
   0  205.7275
   1  242.9378
   2  310.2935
   3  206.513
   4  109.7962
   5  189.9469
   6  234.0313
   7  103.9358
   8  193.7023
   9  361.3305
  10  279.4003
  11  234.1759
  12  293.5969
  13  253.8409
  14  321.3554
  15  307.347
  16  278.2398
  17  137.8178
  18  190.8534
  19  123.5257
  20  178.5542
  21  193.1358
  22  227.2037
  23  319.5565
  24  360.2012
  25  218.8107
  26  196.7558
  27  219.7388
  28  129.8514
  29  138.0142
  30  236.7107
  31  232.9921
  32  120.057
  33  175.2829
  34  294.6301
  35  342.5749
  36  294.0041
  37  102.5221
  38  215.5499
  39  320.6083
  40  214.0158
  41  244.6069
  42  181.5231
  43  305.0422
  44  157.7368
  45  239.7358
  46  229.4994
  47  268.4213
  48  297.5589
  49  230.9545
  50  254.0927
  51  216.6532
  52  171.2209
  53  215.3506
  54  337.8188
  55  428.5182
  56  377.2536
  57  309.6028
  58  208.0692
  59  204.9792
  60  170.8779
  61  195.667
  62  137.8104
  63  144.3262
  64  325.494
  65  331.2452
  66  292.1574
  67  144.5736
  68  214.2189
  69  271.1907
  70  280.3608
  71  279.7619
  72  174.4555
  73  171.7559
  74  324.0012
  75  330.8372
  76  340.7394
  77  283.3582
  78  293.6884
  79  209.5929
  80  48.12851
  81  95.26137
  82  61.25279
  83  157.5434
  84  313.4118
  85  264.2921
  86  298.8409
  87  184.5097
  88  272.028
  89  206.0851
  90  215.8259
  91  193.7913
  92  237.6379
  93  156.2961
  94  173.989
  95  127.3399
  96  201.5059
  97  309.5982
  98  291.0992
  99  333.2906
 100  302.4484
 101  275.9428
 102  97.86198
 103  179.2567
 104  251.7519
 105  257.2632
 106  351.7072
 107  272.0276
 108  251.4697
 109  233.7491
 110  177.7582
 111  189.889
 112  321.1826
 113  192.0443
 114  219.2451
 115  223.635
 116  246.1505
 117  255.142
 118  300.021
 119  346.0341
 120  197.3071
 121  147.4919
 122  323.7971
 123  367.5
 124  363.0246
 125  131.4165
 126  91.64153
 127  211.3712
 128  287.7472
 129  171.7589
 130  196.5317
 131  116.0624
 132  151.3563
 133  270.0416
 134  222.5022
 135  293.8237
 136  269.6973
 137  355.6923
 138  257.7604
 139  255.9313
 140  276.7259
 141  417.3827
 142  466.9628
 143  403.1799
 144  309.8014
 145  252.7226
 146  440.5699
 147  439.756
 148  451.2383
 149  468.6497
 150  340.6304
 151  463.1779
 152  351.7607
 153  276.3231
 154  260.6144
 155  387.9836
 156  441.8262
 157  362.0717
 158  433.6938
 159  739.3751
 160  847.9111
 161  1032.308
 162  1047.146
 163  804.4501
 164  566.162
 165  414.7974
 166  345.2129
 167  214.0262
 168  185.7577
 169  226.3507
 170  206.2246
 171  273.0184
 172  212.0475
 173  194.0885
 174  274.0998
 175  272.3869
 176  166.971
 177  69.69761
 178  230.853
 179  284.3711
 180  245.2439
 181  241.8502
 182  289.6592
 183  356.0996
 184  265.5491
 185  117.5992
 186  148.5855
 187  156.7557
 188  -0.4026345
 189  197.1338
 190  251.5642
 191  353.615
 192  434.235
 193  366.4032
 194  348.636
 195  428.4561
 196  284.0112
 197  182.7762
 198  56.84518
 199  198.9146
 200  249.8409
 201  237.3341
 202  252.8514
 203  374.6522
 204  406.6068
 205  261.9143
 206  323.2849
 207  262.34
 208  349.6821
 209  345.1302
 210  391.7273
 211  327.7237
 212  226.4382
 213  221.2599
 214  301.2971
 215  210.5974
 216  245.1532
 217  344.0536
 218  384.3337
 219  253.8244
 220  272.7091
 221  228.9075
 222  326.2727
 223  222.6245
 224  271.1193
 225  251.1916
 226  200.8252
 227  197.4557
 228  307.3536
 229  386.5666
 230  390.2583
 231  428.2508
 232  398.3598
 233  310.0612
 234  313.3545
 235  470.089
 236  461.1906
 237  358.5277
 238  214.6018
 239  255.5664
 240  240.5698
 241  205.9076
 242  190.6836
 243  369.011
 244  213.4805
 245  196.8769
 246  357.2214
 247  315.6849
 248  209.8434
 249  255.8909
 250  273.3214
 251  264.8637
 252  211.7861
 253  260.8253
 254  176.3885
 255  364.6931
 256  277.7013
 257  234.4385
 258  171.1978
 259  232.8006
 260  259.1666
 261  291.7687
 262  238.0258
 263  245.5152
 264  292.3639
 265  224.5699
 266  203.2265
 267  281.4591
 268  385.9306
 269  257.2178
 270  323.7216
 271  466.6968
 272  314.4101
 273  111.9663
 274  299.0211
 275  264.2827
 276  6.331618
 277  120.4133
 278  255.3429
 279  173.2362
 280  276.3842
 281  272.059
 282  240.613
 283  135.983
 284  328.9293
 285  354.7755
 286  229.3972
 287  204.3181
 288  317.0105
 289  107.5948
 290  98.03263
 291  196.1694
 292  135.9516
 293  162.8654
 294  189.5274
 295  158.5294
 296  295.7403
 297  335.355
 298  233.1205
 299  171.232
 300  196.6542
 301  243.216
 302  301.3415
 303  163.4542
 304  314.454
 305  255.5702
 306  196.6047
 307  423.899
 308  366.9541
 309  314.5606
 310  248.6508
 311  203.0901
 312  321.1452
 313  163.4375
 314  138.6011
 315  97.12428
 316  66.01131
 317  161.4023
 318  225.0975
 319  372.486
 320  347.6519
 321  227.0002
 322  358.6941
 323  294.3339
 324  213.6812
 325  235.5327
 326  206.016
 327  267.1164
 328  255.1272
 329  344.7727
 330  233.0262
 331  218.2524
 332  335.4991
 333  264.4659
 334  282.3485
 335  293.5374
 336  342.5399
 337  434.5074
 338  264.7296
 339  103.5666
 340  245.5381
 341  312.4756
 342  318.9628
 343  349.0754
 344  427.4859
 345  274.2331
 346  183.744
 347  93.08611
 348  132.6975
 349  330.0452
 350  185.3314
 351  117.0361
 352  256.539
 353  383.6646
 354  277.6993
 355  141.6236
 356  182.6026
 357  226.4658
 358  151.9037
 359  147.2554
 360  297.0929
 361  361.0097
 362  314.268
 363  274.4304
 364  312.1789
 365  223.3828
 366  242.6438
 367  395.9328
 368  289.6037
 369  156.689
 370  282.725
 371  280.9693
 372  206.9741
 373  222.0873
 374  282.6995
 375  174.2435
 376  178.0627
 377  259.4207
 378  156.8501
 379  214.7879
 380  284.0133
 381  247.7921
 382  296.0253
 383  294.3002
 384  269.376
 385  309.8372
 386  374.8778
 387  323.0662
 388  318.0252
 389  362.7581
 390  295.4243
 391  257.6291
 392  306.9126
 393  321.7362
 394  373.9898
 395  284.8318
 396  217.3796
 397  83.25989
 398  77.40158
 399  206.377
 400  320.9974
 401  385.0683
 402  242.1511
 403  107.5492
 404  167.0734
 405  240.5097
 406  330.5501
 407  265.9867
 408  274.7421
 409  250.9398
 410  296.0954
 411  349.3262
 412  163.061
 413  165.8604
 414  398.5182
 415  356.947
 416  253.0587
 417  229.6831
 418  86.49263
 419  159.4833
 420  237.9051
 421  234.0462
 422  157.1797
 423  322.1223
 424  418.1115
 425  358.739
 426  219.4897
 427  160.7591
 428  264.4738
 429  239.7219
 430  245.6789
 431  168.5617
 432  175.2199
 433  297.9342
 434  387.6987
 435  427.5611
 436  284.5187
 437  252.3739
 438  297.8306
 439  116.8985
 440  114.1508
 441  225.1358
 442  185.2741
 443  312.2671
 444  439.0823
 445  460.644
 446  321.781
 447  314.1216
 448  346.0186
 449  376.3771
 450  313.3871
 451  318.5179
 452  192.6363
 453  237.8476
 454  310.043
 455  194.3791
 456  308.2511
 457  250.8295
 458  264.893
 459  421.2599
 460  383.4193
 461  389.7228
 462  233.0624
 463  201.2659
 464  260.2152
 465  402.9224
 466  363.4315
 467  235.0272
 468  165.3693
 469  301.3184
 470  283.5927
 471  264.071
 472  263.9767
 473  219.6218
 474  298.8246
 475  297.7984
 476  340.9659
 477  303.8883
 478  210.3185
 479  268.2829
 480  346.414
 481  199.1783
 482  154.0132
 483  226.68
 484  181.2705
 485  234.8873
 486  322.465
 487  355.6207
 488  191.3163
 489  248.8057
 490  254.7867
 491  239.4996
 492  409.6302
 493  347.8326
 494  332.039
 495  200.6886
 496  196.9437
 497  261.9847
 498  150.235
 499  194.8919
 500  253.3114
 501  210.9074
 502  199.9941
 503  285.1347
 504  265.7199
 505  403.9477
 506  154.4837
 507  175.3325
 508  409.7594
 509  297.2749
 510  212.7939
 511  212.3982
