# Input file       =  1186109924.114680-PSRB0329-2ms-sampling-dd.dat
# Candidate        =  PSR_0332+5434
# Telescope        =  AR
# Epoch_topo       =  57972.124341605093
# Epoch_bary       =  N/A
# T_sample         =  0.002
# Data Folded      =  7340032
# Data Avg         =  -8.77702980626749e-11
# Data StdDev      =  4.23303261114803 
# Profile Bins     =  512
# Profile Avg      =  0.654714956433497
# Profile StdDev   =  506.833847614625 
# Reduced chi-sqr  =  0.906
# Prob(Noise)      <  0.936   (~0.0 sigma)
# P_topo (ms)      =  714.467122568855  +/- 0.00573
# P'_topo (s/s)    =  -0                +/- 3.02e-09
# P''_topo (s/s^2) =  0                 +/- 1.33e-12
# P_bary (ms)      =  N/A
# P'_bary (s/s)    =  N/A
# P''_bary (s/s^2) =  N/A
# P_orb (s)        =  N/A
# asin(i)/c (s)    =  N/A
# eccentricity     =  N/A
# w (rad)          =  N/A
# T_peri           =  N/A
######################################################
   0  11.0818
   1  -140.5498
   2  -127.3292
   3  -368.2263
   4  -309.2167
   5  -0.9044422
   6  30.90952
   7  -331.798
   8  -364.1109
   9  -219.1804
  10  -138.7419
  11  -295.1398
  12  154.2443
  13  140.0813
  14  -168.4679
  15  -100.3382
  16  75.86835
  17  -40.6213
  18  294.7078
  19  -146.7272
  20  -520.0314
  21  -156.6362
  22  -245.109
  23  -66.62234
  24  -361.4319
  25  -242.1774
  26  -10.25333
  27  272.4037
  28  -36.25142
  29  -17.54107
  30  67.2866
  31  277.2627
  32  220.9485
  33  -308.9568
  34  -316.48
  35  -333.2403
  36  -221.917
  37  -123.6937
  38  65.92142
  39  -12.22821
  40  -290.6808
  41  -213.2612
  42  1.3709
  43  125.9876
  44  66.58354
  45  -113.8754
  46  -122.0873
  47  -183.1614
  48  232.7414
  49  -110.9194
  50  37.65059
  51  -11.17607
  52  71.21367
  53  78.24841
  54  -23.88393
  55  -122.4951
  56  51.95064
  57  -12.51019
  58  90.91412
  59  -54.02975
  60  -11.29218
  61  -383.568
  62  204.2514
  63  99.54285
  64  -187.995
  65  376.1273
  66  346.6487
  67  165.8026
  68  285.51
  69  -238.5372
  70  -524.8712
  71  -259.9229
  72  82.74247
  73  -30.80466
  74  -217.0577
  75  50.85931
  76  -221.2144
  77  -347.7062
  78  -320.4304
  79  -280.4815
  80  -349.2651
  81  -418.6477
  82  -88.72959
  83  186.0576
  84  126.6837
  85  -355.7085
  86  -117.8446
  87  -75.5561
  88  -153.9207
  89  -108.0471
  90  232.8289
  91  198.1953
  92  264.6525
  93  -136.5174
  94  -377.5408
  95  -12.75634
  96  118.2764
  97  -111.2195
  98  -460.8144
  99  -338.3948
 100  -77.0569
 101  -34.53895
 102  163.1111
 103  -164.211
 104  64.76255
 105  -126.5985
 106  -84.28143
 107  117.6777
 108  201.9136
 109  40.68301
 110  -134.101
 111  -107.1039
 112  77.18785
 113  46.07616
 114  -39.79247
 115  258.577
 116  278.1165
 117  62.67122
 118  -305.468
 119  -400.3065
 120  -33.31427
 121  158.4072
 122  -184.6878
 123  -332.0516
 124  78.27614
 125  32.9453
 126  -188.0953
 127  -160.359
 128  -43.71804
 129  257.74
 130  -14.96335
 131  -82.42859
 132  -206.0905
 133  112.1077
 134  204.3874
 135  58.8793
 136  107.5829
 137  329.0251
 138  -36.76748
 139  -386.9921
 140  42.47338
 141  -65.96193
 142  298.2301
 143  254.3391
 144  -318.4616
 145  -371.8633
 146  69.01791
 147  150.8777
 148  141.5428
 149  123.4803
 150  157.6563
 151  -359.8193
 152  -372.7949
 153  -61.88077
 154  159.002
 155  512.8477
 156  395.8134
 157  -105.4721
 158  -109.3449
 159  109.0262
 160  253.2986
 161  237.6562
 162  379.029
 163  512.4918
 164  772.8101
 165  868.4677
 166  1167.516
 167  1109.799
 168  961.7447
 169  697.8664
 170  462.6444
 171  -37.14549
 172  -17.55328
 173  -17.78948
 174  -116.8444
 175  -282.9782
 176  -363.8379
 177  -123.177
 178  264.9633
 179  145.1569
 180  370.2935
 181  97.22512
 182  265.3829
 183  234.1998
 184  -82.40574
 185  52.29695
 186  -211.8913
 187  -237.6823
 188  235.2329
 189  452.6743
 190  77.96625
 191  -169.7316
 192  224.687
 193  -51.89672
 194  -175.9534
 195  23.78052
 196  37.3937
 197  101.5707
 198  -87.73402
 199  215.9671
 200  147.5638
 201  66.27203
 202  132.6334
 203  107.6837
 204  400.8851
 205  25.85643
 206  -45.91652
 207  262.8016
 208  -119.6684
 209  -224.3105
 210  125.8914
 211  209.9238
 212  269.2487
 213  293.9199
 214  -70.20712
 215  83.8695
 216  223.3089
 217  342.5973
 218  4.451978
 219  256.092
 220  323.3304
 221  279.9137
 222  79.53439
 223  -91.70729
 224  -65.24867
 225  -198.9092
 226  -135.7086
 227  85.90322
 228  119.414
 229  -240.6086
 230  -35.16563
 231  223.8492
 232  -79.61013
 233  -181.1543
 234  460.4443
 235  197.5829
 236  30.74785
 237  -54.97648
 238  8.005697
 239  240.4443
 240  221.2072
 241  533.0482
 242  339.1366
 243  394.2205
 244  242.4801
 245  -52.78389
 246  101.603
 247  77.41662
 248  155.2796
 249  177.5392
 250  134.2934
 251  122.1244
 252  426.525
 253  282.9783
 254  150.9358
 255  -25.34479
 256  363.5055
 257  436.5199
 258  218.1669
 259  -74.28503
 260  -97.38082
 261  18.19634
 262  56.6786
 263  98.05438
 264  -233.106
 265  122.1201
 266  259.1737
 267  84.5714
 268  -7.671509
 269  18.23176
 270  74.65028
 271  122.0205
 272  260.0364
 273  326.5566
 274  134.3588
 275  198.1711
 276  104.449
 277  102.8544
 278  253.6859
 279  699.4976
 280  543.8925
 281  378.6934
 282  401.0187
 283  -120.6479
 284  69.90627
 285  227.417
 286  109.7459
 287  55.50309
 288  183.653
 289  148.645
 290  227.3996
 291  -97.59846
 292  -103.4039
 293  -256.2882
 294  65.87775
 295  -66.9896
 296  -62.02739
 297  23.58998
 298  -39.59683
 299  -26.57284
 300  82.37012
 301  95.7445
 302  201.9169
 303  326.1016
 304  111.0351
 305  2.515376
 306  2.061888
 307  -177.1964
 308  47.96972
 309  23.69838
 310  55.88997
 311  -13.58482
 312  39.06213
 313  -60.57908
 314  28.23686
 315  -164.6935
 316  20.96124
 317  150.4064
 318  228.5919
 319  398.367
 320  144.261
 321  -3.614461
 322  -37.49978
 323  -267.8109
 324  -204.8501
 325  -463.1138
 326  -538.2606
 327  -753.3224
 328  -513.8404
 329  -193.3691
 330  64.90297
 331  -114.4119
 332  -373.011
 333  -379.8872
 334  -367.1808
 335  86.74335
 336  -59.23891
 337  -396.3039
 338  -97.76034
 339  51.35125
 340  47.15804
 341  -89.82308
 342  2.068362
 343  -145.7136
 344  -49.95851
 345  65.34454
 346  87.07403
 347  38.10405
 348  -79.94574
 349  -181.8351
 350  -625.0887
 351  -287.3627
 352  -278.0964
 353  -389.3484
 354  -242.3096
 355  11.87859
 356  187.0646
 357  -58.70097
 358  -93.53922
 359  33.16226
 360  -54.02215
 361  -214.2235
 362  23.24513
 363  123.9739
 364  426.1155
 365  318.2055
 366  36.14227
 367  -97.85934
 368  -218.4252
 369  -72.0343
 370  -55.61327
 371  100.6058
 372  198.4144
 373  163.6371
 374  -319.9227
 375  -448.3537
 376  85.49393
 377  239.0877
 378  -30.80001
 379  -158.6947
 380  -179.3107
 381  -82.9221
 382  -9.409809
 383  -140.4491
 384  -76.11248
 385  -238.1771
 386  53.22205
 387  195.9591
 388  -81.06242
 389  -342.1912
 390  -280.4936
 391  -333.8818
 392  -177.4901
 393  -322.45
 394  -592.9584
 395  -525.8051
 396  -330.0321
 397  141.2632
 398  268.8958
 399  -120.0153
 400  -47.34107
 401  202.11
 402  -348.5949
 403  -258.3876
 404  55.62455
 405  -413.7105
 406  -530.1886
 407  51.192
 408  -400.1169
 409  -655.7828
 410  91.22495
 411  -27.20934
 412  -367.0967
 413  606.5933
 414  -559.2536
 415  560.855
 416  2882.673
 417  4429.801
 418  1269.033
 419  -1182.016
 420  539.7012
 421  -503.0239
 422  -689.0635
 423  25.24308
 424  -131.1487
 425  70.08216
 426  -87.12421
 427  -394.9816
 428  -217.7805
 429  19.1656
 430  -438.3405
 431  -306.5801
 432  -104.6395
 433  -25.34954
 434  317.6585
 435  14.76324
 436  -146.8425
 437  38.06452
 438  -107
 439  -293.7766
 440  -27.51496
 441  -81.2729
 442  -361.6932
 443  -391.9691
 444  -76.17269
 445  40.45504
 446  -151.9944
 447  3.45958
 448  -28.0422
 449  -102.8516
 450  -58.65162
 451  71.50524
 452  -30.07339
 453  -207.4153
 454  201.2094
 455  -96.8487
 456  -289.2647
 457  -300.8195
 458  35.15021
 459  108.3725
 460  13.61037
 461  -247.6133
 462  -323.1686
 463  -199.8093
 464  -104.8332
 465  -320.5223
 466  -329.5628
 467  -401.3658
 468  -252.889
 469  -17.82062
 470  74.86739
 471  -8.670371
 472  -127.8552
 473  -199.5786
 474  -445.1779
 475  -231.1324
 476  -246.0706
 477  11.35614
 478  -171.9853
 479  -171.7339
 480  144.1623
 481  -155.2414
 482  -179.6067
 483  -202.5292
 484  29.05142
 485  -136.8613
 486  -268.3668
 487  74.73137
 488  180.4971
 489  -150.7093
 490  84.9931
 491  81.36144
 492  -154.4168
 493  -497.2383
 494  -217.7686
 495  51.12687
 496  220.0586
 497  124.1083
 498  -111.4524
 499  -41.43968
 500  -172.304
 501  -144.6196
 502  -84.66061
 503  -103.1647
 504  129.8708
 505  -100.0377
 506  190.3837
 507  134.9673
 508  -24.3288
 509  -105.5389
 510  -56.28821
 511  161.0616
