# Input file       =  1186555642.111134_cleaned.dat
# Candidate        =  PSR_0332+5434
# Telescope        =  AR
# Epoch_topo       =  57977.283114712198
# Epoch_bary       =  N/A
# T_sample         =  0.002
# Data Folded      =  7340032
# Data Avg         =  0.0076259281968403
# Data StdDev      =  1.00003830336695 
# Profile Bins     =  512
# Profile Avg      =  109.326855891307 
# Profile StdDev   =  119.737622555195 
# Reduced chi-sqr  =  1.331
# Prob(Noise)      <  7.3e-07   (~4.8 sigma)
# P_topo (ms)      =  714.465878826899  +/- 0.000227
# P'_topo (s/s)    =  -0                +/- 1.2e-10
# P''_topo (s/s^2) =  0                 +/- 5.28e-14
# P_bary (ms)      =  N/A
# P'_bary (s/s)    =  N/A
# P''_bary (s/s^2) =  N/A
# P_orb (s)        =  N/A
# asin(i)/c (s)    =  N/A
# eccentricity     =  N/A
# w (rad)          =  N/A
# T_peri           =  N/A
######################################################
   0  92.47519
   1  42.69035
   2  -72.06535
   3  -49.14068
   4  -102.3458
   5  -43.90432
   6  89.23165
   7  13.69867
   8  -37.01353
   9  -48.3117
  10  -37.91679
  11  40.66315
  12  86.85939
  13  12.4794
  14  -88.14635
  15  179.951
  16  181.3303
  17  101.3903
  18  95.46106
  19  115.0328
  20  187.3079
  21  163.1127
  22  119.9909
  23  3.470636
  24  -12.32808
  25  50.97095
  26  212.5468
  27  122.6894
  28  125.4524
  29  135.0359
  30  95.27995
  31  125.949
  32  159.3066
  33  153.1286
  34  73.93616
  35  23.37362
  36  100.9543
  37  94.84991
  38  174.291
  39  205.5432
  40  247.3119
  41  129.5446
  42  168.8504
  43  217.1375
  44  229.651
  45  119.8159
  46  94.32909
  47  175.9266
  48  62.19533
  49  144.3922
  50  117.7086
  51  175.3172
  52  107.1524
  53  241.9695
  54  263.1569
  55  316.2843
  56  482.4547
  57  737.4929
  58  771.3157
  59  665.1292
  60  518.816
  61  316.3303
  62  181.5814
  63  270.6708
  64  189.8964
  65  106.6152
  66  135.5231
  67  192.8785
  68  148.4469
  69  164.3757
  70  215.0554
  71  227.9744
  72  274.4778
  73  215.4541
  74  275.2175
  75  162.4521
  76  138.4331
  77  150.2769
  78  100.7603
  79  158.4585
  80  161.2946
  81  158.2104
  82  144.4404
  83  160.9558
  84  215.0451
  85  0.7938533
  86  -137.0103
  87  95.19814
  88  219.819
  89  114.5026
  90  -20.89837
  91  46.2184
  92  204.8582
  93  318.7635
  94  222.5643
  95  152.3647
  96  25.24602
  97  -73.24238
  98  -28.9951
  99  -3.882391
 100  20.7766
 101  -18.31521
 102  0.6670296
 103  129.6074
 104  212.094
 105  179.8371
 106  185.8402
 107  143.7582
 108  163.3342
 109  149.9257
 110  162.5741
 111  158.051
 112  234.8793
 113  134.5636
 114  296.5973
 115  291.4795
 116  185.4542
 117  66.80714
 118  67.42316
 119  53.3321
 120  -29.37256
 121  17.65996
 122  71.11212
 123  43.91289
 124  89.91061
 125  38.34398
 126  146.5537
 127  156.0899
 128  -9.843342
 129  117.0116
 130  182.66
 131  176.1804
 132  160.2553
 133  178.2737
 134  190.8553
 135  122.7907
 136  70.1152
 137  76.36256
 138  -55.14634
 139  81.14809
 140  130.2351
 141  179.8055
 142  155.044
 143  123.742
 144  290.2897
 145  191.4629
 146  53.0092
 147  224.7284
 148  255.6094
 149  187.3532
 150  171.2756
 151  200.6782
 152  135.2699
 153  69.10848
 154  117.9723
 155  234.6192
 156  250.7997
 157  91.84051
 158  235.0218
 159  217.6805
 160  152.4272
 161  133.739
 162  97.46035
 163  148.0336
 164  61.67305
 165  16.61799
 166  98.5606
 167  90.08212
 168  73.27557
 169  71.06191
 170  -72.7817
 171  31.6484
 172  98.10247
 173  56.45262
 174  84.43966
 175  68.43055
 176  61.75584
 177  99.76325
 178  27.70164
 179  54.39355
 180  102.6371
 181  111.1329
 182  81.74439
 183  -18.2388
 184  27.37863
 185  81.53421
 186  154.0931
 187  99.25447
 188  97.99886
 189  60.14429
 190  247.5724
 191  235.1078
 192  200.5427
 193  195.5736
 194  67.93597
 195  177.603
 196  194.1925
 197  89.58051
 198  32.13403
 199  85.31281
 200  172.4825
 201  230.1936
 202  132.4906
 203  74.06225
 204  70.12894
 205  127.2219
 206  133.8438
 207  42.59752
 208  103.4193
 209  93.45627
 210  139.5942
 211  211.2625
 212  122.8203
 213  65.99746
 214  66.6114
 215  178.8158
 216  229.1233
 217  242.2849
 218  242.8936
 219  206.6868
 220  202.9478
 221  141.4658
 222  116.4763
 223  137.5923
 224  159.5569
 225  223.4089
 226  140.0029
 227  160.6841
 228  154.8154
 229  80.62415
 230  118.4986
 231  69.54643
 232  99.1815
 233  36.39936
 234  203.6988
 235  123.957
 236  101.9922
 237  243.9764
 238  139.7175
 239  99.81722
 240  68.82002
 241  181.7999
 242  203.4347
 243  26.87103
 244  131.6833
 245  195.5551
 246  186.3651
 247  153.6025
 248  163.4094
 249  194.6273
 250  143.9521
 251  -26.93355
 252  88.52681
 253  86.00931
 254  107.8201
 255  153.1984
 256  163.1301
 257  167.5957
 258  147.2001
 259  158.3209
 260  189.6965
 261  286.8257
 262  171.3354
 263  101.7573
 264  33.24814
 265  58.85268
 266  144.4247
 267  107.0099
 268  147.337
 269  188.8527
 270  239.3348
 271  183.7081
 272  68.26804
 273  199.1725
 274  244.123
 275  180.6036
 276  133.3823
 277  12.69042
 278  115.7633
 279  187.6056
 280  188.1328
 281  160.9716
 282  127.8818
 283  134.8799
 284  176.8537
 285  210.9431
 286  144.4145
 287  -21.61995
 288  17.88775
 289  49.58255
 290  113.3654
 291  95.99218
 292  93.57114
 293  62.35874
 294  148.75
 295  185.924
 296  137.4719
 297  98.40827
 298  101.8277
 299  52.99138
 300  176.3519
 301  165.3106
 302  65.45676
 303  213.6504
 304  240.7405
 305  138.0704
 306  72.28243
 307  -17.66265
 308  -29.92425
 309  58.98501
 310  152.1522
 311  57.66774
 312  20.09257
 313  66.72544
 314  9.061262
 315  104.9318
 316  158.1509
 317  89.99181
 318  113.7799
 319  158.689
 320  35.28394
 321  97.02967
 322  110.4519
 323  114.5031
 324  161.8529
 325  -77.47307
 326  88.79941
 327  140.9984
 328  21.8471
 329  0.6217859
 330  140.3295
 331  156.2843
 332  74.8384
 333  17.39438
 334  98.24139
 335  50.41547
 336  33.88509
 337  -53.17886
 338  45.77405
 339  176.3668
 340  19.97477
 341  -83.7381
 342  11.01934
 343  28.84392
 344  40.35623
 345  61.84341
 346  94.93317
 347  -1.703864
 348  3.256328
 349  -1.618423
 350  93.56096
 351  75.14729
 352  79.14672
 353  111.4745
 354  -20.65554
 355  37.05185
 356  67.69109
 357  148.7303
 358  169.3612
 359  17.36294
 360  -94.40929
 361  -41.91413
 362  144.7814
 363  126.0113
 364  -43.41326
 365  9.247245
 366  88.20078
 367  24.08677
 368  6.422234
 369  109.8781
 370  111.7395
 371  220.4404
 372  197.4998
 373  77.04575
 374  12.53643
 375  52.98404
 376  143.0479
 377  59.76147
 378  -142.974
 379  84.41425
 380  225.4128
 381  169.2554
 382  183.4204
 383  -88.4678
 384  -58.2335
 385  58.15277
 386  155.3972
 387  -24.78243
 388  -71.76214
 389  -51.96163
 390  -69.45432
 391  -13.62903
 392  88.89413
 393  72.34389
 394  -8.798785
 395  -42.22393
 396  -8.440194
 397  29.35818
 398  58.28958
 399  43.02086
 400  101.5361
 401  24.90303
 402  3.413927
 403  -50.61215
 404  10.30088
 405  116.7873
 406  159.7084
 407  132.537
 408  127.9973
 409  40.82031
 410  50.75325
 411  84.49128
 412  218.7424
 413  57.26217
 414  144.3318
 415  133.0525
 416  209.0239
 417  169.4732
 418  197.4215
 419  74.01711
 420  75.01734
 421  110.3682
 422  65.63104
 423  66.23479
 424  69.36614
 425  98.33802
 426  205.1514
 427  288.8899
 428  282.7521
 429  164.3777
 430  30.22756
 431  -9.27414
 432  -39.61272
 433  57.10975
 434  82.61617
 435  46.38134
 436  19.7121
 437  147.0562
 438  145.7107
 439  31.79665
 440  -15.01431
 441  22.49534
 442  -120.6085
 443  -8.009484
 444  0.7577619
 445  71.0667
 446  -30.32135
 447  -60.78168
 448  52.4048
 449  20.74136
 450  63.89488
 451  -15.2395
 452  152.1872
 453  55.43895
 454  -59.34554
 455  111.8519
 456  17.96081
 457  47.43962
 458  102.6343
 459  19.49935
 460  -33.96209
 461  82.79029
 462  136.9833
 463  60.53654
 464  35.36517
 465  121.9126
 466  179.3272
 467  67.38555
 468  3.491785
 469  -59.03721
 470  86.0142
 471  5.661595
 472  42.66937
 473  32.04395
 474  -2.030974
 475  -26.06899
 476  94.77595
 477  137.7965
 478  24.12975
 479  49.0547
 480  81.771
 481  142.488
 482  136.8186
 483  202.0798
 484  187.9349
 485  188.617
 486  263.0775
 487  108.5636
 488  63.59117
 489  121.4488
 490  93.60023
 491  100.181
 492  119.6207
 493  140.3225
 494  223.2368
 495  282.7727
 496  181.3997
 497  94.44111
 498  6.539947
 499  68.15263
 500  124.0788
 501  9.565945
 502  119.812
 503  54.70382
 504  51.4143
 505  100.5022
 506  115.8051
 507  89.18798
 508  239.2968
 509  293.0597
 510  216.5642
 511  131.5632
