# Input file       =  1186210989.145512_cleaned.dat
# Candidate        =  PSR_0332+5434
# Telescope        =  AR
# Epoch_topo       =  57973.294075758240
# Epoch_bary       =  N/A
# T_sample         =  0.002
# Data Folded      =  7340032
# Data Avg         =  0.0195053518982605
# Data StdDev      =  2.6931202214294  
# Profile Bins     =  512
# Profile Avg      =  279.539186051772 
# Profile StdDev   =  322.45546143941  
# Reduced chi-sqr  =  1.587
# Prob(Noise)      <  5.4e-16   (~8.0 sigma)
# P_topo (ms)      =  714.467065768362  +/- 0.000138
# P'_topo (s/s)    =  -0                +/- 7.27e-11
# P''_topo (s/s^2) =  0                 +/- 3.21e-14
# P_bary (ms)      =  N/A
# P'_bary (s/s)    =  N/A
# P''_bary (s/s^2) =  N/A
# P_orb (s)        =  N/A
# asin(i)/c (s)    =  N/A
# eccentricity     =  N/A
# w (rad)          =  N/A
# T_peri           =  N/A
######################################################
   0  505.1234
   1  395.0247
   2  547.4005
   3  681.9655
   4  542.2958
   5  326.0082
   6  288.461
   7  153.6804
   8  188.4006
   9  131.3229
  10  276.7065
  11  144.5172
  12  240.8172
  13  448.1545
  14  448.1467
  15  273.687
  16  53.4472
  17  97.34888
  18  144.2532
  19  308.0526
  20  614.2585
  21  860.8483
  22  463.254
  23  432.3259
  24  357.6123
  25  435.2989
  26  429.6626
  27  180.923
  28  381.8663
  29  374.9108
  30  -34.30245
  31  325.8426
  32  525.525
  33  -35.46684
  34  144.6978
  35  288.3868
  36  75.94301
  37  227.3091
  38  173.9096
  39  537.431
  40  174.9954
  41  127.4725
  42  109.8393
  43  196.5301
  44  -71.08378
  45  -80.06525
  46  335.3679
  47  529.2129
  48  330.0522
  49  51.83817
  50  64.0891
  51  -107.844
  52  14.23853
  53  237.4539
  54  488.4133
  55  556.9633
  56  606.8244
  57  775.6364
  58  417.8036
  59  370.4723
  60  499.4173
  61  528.1306
  62  459.9066
  63  372.7842
  64  193.8909
  65  258.0679
  66  397.7606
  67  759.7003
  68  418.5028
  69  292.2917
  70  319.31
  71  296.2831
  72  616.7084
  73  126.587
  74  398.5663
  75  258.8311
  76  436.0631
  77  235.1693
  78  -157.9224
  79  125.5286
  80  360.0692
  81  199.4046
  82  148.792
  83  525.4899
  84  421.2075
  85  393.9202
  86  546.4408
  87  283.7041
  88  200.1364
  89  204.0654
  90  165.2175
  91  9.529206
  92  19.86349
  93  -124.5796
  94  140.7279
  95  396.9885
  96  472.2404
  97  594.5815
  98  458.8701
  99  623.4203
 100  569.8187
 101  327.9503
 102  415.9908
 103  258.7799
 104  191.8519
 105  211.9067
 106  449.5338
 107  497.7407
 108  986.3506
 109  440.7107
 110  568.467
 111  843.8042
 112  1150.391
 113  1642.685
 114  1895.364
 115  2187.645
 116  1669.871
 117  1319.992
 118  855.8831
 119  517.1465
 120  334.4065
 121  530.9174
 122  490.1874
 123  312.6435
 124  128.9102
 125  194.8965
 126  -25.45951
 127  50.42908
 128  315.6079
 129  235.3712
 130  625.4291
 131  931.5624
 132  668.7982
 133  308.5393
 134  135.1143
 135  35.04009
 136  550.4185
 137  452.5673
 138  67.61371
 139  423.0785
 140  201.7867
 141  264.878
 142  -10.9075
 143  321.0633
 144  491.4142
 145  267.9789
 146  119.5614
 147  392.0422
 148  392.579
 149  185.6255
 150  187.184
 151  162.8024
 152  -93.16805
 153  192.3036
 154  269.5153
 155  162.5593
 156  -303.9532
 157  -110.6908
 158  51.04704
 159  15.70661
 160  -443.3106
 161  -159.1889
 162  -266.8112
 163  359.0625
 164  454.262
 165  167.7639
 166  219.4589
 167  232.7362
 168  240.4559
 169  101.4395
 170  350.7405
 171  404.6931
 172  216.5075
 173  -199.3968
 174  -162.8704
 175  161.6039
 176  260.6921
 177  71.39748
 178  -209.8955
 179  -46.21833
 180  -14.71008
 181  -402.5116
 182  -134.4437
 183  -70.7
 184  -46.51013
 185  166.2414
 186  -102.5132
 187  123.4472
 188  -192.4298
 189  -255.771
 190  218.7841
 191  163.3348
 192  53.01711
 193  289.3048
 194  298.9306
 195  199.2908
 196  109.3324
 197  240.2062
 198  222.8579
 199  66.04048
 200  212.3511
 201  84.17822
 202  484.41
 203  162.1302
 204  100.619
 205  428.9396
 206  672.67
 207  280.0583
 208  501.9911
 209  440.682
 210  559.6388
 211  554.4182
 212  505.9231
 213  54.0978
 214  149.816
 215  253.2766
 216  -84.57176
 217  -21.76937
 218  -29.84636
 219  8.796227
 220  414.7431
 221  -171.3549
 222  -16.07506
 223  338.481
 224  297.5956
 225  220.0839
 226  496.7668
 227  473.485
 228  616.4759
 229  493.8389
 230  665.8364
 231  828.6343
 232  584.2255
 233  645.0109
 234  954.5286
 235  476.8664
 236  325.2476
 237  63.09424
 238  183.1246
 239  565.1876
 240  424.6872
 241  543.6001
 242  369.5789
 243  -20.13005
 244  -16.92324
 245  -245.5819
 246  470.549
 247  530.5402
 248  391.6793
 249  819.2538
 250  634.4724
 251  361.2688
 252  481.5802
 253  374.3004
 254  -177.6271
 255  208.7142
 256  300.8858
 257  91.10446
 258  355.3806
 259  282.6924
 260  397.2837
 261  601.4933
 262  851.4561
 263  725.3253
 264  617.7829
 265  519.6495
 266  531.9905
 267  658.3184
 268  690.749
 269  745.826
 270  566.2372
 271  562.9535
 272  601.434
 273  635.1838
 274  521.1874
 275  769.424
 276  370.5106
 277  67.67788
 278  15.73733
 279  172.2302
 280  220.619
 281  34.45567
 282  497.4987
 283  1116.883
 284  971.696
 285  532.2222
 286  173.9542
 287  92.75192
 288  536.9737
 289  227.7267
 290  91.04481
 291  230.476
 292  392.0241
 293  482.2932
 294  -72.85774
 295  -220.2495
 296  245.0565
 297  440.5286
 298  463.4499
 299  439.5509
 300  397.8694
 301  229.784
 302  130.8546
 303  256.9333
 304  594.3526
 305  267.5526
 306  458.2006
 307  761.5477
 308  655.1667
 309  42.7323
 310  -114.0665
 311  -89.19669
 312  144.9365
 313  371.949
 314  -89.60419
 315  26.92518
 316  208.0069
 317  240.5363
 318  275.9824
 319  478.7962
 320  724.2041
 321  352.5576
 322  -20.51271
 323  192.2656
 324  113.0546
 325  605.4279
 326  316.4408
 327  194.8742
 328  219.368
 329  117.0838
 330  281.4423
 331  268.008
 332  -40.98267
 333  81.43479
 334  -117.2922
 335  -19.14763
 336  -44.98546
 337  -103.875
 338  148.7454
 339  -12.73095
 340  -82.14473
 341  -93.30106
 342  546.8276
 343  704.8485
 344  213.801
 345  88.4865
 346  247.6179
 347  220.9971
 348  269.6216
 349  195.7184
 350  318.3469
 351  543.2599
 352  530.2405
 353  352.621
 354  -124.0657
 355  174.6949
 356  160.3073
 357  -289.0598
 358  64.20064
 359  50.61249
 360  168.8554
 361  179.7567
 362  136.2191
 363  90.37746
 364  537.1257
 365  218.5253
 366  148.7559
 367  454.4682
 368  499.7325
 369  326.5801
 370  306.5422
 371  255.4041
 372  62.77008
 373  -281.0107
 374  -103.647
 375  127.8566
 376  207.5806
 377  46.72129
 378  142.0674
 379  273.0006
 380  189.2295
 381  29.18111
 382  356.4841
 383  557.8634
 384  519.1934
 385  363.2597
 386  131.1381
 387  234.8064
 388  -20.74237
 389  -494.6537
 390  -117.9869
 391  71.09384
 392  183.8187
 393  79.31747
 394  78.97629
 395  221.1198
 396  -53.30524
 397  -74.75357
 398  -195.072
 399  472.2761
 400  255.6897
 401  349.2973
 402  360.8484
 403  314.2162
 404  55.49659
 405  -112.7855
 406  514.6346
 407  468.5346
 408  40.9553
 409  87.58404
 410  229.5651
 411  85.71622
 412  209.3791
 413  177.261
 414  268.5264
 415  268.5909
 416  1.360481
 417  -246.1983
 418  -44.17809
 419  162.7729
 420  65.22393
 421  400.5511
 422  231.1281
 423  385.8913
 424  363.3424
 425  613.8148
 426  320.0369
 427  289.0795
 428  195.5412
 429  167.9896
 430  215.6642
 431  277.2841
 432  102.0871
 433  111.2376
 434  233.2593
 435  520.2427
 436  312.5272
 437  81.96914
 438  -75.2809
 439  287.0465
 440  699.5883
 441  706.0173
 442  632.795
 443  678.5962
 444  279.9485
 445  514.1221
 446  453.8473
 447  472.5972
 448  420.3022
 449  -149.5185
 450  355.7471
 451  380.2235
 452  332.1663
 453  591.7418
 454  137.5307
 455  -26.74262
 456  480.0076
 457  362.2466
 458  305.7423
 459  475.7883
 460  -12.56656
 461  -274.2296
 462  -79.64988
 463  88.31159
 464  93.94955
 465  159.6784
 466  123.4392
 467  336.6676
 468  199.1819
 469  -10.36298
 470  453.029
 471  182.4381
 472  -62.13969
 473  -24.43924
 474  105.1171
 475  94.69344
 476  451.0689
 477  643.3393
 478  773.7634
 479  326.49
 480  607.3863
 481  194.9047
 482  150.1255
 483  558.1796
 484  481.9281
 485  377.9644
 486  218.8696
 487  198.1244
 488  -198.5439
 489  -0.9324068
 490  406.6216
 491  278.3427
 492  118.3718
 493  171.6337
 494  281.6111
 495  142.1783
 496  -127.5609
 497  260.8315
 498  307.3921
 499  464.0105
 500  -0.1338047
 501  -282.9124
 502  -253.694
 503  225.3973
 504  364.5966
 505  433.2443
 506  128.7977
 507  194.6576
 508  140.3919
 509  -207.3255
 510  67.0499
 511  236.2209
