# Input file       =  1186038713.111496_cleaned.dat
# Candidate        =  PSR_0332+5434
# Telescope        =  AR
# Epoch_topo       =  57971.300140179352
# Epoch_bary       =  N/A
# T_sample         =  0.002
# Data Folded      =  7340032
# Data Avg         =  0.0143653273678085
# Data StdDev      =  2.56965470746754 
# Profile Bins     =  256
# Profile Avg      =  411.712863724321 
# Profile StdDev   =  435.114707920995 
# Reduced chi-sqr  =  1.354
# Prob(Noise)      <  0.000138   (~3.6 sigma)
# P_topo (ms)      =  714.467745859772  +/- 0.000151
# P'_topo (s/s)    =  -0                +/- 7.95e-11
# P''_topo (s/s^2) =  0                 +/- 3.51e-14
# P_bary (ms)      =  N/A
# P'_bary (s/s)    =  N/A
# P''_bary (s/s^2) =  N/A
# P_orb (s)        =  N/A
# asin(i)/c (s)    =  N/A
# eccentricity     =  N/A
# w (rad)          =  N/A
# T_peri           =  N/A
######################################################
   0  116.286
   1  526.7333
   2  102.4375
   3  178.3058
   4  -103.0211
   5  229.8397
   6  945.5197
   7  618.826
   8  109.7132
   9  217.1918
  10  318.9336
  11  166.3294
  12  -168.0477
  13  627.1879
  14  322.3452
  15  61.65759
  16  840.728
  17  44.93992
  18  -363.8636
  19  253.1842
  20  250.536
  21  708.2331
  22  406.1086
  23  189.0224
  24  705.0709
  25  140.3442
  26  375.3611
  27  974.965
  28  750.1318
  29  150.2193
  30  373.8499
  31  158.3887
  32  422.6261
  33  424.0343
  34  449.181
  35  229.1249
  36  -150.556
  37  204.3374
  38  -40.82533
  39  176.5585
  40  619.9745
  41  349.9035
  42  441.3088
  43  524.2789
  44  431.578
  45  156.0858
  46  100.9128
  47  344.231
  48  552.3575
  49  547.3242
  50  178.4076
  51  838.7394
  52  523.1718
  53  1119.006
  54  163.9944
  55  382.4701
  56  510.854
  57  711.2435
  58  250.6917
  59  286.554
  60  905.3865
  61  486.8114
  62  585.4922
  63  906.9846
  64  475.4114
  65  479.8787
  66  -87.53263
  67  286.5783
  68  427.5578
  69  338.1103
  70  617.4609
  71  325.1681
  72  766.2192
  73  3.612649
  74  198.209
  75  358.8733
  76  554.6767
  77  506.2659
  78  292.931
  79  537.8508
  80  1264.536
  81  521.9268
  82  936.2644
  83  -277.2571
  84  645.7785
  85  852.644
  86  681.2914
  87  1043.761
  88  991.5219
  89  689.181
  90  678.2123
  91  777.9571
  92  734.656
  93  664.536
  94  430.1922
  95  1200.41
  96  1256.185
  97  750.34
  98  298.6291
  99  364.0166
 100  496.7779
 101  583.1691
 102  -287.4332
 103  793.8325
 104  646.7501
 105  225.8214
 106  665.1855
 107  719.5348
 108  733.1605
 109  438.9942
 110  663.6734
 111  943.6498
 112  529.7725
 113  86.27322
 114  1079.568
 115  356.6689
 116  324.9681
 117  466.4423
 118  404.2083
 119  423.9146
 120  209.7946
 121  113.2432
 122  922.9886
 123  690.7476
 124  378.7242
 125  765.6796
 126  243.647
 127  571.4049
 128  585.1102
 129  706.7392
 130  616.686
 131  -266.1526
 132  -355.8998
 133  432.6883
 134  -138.815
 135  221.2411
 136  161.8401
 137  694.4669
 138  113.34
 139  -102.5346
 140  349.6096
 141  9.09675
 142  -191.8109
 143  -296.8943
 144  134.4582
 145  733.2598
 146  972.9483
 147  425.9714
 148  959.9091
 149  915.868
 150  50.20707
 151  876.3863
 152  423.173
 153  501.5182
 154  754.6331
 155  642.4838
 156  214.8338
 157  37.6394
 158  744.5424
 159  421.0936
 160  736.8389
 161  2996.139
 162  3584.468
 163  1663.37
 164  975.0637
 165  298.8302
 166  944.6205
 167  197.9802
 168  361.8073
 169  703.4913
 170  798.0499
 171  769.8416
 172  389.3559
 173  317.5498
 174  616.5412
 175  67.6392
 176  483.1718
 177  -239.3723
 178  319.2932
 179  31.81112
 180  97.71786
 181  -115.946
 182  791.3899
 183  -203.7979
 184  292.5073
 185  682.9351
 186  -218.7875
 187  -464.2798
 188  89.53686
 189  149.8564
 190  36.67805
 191  -350.1396
 192  -76.49161
 193  -262.9471
 194  -135.8822
 195  -448.8334
 196  160.3658
 197  325.5894
 198  595.9388
 199  378.0419
 200  125.8067
 201  29.05082
 202  821.0574
 203  575.1009
 204  717.6168
 205  288.6484
 206  682.8234
 207  232.4823
 208  341.8009
 209  174.9754
 210  611.5507
 211  266.7617
 212  -262.5402
 213  -3.272796
 214  500.5537
 215  824.428
 216  641.5132
 217  451.0182
 218  -117.5956
 219  330.6416
 220  506.8799
 221  434.0867
 222  575.1002
 223  36.51937
 224  38.56119
 225  690.4938
 226  44.40883
 227  321.8097
 228  191.2431
 229  902.5408
 230  604.4494
 231  502.0269
 232  743.7438
 233  -129.7666
 234  601.7652
 235  642.6951
 236  390.0856
 237  530.1282
 238  88.11985
 239  120.5688
 240  13.05639
 241  6.962268
 242  603.0543
 243  378.9065
 244  472.5219
 245  16.69953
 246  887.0808
 247  -417.5257
 248  20.54765
 249  344.1004
 250  -61.77819
 251  62.82002
 252  178.2298
 253  227.3878
 254  149.7023
 255  124.3502
