# Input file       =  1186799925.14863_cleaned.dat
# Candidate        =  PSR_0332+5434
# Telescope        =  AR
# Epoch_topo       =  57980.110464683217
# Epoch_bary       =  N/A
# T_sample         =  0.002
# Data Folded      =  7340032
# Data Avg         =  0.00741621497492868
# Data StdDev      =  1.00007937360534 
# Profile Bins     =  512
# Profile Avg      =  106.314491914157 
# Profile StdDev   =  119.742540019542 
# Reduced chi-sqr  =  1.576
# Prob(Noise)      <  1.6e-15   (~7.9 sigma)
# P_topo (ms)      =  714.46485420125   +/- 0.000119
# P'_topo (s/s)    =  -0                +/- 6.27e-11
# P''_topo (s/s^2) =  0                 +/- 2.77e-14
# P_bary (ms)      =  N/A
# P'_bary (s/s)    =  N/A
# P''_bary (s/s^2) =  N/A
# P_orb (s)        =  N/A
# asin(i)/c (s)    =  N/A
# eccentricity     =  N/A
# w (rad)          =  N/A
# T_peri           =  N/A
######################################################
   0  863.9774
   1  696.397
   2  461.6104
   3  252.689
   4  242.9113
   5  142.9067
   6  55.21309
   7  34.49303
   8  115.5249
   9  75.45393
  10  102.8786
  11  7.948013
  12  99.36097
  13  20.65812
  14  49.33684
  15  199.3482
  16  153.4809
  17  -33.86085
  18  -17.10901
  19  61.33958
  20  11.13436
  21  134.06
  22  217.96
  23  110.8389
  24  55.19258
  25  176.5427
  26  147.8772
  27  104.0184
  28  139.1191
  29  137.3288
  30  185.4086
  31  190.6105
  32  119.6651
  33  35.55724
  34  117.8553
  35  162.8056
  36  23.89109
  37  71.4563
  38  37.05386
  39  -80.5379
  40  71.83514
  41  238.697
  42  72.69718
  43  27.22162
  44  103.4351
  45  37.41366
  46  -34.20913
  47  109.3344
  48  124.5645
  49  222.6566
  50  79.47424
  51  22.35997
  52  -59.57259
  53  -22.67524
  54  67.60704
  55  135.0319
  56  50.34329
  57  55.98287
  58  -4.496709
  59  -157.6251
  60  -45.28541
  61  23.53088
  62  74.75517
  63  77.20912
  64  -53.87497
  65  161.8861
  66  33.87395
  67  73.07157
  68  110.3144
  69  -62.44227
  70  53.11617
  71  29.8503
  72  56.21969
  73  226.3446
  74  127.939
  75  157.5786
  76  116.138
  77  171.7489
  78  141.7567
  79  139.3116
  80  178.6358
  81  104.4499
  82  67.77485
  83  152.3774
  84  169.3108
  85  107.6719
  86  -27.58291
  87  -26.53958
  88  98.72982
  89  146.7127
  90  30.15786
  91  -78.1376
  92  102.7952
  93  54.62662
  94  83.40643
  95  -46.61882
  96  0.3084765
  97  76.68991
  98  80.0892
  99  154.1293
 100  62.43239
 101  113.1523
 102  127.2549
 103  157.1821
 104  42.07225
 105  -2.848592
 106  -63.15442
 107  82.34785
 108  123.7655
 109  -121.9023
 110  -64.0374
 111  51.50052
 112  12.62378
 113  67.43913
 114  186.6108
 115  141.9285
 116  -31.10114
 117  21.812
 118  143.0769
 119  65.113
 120  51.65041
 121  63.69484
 122  82.2971
 123  185.9035
 124  156.9148
 125  147.4652
 126  176.1588
 127  225.856
 128  162.3183
 129  -5.794974
 130  49.51544
 131  217.672
 132  231.1176
 133  139.6282
 134  33.72575
 135  166.9904
 136  81.7133
 137  44.05497
 138  130.8353
 139  130.3051
 140  120.5078
 141  110.1461
 142  242.5366
 143  230.0239
 144  62.47723
 145  115.7206
 146  109.0896
 147  -55.46709
 148  4.98042
 149  2.743314
 150  69.01815
 151  5.702841
 152  48.65248
 153  52.90569
 154  57.09734
 155  49.75709
 156  226.6609
 157  221.9595
 158  256.4611
 159  254.1915
 160  133.1171
 161  155.6116
 162  80.44416
 163  8.682062
 164  -20.82508
 165  33.47097
 166  209.0884
 167  58.39358
 168  71.59773
 169  104.9225
 170  78.08565
 171  4.901584
 172  -5.834059
 173  32.24606
 174  54.64642
 175  -14.93699
 176  103.5062
 177  64.65026
 178  278.345
 179  248.9551
 180  67.76971
 181  63.17657
 182  79.71834
 183  18.37451
 184  -12.17676
 185  59.57287
 186  19.90562
 187  -54.44262
 188  -6.895186
 189  41.1083
 190  20.28901
 191  -98.6827
 192  -107.6025
 193  81.52596
 194  -129.5621
 195  -13.47379
 196  -28.59164
 197  117.9838
 198  227.5655
 199  167.4132
 200  90.6601
 201  64.81274
 202  265.7226
 203  0.2141445
 204  6.471123
 205  101.0066
 206  298.5806
 207  156.3248
 208  -53.69816
 209  -6.235085
 210  87.19576
 211  64.01369
 212  138.7346
 213  132.397
 214  160.8665
 215  189.9537
 216  159.4284
 217  195.0502
 218  244.2529
 219  226.77
 220  180.5035
 221  225.0829
 222  201.891
 223  157.8291
 224  176.0335
 225  246.2236
 226  264.3021
 227  86.79301
 228  36.17495
 229  25.42904
 230  14.26118
 231  138.5522
 232  149.6495
 233  39.42724
 234  54.14227
 235  170.6667
 236  270.5423
 237  130.6498
 238  100.8662
 239  84.68285
 240  86.58628
 241  262.8379
 242  294.8715
 243  79.56271
 244  17.25721
 245  238.7419
 246  295.3436
 247  205.8661
 248  264.5157
 249  211.6585
 250  59.6286
 251  30.25531
 252  96.61909
 253  206.2766
 254  148.234
 255  95.59752
 256  122.5519
 257  149.3403
 258  20.28898
 259  80.71326
 260  96.63428
 261  102.5588
 262  82.29375
 263  60.08765
 264  90.52612
 265  -12.86026
 266  20.472
 267  33.53579
 268  167.3023
 269  119.0286
 270  86.18958
 271  24.23293
 272  -0.8993828
 273  85.52819
 274  42.30017
 275  126.4568
 276  222.1824
 277  107.203
 278  32.48749
 279  141.0297
 280  227.6561
 281  -12.01676
 282  -79.44594
 283  79.45482
 284  162.9912
 285  148.2486
 286  168.3111
 287  199.6164
 288  232.1526
 289  229.7214
 290  88.04577
 291  112.6428
 292  111.9189
 293  138.8978
 294  4.93205
 295  8.049753
 296  127.4867
 297  74.48039
 298  40.39125
 299  137.6498
 300  147.9027
 301  -10.18258
 302  -104.5311
 303  129.2698
 304  208.8091
 305  153.2516
 306  -22.62661
 307  86.28983
 308  200.0656
 309  104.6564
 310  127.0246
 311  186.4306
 312  115.1009
 313  206.9557
 314  275.0192
 315  256.0291
 316  118.0209
 317  63.50588
 318  83.73089
 319  71.63178
 320  -2.281085
 321  70.98655
 322  240.8246
 323  283.8168
 324  199.6019
 325  189.1515
 326  267.9498
 327  245.7536
 328  80.4246
 329  202.2541
 330  250.0138
 331  -33.55583
 332  -60.85467
 333  43.66138
 334  210.0558
 335  155.2891
 336  1.705954
 337  136.515
 338  236.1304
 339  221.0336
 340  126.9178
 341  47.51506
 342  164.1079
 343  128.183
 344  107.1674
 345  291.6688
 346  191.2893
 347  255.4736
 348  252.4954
 349  129.8949
 350  69.83021
 351  156.3915
 352  144.4023
 353  70.01151
 354  187.6797
 355  216.5917
 356  48.86572
 357  112.3103
 358  144.3285
 359  126.8858
 360  70.38943
 361  26.30813
 362  61.14505
 363  116.8004
 364  331.6707
 365  175.3022
 366  96.48462
 367  177.1732
 368  97.4729
 369  109.0126
 370  139.6154
 371  142.9464
 372  61.17039
 373  100.6646
 374  272.4485
 375  140.457
 376  55.60181
 377  195.7421
 378  231.4355
 379  153.2349
 380  187.6699
 381  207.4194
 382  151.7592
 383  182.6727
 384  145.3833
 385  210.0091
 386  -10.31446
 387  29.59224
 388  40.61533
 389  182.7038
 390  192.2042
 391  125.5124
 392  128.3013
 393  157.6441
 394  62.65784
 395  43.34203
 396  162.5505
 397  26.67248
 398  143.0741
 399  133.1465
 400  117.2637
 401  196.217
 402  214.0946
 403  40.81893
 404  93.75985
 405  136.4399
 406  130.2571
 407  104.91
 408  144.2154
 409  49.63023
 410  38.40348
 411  18.71017
 412  60.37343
 413  132.3884
 414  128.3616
 415  104.8735
 416  20.95401
 417  -27.01449
 418  61.53384
 419  96.25851
 420  217.4627
 421  68.46284
 422  100.2812
 423  149.8434
 424  114.9219
 425  136.07
 426  51.15292
 427  -4.843992
 428  27.17736
 429  29.04111
 430  -112.5734
 431  -59.22697
 432  151.6971
 433  151.5167
 434  15.04098
 435  102.0063
 436  290.6403
 437  215.4285
 438  167.9449
 439  -24.29332
 440  83.00686
 441  165.5174
 442  83.00713
 443  59.63483
 444  5.130201
 445  133.172
 446  108.2258
 447  154.4862
 448  166.9329
 449  275.5572
 450  190.0466
 451  49.94714
 452  71.43875
 453  -16.37945
 454  16.88063
 455  -10.92308
 456  33.62053
 457  10.58913
 458  -50.47852
 459  -55.41311
 460  33.32866
 461  37.4401
 462  43.44018
 463  15.02931
 464  77.57765
 465  140.7227
 466  75.38274
 467  -2.349997
 468  -28.52762
 469  -12.31258
 470  -34.30923
 471  210.38
 472  192.0822
 473  57.04133
 474  90.91201
 475  259.6747
 476  247.1112
 477  86.29955
 478  88.12897
 479  14.58975
 480  23.65727
 481  61.49955
 482  104.4101
 483  -103.9176
 484  -86.40405
 485  37.72667
 486  72.60482
 487  -70.97885
 488  -110.0175
 489  -23.63473
 490  -6.77828
 491  10.5524
 492  123.4441
 493  205.8971
 494  290.5406
 495  155.8545
 496  -18.55373
 497  87.74342
 498  51.94533
 499  123.6507
 500  33.79445
 501  194.7881
 502  173.2965
 503  155.232
 504  120.3281
 505  97.76437
 506  222.2527
 507  171.0133
 508  152.578
 509  415.2767
 510  704.3988
 511  883.2344
