# Input file       =  1186297159.116241-PSRB0329-2ms-sampling-dd.dat
# Candidate        =  PSR_0332+5434
# Telescope        =  AR
# Epoch_topo       =  57974.291413382416
# Epoch_bary       =  N/A
# T_sample         =  0.002
# Data Folded      =  7340032
# Data Avg         =  -3.58042501450121e-10
# Data StdDev      =  6.890148223177   
# Profile Bins     =  512
# Profile Avg      =  0.190487646531179
# Profile StdDev   =  824.978367846963 
# Reduced chi-sqr  =  0.508
# Prob(Noise)      <  1   (~0.0 sigma)
# P_topo (ms)      =  714.46674756521   +/- 8.49e-05
# P'_topo (s/s)    =  -0                +/- 4.48e-11
# P''_topo (s/s^2) =  0                 +/- 1.98e-14
# P_bary (ms)      =  N/A
# P'_bary (s/s)    =  N/A
# P''_bary (s/s^2) =  N/A
# P_orb (s)        =  N/A
# asin(i)/c (s)    =  N/A
# eccentricity     =  N/A
# w (rad)          =  N/A
# T_peri           =  N/A
######################################################
   0  197.7687
   1  33.06812
   2  -77.19822
   3  -522.0469
   4  -252.7531
   5  -503.9463
   6  -377.1911
   7  -499.1907
   8  -647.6426
   9  -934.1576
  10  -845.5186
  11  -801.4801
  12  -481.2277
  13  -134.4784
  14  -0.783291
  15  -27.23862
  16  -375.1627
  17  -219.7834
  18  -205.5863
  19  -128.9749
  20  -338.0887
  21  -218.3505
  22  133.5902
  23  365.76
  24  411.63
  25  -473.0046
  26  -724.2172
  27  -782.8845
  28  309.4771
  29  202.24
  30  -129.5209
  31  63.52131
  32  -58.46811
  33  -171.6634
  34  -184.1605
  35  289.4004
  36  132.005
  37  310.4065
  38  174.6877
  39  123.1919
  40  -125.8665
  41  -477.5121
  42  -349.0947
  43  -287.1853
  44  -255.8045
  45  -545.0261
  46  -291.3301
  47  -472.0205
  48  46.86268
  49  86.71537
  50  -339.9991
  51  -534.0892
  52  -584.316
  53  15.78708
  54  89.46758
  55  -362.9121
  56  147.2446
  57  73.7094
  58  -413.9313
  59  -616.9117
  60  -279.4257
  61  99.60419
  62  -80.74574
  63  144.0143
  64  777.9169
  65  812.3571
  66  291.9301
  67  -282.7696
  68  49.538
  69  54.36845
  70  388.3571
  71  853.0947
  72  773.1471
  73  67.55854
  74  -388.8512
  75  -811.1205
  76  -328.7133
  77  -82.62842
  78  -11.74528
  79  31.16868
  80  -338.6177
  81  -30.0592
  82  -375.8866
  83  -672.9022
  84  -799.568
  85  -45.97851
  86  572.1234
  87  846.0662
  88  1176.602
  89  762.8792
  90  251.2545
  91  -1138.99
  92  -1157.303
  93  -544.8275
  94  -426.6305
  95  835.037
  96  877.9636
  97  384.5346
  98  256.3391
  99  -278.8237
 100  -282.2487
 101  -605.7937
 102  70.0672
 103  -126.222
 104  -535.0676
 105  -625.1767
 106  -468.4036
 107  -582.2963
 108  -417.5539
 109  73.43026
 110  -230.9914
 111  236.6696
 112  -316.1472
 113  -469.9447
 114  -373.6254
 115  -145.9393
 116  89.51173
 117  -382.163
 118  -228.1073
 119  -447.5011
 120  -261.6098
 121  -98.94226
 122  320.7398
 123  -88.16799
 124  -514.8555
 125  -520.2373
 126  -1131.652
 127  -1112.259
 128  -590.2266
 129  -433.2316
 130  21.00391
 131  186.5493
 132  308.1703
 133  -178.4319
 134  76.02874
 135  -411.7379
 136  -404.1076
 137  -271.6419
 138  321.4267
 139  530.8982
 140  -141.4899
 141  -393.9797
 142  -635.3453
 143  -379.5677
 144  175.1477
 145  -305.0947
 146  179.7155
 147  65.75075
 148  -516.1362
 149  -442.0552
 150  -373.7324
 151  -24.31887
 152  145.8791
 153  224.5774
 154  60.51904
 155  -255.7002
 156  -510.9321
 157  -533.2939
 158  -147.9744
 159  217.7406
 160  164.1402
 161  -421.7485
 162  -293.8963
 163  52.88823
 164  92.19296
 165  211.0873
 166  -239.8813
 167  -144.7305
 168  -21.68018
 169  266.4037
 170  -90.62404
 171  35.67028
 172  125.9869
 173  -126.7388
 174  -1.709858
 175  -372.4584
 176  -189.0904
 177  -101.4508
 178  740.4045
 179  590.5438
 180  560.1409
 181  -18.18106
 182  117.0704
 183  130.9143
 184  -347.3962
 185  207.9053
 186  218.6296
 187  515.2643
 188  44.7015
 189  -22.72746
 190  -199.7457
 191  -402.8788
 192  -283.7056
 193  -197.2117
 194  549.9225
 195  188.2437
 196  61.40396
 197  123.4857
 198  241.4365
 199  653.4768
 200  -176.7164
 201  -21.41817
 202  -137.3375
 203  370.0094
 204  716.481
 205  546.3281
 206  181.4909
 207  -799.4086
 208  -852.9584
 209  -820.2328
 210  -566.0114
 211  -99.5302
 212  152.3691
 213  107.3614
 214  92.06145
 215  34.65012
 216  114.1702
 217  -217.4454
 218  66.85516
 219  580.3453
 220  678.2245
 221  232.6612
 222  -43.36164
 223  193.0106
 224  -232.1431
 225  -140.7181
 226  -397.6389
 227  -102.2299
 228  -255.5075
 229  -102.4952
 230  32.92085
 231  431.9744
 232  -138.5015
 233  -125.8897
 234  342.1258
 235  608.6484
 236  8.030023
 237  -91.20432
 238  240.217
 239  -196.8364
 240  -466.3958
 241  -142.6679
 242  146.5852
 243  90.12159
 244  -430.7048
 245  106.1717
 246  285.7803
 247  -389.9594
 248  -453.2073
 249  -600.297
 250  45.74845
 251  5.051765
 252  505.4553
 253  321.2675
 254  200.7279
 255  -6.732632
 256  -25.13348
 257  568.4287
 258  -119.5879
 259  59.94748
 260  873.3082
 261  476.9448
 262  441.179
 263  1173.212
 264  1456.316
 265  863.0775
 266  522.7489
 267  222.6815
 268  52.91743
 269  1101.349
 270  900.7501
 271  945.0246
 272  903.2681
 273  463.7812
 274  179.4971
 275  -402.5258
 276  47.27197
 277  216.9241
 278  290.014
 279  41.95932
 280  204.9253
 281  -240.9055
 282  -70.75514
 283  -77.99482
 284  -119.707
 285  -362.4283
 286  -97.26811
 287  804.1345
 288  611.4968
 289  366.1783
 290  474.7786
 291  31.428
 292  -132.7777
 293  128.4501
 294  526.7949
 295  498.987
 296  489.0378
 297  445.1226
 298  500.0119
 299  510.5405
 300  -205.1447
 301  -101.9319
 302  -24.99528
 303  128.294
 304  22.04334
 305  220.0732
 306  136.5844
 307  145.9022
 308  71.45606
 309  -180.3942
 310  -636.1083
 311  -595.011
 312  -92.49259
 313  -639.7321
 314  -1017.971
 315  -489.8412
 316  -125.3115
 317  656.6559
 318  632.9216
 319  468.4479
 320  8.077386
 321  -115.6898
 322  -7.555972
 323  -227.9294
 324  76.66433
 325  149.9117
 326  364.3273
 327  -323.3036
 328  -197.6609
 329  9.641133
 330  -183.0215
 331  -181.4356
 332  -232.5924
 333  97.20966
 334  225.1217
 335  46.26809
 336  319.2675
 337  168.6359
 338  400.9901
 339  97.93949
 340  -330.0328
 341  -184.9661
 342  0.3068366
 343  109.6951
 344  157.2645
 345  -84.02402
 346  256.4285
 347  -241.1282
 348  -266.3479
 349  -311.1938
 350  -381.5395
 351  -167.317
 352  -49.83508
 353  26.00371
 354  -185.1744
 355  -424.588
 356  -856.487
 357  -1134.378
 358  -699.6704
 359  -24.28511
 360  144.43
 361  391.598
 362  307.6486
 363  460.4574
 364  492.6675
 365  114.1916
 366  526.0367
 367  237.0549
 368  806.4586
 369  206.6573
 370  108.1898
 371  64.50677
 372  -97.00009
 373  -265.7068
 374  -110.9918
 375  109.6294
 376  -141.0644
 377  234.0981
 378  -19.68495
 379  88.20838
 380  -183.5487
 381  -337.0487
 382  -550.9728
 383  -571.9375
 384  8.946491
 385  -253.7216
 386  629.512
 387  491.4365
 388  155.8385
 389  128.9118
 390  -602.9515
 391  -449.5564
 392  -458.1541
 393  -733.6093
 394  -581.2654
 395  -304.6359
 396  403.0501
 397  371.4297
 398  119.2235
 399  -165.6761
 400  -235.7424
 401  111.5262
 402  34.28276
 403  -183.4962
 404  52.80101
 405  222.7005
 406  181.2018
 407  152.6955
 408  100.5359
 409  102.5343
 410  8.856972
 411  418.4724
 412  431.9918
 413  531.4337
 414  -128.8906
 415  -291.747
 416  -96.20825
 417  277.5023
 418  674.2996
 419  936.2142
 420  907.7238
 421  -118.9586
 422  -1071.582
 423  -1160.116
 424  -1187.409
 425  -695.2784
 426  551.2424
 427  628.5178
 428  338.4809
 429  -323.2019
 430  -385.9973
 431  -235.6669
 432  -409.4187
 433  562.0273
 434  879.448
 435  1246.545
 436  825.0267
 437  1038.797
 438  1274.372
 439  532.7869
 440  7.703462
 441  -443.304
 442  70.33437
 443  147.1938
 444  176.4273
 445  -215.7935
 446  -29.5838
 447  484.968
 448  -110.9479
 449  -288.4304
 450  -103.8773
 451  327.2651
 452  -124.438
 453  -1.900877
 454  523.9307
 455  162.203
 456  -394.7467
 457  -174.9521
 458  141.7459
 459  -141.6649
 460  281.2019
 461  467.1352
 462  473.8192
 463  409.2549
 464  414.4929
 465  305.4259
 466  -384.494
 467  -136.6525
 468  302.9904
 469  297.9779
 470  257.7951
 471  387.6777
 472  452.5406
 473  72.43848
 474  -389.396
 475  -164.0132
 476  -261.0101
 477  84.67952
 478  601.9894
 479  451.1056
 480  -49.12832
 481  18.91935
 482  365.2585
 483  241.7263
 484  367.5284
 485  119.1481
 486  -66.70418
 487  -414.7917
 488  -341.9302
 489  -378.1107
 490  -345.7917
 491  324.127
 492  300.5104
 493  201.4294
 494  -298.2874
 495  -376.3763
 496  -537.254
 497  -561.3637
 498  187.4795
 499  185.9362
 500  1007.794
 501  713.306
 502  161.6306
 503  -224.3989
 504  -532.5901
 505  -217.0862
 506  -144.5675
 507  147.6332
 508  50.95844
 509  330.7354
 510  264.6595
 511  667.2789
