# Input file       =  1186181463.107759_cleaned.dat
# Candidate        =  PSR_0332+5434
# Telescope        =  AR
# Epoch_topo       =  57972.952339210176
# Epoch_bary       =  N/A
# T_sample         =  0.002
# Data Folded      =  7143424
# Data Avg         =  0.0155881942786346
# Data StdDev      =  1.00005472675195 
# Profile Bins     =  512
# Profile Avg      =  217.45222070384  
# Profile StdDev   =  118.12504872834  
# Reduced chi-sqr  =  1.665
# Prob(Noise)      <  2.31e-19   (~8.9 sigma)
# P_topo (ms)      =  714.466828842742  +/- 0.000305
# P'_topo (s/s)    =  -0                +/- 1.65e-10
# P''_topo (s/s^2) =  0                 +/- 7.5e-14
# P_bary (ms)      =  N/A
# P'_bary (s/s)    =  N/A
# P''_bary (s/s^2) =  N/A
# P_orb (s)        =  N/A
# asin(i)/c (s)    =  N/A
# eccentricity     =  N/A
# w (rad)          =  N/A
# T_peri           =  N/A
######################################################
   0  999.7493
   1  930.48
   2  621.3079
   3  389.4465
   4  269.759
   5  119.9867
   6  127.3876
   7  226.6672
   8  247.6016
   9  298.7368
  10  193.6313
  11  56.06002
  12  194.4297
  13  234.2274
  14  116.6968
  15  142.9483
  16  219.8669
  17  167.1862
  18  199.6182
  19  238.2692
  20  176.6567
  21  228.2841
  22  273.8322
  23  286.2787
  24  282.8983
  25  267.462
  26  199.3527
  27  142.0797
  28  149.1707
  29  123.4214
  30  100.6507
  31  142.5608
  32  227.9699
  33  256.3081
  34  239.2791
  35  119.4473
  36  15.53275
  37  66.49279
  38  233.7249
  39  156.2071
  40  76.39741
  41  233.8507
  42  226.4467
  43  205.4388
  44  101.223
  45  107.867
  46  192.6371
  47  259.8776
  48  226.7373
  49  270.103
  50  201.1373
  51  84.1705
  52  153.2228
  53  95.77385
  54  113.7772
  55  179.9248
  56  212.0167
  57  184.8708
  58  228.2168
  59  161.7724
  60  186.3676
  61  136.052
  62  79.60294
  63  251.4325
  64  230.0517
  65  329.44
  66  406.804
  67  251.0046
  68  236.3243
  69  274.9756
  70  257.8621
  71  236.2266
  72  159.5743
  73  120.7387
  74  303.4132
  75  228.9115
  76  227.5915
  77  239.4391
  78  295.0992
  79  291.0967
  80  130.1273
  81  111.8538
  82  102.2603
  83  222.4201
  84  339.6237
  85  177.1335
  86  129.869
  87  187.089
  88  268.6479
  89  130.9411
  90  140.0592
  91  222.5963
  92  267.8633
  93  283.3851
  94  272.0569
  95  195.8899
  96  339.261
  97  268.9206
  98  157.955
  99  214.1497
 100  171.3653
 101  48.33894
 102  38.66194
 103  146.6194
 104  186.5855
 105  218.4867
 106  175.5745
 107  128.4058
 108  268.4269
 109  288.0497
 110  228.2432
 111  204.084
 112  246.3957
 113  267.7734
 114  203.5467
 115  303.9945
 116  313.5461
 117  170.3295
 118  173.1624
 119  289.5098
 120  421.5058
 121  393.8082
 122  258.5
 123  187.9846
 124  148.6046
 125  289.9123
 126  255.914
 127  117.7897
 128  219.345
 129  329.02
 130  246.7684
 131  107.1049
 132  174.1557
 133  183.1916
 134  162.7691
 135  149.8736
 136  114.0741
 137  326.6574
 138  112.7572
 139  116.8597
 140  343.4738
 141  290.9479
 142  221.0503
 143  137.5606
 144  244.2848
 145  207.6909
 146  175.8913
 147  272.3737
 148  179.5674
 149  195.1304
 150  280.5414
 151  198.6266
 152  264.5849
 153  198.7828
 154  152.8842
 155  78.79624
 156  170.6606
 157  260.1753
 158  362.3733
 159  298.8318
 160  259.5429
 161  266.9839
 162  110.4236
 163  -36.9678
 164  117.4706
 165  292.4238
 166  308.5894
 167  258.9385
 168  460.5662
 169  243.6488
 170  159.4386
 171  137.3933
 172  226.5407
 173  205.0485
 174  163.7877
 175  195.1681
 176  193.3848
 177  126.6396
 178  270.8242
 179  227.3755
 180  168.7274
 181  271.4674
 182  225.8014
 183  200.5915
 184  263.8447
 185  380.0989
 186  304.8798
 187  375.4061
 188  396.7238
 189  258.8496
 190  274.3304
 191  168.7931
 192  374.3425
 193  254.7964
 194  224.4092
 195  226.2793
 196  141.6333
 197  125.3258
 198  189.7359
 199  167.523
 200  249.2542
 201  278.1802
 202  256.1904
 203  182.2439
 204  125.8745
 205  102.444
 206  143.546
 207  117.0185
 208  238.3854
 209  331.6853
 210  272.7943
 211  250.5016
 212  184.8105
 213  128.9251
 214  112.7355
 215  286.4529
 216  233.6341
 217  224.8021
 218  209.4929
 219  176.6924
 220  251.7368
 221  177.1279
 222  117.341
 223  220.5733
 224  273.7255
 225  261.7654
 226  1.901843
 227  87.05389
 228  121.863
 229  121.4168
 230  358.2513
 231  278.8171
 232  111.7135
 233  211.8859
 234  95.89495
 235  121.5996
 236  352.5867
 237  363.3287
 238  79.59959
 239  218.0747
 240  202.6355
 241  279.5402
 242  195.7105
 243  30.65202
 244  -10.51362
 245  75.46792
 246  45.40916
 247  83.09057
 248  185.5802
 249  348.7332
 250  299.5416
 251  173.8328
 252  194.2933
 253  170.6664
 254  331.3643
 255  309.1321
 256  244.1515
 257  196.4757
 258  94.21965
 259  190.7573
 260  183.5821
 261  161.3713
 262  239.1827
 263  287.2238
 264  227.6432
 265  246.594
 266  280.7321
 267  194.3459
 268  128.4095
 269  167.4644
 270  215.9955
 271  213.2941
 272  331.9868
 273  270.2674
 274  118.2802
 275  159.6334
 276  199.8679
 277  258.9727
 278  279.1675
 279  348.4881
 280  134.4937
 281  251.7271
 282  240.5915
 283  388.6378
 284  229.2577
 285  188.6236
 286  127.7385
 287  176.6552
 288  211.6747
 289  72.33413
 290  252.6785
 291  227.2794
 292  249.8438
 293  303.086
 294  160.5743
 295  66.07451
 296  132.0654
 297  78.47993
 298  144.9239
 299  151.215
 300  108.4748
 301  73.04267
 302  162.9214
 303  201.0263
 304  113.1826
 305  80.53514
 306  222.2883
 307  207.3669
 308  139.1842
 309  208.8182
 310  223.607
 311  170.5369
 312  187.3679
 313  124.3686
 314  235.564
 315  175.5123
 316  210.7693
 317  374.1506
 318  114.8643
 319  41.63606
 320  204.1676
 321  274.4154
 322  268.9151
 323  283.4992
 324  184.4701
 325  -8.356042
 326  56.16893
 327  111.0675
 328  281.8776
 329  311.7495
 330  241.4635
 331  162.1086
 332  199.0083
 333  319.1901
 334  249.2074
 335  215.0522
 336  172.2684
 337  111.6294
 338  169.7522
 339  263.1108
 340  189.1284
 341  143.3779
 342  13.62116
 343  9.980484
 344  176.6036
 345  156.3326
 346  119.6119
 347  153.0605
 348  16.0085
 349  164.4996
 350  169.4664
 351  131.6995
 352  174.9379
 353  82.15671
 354  232.8138
 355  133.6531
 356  214.1889
 357  320.0616
 358  218.3888
 359  124.3689
 360  203.3348
 361  245.7483
 362  149.3256
 363  153.5116
 364  116.9445
 365  151.0217
 366  176.7628
 367  213.9709
 368  82.98589
 369  111.6126
 370  269.0874
 371  282.1755
 372  214.4021
 373  109.8267
 374  210.9945
 375  196.1542
 376  162.9541
 377  135.3435
 378  70.61749
 379  48.02685
 380  141.6525
 381  366.8588
 382  332.1608
 383  272.1411
 384  308.8777
 385  225.2115
 386  238.4909
 387  152.1458
 388  72.7702
 389  126.1521
 390  298.947
 391  298.0349
 392  271.5143
 393  275.9775
 394  309.3083
 395  205.9237
 396  235.5421
 397  91.94359
 398  112.5903
 399  251.7862
 400  247.0153
 401  247.0248
 402  310.675
 403  370.0353
 404  272.7911
 405  168.1918
 406  105.519
 407  163.5725
 408  238.9984
 409  215.3035
 410  170.9528
 411  284.5272
 412  318.2426
 413  229.1775
 414  57.20602
 415  129.4524
 416  228.2271
 417  308.1023
 418  204.5037
 419  93.77248
 420  1.463236
 421  139.969
 422  228.0907
 423  146.2261
 424  265.4588
 425  202.6828
 426  183.5659
 427  163.1911
 428  286.5542
 429  335.2576
 430  204.1236
 431  231.4625
 432  245.3251
 433  79.41126
 434  183.0221
 435  202.6976
 436  215.5229
 437  241.3744
 438  234.2078
 439  268.4329
 440  159.6573
 441  153.3926
 442  205.755
 443  305.2092
 444  249.5771
 445  121.2212
 446  244.5118
 447  297.2331
 448  196.5114
 449  114.4408
 450  229.4197
 451  319.3073
 452  312.6359
 453  171.7385
 454  160.8546
 455  305.8137
 456  270.6156
 457  317.6218
 458  252.7242
 459  107.2168
 460  66.56966
 461  289.6242
 462  321.6356
 463  135.8896
 464  165.236
 465  190.0317
 466  217.9436
 467  246.1808
 468  329.5308
 469  273.3108
 470  265.6996
 471  203.7537
 472  279.0537
 473  382.3508
 474  316.8413
 475  229.7573
 476  428.0132
 477  504.8422
 478  379.8483
 479  128.0579
 480  154.8361
 481  196.431
 482  248.9617
 483  149.9621
 484  262.9228
 485  188.4453
 486  145.275
 487  109.0847
 488  110.6301
 489  254.713
 490  229.6804
 491  190.0272
 492  246.1683
 493  332.8896
 494  255.1451
 495  299.5427
 496  278.0744
 497  272.9337
 498  183.6663
 499  286.7299
 500  539.3036
 501  364.2148
 502  378.8515
 503  400.849
 504  412.262
 505  335.6988
 506  484.206
 507  521.8754
 508  547.7941
 509  593.663
 510  802.3573
 511  927.5479
