# Input file       =  1186612281.106419_cleaned.dat
# Candidate        =  PSR_0332+5434
# Telescope        =  AR
# Epoch_topo       =  57977.938658639112
# Epoch_bary       =  N/A
# T_sample         =  0.002
# Data Folded      =  7208960
# Data Avg         =  0.016593590640928
# Data StdDev      =  1.00017414187862 
# Profile Bins     =  512
# Profile Avg      =  233.630931042065 
# Profile StdDev   =  118.679839325318 
# Reduced chi-sqr  =  1.410
# Prob(Noise)      <  2.51e-09   (~5.8 sigma)
# P_topo (ms)      =  714.465357659245  +/- 0.000161
# P'_topo (s/s)    =  -0                +/- 8.66e-11
# P''_topo (s/s^2) =  0                 +/- 3.89e-14
# P_bary (ms)      =  N/A
# P'_bary (s/s)    =  N/A
# P''_bary (s/s^2) =  N/A
# P_orb (s)        =  N/A
# asin(i)/c (s)    =  N/A
# eccentricity     =  N/A
# w (rad)          =  N/A
# T_peri           =  N/A
######################################################
   0  158.9104
   1  169.7835
   2  317.141
   3  183.7398
   4  117.1903
   5  276.8659
   6  275.7272
   7  158.1053
   8  170.7241
   9  208.3791
  10  196.8778
  11  184.1626
  12  194.5009
  13  341.6436
  14  278.9633
  15  252.5502
  16  255.6874
  17  355.8938
  18  372.5466
  19  321.4638
  20  331.1505
  21  218.6324
  22  163.1395
  23  295.887
  24  368.5321
  25  197.8463
  26  211.1347
  27  112.7673
  28  94.23041
  29  201.1043
  30  221.6652
  31  181.2752
  32  279.94
  33  329.9179
  34  254.7022
  35  184.851
  36  62.65778
  37  142.9827
  38  191.6089
  39  173.7923
  40  187.6822
  41  307.6793
  42  370.9529
  43  392.2222
  44  336.7314
  45  159.4573
  46  144.0648
  47  101.6414
  48  292.539
  49  224.7153
  50  84.9802
  51  130.4355
  52  224.9494
  53  297.716
  54  169.1351
  55  2.887994
  56  127.4642
  57  154.9568
  58  217.86
  59  184.9454
  60  152.8805
  61  215.2203
  62  326.8885
  63  215.4199
  64  187.5107
  65  167.9406
  66  317.3022
  67  269.1657
  68  88.97125
  69  111.7228
  70  149.8725
  71  122.099
  72  84.96888
  73  187.9171
  74  176.6637
  75  292.9233
  76  221.4857
  77  136.3165
  78  97.7895
  79  138.3833
  80  194.3295
  81  414.1837
  82  375.7923
  83  214.5732
  84  66.78761
  85  162.5137
  86  239.9386
  87  208.9987
  88  244.0042
  89  151.0586
  90  256.0965
  91  258.3967
  92  209.6571
  93  164.8731
  94  114.7202
  95  210.6763
  96  116.3911
  97  91.00361
  98  330.4903
  99  297.5452
 100  196.3546
 101  166.6991
 102  253.0917
 103  229.3658
 104  301.3137
 105  396.607
 106  284.9604
 107  185.8309
 108  116.0809
 109  312.8903
 110  281.2687
 111  243.5422
 112  240.7437
 113  175.2277
 114  259.1762
 115  133.9585
 116  195.5611
 117  252.382
 118  242.4282
 119  203.4812
 120  119.9829
 121  179.8096
 122  80.30807
 123  39.26547
 124  130.3747
 125  190.791
 126  163.8247
 127  265.8426
 128  354.4766
 129  206.7556
 130  197.8243
 131  202.0438
 132  233.5823
 133  203.9655
 134  176.2426
 135  316.4755
 136  301.7517
 137  236.1201
 138  241.9397
 139  163.2443
 140  132.9831
 141  213.989
 142  347.2253
 143  406.5283
 144  227.4112
 145  217.5802
 146  305.9772
 147  340.2217
 148  290.598
 149  210.2976
 150  200.1999
 151  210.381
 152  257.4301
 153  255.8659
 154  263.226
 155  170.4265
 156  155.2211
 157  222.0691
 158  192.4422
 159  258.1982
 160  239.4327
 161  177.3309
 162  275.8587
 163  309.8334
 164  174.7411
 165  127.042
 166  296.7976
 167  265.295
 168  244.7511
 169  202.4951
 170  245.311
 171  159.8004
 172  151.6833
 173  117.9055
 174  196.4671
 175  69.44811
 176  129.6524
 177  226.3901
 178  410.2188
 179  281.4573
 180  108.7255
 181  267.6519
 182  259.5532
 183  403.2182
 184  282.5798
 185  304.4569
 186  207.5693
 187  275.7674
 188  279.9741
 189  192.0199
 190  149.3945
 191  149.6296
 192  136.8192
 193  205.8332
 194  214.5592
 195  108.0444
 196  121.2655
 197  95.58126
 198  141.5145
 199  130.0623
 200  198.1272
 201  248.1151
 202  145.0098
 203  157.4459
 204  251.66
 205  291.3463
 206  215.2957
 207  331.4096
 208  371.9499
 209  357.3787
 210  352.9533
 211  204.0133
 212  184.0984
 213  132.4558
 214  191.6529
 215  234.1662
 216  176.1214
 217  185.1053
 218  240.396
 219  187.0137
 220  196.5211
 221  188.0462
 222  195.0806
 223  110.5418
 224  42.45808
 225  145.333
 226  71.11694
 227  58.9846
 228  119.4635
 229  118.336
 230  174.2489
 231  174.7871
 232  238.9463
 233  172.7523
 234  68.98703
 235  174.1772
 236  292.1482
 237  276.3651
 238  206.0164
 239  174.7238
 240  235.8045
 241  348.4787
 242  386.1067
 243  260.7513
 244  235.1988
 245  331.2603
 246  341.0019
 247  290.3125
 248  205.2107
 249  171.8834
 250  205.8605
 251  212.3399
 252  220.4865
 253  394.0887
 254  366.5604
 255  307.845
 256  288.0342
 257  236.5638
 258  348.3697
 259  291.4085
 260  308.1646
 261  462.5866
 262  627.0024
 263  935.3709
 264  1031.693
 265  796.338
 266  714.157
 267  628.649
 268  450.4702
 269  322.0405
 270  232.0884
 271  174.9421
 272  282.5169
 273  340.4998
 274  346.814
 275  252.7716
 276  107.8731
 277  299.7986
 278  370.7132
 279  401.8945
 280  318.5969
 281  127.0413
 282  213.5183
 283  275.7463
 284  373.531
 285  319.0398
 286  316.8837
 287  313.1823
 288  352.1339
 289  326.7675
 290  210.0191
 291  222.8208
 292  282.3399
 293  330.3303
 294  259.3997
 295  215.064
 296  270.0439
 297  184.8841
 298  313.9364
 299  354.9095
 300  296.9942
 301  256.9269
 302  189.9737
 303  209.0307
 304  291.6454
 305  372.4203
 306  340.712
 307  176.6708
 308  72.93943
 309  148.0729
 310  272.0573
 311  278.1208
 312  258.7393
 313  264.017
 314  279.3958
 315  199.1392
 316  207.0535
 317  327.0776
 318  272.09
 319  235.3485
 320  264.3126
 321  268.7107
 322  286.1847
 323  295.2352
 324  240.1172
 325  281.79
 326  353.632
 327  286.2948
 328  259.1107
 329  368.4154
 330  348.6516
 331  302.4872
 332  308.5733
 333  243.521
 334  221.799
 335  242.2717
 336  265.0686
 337  226.9444
 338  301.0252
 339  211.9608
 340  48.02591
 341  7.78521
 342  81.45427
 343  161.4779
 344  159.9049
 345  130.8441
 346  185.1277
 347  152.3865
 348  164.2053
 349  189.5348
 350  208.2646
 351  263.2448
 352  285.5855
 353  263.0393
 354  207.9711
 355  69.27602
 356  189.8537
 357  190.605
 358  46.6734
 359  41.70339
 360  168.1397
 361  234.2684
 362  199.1275
 363  147.086
 364  138.7517
 365  260.3933
 366  222.9389
 367  242.7264
 368  285.9293
 369  159.971
 370  28.82927
 371  271.7275
 372  266.0513
 373  275.6413
 374  165.7892
 375  258.4731
 376  259.0094
 377  286.9502
 378  360.294
 379  309.5214
 380  92.13258
 381  117.3043
 382  242.3413
 383  303.4908
 384  260.4102
 385  412.6287
 386  255.6787
 387  237.1715
 388  214.9864
 389  215.8972
 390  253.5678
 391  287.9687
 392  184.0863
 393  81.36042
 394  188.2467
 395  343.792
 396  299.641
 397  177.5879
 398  220.6221
 399  271.8088
 400  280.6301
 401  258.218
 402  268.8677
 403  196.6206
 404  141.3831
 405  131.6959
 406  229.6867
 407  206.6234
 408  205.3414
 409  277.8699
 410  372.461
 411  289.9724
 412  142.4227
 413  144.099
 414  315.8211
 415  245.5944
 416  281.5153
 417  159.2634
 418  379.18
 419  266.7368
 420  242.4293
 421  182.2074
 422  211.4648
 423  170.3019
 424  80.61814
 425  243.6934
 426  445.6112
 427  388.882
 428  147.1847
 429  270.2084
 430  418.8239
 431  316.8695
 432  288.7348
 433  275.6539
 434  240.1592
 435  273.7413
 436  265.1175
 437  149.3054
 438  199.1143
 439  186.984
 440  239.1952
 441  368.4754
 442  268.9944
 443  278.8735
 444  152.5963
 445  317.9302
 446  331.5939
 447  238.4512
 448  257.4244
 449  255.6586
 450  187.695
 451  205.1419
 452  203.1829
 453  174.5119
 454  79.18624
 455  177.7953
 456  290.3228
 457  220.2121
 458  351.2278
 459  245.2622
 460  128.9776
 461  189.4692
 462  283.6979
 463  90.11542
 464  245.4605
 465  342.3484
 466  220.9576
 467  212.9774
 468  321.5721
 469  261.6767
 470  269.9497
 471  190.4707
 472  182.1059
 473  162.6566
 474  268.3688
 475  188.5592
 476  109.6555
 477  238.7681
 478  336.3321
 479  251.9206
 480  251.7645
 481  290.4556
 482  266.8735
 483  226.5295
 484  269.5603
 485  261.8595
 486  294.3441
 487  144.9075
 488  106.0238
 489  140.9378
 490  255.9348
 491  197.1451
 492  171.8383
 493  127.1002
 494  183.7864
 495  252.5383
 496  232.2364
 497  217.0154
 498  231.6093
 499  163.1493
 500  119.0377
 501  237.3818
 502  81.22308
 503  81.01514
 504  128.7195
 505  194.5462
 506  235.253
 507  266.3956
 508  236.781
 509  162.2092
 510  228.3102
 511  263.7996
