# Input file       =  1186196071.12301_cleaned.dat
# Candidate        =  PSR_0332+5434
# Telescope        =  AR
# Epoch_topo       =  57973.121413460765
# Epoch_bary       =  N/A
# T_sample         =  0.002
# Data Folded      =  7340032
# Data Avg         =  0.0109726160444009
# Data StdDev      =  1.00006703625257 
# Profile Bins     =  512
# Profile Avg      =  157.155246203573 
# Profile StdDev   =  119.741062830834 
# Reduced chi-sqr  =  1.433
# Prob(Noise)      <  4.3e-10   (~6.1 sigma)
# P_topo (ms)      =  714.466787389146  +/- 0.000144
# P'_topo (s/s)    =  -0                +/- 7.59e-11
# P''_topo (s/s^2) =  0                 +/- 3.35e-14
# P_bary (ms)      =  N/A
# P'_bary (s/s)    =  N/A
# P''_bary (s/s^2) =  N/A
# P_orb (s)        =  N/A
# asin(i)/c (s)    =  N/A
# eccentricity     =  N/A
# w (rad)          =  N/A
# T_peri           =  N/A
######################################################
   0  150.1681
   1  155.7014
   2  -24.96125
   3  -28.2605
   4  139.6779
   5  234.5579
   6  244.2845
   7  54.39606
   8  30.47613
   9  128.8112
  10  359.2004
  11  264.0112
  12  74.26507
  13  50.98275
  14  223.7273
  15  127.5583
  16  142.4447
  17  29.46244
  18  60.27311
  19  69.42055
  20  259.1112
  21  162.8756
  22  190.5157
  23  103.947
  24  131.6019
  25  168.3999
  26  158.4821
  27  70.29868
  28  154.3411
  29  317.6931
  30  310.6104
  31  215.2561
  32  192.8527
  33  191.7786
  34  134.8173
  35  61.23096
  36  18.40717
  37  160.5716
  38  227.1152
  39  100.1473
  40  21.76212
  41  68.93079
  42  132.1986
  43  76.13988
  44  95.08099
  45  4.057413
  46  55.14183
  47  123.6999
  48  73.432
  49  147.7228
  50  97.43299
  51  54.90868
  52  62.69673
  53  58.0606
  54  228.0441
  55  137.886
  56  67.67059
  57  123.8936
  58  162.6154
  59  108.3861
  60  2.44627
  61  140.129
  62  163.7548
  63  362.0792
  64  328.504
  65  139.201
  66  92.29659
  67  178.4461
  68  128.7946
  69  38.53063
  70  -8.452764
  71  -63.23367
  72  105.6216
  73  209.1903
  74  140.9995
  75  72.05854
  76  156.8612
  77  323.0738
  78  497.9586
  79  585.545
  80  635.1434
  81  752.9294
  82  946.5586
  83  896.6243
  84  494.5881
  85  305.1407
  86  29.85851
  87  57.19709
  88  80.26637
  89  133.1251
  90  104.4692
  91  121.9608
  92  230.8591
  93  139.0738
  94  190.9245
  95  97.1739
  96  112.0669
  97  246.591
  98  194.3707
  99  218.7205
 100  64.88816
 101  43.33766
 102  134.0708
 103  243.7937
 104  111.2242
 105  131.7394
 106  111.6736
 107  144.6584
 108  156.3943
 109  165.36
 110  130.0175
 111  166.6181
 112  258.6454
 113  249.1619
 114  239.2251
 115  135.3626
 116  220.5298
 117  190.4329
 118  177.0022
 119  114.3533
 120  104.2943
 121  263.6191
 122  358.0576
 123  391.1768
 124  253.781
 125  112.4554
 126  122.4263
 127  227.6545
 128  209.4304
 129  189.6613
 130  252.3614
 131  223.9393
 132  159.1299
 133  156.3978
 134  183.062
 135  87.6453
 136  105.9508
 137  108.7537
 138  167.9186
 139  160.0604
 140  121.8665
 141  146.9558
 142  80.34943
 143  33.2628
 144  225.1517
 145  265.8299
 146  211.8948
 147  165.3969
 148  15.03606
 149  164.1339
 150  201.392
 151  346.0342
 152  402.206
 153  136.6871
 154  154.8669
 155  197.5607
 156  152.2508
 157  151.2722
 158  215.8202
 159  28.3886
 160  66.92342
 161  136.5067
 162  -43.94833
 163  42.2753
 164  155.5593
 165  171.8214
 166  44.03254
 167  34.51249
 168  129.8617
 169  26.36172
 170  22.92425
 171  -20.0459
 172  -39.77922
 173  59.99463
 174  138.7189
 175  -31.77547
 176  84.10223
 177  245.0387
 178  106.1031
 179  131.0349
 180  166.325
 181  64.14537
 182  7.046182
 183  -1.712996
 184  71.97118
 185  44.3237
 186  25.89208
 187  108.3273
 188  108.7939
 189  135.1953
 190  96.96432
 191  173.8793
 192  102.9234
 193  21.14741
 194  102.6601
 195  175.3386
 196  179.7208
 197  112.4934
 198  241.3665
 199  264.2671
 200  46.83745
 201  188.5562
 202  204.9243
 203  153.054
 204  131.295
 205  84.25101
 206  64.01968
 207  120.717
 208  254.5823
 209  120.6726
 210  180.1716
 211  190.0477
 212  200.9288
 213  111.3424
 214  87.86942
 215  115.0977
 216  155.0718
 217  260.7232
 218  293.1153
 219  246.7685
 220  168.0853
 221  133.9514
 222  210.1022
 223  101.2574
 224  107.6552
 225  304.8236
 226  152.1451
 227  115.7721
 228  154.3597
 229  115.6789
 230  169.1469
 231  185.4174
 232  48.1099
 233  134.4551
 234  183.7904
 235  178.9503
 236  290.4215
 237  290.7352
 238  238.8682
 239  112.7485
 240  91.65963
 241  133.4102
 242  64.97203
 243  76.16483
 244  109.4998
 245  178.4966
 246  198.7477
 247  141.4494
 248  158.4906
 249  135.3909
 250  123.7131
 251  103.2622
 252  271.2777
 253  156.1289
 254  96.85091
 255  117.2299
 256  97.31004
 257  95.39778
 258  219.8238
 259  119.6889
 260  109.083
 261  81.35004
 262  94.0811
 263  106.7971
 264  169.8671
 265  195.3608
 266  140.925
 267  231.7312
 268  204.611
 269  155.3308
 270  193.5083
 271  180.4272
 272  93.57166
 273  103.6008
 274  25.7248
 275  44.65363
 276  115.8743
 277  -73.51776
 278  -33.16332
 279  154.8415
 280  214.0715
 281  187.1055
 282  256.6976
 283  149.5062
 284  148.6585
 285  92.05729
 286  135.6582
 287  262.2472
 288  99.85413
 289  30.06412
 290  242.7118
 291  288.6638
 292  96.8623
 293  81.62202
 294  167.6406
 295  214.3722
 296  107.8477
 297  105.2677
 298  257.1646
 299  230.6413
 300  147.3227
 301  238.5796
 302  221.9665
 303  201.5417
 304  177.4617
 305  184.9155
 306  344.1324
 307  216.8788
 308  164.9385
 309  142.2319
 310  136.3226
 311  96.64771
 312  171.1592
 313  156.3673
 314  161.9579
 315  145.6375
 316  289.0262
 317  159.9876
 318  93.85518
 319  138.6117
 320  280.8335
 321  104.3129
 322  145.2927
 323  327.5407
 324  348.0756
 325  205.6487
 326  188.6831
 327  296.3077
 328  260.6966
 329  149.9316
 330  86.82207
 331  96.55081
 332  186.6532
 333  222.2569
 334  212.1311
 335  144.8618
 336  91.35361
 337  139.2887
 338  133.8976
 339  166.6376
 340  185.3208
 341  112.0174
 342  132.1172
 343  184.0601
 344  120.44
 345  138.5367
 346  278.9159
 347  165.0913
 348  224.0522
 349  181.5708
 350  107.5581
 351  120.1502
 352  185.5713
 353  85.59935
 354  164.9811
 355  225.5566
 356  93.50907
 357  240.8948
 358  224.2295
 359  112.8558
 360  130.9578
 361  228.9902
 362  271.3269
 363  227.8498
 364  189.15
 365  165.4084
 366  99.25048
 367  284.6887
 368  287.1773
 369  346.2246
 370  190.3855
 371  110.6678
 372  32.80418
 373  161.8641
 374  224.2177
 375  225.8439
 376  316.5891
 377  133.425
 378  16.43569
 379  84.92128
 380  248.3226
 381  156.4766
 382  212.0601
 383  258.1385
 384  103.2001
 385  207.0053
 386  117.1738
 387  160.4954
 388  97.64381
 389  26.54773
 390  213.136
 391  246.9118
 392  -9.81692
 393  160.1617
 394  233.4519
 395  216.5529
 396  211.7371
 397  204.2504
 398  200.1484
 399  195.2176
 400  21.29224
 401  20.5405
 402  172.8258
 403  97.8756
 404  96.61367
 405  227.523
 406  237.4403
 407  244.7941
 408  64.44751
 409  130.6039
 410  184.4417
 411  103.3513
 412  24.70209
 413  14.03614
 414  46.02654
 415  108.5773
 416  97.23842
 417  81.26212
 418  65.54858
 419  188.8439
 420  171.6314
 421  166.0085
 422  150.0497
 423  209.7175
 424  286.4696
 425  224.1991
 426  231.7569
 427  223.3244
 428  149.5847
 429  163.1582
 430  153.39
 431  245.2698
 432  162.6927
 433  107.76
 434  90.32759
 435  188.9545
 436  189.5274
 437  215.1946
 438  167.6823
 439  120.3364
 440  212.2662
 441  276.1974
 442  136.5594
 443  58.29911
 444  95.11621
 445  4.538926
 446  132.1341
 447  142.4626
 448  51.59234
 449  41.26842
 450  84.42707
 451  10.02444
 452  -75.25042
 453  -22.71078
 454  128.9972
 455  62.14691
 456  27.74872
 457  121.0595
 458  169.1424
 459  205.7577
 460  127.6133
 461  72.88197
 462  67.90357
 463  163.2731
 464  253.3659
 465  147.4391
 466  116.1739
 467  157.8707
 468  187.0709
 469  133.3567
 470  43.85492
 471  69.49376
 472  206.4894
 473  40.13591
 474  85.79987
 475  95.17444
 476  8.25846
 477  106.5901
 478  284.0274
 479  231.7988
 480  155.4195
 481  185.6474
 482  206.2823
 483  67.0377
 484  164.1931
 485  152.4613
 486  60.939
 487  54.8086
 488  114.2261
 489  86.15503
 490  190.4076
 491  227.6205
 492  174.8793
 493  165.2109
 494  146.5795
 495  248.4578
 496  239.4658
 497  294.7041
 498  280.6925
 499  275.1696
 500  298.217
 501  112.3058
 502  97.72137
 503  262.1047
 504  291.9073
 505  271.6326
 506  212.3109
 507  224.2624
 508  255.5292
 509  217.8418
 510  120.4646
 511  95.89354
