# Input file       =  1186368433.119517_cleaned.dat
# Candidate        =  PSR_0332+5434
# Telescope        =  AR
# Epoch_topo       =  57975.116343975889
# Epoch_bary       =  N/A
# T_sample         =  0.002
# Data Folded      =  7340032
# Data Avg         =  0.0242935198496395
# Data StdDev      =  2.32172287128041 
# Profile Bins     =  512
# Profile Avg      =  347.902587791807 
# Profile StdDev   =  277.986929003787 
# Reduced chi-sqr  =  1.692
# Prob(Noise)      <  1.39e-20   (~9.2 sigma)
# P_topo (ms)      =  714.466160797783  +/- 0.000166
# P'_topo (s/s)    =  -0                +/- 8.77e-11
# P''_topo (s/s^2) =  0                 +/- 3.87e-14
# P_bary (ms)      =  N/A
# P'_bary (s/s)    =  N/A
# P''_bary (s/s^2) =  N/A
# P_orb (s)        =  N/A
# asin(i)/c (s)    =  N/A
# eccentricity     =  N/A
# w (rad)          =  N/A
# T_peri           =  N/A
######################################################
   0  482.7894
   1  220.7635
   2  175.5952
   3  52.81149
   4  106.1143
   5  572.4226
   6  547.3593
   7  398.4684
   8  249.3533
   9  385.4532
  10  395.6
  11  392.9882
  12  76.61142
  13  -107.7936
  14  141.719
  15  672.8087
  16  686.7825
  17  244.8013
  18  390.1005
  19  269.7182
  20  210.4578
  21  326.7265
  22  118.8754
  23  375.7463
  24  542.4138
  25  307.2367
  26  646.9767
  27  306.6348
  28  428.8199
  29  347.383
  30  385.9684
  31  236.0201
  32  315.6616
  33  760.8038
  34  829.9352
  35  569.3328
  36  398.181
  37  302.0879
  38  256.9284
  39  461.4677
  40  835.2668
  41  309.7734
  42  2.201975
  43  294.4644
  44  409.1015
  45  328.6216
  46  155.222
  47  172.7508
  48  261.0174
  49  15.03969
  50  235.2521
  51  210.0892
  52  423.5347
  53  397.2532
  54  656.8907
  55  509.0009
  56  245.7831
  57  307.1614
  58  368.7432
  59  293.9504
  60  -33.4013
  61  140.8297
  62  629.7945
  63  406.7523
  64  631.8679
  65  656.2958
  66  363.4564
  67  575.5716
  68  359.8766
  69  229.6963
  70  149.9008
  71  551.2657
  72  632.0765
  73  344.7891
  74  145.4895
  75  132.4563
  76  501.4609
  77  495.0312
  78  426.9203
  79  128.5388
  80  504.9297
  81  590.9602
  82  563.6614
  83  665.4727
  84  758.1324
  85  472.1625
  86  437.5259
  87  338.9245
  88  359.7067
  89  501.8288
  90  220.9556
  91  227.0081
  92  435.3901
  93  639.3588
  94  440.6385
  95  38.7568
  96  457.6934
  97  488.4747
  98  320.0183
  99  178.7454
 100  118.6722
 101  436.1942
 102  455.0142
 103  476.713
 104  306.4758
 105  212.1066
 106  120.4504
 107  70.44638
 108  -59.76714
 109  -30.98409
 110  -224.7201
 111  182.2533
 112  530.4584
 113  277.5201
 114  -121.5145
 115  134.1572
 116  153.5407
 117  -25.07378
 118  27.30429
 119  351.3454
 120  81.86178
 121  165.8291
 122  198.6798
 123  139.8885
 124  117.9189
 125  452.0425
 126  359.9323
 127  -162.6855
 128  106.1042
 129  38.1184
 130  142.6703
 131  293.6605
 132  31.49814
 133  55.95387
 134  76.36018
 135  183.2431
 136  142.4794
 137  -111.2688
 138  -242.1981
 139  195.5199
 140  382.1373
 141  140.2148
 142  221.9457
 143  27.40829
 144  181.8347
 145  382.1725
 146  408.8408
 147  428.8456
 148  598.593
 149  189.9504
 150  33.32079
 151  236.8923
 152  228.4251
 153  285.6105
 154  310.3468
 155  163.4202
 156  303.7367
 157  520.3652
 158  402.578
 159  487.2119
 160  492.0662
 161  38.27984
 162  190.2866
 163  494.3582
 164  433.6413
 165  0.2843887
 166  358.8141
 167  670.1681
 168  394.5758
 169  284.932
 170  399.4808
 171  273.9489
 172  244.171
 173  225.9557
 174  397.9431
 175  536.5522
 176  570.0966
 177  765.6929
 178  225.6629
 179  -104.5377
 180  29.52036
 181  197.3084
 182  515.9511
 183  675.1628
 184  386.8467
 185  60.36713
 186  -21.13381
 187  178.5419
 188  519.7377
 189  374.1102
 190  435.207
 191  107.0254
 192  208.5534
 193  456.3989
 194  275.1306
 195  -132.9713
 196  -48.46098
 197  168.7132
 198  130.7795
 199  325.4687
 200  479.59
 201  545.2339
 202  353.3485
 203  39.62334
 204  -109.4205
 205  6.724698
 206  44.74752
 207  -126.5859
 208  51.01299
 209  599.0107
 210  805.926
 211  665.1527
 212  542.1824
 213  753.9982
 214  310.3548
 215  232.1225
 216  219.2189
 217  216.125
 218  453.1426
 219  347.3957
 220  280.6031
 221  342.0605
 222  443.7455
 223  659.0438
 224  536.1946
 225  472.3112
 226  634.9609
 227  517.7341
 228  503.7879
 229  792.9594
 230  500.4431
 231  171.4441
 232  425.084
 233  584.019
 234  484.6521
 235  200.7972
 236  322.3382
 237  562.0255
 238  154.5387
 239  292.3545
 240  492.3374
 241  390.9123
 242  574.5276
 243  462.1424
 244  322.9777
 245  217.2032
 246  -7.549389
 247  268.1058
 248  363.6117
 249  524.3405
 250  555.4778
 251  580.2339
 252  242.0313
 253  97.24883
 254  -60.80017
 255  53.11609
 256  273.8703
 257  426.015
 258  557.3853
 259  315.8279
 260  91.3317
 261  -120.0907
 262  6.957773
 263  110.533
 264  38.32937
 265  418.7469
 266  364.2646
 267  321.2033
 268  572.7773
 269  690.6086
 270  396.8853
 271  468.8028
 272  552.5543
 273  751.012
 274  258.1269
 275  330.934
 276  297.1974
 277  116.4408
 278  327.4724
 279  52.47752
 280  -5.791557
 281  55.71384
 282  255.2256
 283  277.4035
 284  184.6975
 285  120.8228
 286  74.62112
 287  392.3827
 288  261.6985
 289  503.6628
 290  277.5011
 291  233.3009
 292  461.4362
 293  436.6727
 294  398.4409
 295  120.9286
 296  -27.08418
 297  133.7461
 298  286.9654
 299  94.75827
 300  204.5482
 301  235.9131
 302  484.2834
 303  171.3055
 304  481.8168
 305  546.3956
 306  547.4853
 307  525.1146
 308  173.0527
 309  246.2937
 310  391.8675
 311  464.0119
 312  478.9084
 313  391.6384
 314  581.3094
 315  322.0569
 316  97.97852
 317  340.9223
 318  364.4841
 319  312.3425
 320  846.71
 321  984.3106
 322  1604.917
 323  2075.146
 324  2131.508
 325  1858.289
 326  1673.301
 327  1368.49
 328  978.5491
 329  475.8718
 330  417.2953
 331  396.9362
 332  467.4207
 333  368.7601
 334  246.6674
 335  408.4526
 336  506.7196
 337  609.3417
 338  860.6453
 339  627.0005
 340  367.5268
 341  330.54
 342  380.3339
 343  278.0012
 344  568.9373
 345  541.8975
 346  537.6669
 347  242.1317
 348  303.0153
 349  430.7085
 350  252.3382
 351  240.9321
 352  365.8518
 353  180.4875
 354  259.1781
 355  302.3188
 356  385.9215
 357  640.9944
 358  498.4914
 359  577.512
 360  216.684
 361  19.27932
 362  330.4092
 363  180.2558
 364  319.3805
 365  474.132
 366  629.6252
 367  515.3422
 368  786.1295
 369  765.577
 370  530.5657
 371  391.0947
 372  352.7286
 373  542.7034
 374  362.4485
 375  432.0909
 376  332.9853
 377  262.5579
 378  386.8529
 379  682.2542
 380  519.0377
 381  564.6744
 382  483.4104
 383  507.1375
 384  457.2777
 385  302.6866
 386  290.7392
 387  709.2704
 388  570.6996
 389  375.3292
 390  255.8356
 391  98.99548
 392  206.7994
 393  143.5779
 394  -17.98237
 395  162.0929
 396  363.6305
 397  746.3139
 398  602.0367
 399  606.1562
 400  535.317
 401  201.4256
 402  124.4745
 403  102.7096
 404  385.7343
 405  677.933
 406  460.3533
 407  311.3469
 408  138.3255
 409  329.8565
 410  355.4698
 411  199.492
 412  506.9774
 413  246.6094
 414  1.811478
 415  89.03259
 416  138.7574
 417  41.00024
 418  123.8536
 419  278.0646
 420  346.0786
 421  316.3455
 422  336.6127
 423  173.2648
 424  361.4644
 425  377.9358
 426  486.2503
 427  302.8068
 428  437.2081
 429  683.1146
 430  321.9582
 431  417.4429
 432  267.9898
 433  328.2249
 434  355.5611
 435  549.0043
 436  335.0421
 437  384.6552
 438  208.1071
 439  531.3524
 440  471.3056
 441  329.7154
 442  255.1231
 443  618.9044
 444  439.642
 445  -9.636766
 446  73.13041
 447  48.99659
 448  -21.34543
 449  -238.3584
 450  434.4498
 451  538.0524
 452  202.8531
 453  184.8951
 454  352.8113
 455  523.624
 456  198.7861
 457  91.27081
 458  -25.81509
 459  187.6051
 460  368.5821
 461  68.71976
 462  199.201
 463  431.3432
 464  785.0119
 465  653.1986
 466  381.708
 467  192.6064
 468  365.1811
 469  356.9839
 470  440.0933
 471  474.7345
 472  136.056
 473  -102.6623
 474  89.73454
 475  206.9509
 476  271.6396
 477  279.8206
 478  162.668
 479  460.3834
 480  623.5924
 481  231.581
 482  22.38588
 483  231.1781
 484  443.426
 485  277.825
 486  375.2366
 487  578.7601
 488  649.2847
 489  260.7169
 490  84.19741
 491  203.42
 492  555.3073
 493  676.4492
 494  222.1024
 495  206.9708
 496  421.1965
 497  390.0987
 498  293.2189
 499  435.5664
 500  30.21489
 501  -24.03523
 502  321.1211
 503  399.8195
 504  239.8607
 505  273.1855
 506  375.1762
 507  532.764
 508  446.5161
 509  457.504
 510  517.9731
 511  423.2964
