# Input file       =  1186526186.116844-PSRB0329-2ms-sampling-dd.dat
# Candidate        =  PSR_0332+5434
# Telescope        =  AR
# Epoch_topo       =  57976.942188852358
# Epoch_bary       =  N/A
# T_sample         =  0.002
# Data Folded      =  7143424
# Data Avg         =  -1.59295911831078e-09
# Data StdDev      =  14.7988747472631 
# Profile Bins     =  512
# Profile Avg      =  -0.0608932614301394
# Profile StdDev   =  1748.02213707117 
# Reduced chi-sqr  =  0.888
# Prob(Noise)      <  0.967   (~0.0 sigma)
# P_topo (ms)      =  714.465622318547  +/- 0.00423
# P'_topo (s/s)    =  -0                +/- 2.3e-09
# P''_topo (s/s^2) =  0                 +/- 1.04e-12
# P_bary (ms)      =  N/A
# P'_bary (s/s)    =  N/A
# P''_bary (s/s^2) =  N/A
# P_orb (s)        =  N/A
# asin(i)/c (s)    =  N/A
# eccentricity     =  N/A
# w (rad)          =  N/A
# T_peri           =  N/A
######################################################
   0  -738.5187
   1  -592.7515
   2  -549.9229
   3  -363.9195
   4  -406.6869
   5  -404.1743
   6  -620.5961
   7  -709.9694
   8  -689.6694
   9  -136.0939
  10  -87.79334
  11  -357.0952
  12  -537.9528
  13  -437.8231
  14  -369.3226
  15  -566.7166
  16  -383.254
  17  -200.0881
  18  -239.8834
  19  -964.3221
  20  -413.0381
  21  -149.738
  22  -224.2817
  23  -110.4347
  24  -425.6862
  25  -525.2818
  26  -878.8881
  27  -250.8566
  28  86.82042
  29  -53.33053
  30  -436.7741
  31  -423.3626
  32  -515.5135
  33  -999.3505
  34  -330.1666
  35  -253.3746
  36  -509.4703
  37  -365.0768
  38  10.17951
  39  59.67803
  40  -398.6353
  41  -169.3402
  42  -270.8291
  43  -335.462
  44  -245.7843
  45  -366.754
  46  -26.34735
  47  140.0178
  48  129.628
  49  -236.3537
  50  -125.1256
  51  -90.13554
  52  -142.4282
  53  33.54652
  54  -88.9838
  55  19.28918
  56  -83.37473
  57  109.4713
  58  624.9641
  59  1169.239
  60  1393.592
  61  1397.612
  62  1250.537
  63  1133.228
  64  533.9931
  65  424.52
  66  -49.23195
  67  -143.8086
  68  122.5988
  69  -107.0776
  70  -416.5641
  71  -275.3528
  72  -213.9507
  73  150.8172
  74  -119.3443
  75  -221.0272
  76  245.619
  77  144.4453
  78  177.0306
  79  55.567
  80  -76.41499
  81  -297.8978
  82  -470.4718
  83  358.9556
  84  167.9722
  85  401.4108
  86  289.933
  87  80.5695
  88  68.97536
  89  -453.4501
  90  -31.07278
  91  -89.95953
  92  135.902
  93  -123.0195
  94  24.96136
  95  -264.4049
  96  -297.1025
  97  88.11464
  98  -112.2298
  99  -265.0465
 100  -465.8028
 101  -505.1144
 102  -246.7269
 103  -59.22693
 104  376.834
 105  768.8843
 106  286.5556
 107  -71.44221
 108  -414.8434
 109  -223.7988
 110  89.9877
 111  -155.3006
 112  15.20572
 113  444.7836
 114  169.8251
 115  -227.5751
 116  -89.82326
 117  -37.8945
 118  -42.46654
 119  -219.1339
 120  -81.14617
 121  132.0746
 122  -176.4315
 123  52.75698
 124  58.88826
 125  87.73174
 126  -76.73159
 127  -192.6911
 128  -305.5402
 129  -706.9933
 130  -653.6037
 131  -231.9299
 132  57.77185
 133  26.05091
 134  -27.66798
 135  -393.688
 136  -427.0803
 137  -211.6998
 138  77.80947
 139  354.8561
 140  169.4597
 141  7.97102
 142  22.60856
 143  208.5394
 144  135.8759
 145  -268.6579
 146  -153.3073
 147  -157.997
 148  132.7567
 149  166.2774
 150  13.19205
 151  -235.8868
 152  104.1139
 153  -106.2152
 154  -241.2439
 155  17.61368
 156  50.23888
 157  -14.43331
 158  81.18504
 159  175.434
 160  -273.6154
 161  -287.2691
 162  -323.7817
 163  -593.0179
 164  -60.74483
 165  -93.41634
 166  -112.5913
 167  -194.8383
 168  -42.71236
 169  124.4545
 170  -59.41953
 171  318.9163
 172  79.53982
 173  -48.50322
 174  134.5275
 175  -126.7423
 176  -284.8409
 177  -517.5681
 178  33.26207
 179  116.1817
 180  138.6271
 181  -209.9731
 182  -281.5909
 183  -336.7272
 184  -553.8105
 185  101.2726
 186  165.3826
 187  -82.66718
 188  -394.3023
 189  -201.1865
 190  -413.7458
 191  -652.3167
 192  -214.9203
 193  -329.5513
 194  25.67859
 195  -481.9215
 196  -763.0201
 197  -578.8274
 198  -160.0901
 199  -369.7262
 200  -321.1042
 201  -105.5744
 202  -472.047
 203  -198.6557
 204  -320.6732
 205  -192.6609
 206  54.08917
 207  92.56033
 208  486.8173
 209  270.7125
 210  -200.8399
 211  -490.696
 212  -43.25605
 213  -44.72758
 214  112.0108
 215  332.3405
 216  129.4108
 217  -313.3512
 218  -584.3511
 219  -175.5572
 220  -87.03007
 221  -305.9128
 222  -43.31829
 223  368.381
 224  486.22
 225  268.4526
 226  -100.4702
 227  92.16308
 228  -332.8854
 229  -365.7931
 230  196.1732
 231  237.0841
 232  349.3554
 233  646.4987
 234  473.9647
 235  319.094
 236  171.2971
 237  18.6408
 238  56.92759
 239  380.853
 240  424.7784
 241  534.0294
 242  590.1489
 243  412.3382
 244  11.37897
 245  585.7034
 246  101.0148
 247  -62.7672
 248  271.8468
 249  290.8069
 250  236.812
 251  159.0544
 252  655.8522
 253  -37.56992
 254  -116.7812
 255  50.69935
 256  29.21515
 257  283.0255
 258  191.2721
 259  328.3483
 260  32.19504
 261  105.0474
 262  -377.085
 263  63.59794
 264  -31.88355
 265  -33.72228
 266  27.80778
 267  415.7707
 268  663.7142
 269  377.5514
 270  300.7997
 271  -7.711141
 272  170.9557
 273  207.9482
 274  249.9651
 275  151.2608
 276  494.194
 277  364.6356
 278  140.2415
 279  242.6445
 280  -205.492
 281  541.5996
 282  959.5264
 283  387.9391
 284  512.4305
 285  475.6107
 286  149.7698
 287  779.5133
 288  463.683
 289  60.71123
 290  1149.193
 291  252.1928
 292  -628.5192
 293  1317.401
 294  176.6373
 295  -627.8515
 296  2023.337
 297  -481.7344
 298  -317.2378
 299  3363.978
 300  -4104.171
 301  4384.5
 302  19136.41
 303  14167.91
 304  4064.134
 305  -3468.256
 306  3332.177
 307  101.1862
 308  -711.5156
 309  1882.785
 310  -538.0277
 311  -124.5289
 312  1393.019
 313  -470.3625
 314  209.2172
 315  676.8228
 316  -410.0814
 317  372.6249
 318  419.2779
 319  -224.2417
 320  43.63698
 321  -338.519
 322  -346.6424
 323  349.282
 324  520.4749
 325  42.14618
 326  43.44526
 327  -38.01278
 328  -53.83987
 329  135.8625
 330  -34.3107
 331  8.541255
 332  95.39771
 333  165.784
 334  201.9491
 335  83.98618
 336  -164.4499
 337  -281.6043
 338  -176.2376
 339  166.4938
 340  548.5177
 341  514.155
 342  -110.6672
 343  186.1875
 344  19.6304
 345  -15.1955
 346  273.4724
 347  50.62324
 348  296.4395
 349  -49.36824
 350  200.3117
 351  140.5813
 352  157.3418
 353  211.8299
 354  -376.018
 355  -6.352614
 356  465.7011
 357  164.1051
 358  -293.3412
 359  217.3925
 360  180.8851
 361  -139.0983
 362  -158.0936
 363  175.3108
 364  216.0866
 365  407.3118
 366  162.1561
 367  -167.6367
 368  -253.8692
 369  7.992575
 370  257.6112
 371  262.4136
 372  537.4767
 373  -147.9325
 374  -90.49597
 375  -283.5473
 376  -233.6491
 377  -118.0865
 378  -123.7766
 379  11.45018
 380  108.6678
 381  273.5641
 382  -4.108899
 383  3.20225
 384  10.6889
 385  -161.7481
 386  92.66853
 387  -152.4411
 388  -199.8666
 389  -84.07463
 390  0.3695643
 391  -488.8658
 392  -379.5244
 393  -764.6935
 394  -718.7318
 395  -469.9366
 396  -288.5405
 397  -184.3389
 398  -328.9407
 399  -219.6289
 400  -244.551
 401  -286.4393
 402  -654.9916
 403  -608.6488
 404  -687.6646
 405  -46.77774
 406  -96.65097
 407  -390.0669
 408  -369.3749
 409  -900.1982
 410  -707.3139
 411  -438.7596
 412  -208.239
 413  -54.4176
 414  99.29664
 415  271.8069
 416  -77.53614
 417  -370.0958
 418  -429.1602
 419  -420.8224
 420  -429.0906
 421  -147.297
 422  -379.1504
 423  -342.4764
 424  46.76153
 425  -101.6416
 426  -191.2465
 427  -586.1429
 428  -515.4789
 429  -87.21994
 430  -316.4807
 431  -659.7655
 432  -155.009
 433  -255.6875
 434  -111.2114
 435  -313.4465
 436  -456.3805
 437  -95.66756
 438  -48.75182
 439  -40.6524
 440  -117.9983
 441  -233.856
 442  -179.6377
 443  -223.9588
 444  -247.7634
 445  198.9936
 446  301.9263
 447  -20.00427
 448  -80.65929
 449  -450.6369
 450  -495.633
 451  -400.4953
 452  -211.893
 453  62.24189
 454  10.33592
 455  317.7906
 456  103.982
 457  -376.5907
 458  -410.3239
 459  -489.4814
 460  -477.7993
 461  -101.1915
 462  -2.032958
 463  99.87988
 464  38.22382
 465  -193.4874
 466  37.89463
 467  -196.242
 468  -482.0635
 469  -658.0201
 470  -592.8021
 471  -731.2902
 472  -655.5636
 473  -760.2763
 474  -597.5311
 475  -777.4572
 476  -862.2159
 477  -755.9144
 478  -689.3786
 479  -545.5746
 480  -465.933
 481  -113.7176
 482  -454.4568
 483  -898.9223
 484  -753.7868
 485  -668.0792
 486  -430.8965
 487  -262.0571
 488  -72.3077
 489  -433.9717
 490  -557.7126
 491  -240.0784
 492  -136.4789
 493  -712.3832
 494  -729.0025
 495  -373.6382
 496  165.7761
 497  30.01233
 498  -361.2182
 499  -491.6625
 500  -676.9285
 501  -581.117
 502  -421.8137
 503  -533.5451
 504  -635.7813
 505  -320.8738
 506  -3.29911
 507  198.6821
 508  -171.6937
 509  -876.6956
 510  -692.8756
 511  -308.0027
