# Input file       =  1186210989.145512_cleaned.dat
# Candidate        =  PSR_0332+5434
# Telescope        =  AR
# Epoch_topo       =  57973.294075758240
# Epoch_bary       =  N/A
# T_sample         =  0.002
# Data Folded      =  7340032
# Data Avg         =  0.00758328266722778
# Data StdDev      =  1.00003933381611 
# Profile Bins     =  512
# Profile Avg      =  108.666722204572 
# Profile StdDev   =  119.737745934002 
# Reduced chi-sqr  =  1.636
# Prob(Noise)      <  4.3e-18   (~8.6 sigma)
# P_topo (ms)      =  714.467064765862  +/- 0.00013
# P'_topo (s/s)    =  -0                +/- 6.85e-11
# P''_topo (s/s^2) =  0                 +/- 3.02e-14
# P_bary (ms)      =  N/A
# P'_bary (s/s)    =  N/A
# P''_bary (s/s^2) =  N/A
# P_orb (s)        =  N/A
# asin(i)/c (s)    =  N/A
# eccentricity     =  N/A
# w (rad)          =  N/A
# T_peri           =  N/A
######################################################
   0  850.9219
   1  605.898
   2  511.1296
   3  355.9496
   4  177.1529
   5  121.7564
   6  195.0419
   7  172.1671
   8  92.24382
   9  53.41715
  10  102.6765
  11  -16.81191
  12  36.26619
  13  101.8374
  14  96.3644
  15  293.0923
  16  325.6975
  17  229.2352
  18  83.45158
  19  60.9947
  20  56.43509
  21  238.4952
  22  115.7522
  23  101.6913
  24  139.728
  25  102.8704
  26  98.95243
  27  28.28084
  28  176.2476
  29  210.9242
  30  91.45755
  31  72.24557
  32  183.6032
  33  128.8166
  34  58.11047
  35  102.452
  36  31.9624
  37  1.38119
  38  63.14787
  39  117.038
  40  38.041
  41  -103.8237
  42  34.22641
  43  38.31939
  44  -33.32892
  45  -192.0475
  46  -68.92407
  47  -84.94231
  48  202.1609
  49  112.8312
  50  94.03031
  51  100.0166
  52  122.5155
  53  40.90196
  54  27.99982
  55  160.9975
  56  139.794
  57  64.96085
  58  -70.47447
  59  5.131324
  60  88.92545
  61  144.7586
  62  4.049021
  63  -60.99374
  64  46.74554
  65  -0.2021867
  66  -115.7452
  67  -32.11515
  68  -26.19173
  69  -12.44664
  70  59.4577
  71  -66.35183
  72  101.3841
  73  -98.99318
  74  -48.30568
  75  74.59563
  76  87.636
  77  58.71832
  78  116.974
  79  106.1982
  80  99.60938
  81  49.00565
  82  114.0612
  83  84.19023
  84  64.94707
  85  39.36695
  86  61.1123
  87  151.8894
  88  23.88467
  89  38.30412
  90  151.9149
  91  208.0877
  92  110.2469
  93  209.9237
  94  174.4536
  95  240.1628
  96  198.0053
  97  146.762
  98  -23.17753
  99  85.41077
 100  73.19248
 101  -4.128318
 102  40.10875
 103  -25.83378
 104  65.85677
 105  88.23549
 106  -79.16617
 107  31.72582
 108  129.3442
 109  68.88624
 110  88.27479
 111  222.172
 112  197.2985
 113  267.8076
 114  162.3295
 115  314.3253
 116  330.0394
 117  208.466
 118  263.3379
 119  310.7034
 120  156.5962
 121  90.41073
 122  6.199474
 123  111.8709
 124  223.3453
 125  166.1792
 126  238.8002
 127  79.41294
 128  -9.454672
 129  -35.80685
 130  -19.80356
 131  190.1592
 132  172.6874
 133  155.9459
 134  298.1095
 135  169.2358
 136  163.363
 137  210.8173
 138  98.70837
 139  -42.39453
 140  101.4588
 141  79.02973
 142  39.75106
 143  115.9349
 144  83.99083
 145  164.5304
 146  237.6049
 147  304.0546
 148  229.4953
 149  269.1797
 150  226.6124
 151  203.4307
 152  252.2261
 153  322.9744
 154  274.4445
 155  200.5588
 156  165.8674
 157  214.7162
 158  198.6246
 159  248.5773
 160  252.4834
 161  72.52598
 162  6.669734
 163  17.47043
 164  113.3856
 165  80.65536
 166  46.89852
 167  221.8336
 168  417.3425
 169  329.835
 170  179.5637
 171  36.52329
 172  44.24013
 173  234.7147
 174  61.3648
 175  28.98866
 176  75.59399
 177  180.3725
 178  174.2591
 179  -88.33331
 180  -73.20447
 181  135.7854
 182  174.0296
 183  199.7829
 184  168.2281
 185  118.012
 186  61.63911
 187  71.43044
 188  120.243
 189  150.5423
 190  31.03803
 191  196.3033
 192  284.3198
 193  189.5511
 194  -6.478437
 195  -42.84232
 196  -2.931256
 197  94.66856
 198  106.2971
 199  -49.19318
 200  22.28655
 201  78.48395
 202  79.73932
 203  76.40723
 204  201.7466
 205  276.8511
 206  101.2171
 207  21.85373
 208  78.30814
 209  47.17131
 210  199.6479
 211  86.65493
 212  86.27873
 213  79.3846
 214  42.40169
 215  120.2934
 216  52.45217
 217  8.311604
 218  32.34841
 219  -22.69277
 220  27.93994
 221  -37.58919
 222  -4.560629
 223  80.46102
 224  7.316036
 225  -19.38283
 226  41.34001
 227  247.1316
 228  214.6165
 229  42.60665
 230  68.158
 231  113.2935
 232  88.17018
 233  143.5845
 234  64.90865
 235  142.1141
 236  207.7439
 237  190.4642
 238  128.6884
 239  -13.64267
 240  85.90396
 241  19.80511
 242  -103.9196
 243  23.77128
 244  25.77713
 245  90.85702
 246  65.7914
 247  -2.015188
 248  44.77494
 249  210.6287
 250  39.8568
 251  93.96329
 252  193.4821
 253  196.5783
 254  115.6259
 255  110.7112
 256  93.75346
 257  2.018591
 258  -97.05057
 259  -53.14387
 260  40.411
 261  91.06737
 262  9.238705
 263  84.74283
 264  132.5998
 265  53.26966
 266  33.63252
 267  164.8602
 268  225.6117
 269  191.6458
 270  131.1483
 271  23.58377
 272  123.7536
 273  -55.22909
 274  -136.3384
 275  -21.03393
 276  41.12748
 277  83.05148
 278  37.55326
 279  111.5487
 280  75.2524
 281  -0.873456
 282  6.502312
 283  -22.66387
 284  189.0322
 285  54.2012
 286  135.849
 287  108.9072
 288  98.65479
 289  -23.22653
 290  -47.66492
 291  199.6308
 292  104.8958
 293  32.49221
 294  52.24944
 295  80.42765
 296  2.684688
 297  74.55587
 298  75.10728
 299  124.1071
 300  73.11761
 301  -16.99967
 302  -112.1545
 303  9.659842
 304  56.77728
 305  53.29038
 306  174.8026
 307  67.47784
 308  178.1285
 309  134.679
 310  226.5106
 311  64.17193
 312  73.2295
 313  88.44524
 314  80.74728
 315  111.2712
 316  84.92516
 317  41.01748
 318  88.21963
 319  107.2679
 320  150.2019
 321  41.70026
 322  -4.362834
 323  -13.90043
 324  149.9803
 325  282.4216
 326  265.9378
 327  222.1187
 328  191.9828
 329  99.55169
 330  171.5666
 331  109.0528
 332  180.7811
 333  77.26181
 334  -43.61027
 335  141.0865
 336  142.1602
 337  154.9734
 338  175.0666
 339  37.27918
 340  39.689
 341  177.678
 342  113.122
 343  119.8679
 344  174.8275
 345  -40.76657
 346  -96.97206
 347  -4.404511
 348  52.23085
 349  55.57043
 350  80.57949
 351  16.85058
 352  138.9901
 353  39.41803
 354  21.91118
 355  149.9539
 356  11.39163
 357  -33.72474
 358  -14.57636
 359  41.29714
 360  39.96252
 361  175.0694
 362  229.6609
 363  245.843
 364  115.2932
 365  205.5767
 366  25.45591
 367  100.0637
 368  216.1533
 369  159.1218
 370  99.22957
 371  49.76429
 372  63.16496
 373  -75.8016
 374  41.12573
 375  130.6837
 376  99.05408
 377  47.97433
 378  72.6554
 379  100.5379
 380  69.29539
 381  -24.69838
 382  111.4085
 383  140.3621
 384  173.0686
 385  -39.06296
 386  -108.0348
 387  -36.25821
 388  90.49919
 389  169.7954
 390  134.4955
 391  28.54356
 392  77.35114
 393  54.60199
 394  -74.47413
 395  63.98834
 396  130.2428
 397  173.7264
 398  142.9254
 399  207.9921
 400  265.9362
 401  191.2225
 402  133.0208
 403  105.4172
 404  68.73902
 405  92.15563
 406  78.84877
 407  142.0897
 408  38.24076
 409  143.6922
 410  174.5683
 411  174.3438
 412  65.21908
 413  37.00747
 414  58.90365
 415  41.2875
 416  151.4706
 417  242.9796
 418  295.0686
 419  136.5309
 420  166.0275
 421  142.7551
 422  169.7836
 423  174.399
 424  93.14688
 425  203.8161
 426  150.8099
 427  -9.690262
 428  194.3214
 429  133.7292
 430  10.28555
 431  82.45145
 432  120.7507
 433  50.91336
 434  101.5023
 435  100.2818
 436  164.5542
 437  49.43506
 438  50.89209
 439  76.36589
 440  102.1632
 441  -35.99939
 442  19.44733
 443  177.2914
 444  253.8663
 445  83.0905
 446  40.18438
 447  24.11825
 448  -33.80046
 449  18.09974
 450  99.37371
 451  222.9211
 452  214.7756
 453  246.6896
 454  285.95
 455  123.3791
 456  151.4276
 457  175.3195
 458  169.2799
 459  160.7428
 460  154.6553
 461  56.26004
 462  112.7468
 463  182.6333
 464  310.3821
 465  162.2551
 466  163.6391
 467  134.5106
 468  189.3394
 469  202.4138
 470  32.49118
 471  169.9361
 472  85.77976
 473  139.154
 474  21.61459
 475  -52.65161
 476  117.2911
 477  172.2762
 478  36.01316
 479  88.61862
 480  193.6339
 481  156.9805
 482  170.8007
 483  166.4352
 484  101.1853
 485  83.12048
 486  118.2979
 487  64.94052
 488  6.742123
 489  2.658077
 490  -22.06797
 491  108.7424
 492  191.1947
 493  199.4136
 494  225.7096
 495  200.7395
 496  251.6541
 497  177.5645
 498  122.4723
 499  147.0266
 500  102.3471
 501  33.22995
 502  83.14727
 503  149.9962
 504  240.3171
 505  345.3242
 506  165.9077
 507  282.4805
 508  353.1891
 509  512.0842
 510  667.6736
 511  785.5526
