# Input file       =  1186814826.088579_cleaned.dat
# Candidate        =  PSR_0332+5434
# Telescope        =  AR
# Epoch_topo       =  57980.282929265959
# Epoch_bary       =  N/A
# T_sample         =  0.002
# Data Folded      =  7340032
# Data Avg         =  0.0253642977508466
# Data StdDev      =  2.71927033162057 
# Profile Bins     =  512
# Profile Avg      =  363.360204855445 
# Profile StdDev   =  325.586493534187 
# Reduced chi-sqr  =  1.002
# Prob(Noise)      <  0.477   (~0.1 sigma)
# P_topo (ms)      =  714.465158672914  +/- 0.000234
# P'_topo (s/s)    =  -0                +/- 1.24e-10
# P''_topo (s/s^2) =  0                 +/- 5.46e-14
# P_bary (ms)      =  N/A
# P'_bary (s/s)    =  N/A
# P''_bary (s/s^2) =  N/A
# P_orb (s)        =  N/A
# asin(i)/c (s)    =  N/A
# eccentricity     =  N/A
# w (rad)          =  N/A
# T_peri           =  N/A
######################################################
   0  363.5321
   1  321.6747
   2  312.4897
   3  633.2819
   4  495.2295
   5  489.2808
   6  428.1344
   7  421.9638
   8  251.2157
   9  258.0266
  10  355.0313
  11  536.4293
  12  312.6452
  13  310.1139
  14  182.5534
  15  271.6266
  16  497.1611
  17  491.8776
  18  572.8521
  19  472.4408
  20  480.489
  21  444.0675
  22  419.8168
  23  280.3959
  24  257.3887
  25  388.3667
  26  444.0803
  27  661.5021
  28  478.7015
  29  -63.83196
  30  -128.8103
  31  222.4366
  32  346.2982
  33  385.6287
  34  599.5693
  35  242.426
  36  165.8481
  37  222.5713
  38  488.9554
  39  237.2469
  40  294.81
  41  263.2926
  42  -103.0836
  43  43.59397
  44  240.5658
  45  357.7651
  46  570.3463
  47  372.9452
  48  306.7243
  49  453.3363
  50  434.3719
  51  97.54946
  52  424.0727
  53  358.0093
  54  671.5739
  55  434.6995
  56  323.7519
  57  584.6415
  58  730.8571
  59  914.6107
  60  460.7635
  61  297.3574
  62  563.681
  63  601.4103
  64  168.0945
  65  355.6671
  66  208.6875
  67  425.8535
  68  677.3339
  69  329.986
  70  52.89619
  71  49.2988
  72  436.2956
  73  255.9159
  74  407.855
  75  382.9971
  76  20.8698
  77  -143.3298
  78  143.7255
  79  62.94535
  80  492.5583
  81  467.1603
  82  335.4446
  83  387.9872
  84  105.8308
  85  -70.14009
  86  211.8705
  87  497.4931
  88  476.6058
  89  157.8853
  90  235.414
  91  84.89587
  92  41.41008
  93  188.7435
  94  315.3361
  95  493.499
  96  176.3276
  97  91.85139
  98  354.5739
  99  79.07617
 100  272.1319
 101  489.0027
 102  818.9753
 103  454.4692
 104  584.6538
 105  522.9279
 106  320.3939
 107  166.5681
 108  249.9939
 109  297.4249
 110  256.4554
 111  302.008
 112  361.6912
 113  444.251
 114  116.9165
 115  438.837
 116  386.3642
 117  303.4494
 118  539.829
 119  699.5701
 120  714.5084
 121  552.2191
 122  175.0241
 123  356.887
 124  522.6822
 125  670.4719
 126  70.26675
 127  152.9649
 128  409.3586
 129  281.2201
 130  186.8043
 131  362.2565
 132  189.3631
 133  406.48
 134  235.7273
 135  -55.64947
 136  138.0543
 137  431.0512
 138  350.1058
 139  581.476
 140  564.1688
 141  450.9056
 142  307.613
 143  102.1652
 144  416.0729
 145  514.8059
 146  583.8677
 147  494.4879
 148  353.8461
 149  142.0532
 150  142.9868
 151  248.4804
 152  378.4825
 153  443.8218
 154  338.2234
 155  431.7227
 156  485.0005
 157  212.3978
 158  150.2337
 159  421.5404
 160  325.5905
 161  322.0115
 162  597.5435
 163  242.019
 164  197.3287
 165  404.3332
 166  313.8908
 167  267.1958
 168  344.2317
 169  231.9877
 170  244.147
 171  403.6015
 172  397.3165
 173  382.6196
 174  221.0869
 175  274.6245
 176  85.97183
 177  -216.6715
 178  -24.69774
 179  238.5191
 180  333.1373
 181  477.3275
 182  460.8221
 183  485.5267
 184  463.8692
 185  -103.948
 186  277.6723
 187  105.8736
 188  51.33994
 189  342.6966
 190  360.4913
 191  391.8684
 192  365.6179
 193  166.2415
 194  44.38092
 195  164.5944
 196  186.5525
 197  229.8524
 198  291.3706
 199  130.3577
 200  267.7134
 201  449.0441
 202  370.4912
 203  320.679
 204  181.1036
 205  -71.14799
 206  276.6094
 207  542.1292
 208  446.9412
 209  350.0244
 210  155.4175
 211  567.7899
 212  464.3287
 213  423.7191
 214  251.335
 215  154.9782
 216  419.2766
 217  371.4836
 218  346.4705
 219  137.5061
 220  284.7634
 221  431.8441
 222  765.6712
 223  720.168
 224  453.7316
 225  814.0809
 226  427.2917
 227  429.402
 228  182.6608
 229  431.0706
 230  528.3979
 231  166.4473
 232  426.1707
 233  405.7117
 234  147.3853
 235  170.4015
 236  242.1065
 237  429.7174
 238  781.2291
 239  713.46
 240  624.5613
 241  582.0364
 242  416.0807
 243  293.5955
 244  372.7498
 245  402.0597
 246  476.0697
 247  259.1346
 248  154.7225
 249  426.7728
 250  435.6659
 251  544.0679
 252  435.3129
 253  599.4703
 254  753.6589
 255  289.5614
 256  359.1588
 257  158.4212
 258  187.8583
 259  201.2935
 260  238.6524
 261  433.3199
 262  351.7873
 263  260.4199
 264  135.8884
 265  276.6675
 266  593.7115
 267  779.5517
 268  436.7785
 269  266.6218
 270  343.6678
 271  212.3388
 272  244.2777
 273  269.5479
 274  12.96944
 275  225.192
 276  128.8484
 277  259.2767
 278  185.66
 279  178.6095
 280  518.0511
 281  456.8525
 282  515.528
 283  735.3322
 284  270.797
 285  41.33684
 286  451.9973
 287  372.4071
 288  338.2643
 289  54.13919
 290  226.0253
 291  400.008
 292  325.709
 293  99.75498
 294  142.3931
 295  323.5045
 296  417.5883
 297  341.0599
 298  218.6299
 299  403.7136
 300  236.726
 301  475.2011
 302  755.4349
 303  450.7532
 304  361.467
 305  389.8484
 306  461.9894
 307  279.4289
 308  446.8817
 309  402.3382
 310  372.8709
 311  492.4034
 312  460.6725
 313  328.3265
 314  591.3123
 315  510.8297
 316  301.2701
 317  94.86047
 318  136.1777
 319  322.1656
 320  132.7234
 321  233.4463
 322  279.0749
 323  330.8089
 324  187.7463
 325  55.09244
 326  -100.9139
 327  243.7384
 328  412.2756
 329  492.7279
 330  388.1676
 331  308.5254
 332  409.437
 333  308.4984
 334  606.3911
 335  665.7105
 336  335.1216
 337  287.9287
 338  265.0281
 339  239.4686
 340  75.29762
 341  -3.46899
 342  129.3662
 343  150.1329
 344  125.2312
 345  301.0136
 346  346.2551
 347  258.7855
 348  324.7386
 349  606.119
 350  510.1865
 351  399.0693
 352  342.4368
 353  366.8234
 354  482.231
 355  472.3195
 356  318.2402
 357  399.3574
 358  838.6649
 359  831.9554
 360  527.7648
 361  288.3945
 362  223.3429
 363  339.4288
 364  -138.9856
 365  401.2681
 366  794.4339
 367  539.5837
 368  330.3631
 369  528.8647
 370  536.188
 371  263.5286
 372  -34.08212
 373  175.2286
 374  343.1808
 375  609.1641
 376  568.7053
 377  330.0938
 378  420.4544
 379  289.7584
 380  133.7762
 381  291.2049
 382  -24.56814
 383  362.7046
 384  551.6409
 385  585.6047
 386  190.2262
 387  392.5902
 388  326.6033
 389  47.47154
 390  574.0623
 391  381.2999
 392  169.3579
 393  437.8421
 394  259.8833
 395  340.4642
 396  305.7148
 397  315.953
 398  350.3374
 399  614.0286
 400  385.5255
 401  414.925
 402  364.2885
 403  624.2215
 404  644.7847
 405  526.2814
 406  321.5347
 407  400.2377
 408  701.9394
 409  987.3165
 410  866.3832
 411  805.3165
 412  514.5677
 413  743.1888
 414  852.3409
 415  543.4341
 416  439.8676
 417  357.2591
 418  441.9704
 419  347.8419
 420  373.4631
 421  407.5952
 422  226.1476
 423  229.4528
 424  458.6383
 425  1240.344
 426  1483.885
 427  1246.812
 428  1651.497
 429  1848.562
 430  1439.455
 431  991.3225
 432  589.132
 433  442.2531
 434  234.1104
 435  253.5457
 436  15.34299
 437  508.9956
 438  479.4357
 439  260.6707
 440  440.5743
 441  891.3442
 442  662.0314
 443  415.9029
 444  725.7133
 445  862.2828
 446  376.2273
 447  315.92
 448  403.699
 449  523.9929
 450  565.1728
 451  733.0099
 452  644.6296
 453  99.92784
 454  580.2064
 455  421.6238
 456  297.5877
 457  312.761
 458  120.8065
 459  440.2945
 460  50.07142
 461  180.4061
 462  450.3941
 463  484.0302
 464  197.3787
 465  -311.7377
 466  142.6688
 467  566.9476
 468  680.8376
 469  275.9261
 470  257.7795
 471  438.6544
 472  571.0679
 473  175.1528
 474  -82.33998
 475  -135.7995
 476  94.40052
 477  574.3649
 478  692.0359
 479  211.8251
 480  126.2192
 481  226.7108
 482  240.5227
 483  324.3441
 484  229.6794
 485  -15.16535
 486  -102.1693
 487  53.49795
 488  183.0835
 489  395.4402
 490  555.9794
 491  359.7053
 492  118.5554
 493  264.946
 494  125.6179
 495  466.4795
 496  522.3832
 497  206.7031
 498  114.1609
 499  544.1429
 500  199.9207
 501  -297.9755
 502  363.9627
 503  621.6417
 504  256.5171
 505  79.86852
 506  187.1488
 507  179.3958
 508  606.4122
 509  571.1805
 510  465.5322
 511  222.3778
