# Input file       =  1186971524.099253_cleaned.dat
# Candidate        =  PSR_0332+5434
# Telescope        =  AR
# Epoch_topo       =  57982.096563648760
# Epoch_bary       =  N/A
# T_sample         =  0.002
# Data Folded      =  7340032
# Data Avg         =  0.00330641743995772
# Data StdDev      =  1.00007109534035 
# Profile Bins     =  512
# Profile Avg      =  47.5874455567205 
# Profile StdDev   =  119.741548837738 
# Reduced chi-sqr  =  1.055
# Prob(Noise)      <  0.188   (~0.9 sigma)
# P_topo (ms)      =  714.464427032597  +/- 0.000151
# P'_topo (s/s)    =  -0                +/- 7.98e-11
# P''_topo (s/s^2) =  0                 +/- 3.52e-14
# P_bary (ms)      =  N/A
# P'_bary (s/s)    =  N/A
# P''_bary (s/s^2) =  N/A
# P_orb (s)        =  N/A
# asin(i)/c (s)    =  N/A
# eccentricity     =  N/A
# w (rad)          =  N/A
# T_peri           =  N/A
######################################################
   0  40.02654
   1  15.9946
   2  98.02993
   3  -6.115903
   4  -22.77836
   5  -22.29315
   6  -9.249935
   7  12.23256
   8  5.514468
   9  -8.973732
  10  42.34762
  11  33.81346
  12  83.87438
  13  -5.437892
  14  149.15
  15  130.1463
  16  109.5734
  17  33.14017
  18  36.42286
  19  47.23908
  20  31.22063
  21  85.9434
  22  67.32042
  23  54.61116
  24  -42.76647
  25  42.40534
  26  194.5178
  27  42.32067
  28  155.6437
  29  168.9368
  30  49.9367
  31  77.85445
  32  -27.69709
  33  36.64886
  34  55.81941
  35  56.50233
  36  144.4185
  37  38.96494
  38  43.74985
  39  99.1115
  40  82.73826
  41  19.92467
  42  79.41451
  43  140.6833
  44  143.5224
  45  74.56956
  46  65.4668
  47  43.76622
  48  71.56432
  49  56.99357
  50  100.8033
  51  56.66972
  52  -18.30858
  53  -1.75
  54  139.9198
  55  66.88027
  56  -79.55083
  57  -40.83413
  58  52.67926
  59  111.5129
  60  75.61442
  61  154.7786
  62  79.8079
  63  36.69287
  64  155.0084
  65  151.8698
  66  62.23253
  67  -74.32883
  68  -142.3444
  69  0.4936303
  70  6.368175
  71  -58.41406
  72  -123.5312
  73  -88.42906
  74  -5.442717
  75  58.20401
  76  92.14721
  77  -36.09094
  78  43.282
  79  9.942035
  80  -31.72249
  81  105.8202
  82  121.9528
  83  117.2668
  84  158.0798
  85  107.3733
  86  -109.233
  87  64.40739
  88  101.153
  89  91.12325
  90  103.2828
  91  62.6382
  92  86.79455
  93  51.94786
  94  34.84652
  95  118.5142
  96  196.6268
  97  262.4419
  98  123.4775
  99  7.730451
 100  125.6354
 101  116.9675
 102  89.17711
 103  21.61614
 104  -0.0582374
 105  -2.735883
 106  -33.83292
 107  33.45363
 108  69.8508
 109  23.59366
 110  62.24981
 111  121.5466
 112  91.13395
 113  -24.18611
 114  18.52327
 115  0.4684073
 116  69.53329
 117  135.9267
 118  108.6576
 119  51.98105
 120  -7.05996
 121  120.0037
 122  -44.42612
 123  33.10592
 124  61.38148
 125  -67.63551
 126  45.79354
 127  -66.11123
 128  5.384224
 129  82.15086
 130  41.31228
 131  86.11382
 132  166.563
 133  126.8235
 134  47.83686
 135  -11.05638
 136  53.09756
 137  26.42443
 138  -91.16305
 139  -48.04564
 140  -73.51013
 141  -123.5059
 142  -5.431609
 143  -48.74186
 144  51.73895
 145  267.519
 146  336.5233
 147  264.9966
 148  -3.880504
 149  -24.84522
 150  -130.9938
 151  -17.8308
 152  65.89284
 153  -101.8687
 154  -30.99921
 155  29.5344
 156  -47.34128
 157  67.70727
 158  3.550574
 159  -33.2927
 160  63.70818
 161  160.9002
 162  66.07407
 163  37.17041
 164  -32.19838
 165  67.183
 166  24.83075
 167  81.14462
 168  22.87951
 169  105.8027
 170  197.0016
 171  208.6962
 172  41.22961
 173  -5.817042
 174  -2.032849
 175  162.9245
 176  131.4259
 177  32.23269
 178  53.83215
 179  113.1852
 180  89.22023
 181  1.59442
 182  150.2778
 183  162.3257
 184  3.672422
 185  54.1203
 186  143.5961
 187  162.5599
 188  42.03232
 189  -1.361743
 190  64.79635
 191  140.4014
 192  99.17981
 193  -46.78425
 194  -31.75744
 195  22.58022
 196  36.93566
 197  60.83801
 198  34.76411
 199  105.5527
 200  71.65326
 201  -31.74191
 202  15.33792
 203  9.513994
 204  -75.20818
 205  -8.500017
 206  -24.73465
 207  78.70393
 208  29.35912
 209  -39.02135
 210  34.66518
 211  167.69
 212  72.79506
 213  0.008229931
 214  84.7926
 215  -25.32068
 216  17.98722
 217  107.9985
 218  172.6482
 219  16.46543
 220  -62.12828
 221  76.66638
 222  21.37852
 223  -17.72589
 224  62.30892
 225  73.65141
 226  144.6392
 227  61.31258
 228  -36.18373
 229  35.7322
 230  94.63478
 231  78.04145
 232  124.8914
 233  122.1935
 234  -1.700084
 235  -128.9286
 236  -25.06563
 237  43.43576
 238  -85.77224
 239  -12.96278
 240  144.3996
 241  123.4537
 242  -18.98862
 243  63.92201
 244  25.76707
 245  -83.21909
 246  -14.13989
 247  -31.49672
 248  -98.69715
 249  6.288241
 250  -59.16154
 251  110.5585
 252  211.7223
 253  129.5432
 254  65.49614
 255  93.49305
 256  57.95443
 257  -43.4282
 258  -78.98726
 259  90.35905
 260  36.7756
 261  -105.8997
 262  35.00027
 263  50.54736
 264  70.79214
 265  153.7945
 266  104.3543
 267  38.13206
 268  20.78792
 269  -46.98554
 270  -85.19567
 271  -33.77661
 272  99.99097
 273  32.95765
 274  -42.98016
 275  8.359128
 276  -23.73436
 277  36.36891
 278  231.2719
 279  182.8952
 280  75.47443
 281  20.28083
 282  -17.99676
 283  70.30534
 284  95.29351
 285  108.9426
 286  94.42584
 287  146.0239
 288  -39.80642
 289  -58.60067
 290  121.6371
 291  29.0303
 292  45.28033
 293  166.0171
 294  58.83824
 295  -62.43451
 296  8.617147
 297  19.22989
 298  92.11211
 299  -11.83107
 300  -81.65023
 301  -29.42088
 302  54.54722
 303  63.65892
 304  117.2328
 305  152.8284
 306  67.39329
 307  -22.29655
 308  106.7974
 309  150.7618
 310  52.61895
 311  110.558
 312  230.1282
 313  83.92731
 314  29.45099
 315  81.97454
 316  49.20794
 317  73.76681
 318  57.69528
 319  37.88492
 320  16.78655
 321  -17.33836
 322  35.49277
 323  106.1152
 324  228.0931
 325  263.4298
 326  248.6656
 327  163.371
 328  105.8046
 329  226.6989
 330  431.5062
 331  465.9267
 332  570.8268
 333  541.8035
 334  340.608
 335  155.4337
 336  86.38471
 337  -31.87364
 338  19.75429
 339  28.00001
 340  40.66578
 341  49.19426
 342  82.04503
 343  101.6733
 344  76.79631
 345  111.6088
 346  103.9598
 347  53.55061
 348  21.05047
 349  -37.59933
 350  -69.12498
 351  -81.32083
 352  3.942844
 353  42.62232
 354  122.1867
 355  122.2654
 356  -110.0027
 357  -86.06261
 358  -16.37182
 359  -27.915
 360  8.898384
 361  -32.97444
 362  11.09017
 363  -6.031118
 364  -15.02567
 365  -39.85508
 366  65.03243
 367  205.7079
 368  -2.431571
 369  41.9166
 370  0.7339115
 371  7.833725
 372  -24.4016
 373  71.22297
 374  69.64451
 375  138.5339
 376  141.1854
 377  84.3838
 378  -37.56585
 379  -73.63633
 380  -114.4126
 381  64.0545
 382  87.32817
 383  -4.078292
 384  -6.510068
 385  -11.7211
 386  111.8002
 387  165.5534
 388  -75.72417
 389  -45.94391
 390  -137.483
 391  -160.9903
 392  -17.672
 393  -33.06042
 394  -36.28617
 395  -67.29787
 396  40.2025
 397  178.2554
 398  103.5224
 399  -113.5336
 400  -42.35435
 401  -22.4186
 402  55.79419
 403  96.06244
 404  116.2396
 405  167.1352
 406  -68.60143
 407  27.73784
 408  90.1655
 409  -27.66628
 410  -67.56612
 411  -77.6088
 412  9.456905
 413  -92.13053
 414  -133.8116
 415  8.367061
 416  -54.96786
 417  -122.654
 418  34.63287
 419  120.1133
 420  96.07232
 421  63.66669
 422  75.81847
 423  -6.645889
 424  -29.52062
 425  11.25254
 426  -11.87854
 427  50.66535
 428  54.86252
 429  -20.1622
 430  41.47121
 431  131.1408
 432  61.62069
 433  7.905524
 434  7.46986
 435  83.90284
 436  82.33922
 437  32.14379
 438  -31.94278
 439  70.50518
 440  100.5337
 441  79.47906
 442  97.21255
 443  83.9135
 444  100.5217
 445  -33.97966
 446  42.67927
 447  54.00023
 448  33.2171
 449  65.99314
 450  111.2614
 451  45.22772
 452  -47.18947
 453  -16.97617
 454  -32.3116
 455  -124.553
 456  -72.09476
 457  -82.42363
 458  73.42511
 459  70.34851
 460  131.475
 461  197.3749
 462  33.78881
 463  -4.673239
 464  -64.66286
 465  -86.78922
 466  -71.8765
 467  -18.33414
 468  36.84758
 469  77.96313
 470  62.12073
 471  -7.869341
 472  111.0129
 473  103.2837
 474  9.311022
 475  -50.73026
 476  24.48614
 477  107.5538
 478  -94.75362
 479  -34.77981
 480  85.04652
 481  86.26591
 482  144.0219
 483  159.5621
 484  55.00687
 485  -60.35815
 486  11.25287
 487  105.6801
 488  5.558837
 489  -88.50196
 490  37.59117
 491  113.3125
 492  139.2743
 493  140.5857
 494  95.33368
 495  -16.80275
 496  47.93557
 497  176.0812
 498  152.1564
 499  178.8901
 500  97.60967
 501  54.95048
 502  -24.87192
 503  31.91512
 504  -27.74587
 505  -130.8186
 506  42.71185
 507  96.23438
 508  95.41288
 509  191.9591
 510  81.91492
 511  26.23211
