# Input file       =  1186196071.12301_cleaned.dat
# Candidate        =  PSR_0332+5434
# Telescope        =  AR
# Epoch_topo       =  57973.121413460765
# Epoch_bary       =  N/A
# T_sample         =  0.002
# Data Folded      =  7340032
# Data Avg         =  0.0109726160444009
# Data StdDev      =  1.00006703625257 
# Profile Bins     =  512
# Profile Avg      =  157.15524092985  
# Profile StdDev   =  119.741062830834 
# Reduced chi-sqr  =  1.431
# Prob(Noise)      <  5.09e-10   (~6.1 sigma)
# P_topo (ms)      =  714.466786609155  +/- 0.000143
# P'_topo (s/s)    =  -0                +/- 7.57e-11
# P''_topo (s/s^2) =  0                 +/- 3.34e-14
# P_bary (ms)      =  N/A
# P'_bary (s/s)    =  N/A
# P''_bary (s/s^2) =  N/A
# P_orb (s)        =  N/A
# asin(i)/c (s)    =  N/A
# eccentricity     =  N/A
# w (rad)          =  N/A
# T_peri           =  N/A
######################################################
   0  908.0729
   1  949.4345
   2  542.9877
   3  343.0354
   4  66.47945
   5  35.28707
   6  88.54218
   7  112.7773
   8  117.1059
   9  100.4199
  10  238.7861
  11  147.3531
  12  186.9619
  13  125.0374
  14  79.2475
  15  239.8487
  16  192.9173
  17  223.0105
  18  108.5543
  19  29.86981
  20  113.5168
  21  232.7914
  22  135.2483
  23  118.3099
  24  125.2394
  25  132.2909
  26  154.0451
  27  153.0091
  28  148.8455
  29  144.7363
  30  252.778
  31  243.5019
  32  250.9603
  33  145.0156
  34  218.3444
  35  197.6263
  36  170.9694
  37  128.4072
  38  87.65823
  39  244.3226
  40  346.6527
  41  389.9387
  42  285.2719
  43  127.3696
  44  115.2929
  45  205.1624
  46  222.9899
  47  186.9703
  48  247.4069
  49  234.2146
  50  167.148
  51  148.0133
  52  195.8773
  53  96.23484
  54  100.7398
  55  115.0587
  56  145.2722
  57  180.2957
  58  114.0026
  59  154.3396
  60  90.32678
  61  19.14725
  62  187.3534
  63  288.2885
  64  202.5081
  65  200.8628
  66  12.68247
  67  142.5961
  68  196.5567
  69  309.9898
  70  428.3284
  71  166.7726
  72  127.8542
  73  212.903
  74  157.0664
  75  147.2277
  76  213.8587
  77  63.92233
  78  39.40042
  79  146.9321
  80  -15.31476
  81  3.291875
  82  147.078
  83  179.3773
  84  72.71565
  85  18.20468
  86  128.4091
  87  40.48861
  88  7.147709
  89  -1.420861
  90  -40.56551
  91  44.39891
  92  138.4525
  93  -9.106716
  94  40.05087
  95  244.8717
  96  126.5061
  97  116.7548
  98  179.6148
  99  73.92482
 100  15.82001
 101  1.070312
 102  55.71922
 103  58.73497
 104  17.15908
 105  94.0407
 106  110.8896
 107  128.9695
 108  100.0504
 109  155.1894
 110  121.0685
 111  25.44455
 112  93.2704
 113  166.2746
 114  190.7985
 115  107.4384
 116  204.538
 117  290.1465
 118  71.08841
 119  162.9319
 120  208.2821
 121  165.5179
 122  135.3726
 123  88.43831
 124  67.57767
 125  85.18758
 126  272.6497
 127  121.3935
 128  172.9034
 129  188.081
 130  216.9721
 131  116.7791
 132  93.71716
 133  97.36617
 134  154.813
 135  239.7133
 136  296.0017
 137  260.6319
 138  170.0957
 139  138.2905
 140  201.9764
 141  132.3743
 142  76.25078
 143  291.4191
 144  178.8647
 145  114.5384
 146  142.713
 147  126.243
 148  147.9307
 149  207.6323
 150  57.08585
 151  125.447
 152  173.6509
 153  170.0081
 154  281.435
 155  294.6509
 156  258.541
 157  137.8974
 158  73.51135
 159  141.4369
 160  62.76415
 161  82.36304
 162  86.85628
 163  183.442
 164  198.7815
 165  151.6296
 166  152.103
 167  129.0623
 168  136.0897
 169  85.96243
 170  261.3998
 171  174.4779
 172  99.98259
 173  121.3077
 174  99.02325
 175  89.52557
 176  213.3314
 177  146.0523
 178  86.85315
 179  101.3032
 180  87.06838
 181  106.693
 182  145.1455
 183  208.6637
 184  137.5918
 185  222.7249
 186  201.8131
 187  171.9592
 188  182.2765
 189  198.0607
 190  99.97903
 191  95.94466
 192  44.05461
 193  31.12501
 194  119.0908
 195  -40.73507
 196  -64.46529
 197  126.9797
 198  215.0619
 199  188.1477
 200  248.6887
 201  176.2185
 202  134.6351
 203  107.9589
 204  110.0015
 205  261.615
 206  143.3313
 207  9.488601
 208  196.2304
 209  311.5891
 210  126.1834
 211  74.83129
 212  146.8548
 213  221.7613
 214  123.9747
 215  87.40891
 216  240.4588
 217  243.7675
 218  153.7528
 219  224.5693
 220  232.9581
 221  196.6909
 222  182.8133
 223  168.9391
 224  334.6164
 225  238.5434
 226  178.8428
 227  133.1523
 228  151.7405
 229  89.71133
 230  167.879
 231  162.8727
 232  155.6487
 233  134.8669
 234  267.7311
 235  192.2386
 236  105.3098
 237  110.0114
 238  285.9163
 239  124.0163
 240  114.5299
 241  303.9726
 242  363.3532
 243  238.998
 244  165.1323
 245  289.4822
 246  271.7441
 247  173.242
 248  80.6944
 249  97.83553
 250  174.5236
 251  224.9452
 252  207.8339
 253  166.7035
 254  81.36385
 255  138.9834
 256  132.4939
 257  161.4406
 258  191.3826
 259  116.6025
 260  120.6074
 261  182.1983
 262  141.5414
 263  102.3595
 264  282.517
 265  176.6251
 266  217.683
 267  198.974
 268  117.2955
 269  102.1429
 270  186.1028
 271  106.5807
 272  129.1007
 273  241.8849
 274  101.5754
 275  214.2163
 276  244.0712
 277  123.797
 278  125.4131
 279  199.8395
 280  283.2413
 281  230.8578
 282  189.3317
 283  188.3796
 284  80.19665
 285  270.5048
 286  274.6951
 287  355.3823
 288  207.847
 289  130.1467
 290  27.4487
 291  152.4489
 292  212.6459
 293  227.7144
 294  303.46
 295  177.3668
 296  21.07988
 297  59.05159
 298  233.9156
 299  178.4457
 300  181.6921
 301  279.4723
 302  111.7854
 303  196.5076
 304  133.5905
 305  153.8461
 306  119.1581
 307  16.39702
 308  168.6489
 309  285.5605
 310  7.819661
 311  124.6071
 312  238.2578
 313  213.8487
 314  206.5896
 315  210.3256
 316  192.4376
 317  208.8827
 318  53.04163
 319  -5.976418
 320  156.8427
 321  114.2586
 322  87.19686
 323  213.8429
 324  240.2674
 325  262.5395
 326  73.19701
 327  120.8698
 328  171.6211
 329  131.4732
 330  25.96501
 331  18.70704
 332  29.70634
 333  103.4554
 334  100.6534
 335  89.74891
 336  58.20175
 337  165.6053
 338  187.8645
 339  165.1965
 340  156.9653
 341  187.8474
 342  289.125
 343  226.9422
 344  229.8927
 345  228.3593
 346  163.9133
 347  156.0146
 348  149.5018
 349  231.3853
 350  188.4026
 351  109.3544
 352  92.55877
 353  172.6811
 354  184.9915
 355  214.576
 356  172.7625
 357  122.5791
 358  191.0368
 359  284.6726
 360  157.1667
 361  69.98026
 362  91.40038
 363  10.95066
 364  107.2981
 365  153.7257
 366  68.15036
 367  31.25895
 368  89.10535
 369  23.11069
 370  -59.94672
 371  -50.49979
 372  121.8851
 373  76.36646
 374  23.55373
 375  99.64001
 376  161.552
 377  207.5687
 378  143.9764
 379  78.16036
 380  70.20099
 381  126.6806
 382  263.3829
 383  159.7493
 384  115.2769
 385  153.9525
 386  189.3771
 387  149.105
 388  45.29451
 389  43.41805
 390  216.1077
 391  68.89646
 392  55.6012
 393  108.7718
 394  11.09893
 395  82.50534
 396  265.3822
 397  258.6553
 398  160.4374
 399  163.8097
 400  225.105
 401  75.29876
 402  148.9054
 403  171.1235
 404  60.45972
 405  57.17928
 406  95.07058
 407  95.29992
 408  174.761
 409  231.2479
 410  182.0059
 411  156.7729
 412  151.8161
 413  225.7104
 414  255.1978
 415  273.7671
 416  293.1992
 417  262.7721
 418  303.5726
 419  149.767
 420  74.27238
 421  245.8136
 422  290.3877
 423  286.4937
 424  211.9916
 425  220.3135
 426  245.8743
 427  240.0401
 428  127.229
 429  111.0568
 430  120.0706
 431  185.5246
 432  -5.077713
 433  -43.69936
 434  115.5872
 435  221.7849
 436  252.6695
 437  90.09724
 438  19.397
 439  103.9936
 440  321.2002
 441  300.3164
 442  105.6564
 443  30.04467
 444  213.84
 445  130.9281
 446  156.6404
 447  41.2156
 448  54.68575
 449  54.43866
 450  232.9287
 451  196.6149
 452  168.0536
 453  135.4528
 454  104.4533
 455  170.8589
 456  162.1732
 457  94.71122
 458  117.0505
 459  307.2705
 460  319.3201
 461  228.1148
 462  193.0676
 463  187.4641
 464  152.0773
 465  78.17233
 466  15.4831
 467  136.5965
 468  230.0153
 469  121.9409
 470  29.59861
 471  45.6041
 472  126.8713
 473  92.5198
 474  96.11247
 475  9.273849
 476  37.95598
 477  121.9701
 478  80.19059
 479  132.2642
 480  119.7925
 481  49.27948
 482  75.11768
 483  38.21949
 484  211.9612
 485  163.1724
 486  62.37553
 487  117.4945
 488  164.4438
 489  127.4324
 490  -5.345057
 491  121.1122
 492  152.0962
 493  330.9765
 494  354.6807
 495  171.4086
 496  86.09259
 497  170.0091
 498  146.3114
 499  38.39628
 500  8.415894
 501  -64.76644
 502  73.91121
 503  202.8309
 504  156.1953
 505  68.89662
 506  143.5721
 507  289.8198
 508  471.6207
 509  583.4482
 510  621.8704
 511  730.9243
