# Input file       =  1186282239.11017_cleaned.dat
# Candidate        =  PSR_0332+5434
# Telescope        =  AR
# Epoch_topo       =  57974.118728126967
# Epoch_bary       =  N/A
# T_sample         =  0.002
# Data Folded      =  7340032
# Data Avg         =  0.00700439577308419
# Data StdDev      =  1.00005884516351 
# Profile Bins     =  512
# Profile Avg      =  100.484096575267 
# Profile StdDev   =  119.740082086869 
# Reduced chi-sqr  =  1.665
# Prob(Noise)      <  2.31e-19   (~8.9 sigma)
# P_topo (ms)      =  714.466466933348  +/- 0.000195
# P'_topo (s/s)    =  -0                +/- 1.03e-10
# P''_topo (s/s^2) =  0                 +/- 4.54e-14
# P_bary (ms)      =  N/A
# P'_bary (s/s)    =  N/A
# P''_bary (s/s^2) =  N/A
# P_orb (s)        =  N/A
# asin(i)/c (s)    =  N/A
# eccentricity     =  N/A
# w (rad)          =  N/A
# T_peri           =  N/A
######################################################
   0  85.67005
   1  62.29605
   2  115.5668
   3  174.7877
   4  174.6963
   5  218.0957
   6  148.8787
   7  64.63759
   8  36.65054
   9  178.543
  10  228.5873
  11  105.9773
  12  46.79122
  13  144.7581
  14  45.74018
  15  41.26031
  16  167.2081
  17  95.02959
  18  56.38679
  19  7.345408
  20  110.4529
  21  214.6009
  22  321.0622
  23  163.5017
  24  132.7861
  25  161.2172
  26  145.9365
  27  177.1413
  28  240.001
  29  78.63919
  30  50.13669
  31  161.522
  32  154.5887
  33  43.71953
  34  93.48655
  35  14.56018
  36  0.7862355
  37  17.35103
  38  51.21315
  39  50.7584
  40  122.3392
  41  163.5119
  42  92.02691
  43  -55.03732
  44  -85.76165
  45  -32.9748
  46  -8.872231
  47  -23.65194
  48  -49.48891
  49  -90.77364
  50  28.64991
  51  -76.27912
  52  3.61839
  53  136.7832
  54  131.3939
  55  132.2104
  56  45.76014
  57  -14.35784
  58  -10.84464
  59  74.66801
  60  139.9244
  61  94.79044
  62  100.9572
  63  29.97635
  64  74.95959
  65  143.9571
  66  130.5137
  67  183.4799
  68  29.80197
  69  140.0057
  70  116.0408
  71  158.8404
  72  133.4849
  73  105.203
  74  128.6848
  75  -20.66119
  76  -33.79322
  77  122.6341
  78  95.59219
  79  68.50666
  80  -20.95543
  81  -17.70518
  82  -9.754216
  83  -18.18304
  84  10.16126
  85  7.303096
  86  86.25136
  87  48.84316
  88  148.3398
  89  31.41721
  90  24.6361
  91  67.50272
  92  174.5107
  93  245.4057
  94  267.9485
  95  45.13868
  96  3.005818
  97  131.6351
  98  238.5689
  99  103.1159
 100  106.5545
 101  72.18996
 102  40.08024
 103  161.3666
 104  171.3471
 105  151.7266
 106  54.77995
 107  -60.03132
 108  -69.96976
 109  30.54889
 110  161.1539
 111  92.99942
 112  71.05143
 113  149.7155
 114  53.69041
 115  -40.37809
 116  -24.43468
 117  130.1856
 118  302.3628
 119  264.7324
 120  73.42059
 121  23.48812
 122  178.0197
 123  152.8251
 124  186.952
 125  93.91118
 126  -19.82153
 127  -30.26577
 128  4.602422
 129  123.4151
 130  144.3969
 131  46.23922
 132  -107.8053
 133  14.99833
 134  140.467
 135  191.4952
 136  234.7283
 137  117.5115
 138  -41.12345
 139  34.12863
 140  120.7048
 141  247.6722
 142  -40.03796
 143  -19.88868
 144  76.55947
 145  149.0875
 146  244.082
 147  251.6654
 148  126.1056
 149  134.7707
 150  178.6164
 151  47.47832
 152  31.85773
 153  234.5447
 154  194.439
 155  155.719
 156  132.7989
 157  150.8802
 158  108.7713
 159  221.7761
 160  132.2616
 161  86.3542
 162  5.016024
 163  120.9743
 164  143.4905
 165  125.5386
 166  237.8765
 167  61.84921
 168  33.19498
 169  56.39409
 170  154.5033
 171  138.7721
 172  146.6736
 173  110.5107
 174  226.2939
 175  265.4737
 176  100.1906
 177  43.01008
 178  -2.861617
 179  68.45143
 180  146.5102
 181  167.8186
 182  121.727
 183  49.24301
 184  77.2448
 185  82.78432
 186  161.0641
 187  132.6618
 188  56.70798
 189  90.02412
 190  137.3007
 191  170.1897
 192  138.1747
 193  70.93813
 194  24.1841
 195  92.67252
 196  175.1659
 197  142.3703
 198  120.4219
 199  117.408
 200  215.3828
 201  197.6168
 202  179.8085
 203  174.0842
 204  37.30746
 205  84.39155
 206  43.08107
 207  188.1182
 208  269.3406
 209  133.3254
 210  68.59219
 211  85.54836
 212  218.8743
 213  181.8567
 214  81.97657
 215  48.06219
 216  54.44487
 217  -25.0638
 218  39.20696
 219  66.95274
 220  40.02336
 221  15.989
 222  0.5256968
 223  40.27029
 224  131.2458
 225  3.227413
 226  0.1045478
 227  -34.71024
 228  -17.89917
 229  51.29156
 230  82.59315
 231  89.29584
 232  -44.05913
 233  63.25924
 234  169.5657
 235  -28.53575
 236  3.499335
 237  87.70994
 238  10.39102
 239  -11.41116
 240  -44.96488
 241  -26.83538
 242  96.14062
 243  10.78289
 244  158.478
 245  139.6591
 246  180.1554
 247  78.36395
 248  63.41344
 249  169.2972
 250  180.8964
 251  97.64904
 252  102.6154
 253  89.71815
 254  62.17905
 255  81.7698
 256  66.40498
 257  117.5483
 258  -12.57597
 259  -11.13961
 260  -75.63172
 261  -3.593877
 262  150.1795
 263  39.89947
 264  170.8398
 265  55.44333
 266  106.1997
 267  26.82493
 268  -17.1369
 269  2.337604
 270  -15.08313
 271  63.54542
 272  100.6869
 273  38.57341
 274  -17.8993
 275  -6.833536
 276  78.64257
 277  13.94797
 278  102.944
 279  104.5113
 280  30.67116
 281  42.52913
 282  118.124
 283  54.65504
 284  27.9009
 285  110.9256
 286  122.6896
 287  90.25935
 288  196.6159
 289  288.1856
 290  287.0413
 291  505.8454
 292  635.29
 293  633.1619
 294  868.2572
 295  928.4827
 296  807.076
 297  627.6307
 298  291.9673
 299  250.9539
 300  230.8199
 301  139.6522
 302  129.9892
 303  130.4205
 304  108.7062
 305  135.5466
 306  154.2401
 307  272.5683
 308  238.6043
 309  23.90387
 310  -142.6209
 311  -190.324
 312  -96.69161
 313  129.9197
 314  15.16401
 315  -36.5393
 316  -33.13651
 317  -7.661583
 318  -30.83635
 319  -99.95231
 320  -62.24259
 321  -46.68521
 322  -63.56269
 323  33.8163
 324  6.701684
 325  99.24637
 326  123.419
 327  -34.98444
 328  -38.90346
 329  104.1663
 330  120.5629
 331  74.78931
 332  58.98595
 333  49.22978
 334  145.5547
 335  142.6202
 336  154.461
 337  56.97045
 338  173.981
 339  196.5747
 340  202.6486
 341  156.8006
 342  179.7369
 343  89.52195
 344  -86.78555
 345  36.73832
 346  141.0506
 347  255.7733
 348  69.84283
 349  -23.60738
 350  32.12103
 351  61.37653
 352  35.56054
 353  46.01554
 354  108.9499
 355  110.2714
 356  194.7381
 357  119.7255
 358  -103.8929
 359  -29.57402
 360  36.14701
 361  95.84518
 362  17.13617
 363  21.22553
 364  97.08199
 365  68.31939
 366  25.08334
 367  -10.7599
 368  44.63942
 369  121.6411
 370  80.90093
 371  193.9437
 372  160.7131
 373  15.50713
 374  56.69991
 375  67.32022
 376  12.59819
 377  128.1936
 378  46.76506
 379  90.9006
 380  59.45958
 381  138.6806
 382  54.45495
 383  51.74121
 384  131.0072
 385  208.4816
 386  179.9633
 387  201.0527
 388  129.1654
 389  -16.63536
 390  84.597
 391  176.3044
 392  41.70702
 393  5.955353
 394  179.0927
 395  118.6233
 396  119.0227
 397  231.7447
 398  153.7326
 399  44.03623
 400  115.5422
 401  19.58142
 402  89.12584
 403  107.323
 404  -22.3095
 405  133.1576
 406  135.1811
 407  202.5027
 408  252.3922
 409  144.9213
 410  180.4373
 411  40.25932
 412  213.7648
 413  201.8349
 414  138.6224
 415  52.02646
 416  -100.5254
 417  49.57785
 418  257.1028
 419  257.612
 420  139.6842
 421  58.29008
 422  124.1016
 423  83.74277
 424  179.5605
 425  202.1063
 426  102.1754
 427  51.54466
 428  58.87295
 429  78.60767
 430  93.61378
 431  205.0645
 432  171.3493
 433  246.1614
 434  187.7424
 435  251.5177
 436  148.3872
 437  25.01245
 438  116.5663
 439  169.5864
 440  153.6353
 441  130.3107
 442  56.64085
 443  123.2129
 444  85.00172
 445  171.9205
 446  191.9877
 447  281.1938
 448  229.3166
 449  145.9
 450  105.7722
 451  118.3363
 452  78.42536
 453  84.52094
 454  107.1328
 455  107.83
 456  -22.64658
 457  141.0543
 458  150.285
 459  254.7741
 460  218.447
 461  67.08912
 462  -40.66575
 463  -13.02327
 464  196.1136
 465  231.4415
 466  221.2153
 467  205.8827
 468  70.55231
 469  -60.19032
 470  77.36964
 471  156.9322
 472  69.55038
 473  141.0488
 474  -15.08707
 475  -47.03529
 476  -19.75538
 477  84.91416
 478  17.11639
 479  -8.427972
 480  -7.449316
 481  77.29922
 482  85.84408
 483  58.55497
 484  45.6861
 485  57.0627
 486  -26.46136
 487  -128.5814
 488  22.21251
 489  76.18359
 490  81.93771
 491  148.4387
 492  129.3127
 493  158.7409
 494  188.0317
 495  158.21
 496  163.1854
 497  72.11354
 498  142.831
 499  119.257
 500  127.514
 501  92.44642
 502  150.4354
 503  110.1326
 504  54.35898
 505  58.3906
 506  32.16636
 507  84.61116
 508  105.3886
 509  64.86697
 510  152.1368
 511  93.20533
