# Input file       =  1186885456.09711_cleaned.dat
# Candidate        =  PSR_0332+5434
# Telescope        =  AR
# Epoch_topo       =  57981.100406216552
# Epoch_bary       =  N/A
# T_sample         =  0.002
# Data Folded      =  7340032
# Data Avg         =  -0.00166497834600574
# Data StdDev      =  2.31671335823822 
# Profile Bins     =  512
# Profile Avg      =  -24.0264748973345
# Profile StdDev   =  277.387124796477 
# Reduced chi-sqr  =  1.073
# Prob(Noise)      <  0.124   (~1.2 sigma)
# P_topo (ms)      =  714.464629745268  +/- 0.000289
# P'_topo (s/s)    =  -0                +/- 1.52e-10
# P''_topo (s/s^2) =  0                 +/- 6.73e-14
# P_bary (ms)      =  N/A
# P'_bary (s/s)    =  N/A
# P''_bary (s/s^2) =  N/A
# P_orb (s)        =  N/A
# asin(i)/c (s)    =  N/A
# eccentricity     =  N/A
# w (rad)          =  N/A
# T_peri           =  N/A
######################################################
   0  348.0283
   1  187.381
   2  198.714
   3  -42.15714
   4  -149.2999
   5  144.3788
   6  155.8926
   7  188.6556
   8  107.611
   9  45.74943
  10  -40.84666
  11  82.52496
  12  -247.7084
  13  -216.5796
  14  158.7264
  15  54.41813
  16  -18.87918
  17  -118.5733
  18  -168.7198
  19  -8.384501
  20  152.2522
  21  60.34113
  22  -178.1917
  23  94.55943
  24  48.2659
  25  -64.23669
  26  29.72537
  27  64.64543
  28  -170.1467
  29  102.081
  30  59.54173
  31  90.37866
  32  159.2445
  33  186.4279
  34  -21.08665
  35  -215.2029
  36  -259.4957
  37  -47.13705
  38  190.9074
  39  -53.55717
  40  -433.9753
  41  -482.8925
  42  -351.7774
  43  -132.904
  44  -364.2577
  45  -412.3786
  46  -306.3212
  47  -191.6377
  48  -217.5204
  49  -144.6708
  50  -201.9391
  51  -350.6635
  52  -236.1118
  53  234.2574
  54  52.63847
  55  154.9586
  56  201.9709
  57  -441.761
  58  -272.7632
  59  -9.590487
  60  35.52903
  61  -62.50891
  62  150.5759
  63  228.4194
  64  -62.31676
  65  -122.9066
  66  -57.40108
  67  214.4941
  68  244.5703
  69  165.5905
  70  54.67225
  71  203.972
  72  22.44824
  73  -336.9044
  74  246.1983
  75  173.4066
  76  -179.9895
  77  -34.51055
  78  -218.4545
  79  -110.6248
  80  -231.8813
  81  -93.02543
  82  219.7343
  83  46.31764
  84  217.7528
  85  234.863
  86  -79.61182
  87  -13.08987
  88  -142.7164
  89  -168.7002
  90  107.2636
  91  127.6322
  92  -62.07359
  93  191.8343
  94  86.76911
  95  17.44167
  96  11.89266
  97  -82.25347
  98  25.27223
  99  54.12787
 100  91.63489
 101  -112.1608
 102  -11.30412
 103  286.9641
 104  266.8184
 105  -47.75937
 106  90.3965
 107  25.68792
 108  251.2433
 109  230.6265
 110  -117.6501
 111  -207.0015
 112  82.05671
 113  182.4757
 114  -129.2617
 115  -52.39922
 116  3.649496
 117  -362.2341
 118  -57.56022
 119  -5.176227
 120  -20.08325
 121  197.9666
 122  23.13676
 123  36.52297
 124  -0.5212121
 125  -83.70445
 126  106.894
 127  41.31828
 128  -163.6131
 129  -60.04406
 130  164.6503
 131  95.69772
 132  -155.4264
 133  -279.139
 134  -128.803
 135  96.46003
 136  205.9047
 137  248.2171
 138  45.66291
 139  71.2063
 140  305.4063
 141  -76.6659
 142  -228.5589
 143  -194.8198
 144  19.5667
 145  -165.432
 146  -183.7621
 147  -194.4281
 148  224.2603
 149  -63.56276
 150  -233.4348
 151  -341.1119
 152  -94.24794
 153  278.6268
 154  133.4953
 155  -93.47424
 156  267.9745
 157  302.9585
 158  101.6072
 159  71.92662
 160  160.6862
 161  267.618
 162  56.44891
 163  392.9514
 164  290.3186
 165  -196.1898
 166  166.4978
 167  312.0891
 168  63.87428
 169  8.847733
 170  -73.31937
 171  -204.4986
 172  -136.6672
 173  79.99373
 174  -46.66434
 175  -8.51523
 176  23.71237
 177  -139.9529
 178  -115.854
 179  -93.96424
 180  -122.6271
 181  -107.5121
 182  -67.90448
 183  -431.3345
 184  -307.2571
 185  -528.6675
 186  -252.9707
 187  -214.7016
 188  -281.2195
 189  -55.84217
 190  -185.2685
 191  -221.0234
 192  -339.8283
 193  23.99102
 194  164.5488
 195  -96.14072
 196  -171.0232
 197  -83.63615
 198  86.05659
 199  222.2688
 200  -54.38942
 201  -86.53652
 202  -265.6121
 203  42.60255
 204  2.36861
 205  -243.4329
 206  -310.8638
 207  -79.93901
 208  182.5103
 209  -151.4439
 210  187.5061
 211  301.0915
 212  -52.67758
 213  -61.65055
 214  42.74138
 215  -134.8337
 216  -215.792
 217  -341.1659
 218  -282.8072
 219  174.4293
 220  254.7636
 221  15.63058
 222  -182.2371
 223  -325.2847
 224  -4.329557
 225  -252.9209
 226  -437.5028
 227  -223.418
 228  -252.0136
 229  108.6141
 230  119.7262
 231  35.72283
 232  1.09502
 233  -110.6467
 234  -249.2084
 235  -42.10769
 236  60.54529
 237  -64.68691
 238  -317.1207
 239  -175.9634
 240  64.18388
 241  74.86069
 242  -92.84737
 243  -160.9992
 244  -182.1232
 245  -46.95305
 246  155.4662
 247  -158.9352
 248  -204.3757
 249  28.78689
 250  171.3251
 251  264.9939
 252  -126.8321
 253  -231.7441
 254  -131.6869
 255  12.1483
 256  -168.6118
 257  -249.0763
 258  -62.56136
 259  -140.7412
 260  -186.7352
 261  -193.7721
 262  -326.447
 263  -155.3702
 264  -7.244866
 265  117.3575
 266  42.27475
 267  -306.6211
 268  -270.8199
 269  135.9572
 270  -24.74707
 271  -361.2441
 272  88.36779
 273  134.5998
 274  -107.1387
 275  97.75809
 276  36.96805
 277  -236.107
 278  -210.1377
 279  -380.7794
 280  -70.38946
 281  -67.22692
 282  -192.3595
 283  -92.63747
 284  21.53122
 285  153.386
 286  219.9219
 287  245.3289
 288  -90.63178
 289  -137.8411
 290  -31.93799
 291  -94.63322
 292  49.35421
 293  -21.90673
 294  -42.55793
 295  -258.6603
 296  181.1801
 297  197.2555
 298  24.40832
 299  -90.2835
 300  194.9416
 301  70.65263
 302  -133.4211
 303  -416.7427
 304  295.9271
 305  -27.15446
 306  -233.7825
 307  95.33915
 308  305.3648
 309  66.6861
 310  78.05447
 311  -300.6014
 312  -208.8403
 313  62.47099
 314  85.89024
 315  -212.9675
 316  -115.0088
 317  112.8999
 318  150.9927
 319  206.2727
 320  499.4741
 321  638.866
 322  720.3558
 323  1059.305
 324  1165.719
 325  1043.028
 326  985.694
 327  218.6024
 328  -228.8788
 329  6.693865
 330  -177.7074
 331  -241.2438
 332  -474.9234
 333  -408.329
 334  -532.9985
 335  -251.0246
 336  -261.8839
 337  -304.0401
 338  -69.79205
 339  34.62901
 340  200.0932
 341  88.3568
 342  -98.55316
 343  -20.749
 344  106.133
 345  -160.0715
 346  -104.9141
 347  117.3473
 348  78.70922
 349  184.6784
 350  96.5487
 351  -76.67815
 352  -196.3476
 353  61.2161
 354  232.3784
 355  189.7719
 356  111.158
 357  -44.96113
 358  166.5449
 359  -52.46777
 360  -100.3592
 361  -1.83207
 362  30.72836
 363  -209.4266
 364  156.0419
 365  -44.76192
 366  -148.4856
 367  -289.6953
 368  -8.202332
 369  -20.89349
 370  13.40389
 371  -318.5848
 372  -12.70659
 373  240.245
 374  142.4131
 375  45.6628
 376  246.0162
 377  358.3398
 378  -123.4325
 379  -318.9088
 380  -321.6675
 381  -294.6703
 382  -382.1247
 383  -324.0824
 384  156.1129
 385  -100.4343
 386  -10.65505
 387  185.0358
 388  110.7896
 389  -84.30778
 390  49.89746
 391  245.0342
 392  -137.1233
 393  -45.3948
 394  -51.22104
 395  -4.874895
 396  82.22159
 397  -196.6696
 398  -185.9407
 399  -185.397
 400  -233.7511
 401  -290.2545
 402  -56.06527
 403  137.2447
 404  286.7574
 405  183.8903
 406  -71.75633
 407  -145.792
 408  261.4527
 409  89.02307
 410  -110.85
 411  -93.17503
 412  124.7897
 413  137.9767
 414  -185.7456
 415  -121.839
 416  -70.66549
 417  -146.8892
 418  1.642684
 419  -162.6017
 420  20.11589
 421  263.0061
 422  258.209
 423  142.6564
 424  -194.5502
 425  144.3255
 426  326.4567
 427  -226.7943
 428  -163.9132
 429  -21.83561
 430  18.26298
 431  -29.33739
 432  -154.498
 433  -45.02148
 434  -57.75048
 435  69.07987
 436  12.69858
 437  -161.499
 438  -35.19343
 439  -35.68343
 440  -69.52665
 441  -223.1833
 442  -394.3805
 443  -227.2226
 444  284.159
 445  165.6233
 446  -113.122
 447  -31.46657
 448  94.02776
 449  38.54145
 450  -112.4463
 451  -260.5722
 452  -126.3033
 453  42.95987
 454  26.23788
 455  -117.4322
 456  -58.50249
 457  206.4006
 458  218.9675
 459  -211.5563
 460  -13.53773
 461  32.27063
 462  70.42547
 463  50.64492
 464  -260.2968
 465  -216.1806
 466  -78.3586
 467  -261.1698
 468  -287.1689
 469  -211.5832
 470  101.8876
 471  22.86001
 472  74.09281
 473  161.7556
 474  26.02771
 475  65.72761
 476  16.03293
 477  -28.93413
 478  -156.5513
 479  -54.68626
 480  -35.94707
 481  -328.7131
 482  -152.217
 483  49.20372
 484  37.17619
 485  106.9585
 486  51.01965
 487  -230.6166
 488  -295.8626
 489  -178.9324
 490  -148.4802
 491  -67.64392
 492  -351.5396
 493  -220.7853
 494  -17.88127
 495  12.85709
 496  42.44353
 497  -27.0269
 498  -108.9663
 499  -231.9437
 500  -169.9026
 501  -5.862228
 502  -84.11638
 503  -129.0674
 504  -167.9972
 505  -106.4482
 506  -178.8909
 507  59.12019
 508  -53.48158
 509  -241.3575
 510  193.8387
 511  573.9471
