# Input file       =  1186383347.125036_cleaned.dat
# Candidate        =  PSR_0332+5434
# Telescope        =  AR
# Epoch_topo       =  57975.288959780512
# Epoch_bary       =  N/A
# T_sample         =  0.002
# Data Folded      =  7340032
# Data Avg         =  0.0237297357702378
# Data StdDev      =  2.78840540473126 
# Profile Bins     =  256
# Profile Avg      =  680.443048631424 
# Profile StdDev   =  472.155344342228 
# Reduced chi-sqr  =  1.451
# Prob(Noise)      <  3.21e-06   (~4.5 sigma)
# P_topo (ms)      =  714.466444355573  +/- 0.000228
# P'_topo (s/s)    =  -0                +/- 1.2e-10
# P''_topo (s/s^2) =  0                 +/- 5.31e-14
# P_bary (ms)      =  N/A
# P'_bary (s/s)    =  N/A
# P''_bary (s/s^2) =  N/A
# P_orb (s)        =  N/A
# asin(i)/c (s)    =  N/A
# eccentricity     =  N/A
# w (rad)          =  N/A
# T_peri           =  N/A
######################################################
   0  1617.282
   1  850.7037
   2  599.6326
   3  777.0634
   4  1130.572
   5  1225.451
   6  1113.593
   7  524.2819
   8  954.601
   9  732.2571
  10  460.7668
  11  523.229
  12  1080.009
  13  1158.547
  14  754.145
  15  708.5293
  16  981.7363
  17  1202.603
  18  361.1877
  19  862.8302
  20  565.0291
  21  475.7417
  22  -175.7417
  23  936.7712
  24  -187.1597
  25  992.9413
  26  1159.613
  27  585.2012
  28  160.8779
  29  373.4532
  30  934.3898
  31  226.2838
  32  58.48817
  33  1544.705
  34  988.5415
  35  1419.008
  36  647.3206
  37  886.1382
  38  689.1539
  39  1239.493
  40  802.9598
  41  428.3173
  42  170.2491
  43  931.4586
  44  631.7812
  45  819.4388
  46  545.9198
  47  508.5435
  48  77.59845
  49  462.8503
  50  603.4255
  51  600.5842
  52  -248.135
  53  572.874
  54  144.413
  55  -7.834662
  56  354.4629
  57  135.3199
  58  172.3979
  59  347.5167
  60  550.3618
  61  951.0073
  62  -267.6716
  63  359.5903
  64  535.275
  65  126.9801
  66  673.3856
  67  1101.243
  68  848.6146
  69  640.9448
  70  -86.0484
  71  -221.3094
  72  373.4806
  73  -79.72917
  74  464.9875
  75  786.2918
  76  837.1523
  77  1363.834
  78  1453.221
  79  989.6384
  80  702.2702
  81  309.7397
  82  623.3696
  83  1216.815
  84  883.4539
  85  812.3605
  86  745.6818
  87  1139.17
  88  749.009
  89  926.2368
  90  694.2383
  91  973.3421
  92  447.9215
  93  546.4398
  94  471.1886
  95  218.359
  96  380.6433
  97  654.3632
  98  351.485
  99  423.2015
 100  158.8828
 101  1235.51
 102  1364.706
 103  648.3942
 104  824.8132
 105  -51.42968
 106  864.8663
 107  583.9047
 108  626.2155
 109  1292.787
 110  1286.307
 111  666.3882
 112  1244.523
 113  814.6129
 114  371.3466
 115  642.0849
 116  1009.071
 117  977.2563
 118  602.7127
 119  355.8469
 120  329.8816
 121  406.8974
 122  357.1001
 123  447.0189
 124  598.6354
 125  544.9852
 126  800.7875
 127  713.0072
 128  1528.074
 129  109.021
 130  843.5063
 131  386.2256
 132  809.5601
 133  -94.00414
 134  694.1815
 135  429.2343
 136  1050.516
 137  1390.068
 138  11.42729
 139  1131.326
 140  189.1553
 141  877.0031
 142  662.0118
 143  888.2931
 144  959.2803
 145  398.7651
 146  805.8875
 147  371.1378
 148  1391.942
 149  1033.768
 150  629.9165
 151  22.5124
 152  1286.445
 153  1276.926
 154  1134.857
 155  722.512
 156  793.8688
 157  248.9677
 158  1132.495
 159  978.7607
 160  1367.465
 161  3396.892
 162  3837.14
 163  2358.163
 164  1042.37
 165  1117.657
 166  746.2917
 167  505.9388
 168  819.2943
 169  825.3358
 170  1104.52
 171  507.3546
 172  18.17474
 173  905.3768
 174  390.8708
 175  951.1544
 176  637.0599
 177  1163.023
 178  743.6346
 179  449.89
 180  -13.31291
 181  -173.725
 182  320.7926
 183  645.2476
 184  824.1102
 185  958.0828
 186  1750.49
 187  1183.372
 188  499.1587
 189  -43.13942
 190  302.8562
 191  686.0428
 192  1026.435
 193  1070.574
 194  784.7946
 195  726.3041
 196  131.1187
 197  166.6345
 198  610.4719
 199  767.4901
 200  1138.962
 201  -85.11801
 202  1014.975
 203  500.739
 204  514.991
 205  231.1523
 206  369.6698
 207  348.9475
 208  213.0556
 209  -7.686472
 210  187.4044
 211  437.3228
 212  283.0426
 213  729.2306
 214  102.8113
 215  548.5222
 216  867.5906
 217  444.1761
 218  336.8055
 219  140.2028
 220  1272.443
 221  1499.246
 222  669.7361
 223  347.4506
 224  1446.205
 225  913.4543
 226  866.119
 227  650.9995
 228  696.4454
 229  816.1719
 230  264.9725
 231  689.6081
 232  830.673
 233  535.7924
 234  700.2222
 235  488.5354
 236  586.6473
 237  129.3917
 238  438.8834
 239  -303.8668
 240  -216.1482
 241  817.2529
 242  313.9786
 243  650.0615
 244  316.401
 245  246.5734
 246  743.3378
 247  509.2704
 248  585.7649
 249  466.2781
 250  352.6842
 251  830.4012
 252  1183.111
 253  819.8591
 254  803.9969
 255  1128.561
