# Input file       =  1186210989.145512_cleaned.dat
# Candidate        =  PSR_0332+5434
# Telescope        =  AR
# Epoch_topo       =  57973.294075758240
# Epoch_bary       =  N/A
# T_sample         =  0.002
# Data Folded      =  7340032
# Data Avg         =  0.00758328266722778
# Data StdDev      =  1.00003933381611 
# Profile Bins     =  512
# Profile Avg      =  108.666741781397 
# Profile StdDev   =  119.737745934002 
# Reduced chi-sqr  =  1.637
# Prob(Noise)      <  3.99e-18   (~8.6 sigma)
# P_topo (ms)      =  714.467065768362  +/- 0.000127
# P'_topo (s/s)    =  -0                +/- 6.71e-11
# P''_topo (s/s^2) =  0                 +/- 2.96e-14
# P_bary (ms)      =  N/A
# P'_bary (s/s)    =  N/A
# P''_bary (s/s^2) =  N/A
# P_orb (s)        =  N/A
# asin(i)/c (s)    =  N/A
# eccentricity     =  N/A
# w (rad)          =  N/A
# T_peri           =  N/A
######################################################
   0  174.674
   1  140.4286
   2  197.5806
   3  265.3354
   4  215.362
   5  137.8195
   6  117.0691
   7  63.52597
   8  89.20583
   9  71.5065
  10  139.5422
  11  62.68178
  12  104.1055
  13  182.2789
  14  179.9895
  15  102.4148
  16  26.48933
  17  49.44521
  18  42.44288
  19  112.949
  20  238.9679
  21  305.6454
  22  157.7885
  23  154.698
  24  144.5102
  25  172.1303
  26  183.6254
  27  84.39745
  28  181.5764
  29  186.1054
  30  3.824189
  31  132.369
  32  205.084
  33  9.282224
  34  53.95604
  35  131.1573
  36  39.08488
  37  106.0936
  38  80.97018
  39  183.3031
  40  69.55206
  41  51.09611
  42  58.73455
  43  109.0044
  44  -16.34837
  45  -17.93845
  46  157.8061
  47  259.0974
  48  134.5965
  49  24.87156
  50  40.28212
  51  -40.14185
  52  5.133101
  53  75.90872
  54  220.1895
  55  219.969
  56  228.9547
  57  289.6541
  58  156.271
  59  125.0718
  60  191.4544
  61  163.0105
  62  157.8189
  63  157.324
  64  75.75058
  65  98.74567
  66  161.126
  67  306.4158
  68  194.6646
  69  153.6
  70  152.279
  71  145.4044
  72  237.8587
  73  36.50888
  74  146.0979
  75  100.7158
  76  119.9652
  77  75.51942
  78  -51.09175
  79  76.47292
  80  174.3969
  81  62.79873
  82  50.20232
  83  190.2531
  84  165.6978
  85  152.2192
  86  193.4598
  87  108.0369
  88  84.57077
  89  102.7766
  90  80.42491
  91  19.63291
  92  4.798538
  93  -23.17137
  94  68.58007
  95  180.6009
  96  204.9517
  97  228.5771
  98  191.8587
  99  251.5272
 100  203.1487
 101  111.9813
 102  147.3354
 103  112.735
 104  58.17256
 105  55.33432
 106  145.5034
 107  199.5012
 108  362.9923
 109  183.9317
 110  242.1948
 111  345.8037
 112  467.0511
 113  647.8994
 114  754.0085
 115  874.8121
 116  651.4271
 117  526.3826
 118  389.1262
 119  214.8089
 120  122.1252
 121  180.499
 122  184.7617
 123  107.0875
 124  53.68992
 125  109.6996
 126  8.990357
 127  1.648113
 128  100.8793
 129  96.17278
 130  232.1079
 131  342.9207
 132  255.9335
 133  109.5101
 134  63.22474
 135  33.17039
 136  207.41
 137  172.9342
 138  63.96799
 139  176.6903
 140  86.65118
 141  111.6108
 142  25.89722
 143  134.3889
 144  224.9716
 145  120.1826
 146  50.81331
 147  175.0576
 148  150.9681
 149  65.51308
 150  92.90264
 151  63.97962
 152  -19.51688
 153  62.3382
 154  103.5977
 155  73.87819
 156  -95.12461
 157  3.017278
 158  42.69486
 159  -1.567592
 160  -183.4592
 161  -94.11929
 162  -97.57774
 163  150.8761
 164  160.6647
 165  78.87976
 166  103.459
 167  114.4985
 168  70.02023
 169  8.058218
 170  142.8575
 171  148.4556
 172  97.24989
 173  -58.06355
 174  -31.22334
 175  76.81718
 176  145.9234
 177  57.10358
 178  -69.50405
 179  32.86774
 180  12.71974
 181  -111.602
 182  -45.92521
 183  -14.84583
 184  -31.46274
 185  60.42983
 186  -41.79154
 187  61.92073
 188  -36.8406
 189  -101.1138
 190  66.73642
 191  97.95933
 192  48.04489
 193  113.0335
 194  99.2786
 195  107.2549
 196  61.37925
 197  95.17696
 198  102.2314
 199  53.03913
 200  62.6536
 201  23.63306
 202  168.1575
 203  41.23003
 204  23.77404
 205  126.0693
 206  219.3869
 207  115.9886
 208  191.8713
 209  176.4865
 210  228.1795
 211  201.5363
 212  177.2394
 213  0.3349773
 214  45.55952
 215  99.61923
 216  -2.433146
 217  27.7069
 218  2.400244
 219  14.50463
 220  135.2667
 221  -77.05284
 222  2.013962
 223  132.2159
 224  86.49966
 225  67.36642
 226  198.7844
 227  203.6346
 228  241.4586
 229  183.2631
 230  266.0555
 231  356.1655
 232  238.2413
 233  231.0573
 234  327.6957
 235  180.8066
 236  111.2257
 237  12.80124
 238  74.93747
 239  218.5849
 240  174.0105
 241  219.8023
 242  145.6921
 243  -24.48178
 244  -3.994258
 245  -73.18579
 246  170.2425
 247  190.0336
 248  132.1629
 249  278.3249
 250  211.1728
 251  146.8995
 252  206.2413
 253  152.6596
 254  -59.94715
 255  82.43944
 256  104.9179
 257  26.19977
 258  117.0855
 259  84.8517
 260  145.0842
 261  222.3012
 262  294.6244
 263  240.6181
 264  259.1281
 265  239.4211
 266  205.3325
 267  242.632
 268  307.1721
 269  299.577
 270  207.7689
 271  176.6555
 272  192.7268
 273  217.0968
 274  209.0666
 275  287.9558
 276  106.9226
 277  18.58116
 278  8.494081
 279  83.44696
 280  110.3328
 281  27.76776
 282  169.9825
 283  392.0102
 284  365.3061
 285  204.8513
 286  76.15211
 287  8.876164
 288  226.819
 289  111.3296
 290  13.82344
 291  50.1151
 292  166.6077
 293  198.8934
 294  -34.60997
 295  -105.2143
 296  88.77496
 297  186.1452
 298  193.8162
 299  175.8086
 300  135.4818
 301  56.82074
 302  70.39512
 303  95.5241
 304  165.6079
 305  50.1119
 306  143.5405
 307  285.3693
 308  226.2686
 309  22.58788
 310  -36.90801
 311  -24.79775
 312  70.65166
 313  137.8403
 314  -37.98589
 315  7.759292
 316  63.46201
 317  89.74166
 318  65.7253
 319  171.1198
 320  277.8461
 321  153.8255
 322  0.729454
 323  84.37988
 324  40.88671
 325  185.9932
 326  111.6463
 327  75.77471
 328  85.90228
 329  44.72552
 330  94.33816
 331  89.30539
 332  -0.4420866
 333  42.8784
 334  -20.38707
 335  13.85956
 336  -15.49606
 337  -27.06959
 338  76.65461
 339  13.0631
 340  1.20007
 341  -3.49491
 342  216.4937
 343  245.855
 344  72.3766
 345  42.20505
 346  112.0708
 347  100.9735
 348  134.8816
 349  80.13396
 350  104.2062
 351  211.4737
 352  197.1469
 353  155.6335
 354  -10.26936
 355  61.18441
 356  59.66945
 357  -104.2314
 358  5.447535
 359  26.35729
 360  80.10645
 361  77.16055
 362  13.44528
 363  19.58256
 364  196.4629
 365  73.89464
 366  62.68526
 367  180.5975
 368  201.6862
 369  132.4272
 370  99.18531
 371  103.3785
 372  28.29629
 373  -83.56554
 374  -66.20758
 375  23.87797
 376  93.22179
 377  16.93444
 378  60.47964
 379  124.6132
 380  86.77396
 381  21.1607
 382  139.1015
 383  212.7443
 384  201.1945
 385  158.4078
 386  27.22655
 387  100.7667
 388  8.214261
 389  -145.4398
 390  -42.4987
 391  37.02177
 392  69.41996
 393  43.90421
 394  92.34369
 395  113.7038
 396  -6.547281
 397  18.4904
 398  -55.87291
 399  172.8495
 400  78.14383
 401  126.4722
 402  110.6737
 403  107.2821
 404  3.107868
 405  -71.70438
 406  152.9945
 407  162.9094
 408  24.61712
 409  45.28624
 410  85.29586
 411  13.42163
 412  49.50977
 413  79.96727
 414  116.9122
 415  94.1376
 416  -1.160117
 417  -99.50539
 418  -34.73478
 419  66.73528
 420  40.63535
 421  166.8749
 422  91.40675
 423  157.2429
 424  131.034
 425  216.0298
 426  91.46783
 427  79.4159
 428  86.37674
 429  81.70629
 430  88.4918
 431  103.8994
 432  46.48476
 433  78.35704
 434  97.26872
 435  143.5813
 436  61.53314
 437  19.79545
 438  -38.10293
 439  111.5332
 440  270.0679
 441  284.6247
 442  218.2159
 443  218.7461
 444  89.49237
 445  163.689
 446  123.1668
 447  158.5472
 448  133.4947
 449  -62.85752
 450  112.8604
 451  154.2524
 452  140.2125
 453  195.841
 454  56.78375
 455  15.11214
 456  165.4944
 457  132.6287
 458  110.7148
 459  175.8298
 460  12.40601
 461  -109.3351
 462  -13.74853
 463  38.57707
 464  55.36171
 465  73.81412
 466  26.33326
 467  113.1242
 468  85.0971
 469  -10.41819
 470  144.0123
 471  55.53899
 472  -43.53178
 473  -21.47507
 474  37.95296
 475  15.76287
 476  165.3819
 477  207.6886
 478  261.7783
 479  118.1424
 480  211.8448
 481  63.22069
 482  56.94011
 483  211.282
 484  170.2702
 485  117.7188
 486  46.42646
 487  75.15961
 488  -47.90975
 489  -3.378821
 490  135.7072
 491  107.8932
 492  50.73447
 493  66.05419
 494  87.40081
 495  89.66235
 496  -23.53721
 497  91.11584
 498  129.3518
 499  180.5772
 500  8.832532
 501  -100.8158
 502  -78.50833
 503  85.20251
 504  139.5283
 505  177.6775
 506  32.27832
 507  60.79054
 508  72.00285
 509  -66.65592
 510  32.3452
 511  115.6246
