# Input file       =  1186784914.239803_cleaned.dat
# Candidate        =  PSR_0332+5434
# Telescope        =  AR
# Epoch_topo       =  57979.936727312539
# Epoch_bary       =  N/A
# T_sample         =  0.002
# Data Folded      =  7405568
# Data Avg         =  0.016460926447738
# Data StdDev      =  1.00031325506869 
# Profile Bins     =  512
# Profile Avg      =  238.084077062765 
# Profile StdDev   =  120.3040450773   
# Reduced chi-sqr  =  1.524
# Prob(Noise)      <  1.84e-13   (~7.3 sigma)
# P_topo (ms)      =  714.464866030244  +/- 0.000166
# P'_topo (s/s)    =  -0                +/- 8.69e-11
# P''_topo (s/s^2) =  0                 +/- 3.8e-14
# P_bary (ms)      =  N/A
# P'_bary (s/s)    =  N/A
# P''_bary (s/s^2) =  N/A
# P_orb (s)        =  N/A
# asin(i)/c (s)    =  N/A
# eccentricity     =  N/A
# w (rad)          =  N/A
# T_peri           =  N/A
######################################################
   0  951.2566
   1  858.3022
   2  559.5149
   3  313.5558
   4  251.0522
   5  182.5528
   6  237.9931
   7  268.2281
   8  230.3913
   9  304.0927
  10  230.2602
  11  290.044
  12  278.4789
  13  238.1642
  14  214.5601
  15  174.5895
  16  181.5383
  17  198.0774
  18  173.3125
  19  188.6481
  20  377.9357
  21  368.7904
  22  187.235
  23  210.4697
  24  304.8595
  25  246.7506
  26  216.7983
  27  287.9114
  28  262.2101
  29  136.8616
  30  201.6857
  31  230.3919
  32  231.1476
  33  230.6763
  34  222.1967
  35  278.9909
  36  291.6918
  37  197.7679
  38  215.8223
  39  263.5765
  40  310.926
  41  193.1762
  42  186.5125
  43  170.6889
  44  245.8583
  45  239.3331
  46  128.801
  47  80.1399
  48  30.13312
  49  230.4858
  50  261.5603
  51  333.1884
  52  127.1714
  53  86.51119
  54  275.0861
  55  203.128
  56  282.2034
  57  251.6945
  58  287.9035
  59  165.6533
  60  116.808
  61  214.8081
  62  208.6877
  63  125.6998
  64  136.8921
  65  224.1299
  66  342.3696
  67  284.1856
  68  83.89712
  69  201.0119
  70  75.24175
  71  121.5911
  72  307.7688
  73  418.2695
  74  432.083
  75  314.0015
  76  296.1504
  77  288.7702
  78  299.7137
  79  209.0158
  80  224.491
  81  375.2193
  82  213.2299
  83  239.4872
  84  272.7496
  85  313.5751
  86  259.5373
  87  298.5456
  88  272.1045
  89  336.5832
  90  303.9922
  91  352.3331
  92  192.8456
  93  204.8777
  94  341.6252
  95  232.363
  96  306.1729
  97  365.6134
  98  290.079
  99  164.0575
 100  319.5449
 101  381.0606
 102  285.566
 103  166.6206
 104  240.6309
 105  356.395
 106  312.7537
 107  174.9619
 108  205.5249
 109  227.988
 110  217.5955
 111  70.57883
 112  54.85485
 113  291.7913
 114  382.2455
 115  314.277
 116  188.1172
 117  228.2713
 118  392.1588
 119  263.8869
 120  272.8451
 121  182.3659
 122  189.5627
 123  196.6019
 124  98.99949
 125  209.6834
 126  228.317
 127  375.6248
 128  303.024
 129  289.6262
 130  195.9643
 131  227.1314
 132  364.0066
 133  240.932
 134  207.6848
 135  347.7994
 136  413.6698
 137  337.4651
 138  283.8746
 139  326.5797
 140  339.0189
 141  222.1207
 142  217.1873
 143  284.081
 144  277.9624
 145  268.1317
 146  240.4879
 147  215.967
 148  362.3009
 149  218.0526
 150  161.6911
 151  124.1306
 152  212.5632
 153  184.3755
 154  261.0173
 155  283.3379
 156  176.3575
 157  234.6393
 158  179.9475
 159  287.5212
 160  336.1371
 161  342.2566
 162  262.532
 163  140.5062
 164  126.6502
 165  135.5249
 166  159.3394
 167  250.9423
 168  227.667
 169  285.4806
 170  299.1614
 171  302.8148
 172  272.5887
 173  326.9729
 174  391.2029
 175  312.6279
 176  269.2759
 177  185.9324
 178  327.3263
 179  406.8776
 180  287.3004
 181  262.2001
 182  329.8084
 183  253.8249
 184  355.818
 185  310.1643
 186  244.6115
 187  197.9664
 188  116.6127
 189  226.9796
 190  236.6913
 191  208.6662
 192  386.1725
 193  341.829
 194  301.2722
 195  155.6943
 196  248.9907
 197  332.533
 198  280.4388
 199  250.6127
 200  337.4708
 201  360.8892
 202  260.391
 203  254.5031
 204  242.7807
 205  374.8481
 206  356.758
 207  250.2765
 208  226.3059
 209  171.2614
 210  237.6437
 211  76.14392
 212  314.1751
 213  476.2253
 214  335.2374
 215  397.9293
 216  379.4044
 217  192.214
 218  164.2836
 219  269.2984
 220  282.5385
 221  141.4114
 222  180.148
 223  166.6453
 224  290.5454
 225  267.5996
 226  201.2807
 227  303.8158
 228  298.7429
 229  215.1276
 230  154.0161
 231  246.1437
 232  113.9001
 233  248.4563
 234  184.5337
 235  48.7575
 236  131.1747
 237  88.86063
 238  156.9356
 239  283.0333
 240  290.5829
 241  303.0739
 242  405.8496
 243  344.0526
 244  227.0155
 245  291.7601
 246  294.0631
 247  168.2982
 248  106.2387
 249  20.85174
 250  334.95
 251  333.0793
 252  348.9226
 253  242.1829
 254  264.2839
 255  169.4702
 256  221.0798
 257  226.0257
 258  356.7151
 259  380.4919
 260  316.1602
 261  217.2684
 262  88.48322
 263  135.9572
 264  302.1629
 265  274.8095
 266  293.2701
 267  395.3682
 268  223.8246
 269  198.8878
 270  311.4655
 271  351.2766
 272  382.4875
 273  286.8883
 274  283.1575
 275  267.9852
 276  75.15517
 277  276.3919
 278  260.1779
 279  108.8999
 280  152.8634
 281  186.2825
 282  214.1346
 283  281.9359
 284  261.369
 285  214.0456
 286  105.2315
 287  197.9756
 288  323.5038
 289  114.8344
 290  156.1638
 291  240.3599
 292  321.5276
 293  287.4756
 294  336.233
 295  359.0877
 296  308.593
 297  347.1481
 298  377.2529
 299  232.6652
 300  87.94427
 301  125.7855
 302  335.9489
 303  256.6324
 304  170.9229
 305  303.1239
 306  258.9577
 307  281.1695
 308  284.4202
 309  287.5123
 310  324.9703
 311  215.778
 312  247.4841
 313  318.4021
 314  341.6828
 315  258.2959
 316  140.1082
 317  212.6622
 318  316.4082
 319  333.4806
 320  370.9365
 321  346.9477
 322  281.0688
 323  171.5918
 324  253.8496
 325  150.6398
 326  53.45901
 327  204.8379
 328  197.9131
 329  267.166
 330  236.1559
 331  273.6888
 332  150.9212
 333  160.6276
 334  261.4091
 335  298.6221
 336  238.0094
 337  342.4315
 338  404.06
 339  221.0991
 340  182.1403
 341  292.571
 342  303.9898
 343  269.0169
 344  264.0814
 345  259.3083
 346  145.3399
 347  175.1684
 348  220.3853
 349  222.6122
 350  239.2098
 351  157.4531
 352  209.3709
 353  237.0211
 354  207.2154
 355  338.313
 356  355.7288
 357  135.0568
 358  143.4068
 359  284.5582
 360  293.5788
 361  263.9317
 362  242.9639
 363  266.5732
 364  192.474
 365  37.52921
 366  126.7951
 367  376.8246
 368  427.3956
 369  263.1735
 370  61.41447
 371  20.83012
 372  116.5951
 373  91.06921
 374  225.9392
 375  315.2169
 376  254.4087
 377  238.0355
 378  122.9416
 379  148.6893
 380  180.559
 381  160.8987
 382  52.47083
 383  264.8374
 384  131.882
 385  134.4968
 386  273.9347
 387  201.7121
 388  112.8839
 389  45.90323
 390  137.9275
 391  86.09263
 392  128.9462
 393  156.936
 394  92.20787
 395  7.97377
 396  176.2601
 397  243.3735
 398  255.7706
 399  401.1273
 400  232.2001
 401  85.5659
 402  132.9167
 403  309.356
 404  203.9279
 405  111.6418
 406  99.45402
 407  -54.0425
 408  92.81553
 409  185.3068
 410  132.7135
 411  118.0661
 412  149.1135
 413  214.077
 414  290.4676
 415  227.0069
 416  350.4983
 417  205.5338
 418  133.2543
 419  68.12607
 420  157.8972
 421  211.6127
 422  241.8144
 423  165.196
 424  243.0341
 425  324.9859
 426  233.255
 427  193.8375
 428  117.4788
 429  160.1687
 430  243.1713
 431  299.5289
 432  189.7553
 433  232.4667
 434  265.3181
 435  228.0833
 436  155.7399
 437  334.3079
 438  298.891
 439  193.5838
 440  31.36765
 441  58.77528
 442  141.7302
 443  257.6211
 444  230.2362
 445  214.9198
 446  153.7744
 447  162.7835
 448  188.2403
 449  160.9298
 450  88.50219
 451  152.2027
 452  166.1992
 453  178.4003
 454  59.23791
 455  117.6074
 456  169.7398
 457  358.8487
 458  358.3958
 459  302.1569
 460  160.7439
 461  61.32602
 462  239.8635
 463  104.7388
 464  114.999
 465  225.9925
 466  237.799
 467  201.0077
 468  138.2747
 469  297.6615
 470  297.3265
 471  267.4314
 472  267.4212
 473  34.11267
 474  2.653872
 475  182.2985
 476  126.3518
 477  119.6964
 478  102.3655
 479  243.4803
 480  231.7435
 481  -33.14
 482  113.0529
 483  267.7928
 484  274.6191
 485  59.48635
 486  91.38201
 487  230.3737
 488  279.0713
 489  237.7946
 490  214.4478
 491  111.0787
 492  186.8243
 493  206.7305
 494  219.8627
 495  214.2847
 496  267.2244
 497  288.9597
 498  233.5395
 499  289.3984
 500  69.00537
 501  61.36928
 502  97.93557
 503  338.3507
 504  267.2612
 505  228.0626
 506  418.3668
 507  475.5825
 508  476.6539
 509  519.6782
 510  785.473
 511  933.7468
