# Input file       =  1186267588.110569_cleaned.dat
# Candidate        =  PSR_0332+5434
# Telescope        =  AR
# Epoch_topo       =  57973.949156372328
# Epoch_bary       =  N/A
# T_sample         =  0.002
# Data Folded      =  7208960
# Data Avg         =  0.0236932417843492
# Data StdDev      =  2.98872554099233 
# Profile Bins     =  512
# Profile Avg      =  333.468337646807 
# Profile StdDev   =  354.639709367224 
# Reduced chi-sqr  =  1.012
# Prob(Noise)      <  0.419   (~0.2 sigma)
# P_topo (ms)      =  714.466507310013  +/- 0.000145
# P'_topo (s/s)    =  -0                +/- 7.81e-11
# P''_topo (s/s^2) =  0                 +/- 3.51e-14
# P_bary (ms)      =  N/A
# P'_bary (s/s)    =  N/A
# P''_bary (s/s^2) =  N/A
# P_orb (s)        =  N/A
# asin(i)/c (s)    =  N/A
# eccentricity     =  N/A
# w (rad)          =  N/A
# T_peri           =  N/A
######################################################
   0  171.4455
   1  11.97048
   2  26.84021
   3  348.6993
   4  498.5463
   5  527.0781
   6  96.02956
   7  85.74113
   8  452.3571
   9  247.3316
  10  224.2388
  11  150.4087
  12  259.7257
  13  514.0924
  14  437.9418
  15  123.5946
  16  -29.56835
  17  344.2115
  18  573.3276
  19  340.2005
  20  493.1102
  21  371.0019
  22  375.4076
  23  -3.051147
  24  289.7404
  25  255.2754
  26  65.37646
  27  -45.68633
  28  -233.2251
  29  122.4596
  30  -33.8468
  31  48.94385
  32  238.5459
  33  429.2369
  34  445.5848
  35  230.2621
  36  304.674
  37  504.0854
  38  319.4377
  39  329.0745
  40  381.6647
  41  553.17
  42  153.9144
  43  114.2302
  44  325.8684
  45  469.4095
  46  38.43205
  47  237.403
  48  369.8621
  49  192.1788
  50  -3.342084
  51  517.9681
  52  525.6133
  53  410.1312
  54  458.1653
  55  519.6292
  56  450.9694
  57  20.04222
  58  203.6539
  59  273.4524
  60  604.5103
  61  599.1666
  62  726.7833
  63  147.1798
  64  -50.40807
  65  13.65233
  66  37.58003
  67  287.7192
  68  448.651
  69  348.726
  70  532.5872
  71  699.0915
  72  466.3178
  73  213.3849
  74  -25.05161
  75  118.001
  76  310.2943
  77  372.5743
  78  576.3026
  79  980.6381
  80  739.7471
  81  341.308
  82  141.7309
  83  113.1336
  84  395.1211
  85  456.7986
  86  198.0451
  87  216.0966
  88  263.1192
  89  331.5301
  90  66.17452
  91  309.8052
  92  693.9922
  93  228.487
  94  504.6267
  95  441.7694
  96  632.8553
  97  464.6775
  98  316.6475
  99  415.0597
 100  467.6196
 101  549.5089
 102  568.5991
 103  333.212
 104  242.1827
 105  297.3935
 106  323.5813
 107  569.5082
 108  583.9756
 109  698.0317
 110  551.158
 111  214.388
 112  47.93469
 113  36.06376
 114  199.6554
 115  319.0833
 116  488.0916
 117  221.4738
 118  -37.78079
 119  209.6558
 120  342.1541
 121  82.37152
 122  -214.2162
 123  -106.0853
 124  289.1469
 125  144.6531
 126  253.8713
 127  -16.05488
 128  238.2421
 129  157.0407
 130  122.248
 131  384.7262
 132  425.3832
 133  378.2968
 134  192.4016
 135  127.0676
 136  194.6803
 137  353.087
 138  557.7025
 139  378.8969
 140  276.1598
 141  348.6014
 142  436.3419
 143  528.7486
 144  543.4604
 145  502.5675
 146  225.0102
 147  4.974724
 148  -236.0927
 149  204.6705
 150  486.981
 151  504.1254
 152  621.6603
 153  192.516
 154  -308.1754
 155  -3.869315
 156  164.8717
 157  263.6472
 158  486.4482
 159  432.5776
 160  110.814
 161  198.0959
 162  374.8428
 163  263.0672
 164  247.0349
 165  303.4252
 166  369.8961
 167  127.1266
 168  141.0812
 169  416.9887
 170  339.0473
 171  314.0756
 172  195.3707
 173  135.0172
 174  55.13311
 175  -242.5434
 176  386.5008
 177  404.5536
 178  1.37447
 179  212.454
 180  318.8226
 181  189.5286
 182  -40.02326
 183  262.7945
 184  504.6406
 185  375.3531
 186  512.3945
 187  266.7155
 188  284.8394
 189  242.7522
 190  558.299
 191  703.4549
 192  619.5289
 193  336.0016
 194  419.619
 195  153.4546
 196  243.6613
 197  232.7846
 198  495.046
 199  339.1415
 200  103.3014
 201  19.13164
 202  415.3126
 203  254.636
 204  -61.16724
 205  25.93105
 206  48.99886
 207  288.5494
 208  447.9667
 209  651.8892
 210  742.2342
 211  244.8276
 212  182.8195
 213  181.7715
 214  338.606
 215  0.5086764
 216  107.4056
 217  123.9374
 218  462.091
 219  303.4798
 220  114.0176
 221  45.9523
 222  112.5444
 223  250.4585
 224  351.3176
 225  354.7853
 226  318.2999
 227  338.9771
 228  260.2152
 229  237.1477
 230  149.3281
 231  330.1028
 232  214.3639
 233  -8.907564
 234  91.6114
 235  214.5329
 236  696.1581
 237  295.7233
 238  574.6887
 239  278.7
 240  118.3332
 241  280.7061
 242  201.9048
 243  521.4751
 244  558.3864
 245  368.2671
 246  457.4171
 247  290.978
 248  446.9488
 249  93.82783
 250  369.9863
 251  534.7482
 252  325.2858
 253  192.1065
 254  -132.2788
 255  181.4471
 256  349.4107
 257  312.1014
 258  434.7113
 259  655.4666
 260  904.2103
 261  570.2307
 262  419.6077
 263  510.6264
 264  446.0982
 265  338.9062
 266  557.0302
 267  525.4623
 268  302.8161
 269  362.0183
 270  175.4179
 271  384.3459
 272  306.2497
 273  94.78114
 274  93.76481
 275  216.0054
 276  628.3859
 277  442.1467
 278  285.6068
 279  376.3669
 280  370.0288
 281  -100.5515
 282  103.6286
 283  43.84462
 284  214.9667
 285  320.9287
 286  123.5334
 287  445.5707
 288  312.1904
 289  149.7089
 290  127.0047
 291  77.19714
 292  199.0177
 293  372.0834
 294  294.581
 295  183.4643
 296  339.1039
 297  268.8497
 298  199.0805
 299  113.3074
 300  199.6897
 301  320.6433
 302  356.6371
 303  310.2957
 304  11.4707
 305  52.04539
 306  471.5823
 307  442.8576
 308  560.1788
 309  94.54802
 310  132.3504
 311  480.9262
 312  684.8911
 313  204.3837
 314  -156.4368
 315  -99.42399
 316  454.1049
 317  738.438
 318  599.0391
 319  642.3324
 320  135.5771
 321  -212.1989
 322  -119.5762
 323  127.3573
 324  411.1328
 325  76.0445
 326  319.6192
 327  425.2736
 328  294.2922
 329  49.86553
 330  -32.45414
 331  267.7995
 332  196.9018
 333  358.2895
 334  502.3367
 335  543.9766
 336  268.3263
 337  327.6831
 338  9.421881
 339  25.96484
 340  -67.79198
 341  431.61
 342  568.3969
 343  371.7721
 344  124.6208
 345  426.1039
 346  455.4237
 347  398.502
 348  164.7831
 349  184.2313
 350  291.5306
 351  257.3315
 352  628.9977
 353  698.2039
 354  577.524
 355  254.6711
 356  242.2627
 357  104.0821
 358  185.5961
 359  293.5584
 360  539.9723
 361  503.0001
 362  500.7916
 363  465.4008
 364  335.815
 365  452.0919
 366  583.5284
 367  301.4857
 368  360.8275
 369  238.5869
 370  479.2685
 371  411.1216
 372  575.2908
 373  130.7844
 374  69.62628
 375  522.9792
 376  630.9645
 377  735.0396
 378  647.999
 379  359.7216
 380  495.9041
 381  427.8736
 382  705.9437
 383  334.0805
 384  147.2653
 385  634.4161
 386  537.8536
 387  493.6845
 388  268.6929
 389  357.0809
 390  408.5177
 391  339.019
 392  380.0317
 393  425.9389
 394  420.0224
 395  200.6663
 396  538.533
 397  523.3323
 398  940.5429
 399  1512.263
 400  1694.385
 401  1794.418
 402  1904.021
 403  1727.571
 404  1534.155
 405  1187.205
 406  569.6189
 407  657.6974
 408  498.6105
 409  465.1542
 410  540.1755
 411  256.4674
 412  41.69498
 413  202.6367
 414  485.0143
 415  692.8073
 416  753.6906
 417  769.6536
 418  738.1947
 419  555.5901
 420  125.1686
 421  311.7111
 422  248.8788
 423  306.764
 424  515.4581
 425  43.93753
 426  157.1452
 427  341.6708
 428  503.974
 429  533.5034
 430  183.2093
 431  -113.211
 432  -16.64636
 433  139.7031
 434  442.8794
 435  820.2344
 436  682.4453
 437  692.2418
 438  211.1523
 439  265.6662
 440  411.3938
 441  307.1729
 442  798.8989
 443  643.9677
 444  369.3979
 445  342.5935
 446  267.4788
 447  307.6559
 448  424.0285
 449  202.6246
 450  289.8534
 451  445.4066
 452  519.1156
 453  217.5667
 454  277.2908
 455  498.2014
 456  428.2609
 457  -50.35614
 458  -169.1507
 459  499.9132
 460  695.5247
 461  516.0451
 462  262.7996
 463  91.59199
 464  290.9339
 465  427.8034
 466  201.7448
 467  261.7167
 468  249.8284
 469  310.254
 470  113.5799
 471  238.3638
 472  356.57
 473  84.8864
 474  345.7083
 475  361.1105
 476  520.7504
 477  412.1823
 478  374.8537
 479  316.8344
 480  37.66806
 481  124.4025
 482  341.5441
 483  443.7686
 484  229.7066
 485  421.0286
 486  717.9489
 487  339.9739
 488  364.5795
 489  619.0897
 490  388.1758
 491  325.2979
 492  516.0684
 493  302.2842
 494  -24.79559
 495  -35.52323
 496  539.1342
 497  160.2288
 498  210.0466
 499  383.9582
 500  701.6804
 501  582.5153
 502  368.8745
 503  164.0226
 504  173.6235
 505  -9.914289
 506  247.8204
 507  389.5198
 508  237.5194
 509  146.7573
 510  268.0859
 511  349.2045
