# Input file       =  1186282239.11017_cleaned.dat
# Candidate        =  PSR_0332+5434
# Telescope        =  AR
# Epoch_topo       =  57974.118728126967
# Epoch_bary       =  N/A
# T_sample         =  0.002
# Data Folded      =  7340032
# Data Avg         =  0.0155848041343104
# Data StdDev      =  2.33782003470562 
# Profile Bins     =  512
# Profile Avg      =  223.590410009962 
# Profile StdDev   =  279.914291257741 
# Reduced chi-sqr  =  1.552
# Prob(Noise)      <  1.46e-14   (~7.6 sigma)
# P_topo (ms)      =  714.466466933348  +/- 0.000218
# P'_topo (s/s)    =  -0                +/- 1.15e-10
# P''_topo (s/s^2) =  0                 +/- 5.08e-14
# P_bary (ms)      =  N/A
# P'_bary (s/s)    =  N/A
# P''_bary (s/s^2) =  N/A
# P_orb (s)        =  N/A
# asin(i)/c (s)    =  N/A
# eccentricity     =  N/A
# w (rad)          =  N/A
# T_peri           =  N/A
######################################################
   0  232.4838
   1  151.5617
   2  245.102
   3  416.7588
   4  398.7538
   5  486.6382
   6  302.5789
   7  131.6087
   8  77.82571
   9  418.0011
  10  488.4296
  11  217.642
  12  99.8419
  13  354.0423
  14  109.9446
  15  145.0444
  16  447.7799
  17  233.1533
  18  151.7663
  19  34.52846
  20  302.5772
  21  500.6281
  22  682.947
  23  357.0124
  24  318.3157
  25  397.8483
  26  318.5391
  27  368.4659
  28  539.5654
  29  155.9651
  30  151.0836
  31  401.8181
  32  390.74
  33  140.8582
  34  254.3398
  35  49.51783
  36  42.41555
  37  65.02836
  38  82.88651
  39  82.74669
  40  279.7795
  41  379.6853
  42  263.4589
  43  -77.99918
  44  -145.5799
  45  -19.22773
  46  5.439364
  47  -68.88863
  48  -82.13305
  49  -227.1093
  50  27.28333
  51  -228.3493
  52  -39.95433
  53  316.0476
  54  290.4445
  55  268.2939
  56  61.59263
  57  -118.6519
  58  -71.64887
  59  175.8149
  60  280.0652
  61  114.4808
  62  213.4338
  63  102.7291
  64  162.7171
  65  321.1305
  66  242.6319
  67  375.601
  68  47.06697
  69  309.1843
  70  258.2928
  71  342.4799
  72  322.5098
  73  218.8702
  74  308.1042
  75  -58.98076
  76  -121.767
  77  266.1349
  78  215.4335
  79  158.3465
  80  -106.3157
  81  -32.80687
  82  12.71811
  83  -14.35131
  84  25.11368
  85  26.80051
  86  207.8414
  87  111.1914
  88  329.0589
  89  108.6522
  90  65.4048
  91  150.9608
  92  386.2824
  93  481.595
  94  558.0607
  95  65.41148
  96  -9.997249
  97  319.2632
  98  519.9376
  99  245.7393
 100  262.9943
 101  165.9641
 102  93.3049
 103  398.654
 104  413.0207
 105  365.55
 106  165.0017
 107  -122.3459
 108  -149.7941
 109  114.0707
 110  433.9453
 111  207.5081
 112  155.1187
 113  299.3334
 114  128.5182
 115  -106.1004
 116  -51.74682
 117  310.3142
 118  690.5621
 119  560.3828
 120  218.0352
 121  84.83968
 122  384.654
 123  315.821
 124  440.7117
 125  239.4225
 126  -38.48326
 127  -101.7964
 128  63.4164
 129  322.8196
 130  316.0725
 131  82.50966
 132  -257.7158
 133  50.89292
 134  305.141
 135  422.5362
 136  594.2241
 137  357.3463
 138  -16.98582
 139  123.1809
 140  264.1802
 141  559.0098
 142  -74.53707
 143  -17.83085
 144  210.4014
 145  325.5551
 146  548.6058
 147  584.5908
 148  265.4537
 149  315.3658
 150  410.401
 151  109.1739
 152  99.89264
 153  535.6569
 154  482.1872
 155  382.0833
 156  368.548
 157  368.7054
 158  231.9371
 159  443.8773
 160  267.2013
 161  214.6367
 162  24.96869
 163  311.7335
 164  327.2798
 165  293.7637
 166  545.1716
 167  115.2739
 168  58.62985
 169  80.78623
 170  261.994
 171  317.1241
 172  378.5935
 173  321.6646
 174  548.6431
 175  588.5753
 176  234.8308
 177  133.9459
 178  66.19336
 179  182.6349
 180  334.2421
 181  385.8443
 182  271.0657
 183  69.89517
 184  120.3634
 185  204.7696
 186  345.6312
 187  266.2061
 188  103.2491
 189  221.2928
 190  327.9767
 191  425.9072
 192  386.7068
 193  225.5373
 194  110.4233
 195  213.6491
 196  386.2987
 197  295.2896
 198  276.2663
 199  301.4673
 200  466.526
 201  418.2089
 202  397.3574
 203  392.2982
 204  91.5628
 205  237.4581
 206  122.5728
 207  427.1481
 208  595.9582
 209  287.312
 210  161.0543
 211  200.8909
 212  459.0617
 213  380.53
 214  233.9002
 215  154.2696
 216  101.4909
 217  -92.6146
 218  101.0605
 219  153.9605
 220  79.85264
 221  73.253
 222  4.863302
 223  96.91724
 224  312.0612
 225  6.055199
 226  -25.63487
 227  -88.64289
 228  -71.60544
 229  89.23251
 230  220.2349
 231  243.4544
 232  -104.7458
 233  160.7733
 234  345.0831
 235  -81.49335
 236  -27.45523
 237  200.4725
 238  -14.05455
 239  -82.46324
 240  -157.6492
 241  -70.54103
 242  214.7477
 243  -8.332193
 244  350.023
 245  334.64
 246  461.0394
 247  190.2375
 248  170.771
 249  440.4738
 250  459.2571
 251  220.3936
 252  192.4503
 253  120.0753
 254  85.49683
 255  208.2097
 256  161.6273
 257  298.3329
 258  -44.7111
 259  -44.06454
 260  -141.4807
 261  -5.296539
 262  351.9077
 263  101.8531
 264  367.6788
 265  142.519
 266  233.2846
 267  62.05271
 268  -25.71841
 269  21.21035
 270  -45.28692
 271  187.4773
 272  242.4843
 273  118.8639
 274  -11.12854
 275  -9.114127
 276  195.7988
 277  -5.743327
 278  200.4785
 279  202.076
 280  -22.73462
 281  14.7506
 282  252.947
 283  95.90914
 284  56.75081
 285  249.808
 286  276.4841
 287  199.3127
 288  412.7946
 289  617.9877
 290  628.4075
 291  1139.841
 292  1415.982
 293  1401.376
 294  1858.252
 295  2003.784
 296  1778.366
 297  1371.254
 298  616.572
 299  540.9824
 300  449.4696
 301  258.1915
 302  229.4203
 303  269.7439
 304  278.5213
 305  335.9446
 306  391.296
 307  635.4556
 308  537.4755
 309  46.93058
 310  -364.9888
 311  -494.3974
 312  -304.193
 313  243.7704
 314  37.9862
 315  -126.0623
 316  -165.957
 317  -63.28577
 318  -68.00616
 319  -260.5966
 320  -216.5215
 321  -134.9279
 322  -153.1255
 323  51.09821
 324  -34.86311
 325  171.5629
 326  301.8775
 327  -72.95293
 328  -121.3001
 329  195.4203
 330  204.6135
 331  132.8102
 332  134.1864
 333  90.52707
 334  309.1799
 335  314.903
 336  329.6735
 337  101.3591
 338  414.6435
 339  426.2416
 340  473.7098
 341  340.4521
 342  368.1062
 343  181.327
 344  -234.569
 345  44.54692
 346  271.8129
 347  542.895
 348  153.7499
 349  -88.28288
 350  43.42826
 351  168.7282
 352  75.32415
 353  95.82031
 354  225.4908
 355  191.4778
 356  363.3374
 357  231.2705
 358  -269.4639
 359  -71.1833
 360  58.03084
 361  160.8981
 362  6.902457
 363  68.17316
 364  282.5696
 365  211.8784
 366  45.82874
 367  -18.13246
 368  78.32516
 369  258.9745
 370  167.4449
 371  438.0695
 372  359.0201
 373  36.23707
 374  110.0789
 375  100.7108
 376  -31.98191
 377  255.5344
 378  71.8984
 379  162.096
 380  81.91529
 381  297.85
 382  102.6298
 383  89.56174
 384  354.8085
 385  516.9959
 386  421.3845
 387  510.6645
 388  308.7157
 389  -15.69929
 390  197.5243
 391  409.0747
 392  90.95406
 393  17.89044
 394  382.2411
 395  211.721
 396  220.7677
 397  547.1053
 398  376.6846
 399  53.07367
 400  225.4437
 401  42.51464
 402  163.0397
 403  218.8949
 404  -23.91863
 405  307.6316
 406  274.7999
 407  456.6187
 408  586.3741
 409  359.3842
 410  437.8765
 411  83.6544
 412  452.6106
 413  427.4493
 414  274.0199
 415  97.64556
 416  -247.5751
 417  138.4258
 418  598.2864
 419  568.7072
 420  308.8858
 421  92.66963
 422  228.4354
 423  186.7773
 424  461.3045
 425  455.2952
 426  199.5183
 427  122.1359
 428  166.1946
 429  177.4439
 430  266.9411
 431  552.4908
 432  425.2439
 433  548.0635
 434  398.206
 435  548.2095
 436  339.0707
 437  42.54959
 438  271.9074
 439  394.2827
 440  354.9067
 441  294.8328
 442  126.2177
 443  244.4744
 444  167.2596
 445  363.5035
 446  507.1672
 447  674.5139
 448  506.8743
 449  278.7214
 450  209.3553
 451  258.0092
 452  157.978
 453  196.2991
 454  222.6373
 455  249.868
 456  -43.24158
 457  283.5722
 458  355.0354
 459  611.7794
 460  467.0684
 461  97.47185
 462  -127.2904
 463  -49.07447
 464  389.0895
 465  477.7437
 466  439.8513
 467  443.3354
 468  159.8714
 469  -141.1841
 470  159.5477
 471  326.6085
 472  111.4374
 473  268.9468
 474  -34.1131
 475  -100.425
 476  -91.86949
 477  113.8106
 478  -20.34857
 479  -2.615192
 480  9.552042
 481  176.8624
 482  161.1193
 483  121.7776
 484  90.97124
 485  138.8784
 486  -44.3638
 487  -276.2418
 488  98.3251
 489  174.3345
 490  182.843
 491  347.5962
 492  307.1348
 493  375.3685
 494  427.2257
 495  393.4272
 496  361.8012
 497  159.207
 498  325.8017
 499  302.0473
 500  340.2826
 501  297.1319
 502  411.8203
 503  271.7311
 504  169.5097
 505  152.734
 506  53.34032
 507  223.1516
 508  263.6526
 509  155.6534
 510  347.4062
 511  240.1766
