# Input file       =  1186799925.14863_cleaned.dat
# Candidate        =  PSR_0332+5434
# Telescope        =  AR
# Epoch_topo       =  57980.110464683217
# Epoch_bary       =  N/A
# T_sample         =  0.002
# Data Folded      =  7340032
# Data Avg         =  0.0171041834868707
# Data StdDev      =  2.26159340377964 
# Profile Bins     =  512
# Profile Avg      =  245.195571952529 
# Profile StdDev   =  270.787445284202 
# Reduced chi-sqr  =  1.547
# Prob(Noise)      <  2.26e-14   (~7.5 sigma)
# P_topo (ms)      =  714.464855025162  +/- 0.000116
# P'_topo (s/s)    =  -0                +/- 6.1e-11
# P''_topo (s/s^2) =  0                 +/- 2.69e-14
# P_bary (ms)      =  N/A
# P'_bary (s/s)    =  N/A
# P''_bary (s/s^2) =  N/A
# P_orb (s)        =  N/A
# asin(i)/c (s)    =  N/A
# eccentricity     =  N/A
# w (rad)          =  N/A
# T_peri           =  N/A
######################################################
   0  -102.7913
   1  97.37693
   2  -12.25528
   3  -117.5065
   4  -341.962
   5  210.5325
   6  -215.2936
   7  -113.3998
   8  0.7854958
   9  119.6895
  10  525.45
  11  398.5639
  12  277.4868
  13  66.98331
  14  591.4101
  15  93.9234
  16  -110.4178
  17  179.8054
  18  609.566
  19  500.4121
  20  -65.74117
  21  -102.8712
  22  140.3045
  23  133.4663
  24  231.7079
  25  269.6405
  26  353.0334
  27  469.506
  28  392.688
  29  411.7806
  30  514.6054
  31  508.7806
  32  407.4536
  33  449.1564
  34  517.6674
  35  284.8395
  36  388.4817
  37  423.9028
  38  611.0071
  39  294.5699
  40  147.5838
  41  50.67917
  42  3.040825
  43  173.6407
  44  291.1157
  45  105.2289
  46  143.1459
  47  293.209
  48  586.9263
  49  325.8857
  50  155.0467
  51  140.9876
  52  141.9871
  53  518.9252
  54  681.9678
  55  308.2035
  56  39.05919
  57  476.3021
  58  719.7892
  59  462.0668
  60  572.493
  61  563.9611
  62  260.704
  63  71.23587
  64  159.4207
  65  453.2684
  66  384.8097
  67  230.3378
  68  235.759
  69  423.4521
  70  118.7092
  71  127.9269
  72  230.1191
  73  266.2195
  74  163.6515
  75  176.103
  76  189.5484
  77  6.40373
  78  45.30954
  79  105.6064
  80  357.3968
  81  362.768
  82  215.6743
  83  100.9109
  84  33.65709
  85  183.0181
  86  112.0014
  87  152.5628
  88  511.9397
  89  302.3058
  90  90.31509
  91  238.006
  92  495.5227
  93  114.2436
  94  -173.3107
  95  134.9709
  96  357.9883
  97  338.3182
  98  373.4475
  99  445.0215
 100  508.7949
 101  503.2055
 102  260.0732
 103  258.6809
 104  336.9096
 105  370.7475
 106  112.8879
 107  35.83169
 108  253.3473
 109  277.3924
 110  100.7463
 111  326.4571
 112  297.5942
 113  105.9241
 114  -258.0692
 115  203.3763
 116  446.8145
 117  411.0498
 118  -4.919953
 119  150.6943
 120  479.9645
 121  320.9851
 122  239.9553
 123  439.7931
 124  236.576
 125  335.3592
 126  592.856
 127  654.7922
 128  341.5706
 129  195.2259
 130  234.4598
 131  199.2367
 132  9.743213
 133  127.9744
 134  499.3931
 135  599.1562
 136  463.9253
 137  432.3902
 138  595.1614
 139  558.0496
 140  286.4267
 141  339.3661
 142  622.2747
 143  26.92466
 144  -133.2891
 145  86.05113
 146  404.2328
 147  502.6565
 148  50.42669
 149  253.0427
 150  560.0233
 151  550.9131
 152  406.8679
 153  104.2771
 154  347.7274
 155  334.4967
 156  187.8402
 157  586.5612
 158  470.1228
 159  488.4741
 160  613.5355
 161  300.2795
 162  238.2247
 163  368.7095
 164  369.6322
 165  203.4132
 166  394.9787
 167  581.8734
 168  188.4675
 169  155.3629
 170  377.3524
 171  312.6248
 172  287.6789
 173  13.84897
 174  153.2757
 175  182.7691
 176  649.0614
 177  551.2591
 178  172.2287
 179  428.8582
 180  210.6912
 181  259.7079
 182  291.8122
 183  383.1245
 184  167.4488
 185  216.6864
 186  589.0873
 187  438.5853
 188  80.85905
 189  336.0397
 190  583.813
 191  383.0132
 192  396.0134
 193  515.3951
 194  376.6568
 195  445.989
 196  342.9085
 197  543.2823
 198  -9.828664
 199  59.45543
 200  48.56416
 201  390.5938
 202  548.6179
 203  348.291
 204  328.4144
 205  341.1347
 206  238.8555
 207  75.64975
 208  386.6214
 209  113.9398
 210  300.121
 211  323.3747
 212  276.9261
 213  357.3474
 214  462.1092
 215  134.4579
 216  117.8296
 217  320.6077
 218  319.484
 219  224.2811
 220  290.7382
 221  120.2692
 222  -5.712633
 223  32.22199
 224  14.45908
 225  284.4467
 226  216.7423
 227  277.3614
 228  23.51942
 229  -120.9994
 230  94.05888
 231  155.088
 232  499.2849
 233  185.0653
 234  243.0162
 235  334.6287
 236  300.143
 237  335.1405
 238  188.7114
 239  53.7723
 240  -18.36816
 241  106.6795
 242  -209.0378
 243  -195.6731
 244  298.3091
 245  422.851
 246  70.72832
 247  61.70803
 248  609.0285
 249  471.8561
 250  401.3181
 251  -28.94124
 252  53.44028
 253  373.5684
 254  256.2063
 255  160.8051
 256  50.05796
 257  223.6201
 258  265.0525
 259  324.2838
 260  396.5229
 261  563.6091
 262  564.176
 263  144.9389
 264  226.5441
 265  32.49412
 266  66.35623
 267  5.793412
 268  51.92367
 269  81.3966
 270  -27.99033
 271  -78.42992
 272  50.10859
 273  191.8366
 274  81.06022
 275  49.53636
 276  89.75388
 277  429.3112
 278  301.5216
 279  81.35115
 280  -35.01516
 281  -39.80261
 282  -115.6256
 283  424.7611
 284  531.5665
 285  138.3667
 286  138.654
 287  573.3597
 288  633.553
 289  276.6766
 290  256.4554
 291  91.07011
 292  -20.08451
 293  136.2654
 294  236.3507
 295  -131.5479
 296  -258.3329
 297  22.36159
 298  148.1971
 299  -76.37206
 300  -243.6373
 301  -137.3684
 302  -98.80849
 303  37.75168
 304  305.1887
 305  479.4
 306  605.8499
 307  455.7127
 308  -25.01768
 309  217.1858
 310  132.8612
 311  235.6442
 312  85.86129
 313  346.5732
 314  448.1377
 315  293.7088
 316  267.6968
 317  224.1283
 318  450.4111
 319  478.7575
 320  301.3781
 321  765.0146
 322  1468.287
 323  1888.349
 324  1955.194
 325  1631.814
 326  1130.629
 327  578.7704
 328  564.9273
 329  378.1267
 330  144.7219
 331  73.60912
 332  286.207
 333  262.1978
 334  329.1866
 335  41.79778
 336  221.4171
 337  71.26815
 338  73.48311
 339  424.8664
 340  491.8913
 341  14.74406
 342  -138.837
 343  140.0543
 344  33.96645
 345  272.921
 346  533.0736
 347  363.0831
 348  187.9406
 349  370.1141
 350  402.9978
 351  240.8036
 352  288.3585
 353  260.2875
 354  373.7176
 355  406.3655
 356  301.3432
 357  64.51064
 358  176.7105
 359  397.7977
 360  45.26975
 361  119.2371
 362  139.6461
 363  -105.4252
 364  15.8268
 365  546.975
 366  204.9841
 367  45.72081
 368  188.9959
 369  152.0208
 370  -130.8408
 371  201.8595
 372  250.0097
 373  531.6326
 374  247.877
 375  52.92243
 376  -106.4952
 377  -50.65077
 378  80.47055
 379  324.8858
 380  154.3226
 381  129.5013
 382  68.25725
 383  -371.1971
 384  -141.0074
 385  74.509
 386  117.2319
 387  166.8402
 388  -110.4681
 389  336.6781
 390  211.8074
 391  124.5503
 392  333.9152
 393  -149.7957
 394  46.60617
 395  58.20354
 396  68.85882
 397  464.6065
 398  312.449
 399  356.3064
 400  245.5233
 401  357.6421
 402  318.6872
 403  268.2419
 404  383.3294
 405  285.8955
 406  178.9687
 407  367.3246
 408  368.1591
 409  261.7764
 410  -8.264717
 411  0.8265802
 412  148.2351
 413  352.0748
 414  205.2334
 415  -186.5276
 416  228.2742
 417  144.9854
 418  181.3267
 419  -88.29119
 420  -66.82706
 421  212.1609
 422  143.1957
 423  405.264
 424  165.8509
 425  227.9229
 426  295.3447
 427  415.5363
 428  151.2785
 429  77.47222
 430  -92.90435
 431  116.6489
 432  382.5884
 433  -169.7894
 434  -220.6488
 435  9.141374
 436  62.0099
 437  81.26626
 438  356.3402
 439  328.4629
 440  15.37645
 441  -56.61238
 442  312.8682
 443  187.9425
 444  141.0534
 445  172.1481
 446  143.3712
 447  391.4131
 448  391.7046
 449  345.549
 450  328.3852
 451  445.3911
 452  401.7404
 453  -3.92935
 454  65.06863
 455  479.343
 456  559.0174
 457  396.4316
 458  98.57124
 459  345.6192
 460  182.0285
 461  -21.83619
 462  233.2385
 463  408.0975
 464  287.1069
 465  234.986
 466  412.9549
 467  564.9582
 468  188.0025
 469  220.7074
 470  295.0016
 471  -98.63506
 472  -24.8936
 473  -46.29356
 474  200.3155
 475  18.30272
 476  94.13619
 477  106.469
 478  170.772
 479  170.6049
 480  441.4148
 481  547.2919
 482  513.5912
 483  665.812
 484  372.307
 485  357.2599
 486  283.0657
 487  126.5494
 488  47.04292
 489  -14.18278
 490  477.3378
 491  188.9943
 492  111.5926
 493  213.2875
 494  230.9273
 495  37.76608
 496  -1.270728
 497  19.96604
 498  169.6195
 499  -65.3442
 500  258.0797
 501  219.5074
 502  544.2079
 503  616.7961
 504  157.8508
 505  157.8055
 506  162.7425
 507  111.3032
 508  -11.44704
 509  136.5359
 510  37.20671
 511  -145.8846
