# Input file       =  1186109924.11468_cleaned.dat
# Candidate        =  PSR_0332+5434
# Telescope        =  AR
# Epoch_topo       =  57972.124341605093
# Epoch_bary       =  N/A
# T_sample         =  0.002
# Data Folded      =  7340032
# Data Avg         =  0.0043356963753022
# Data StdDev      =  1.0000514361775  
# Profile Bins     =  512
# Profile Avg      =  62.1765217953284 
# Profile StdDev   =  119.739194986478 
# Reduced chi-sqr  =  1.183
# Prob(Noise)      <  0.00267   (~2.8 sigma)
# P_topo (ms)      =  714.467121604826  +/- 0.000101
# P'_topo (s/s)    =  -0                +/- 5.33e-11
# P''_topo (s/s^2) =  0                 +/- 2.35e-14
# P_bary (ms)      =  N/A
# P'_bary (s/s)    =  N/A
# P''_bary (s/s^2) =  N/A
# P_orb (s)        =  N/A
# asin(i)/c (s)    =  N/A
# eccentricity     =  N/A
# w (rad)          =  N/A
# T_peri           =  N/A
######################################################
   0  522.1056
   1  430.2167
   2  333.2037
   3  231.3908
   4  8.545714
   5  87.31958
   6  61.20005
   7  -66.01028
   8  -137.2796
   9  -145.7607
  10  -7.250464
  11  141.3768
  12  99.58166
  13  201.3276
  14  47.66887
  15  55.18026
  16  60.91982
  17  -30.33485
  18  41.76903
  19  -61.99847
  20  -39.79836
  21  90.14862
  22  158.2397
  23  -7.89993
  24  -83.54797
  25  104.4587
  26  -10.61
  27  -56.84853
  28  57.43936
  29  68.54987
  30  41.9516
  31  -44.54518
  32  46.988
  33  -2.685369
  34  -35.3213
  35  18.27381
  36  -37.14181
  37  -42.61983
  38  -81.95862
  39  38.59466
  40  115.5527
  41  0.2311315
  42  -90.54879
  43  32.88595
  44  75.74744
  45  43.43924
  46  32.09922
  47  -80.16666
  48  4.778028
  49  97.32716
  50  99.84621
  51  -61.17134
  52  36.78627
  53  53.12891
  54  113.396
  55  63.67299
  56  1.093862
  57  29.56312
  58  -63.00122
  59  -9.865193
  60  62.99308
  61  72.67065
  62  -80.31341
  63  40.36975
  64  166.9317
  65  -17.06471
  66  -91.16451
  67  183.0766
  68  84.71443
  69  -6.602026
  70  -30.43663
  71  -50.17036
  72  72.07832
  73  41.89745
  74  165.6503
  75  108.5112
  76  164.6462
  77  95.67699
  78  -49.94316
  79  42.83786
  80  7.415517
  81  71.66833
  82  63.39127
  83  53.65367
  84  80.57632
  85  196.5026
  86  169.7989
  87  101.3167
  88  4.239351
  89  140.8591
  90  149.252
  91  101.256
  92  16.23766
  93  25.40049
  94  51.59293
  95  36.54385
  96  17.53911
  97  -79.49812
  98  67.30851
  99  74.02362
 100  29.99811
 101  18.11676
 102  73.34961
 103  31.59653
 104  11.77336
 105  61.9394
 106  99.08503
 107  34.16757
 108  132.5962
 109  99.21828
 110  93.7838
 111  154.7072
 112  274.2052
 113  190.6713
 114  132.4215
 115  131.4209
 116  -91.45961
 117  8.564109
 118  126.6805
 119  93.1982
 120  60.47235
 121  97.02242
 122  88.31287
 123  133.3658
 124  -1.180662
 125  37.67114
 126  -21.93307
 127  119.9283
 128  63.26327
 129  37.40905
 130  46.69181
 131  5.368693
 132  43.39245
 133  79.41198
 134  109.0595
 135  163.0655
 136  190.1948
 137  45.04126
 138  38.19225
 139  18.52421
 140  -27.85541
 141  51.94473
 142  3.281118
 143  12.73061
 144  1.227441
 145  43.06612
 146  16.1179
 147  72.58959
 148  5.677349
 149  60.06212
 150  71.78401
 151  125.2222
 152  256.776
 153  134.9799
 154  72.20586
 155  60.91251
 156  -26.73583
 157  -0.7275436
 158  -73.92724
 159  -126.8869
 160  -188.6355
 161  -133.5057
 162  22.77471
 163  109.2559
 164  12.33857
 165  -101.2962
 166  -126.6558
 167  -73.10873
 168  130.7033
 169  62.48203
 170  -74.55443
 171  4.884064
 172  79.74846
 173  73.30562
 174  42.38972
 175  89.59254
 176  33.52013
 177  107.6717
 178  158.5018
 179  107.323
 180  78.65733
 181  58.26611
 182  49.51036
 183  -108.592
 184  17.20341
 185  9.583889
 186  -51.43238
 187  -18.13835
 188  98.21012
 189  173.3109
 190  87.75114
 191  113.1314
 192  191.4048
 193  127.8944
 194  27.70411
 195  104.2819
 196  136.7582
 197  278.2408
 198  221.0689
 199  115.9643
 200  71.5414
 201  -9.671013
 202  33.83943
 203  24.53671
 204  89.08081
 205  158.6305
 206  118.2248
 207  -78.24597
 208  -110.548
 209  87.02135
 210  160.8359
 211  58.40464
 212  19.84827
 213  36.523
 214  69.13322
 215  89.83867
 216  8.361127
 217  2.089122
 218  -45.57382
 219  116.4141
 220  156.1362
 221  36.88051
 222  -55.35823
 223  -8.401662
 224  -31.63308
 225  18.07012
 226  -71.28952
 227  -131.8413
 228  -128.9201
 229  -102.3976
 230  150.2524
 231  181.5276
 232  -5.299603
 233  89.60933
 234  149.2088
 235  -46.48889
 236  53.46856
 237  64.01324
 238  -89.35578
 239  -54.8941
 240  -18.78184
 241  -94.26
 242  -60.702
 243  35.25005
 244  193.1627
 245  7.439817
 246  55.90912
 247  152.8722
 248  114.5451
 249  149.9724
 250  77.13488
 251  -0.6002271
 252  93.86744
 253  39.50215
 254  -83.09406
 255  -37.43863
 256  21.23037
 257  166.7253
 258  233.7936
 259  48.58147
 260  87.87063
 261  100.5627
 262  126.7904
 263  37.12021
 264  38.92639
 265  96.87492
 266  155.0833
 267  256.6417
 268  99.70953
 269  57.34751
 270  99.72475
 271  65.53979
 272  3.131173
 273  77.95357
 274  110.2292
 275  21.74464
 276  -30.44728
 277  157.055
 278  199.3575
 279  107.7662
 280  159.4164
 281  112.7461
 282  111.3682
 283  132.6836
 284  224.691
 285  166.8789
 286  58.41041
 287  221.4504
 288  44.76665
 289  -17.65238
 290  19.41757
 291  199.885
 292  232.2504
 293  146.6296
 294  58.48881
 295  9.040633
 296  65.13979
 297  99.6322
 298  37.96622
 299  75.83913
 300  -1.538508
 301  2.443611
 302  121.71
 303  140.0609
 304  125.0277
 305  74.07754
 306  49.55882
 307  -22.67795
 308  27.76615
 309  24.36729
 310  152.9016
 311  85.12146
 312  81.08968
 313  209.3447
 314  87.01937
 315  48.62603
 316  52.98885
 317  125.0188
 318  74.45518
 319  -28.97263
 320  78.01424
 321  159.7252
 322  67.61887
 323  168.8059
 324  188.3573
 325  125.6964
 326  -29.64628
 327  47.38074
 328  184.9555
 329  243.1361
 330  140.1855
 331  39.2788
 332  89.35304
 333  -9.39856
 334  22.67223
 335  83.48665
 336  56.18636
 337  103.5867
 338  34.95519
 339  138.5328
 340  67.35494
 341  41.05315
 342  21.5035
 343  48.46804
 344  158.7993
 345  117.2164
 346  33.89437
 347  63.42133
 348  -74.86872
 349  -4.670242
 350  148.9332
 351  167.2213
 352  2.272886
 353  -25.40194
 354  10.14525
 355  -1.942336
 356  -75.59531
 357  139.0984
 358  182.2186
 359  59.84177
 360  90.42963
 361  124.3347
 362  126.3129
 363  205.8737
 364  -4.147965
 365  -112.2669
 366  17.81329
 367  12.23702
 368  63.36784
 369  -38.49096
 370  30.63218
 371  130.5456
 372  210.4826
 373  59.45004
 374  87.03317
 375  165.9031
 376  234.9295
 377  197.3347
 378  -25.67257
 379  5.931378
 380  18.50943
 381  36.97839
 382  72.56483
 383  162.0958
 384  108.0743
 385  23.30083
 386  49.01358
 387  143.8444
 388  196.4315
 389  165.4036
 390  108.7297
 391  82.88126
 392  29.06273
 393  214.9628
 394  68.73161
 395  109.1479
 396  77.58324
 397  97.7924
 398  55.68293
 399  14.34585
 400  -40.9864
 401  59.54352
 402  57.68012
 403  101.1627
 404  -6.944326
 405  33.92781
 406  -118.8321
 407  51.3342
 408  104.6717
 409  54.21669
 410  216.7787
 411  104.8106
 412  58.06442
 413  134.6597
 414  -91.00845
 415  -145.6182
 416  7.548857
 417  137.7185
 418  84.13416
 419  -25.54457
 420  76.75666
 421  -13.77472
 422  -43.52602
 423  -34.87486
 424  8.501769
 425  -4.646438
 426  -23.5572
 427  47.92166
 428  10.52176
 429  3.598513
 430  -183.8044
 431  -31.78978
 432  59.75688
 433  -22.9976
 434  -25.21325
 435  97.3674
 436  157.4382
 437  225.4399
 438  27.41031
 439  -31.10766
 440  88.04041
 441  116.1677
 442  -19.60416
 443  -150.869
 444  -28.40107
 445  41.38771
 446  35.05106
 447  56.48795
 448  -45.05714
 449  59.69371
 450  5.19347
 451  84.59861
 452  154.1524
 453  181.0151
 454  97.00282
 455  17.90587
 456  11.77051
 457  77.35532
 458  117.0812
 459  81.71884
 460  146.5683
 461  165.2363
 462  87.61137
 463  -66.20625
 464  -68.7716
 465  103.9815
 466  185.7141
 467  45.4725
 468  2.509306
 469  172.919
 470  125.88
 471  -21.71392
 472  -12.16413
 473  90.25221
 474  215.8947
 475  83.92385
 476  82.38766
 477  -1.000525
 478  64.96143
 479  65.10566
 480  63.72141
 481  105.5159
 482  206.9031
 483  17.58934
 484  -123.7921
 485  27.06656
 486  15.37559
 487  217.6379
 488  226.9618
 489  -35.68174
 490  -133.0642
 491  32.38183
 492  60.97468
 493  80.51877
 494  95.04922
 495  109.1945
 496  -98.71912
 497  -115.821
 498  2.543202
 499  76.09436
 500  244.664
 501  209.9931
 502  0.6172236
 503  32.40755
 504  105.1163
 505  162.9758
 506  115.5731
 507  163.9289
 508  242.3002
 509  401.539
 510  463.0034
 511  567.3635
