# Input file       =  1186885456.097110-PSRB0329-2ms-sampling-dd.dat
# Candidate        =  PSR_0332+5434
# Telescope        =  AR
# Epoch_topo       =  57981.100406216552
# Epoch_bary       =  N/A
# T_sample         =  0.002
# Data Folded      =  7340032
# Data Avg         =  3.20640537097104e-10
# Data StdDev      =  3.0350076528052  
# Profile Bins     =  512
# Profile Avg      =  -1.05818585811812
# Profile StdDev   =  363.390681697089 
# Reduced chi-sqr  =  0.835
# Prob(Noise)      <  0.997   (~0.0 sigma)
# P_topo (ms)      =  714.464629852     +/- 0.000151
# P'_topo (s/s)    =  -0                +/- 7.96e-11
# P''_topo (s/s^2) =  0                 +/- 3.51e-14
# P_bary (ms)      =  N/A
# P'_bary (s/s)    =  N/A
# P''_bary (s/s^2) =  N/A
# P_orb (s)        =  N/A
# asin(i)/c (s)    =  N/A
# eccentricity     =  N/A
# w (rad)          =  N/A
# T_peri           =  N/A
######################################################
   0  -296.8059
   1  -126.6725
   2  -372.8139
   3  -601.6406
   4  -124.8638
   5  151.5558
   6  -5.779794
   7  -100.8337
   8  -60.92914
   9  -343.5765
  10  -329.0386
  11  -93.665
  12  -89.8162
  13  -165.7638
  14  -204.8241
  15  -183.695
  16  -341.3007
  17  -323.4542
  18  -658.2843
  19  -416.868
  20  -141.3779
  21  -122.3973
  22  -124.0352
  23  -335.3614
  24  -320.3422
  25  -161.801
  26  -52.92789
  27  -243.8227
  28  -331.1205
  29  10.9201
  30  -92.2553
  31  -100.0905
  32  -111.1787
  33  -100.5121
  34  -360.7126
  35  -94.65463
  36  -188.3124
  37  -49.64754
  38  59.02256
  39  83.69274
  40  -193.0911
  41  -282.9624
  42  -229.4898
  43  40.99038
  44  137.7597
  45  -189.5385
  46  -582.8135
  47  -534.2961
  48  -321.1866
  49  -163.7257
  50  -422.4816
  51  -427.7437
  52  -310.8388
  53  -272.1015
  54  -177.7872
  55  -124.2434
  56  -282.2423
  57  -442.4686
  58  -247.8055
  59  290.8727
  60  52.32217
  61  268.7391
  62  79.47831
  63  -434.9698
  64  -335.3622
  65  26.98699
  66  39.69016
  67  83.82159
  68  257.4385
  69  227.5689
  70  -111.8865
  71  -283.4769
  72  37.70368
  73  250.9776
  74  468.9439
  75  223.0188
  76  172.7013
  77  241.5102
  78  -16.75697
  79  -211.5202
  80  250.8595
  81  101.6573
  82  -106.3563
  83  123.6512
  84  38.00962
  85  270.1033
  86  -119.0801
  87  -99.27856
  88  184.6061
  89  15.17689
  90  249.5534
  91  -3.103796
  92  -120.2689
  93  -16.59915
  94  -104.1999
  95  -5.401921
  96  146.3535
  97  125.9751
  98  -61.32047
  99  148.5244
 100  65.63658
 101  95.65568
 102  132.0683
 103  42.42935
 104  127.1409
 105  78.52837
 106  59.40612
 107  -226.401
 108  -34.1975
 109  287.8155
 110  292.9167
 111  90.57167
 112  216.5686
 113  150.4995
 114  435.8278
 115  277.2419
 116  -147.2318
 117  -211.5109
 118  148.9529
 119  270.0475
 120  -131.5123
 121  53.50141
 122  39.34184
 123  -348.4027
 124  -38.47821
 125  27.9048
 126  254.9389
 127  368.1775
 128  91.49236
 129  244.5503
 130  244.6002
 131  42.27726
 132  196.5631
 133  67.51209
 134  -33.96094
 135  53.66733
 136  366.8895
 137  100.418
 138  -255.0597
 139  -376.8152
 140  -184.6463
 141  22.95106
 142  170.7496
 143  328.4861
 144  216.9851
 145  287.6572
 146  346.7122
 147  -85.7044
 148  -141.3598
 149  -92.18545
 150  50.08754
 151  -20.72201
 152  -74.71679
 153  7.662903
 154  356.9298
 155  -112.5576
 156  -266.7681
 157  -368.1006
 158  -112.2518
 159  289.6962
 160  174.5503
 161  8.701707
 162  227.0498
 163  180.1598
 164  157.4732
 165  59.79073
 166  203.8595
 167  286.488
 168  348.8654
 169  589.1067
 170  382.689
 171  -202.4617
 172  194.6638
 173  249.2431
 174  -83.92295
 175  0.7595536
 176  -37.60187
 177  -8.210964
 178  69.19901
 179  102.882
 180  -31.83239
 181  40.69257
 182  39.65042
 183  -130.4779
 184  -93.66113
 185  94.06686
 186  68.04659
 187  31.04506
 188  -109.4222
 189  -316.8282
 190  -333.5354
 191  -556.3722
 192  -56.37278
 193  -142.2636
 194  -188.3457
 195  -73.49005
 196  -261.478
 197  -341.8183
 198  -424.7624
 199  -83.43703
 200  -34.7883
 201  -208.2189
 202  -72.27351
 203  -41.07841
 204  19.7259
 205  27.60465
 206  -218.3126
 207  -252.3328
 208  -278.955
 209  163.0177
 210  116.067
 211  -312.607
 212  -414.9957
 213  -81.89391
 214  235.6104
 215  -81.06612
 216  396.968
 217  362.8254
 218  33.15028
 219  118.6345
 220  68.70077
 221  -146.0052
 222  -269.9168
 223  -411.4933
 224  -219.1056
 225  175.3742
 226  274.4444
 227  -48.41065
 228  -249.6769
 229  -438.6149
 230  -27.5261
 231  -317.3462
 232  -325.0247
 233  -70.33404
 234  106.3159
 235  436.5329
 236  279.9696
 237  50.58403
 238  -130.0741
 239  -159.4351
 240  -218.2326
 241  92.03168
 242  206.0101
 243  99.31711
 244  -22.89787
 245  114.2299
 246  332.2407
 247  184.4478
 248  34.74594
 249  43.22869
 250  138.1647
 251  340.3824
 252  305.175
 253  -67.33676
 254  -58.23729
 255  142.674
 256  332.4516
 257  306.8399
 258  0.9244927
 259  84.8242
 260  92.42158
 261  155.2098
 262  -234.9854
 263  -231.8243
 264  -20.22224
 265  -89.72909
 266  -119.6235
 267  -141.5933
 268  -397.2811
 269  -231.7467
 270  -86.06068
 271  143.5434
 272  69.00684
 273  -144.3739
 274  150.0965
 275  527.1566
 276  112.6637
 277  -93.05005
 278  249.4326
 279  175.3967
 280  87.99891
 281  417.9302
 282  22.95833
 283  -98.99154
 284  -83.18826
 285  -224.3432
 286  25.64523
 287  -157.5105
 288  -130.0122
 289  52.77688
 290  98.73074
 291  247.09
 292  222.8853
 293  205.7634
 294  -235.9556
 295  -240.9756
 296  -170.565
 297  -60.86344
 298  16.85968
 299  -4.102726
 300  -133.8519
 301  -219.2587
 302  74.92105
 303  -30.51328
 304  -115.8704
 305  -214.7254
 306  36.211
 307  -208.777
 308  -287.1032
 309  -349.8202
 310  225.7559
 311  -323.9501
 312  -239.9464
 313  130.0874
 314  280.8491
 315  49.51071
 316  33.63543
 317  -332.4182
 318  -196.8008
 319  134.4539
 320  36.04132
 321  -221.2912
 322  -51.18957
 323  203.2434
 324  153.2708
 325  356.1959
 326  606.183
 327  674.2524
 328  835.0321
 329  1193.125
 330  1172.662
 331  994.0104
 332  896.7177
 333  60.1045
 334  -161.4852
 335  -5.349479
 336  -247.0924
 337  -240.9662
 338  -477.4278
 339  -314.5642
 340  -408.2908
 341  -78.53381
 342  -172.4644
 343  -142.0371
 344  67.59388
 345  161.3387
 346  380.3946
 347  157.5201
 348  116.2225
 349  119.5885
 350  163.1621
 351  -205.7135
 352  -9.831814
 353  278.7469
 354  241.3342
 355  381.1154
 356  104.9631
 357  -90.39594
 358  -207.3832
 359  -67.32069
 360  113.1545
 361  165.2895
 362  81.19196
 363  32.87262
 364  204.7756
 365  -46.63483
 366  -20.0621
 367  136.1297
 368  -137.0981
 369  -248.8414
 370  86.42263
 371  -99.62912
 372  -341.4608
 373  -333.5024
 374  -158.0794
 375  -14.2506
 376  137.0503
 377  -121.0247
 378  136.3519
 379  369.3499
 380  249.859
 381  112.7161
 382  307.5723
 383  273.2393
 384  -195.4898
 385  -231.4254
 386  -240.6268
 387  -156.0399
 388  -382.3877
 389  -255.1853
 390  206.6024
 391  -149.4771
 392  -8.413435
 393  171.5228
 394  129.9094
 395  31.22467
 396  129.9115
 397  167.5768
 398  -223.7178
 399  -158.3945
 400  -157.6763
 401  -79.29035
 402  -32.03271
 403  -308.1977
 404  -139.406
 405  -133.0495
 406  -139.6523
 407  -238.1727
 408  24.73892
 409  219.4693
 410  313.9417
 411  272.9969
 412  58.00009
 413  134.5309
 414  354.2865
 415  84.48003
 416  -68.89087
 417  58.44713
 418  172.2082
 419  61.14267
 420  -11.17874
 421  69.02932
 422  47.45811
 423  -59.22678
 424  66.33223
 425  -116.751
 426  223.2897
 427  450.5719
 428  490.7415
 429  263.9511
 430  -62.89652
 431  241.4573
 432  181.094
 433  -352.4994
 434  -106.4137
 435  149.6786
 436  330.3554
 437  234.7388
 438  34.93506
 439  54.94558
 440  13.42691
 441  102.1954
 442  32.17347
 443  -95.95768
 444  75.2095
 445  192.8535
 446  188.9004
 447  -107.1167
 448  -288.3129
 449  15.25596
 450  453.0413
 451  258.974
 452  70.83161
 453  472.9201
 454  409.2988
 455  200.2554
 456  -64.25343
 457  -255.5909
 458  -54.52993
 459  148.657
 460  178.1925
 461  21.96976
 462  126.4174
 463  281.671
 464  196.4142
 465  -158.9286
 466  189.699
 467  166.833
 468  296.832
 469  290.3383
 470  43.54674
 471  68.10733
 472  -22.19983
 473  -216.6392
 474  -293.6951
 475  -123.0612
 476  230.3753
 477  165.7742
 478  220.4572
 479  245.6196
 480  -72.79959
 481  -42.79943
 482  -38.12508
 483  -41.92012
 484  -23.4318
 485  111.4898
 486  -38.44506
 487  -373.0882
 488  -181.2126
 489  15.63972
 490  -37.99781
 491  -2.566221
 492  -118.6733
 493  -355.2358
 494  -288.9884
 495  -320.5974
 496  -125.9525
 497  -221.7865
 498  -450.1664
 499  -293.1759
 500  -159.6684
 501  -33.44946
 502  -6.42012
 503  4.612983
 504  -43.80712
 505  -303.5887
 506  -257.6887
 507  -226.5801
 508  -285.1578
 509  -337.5492
 510  -318.1858
 511  -172.1394
