# Input file       =  1186109924.11468_cleaned.dat
# Candidate        =  PSR_0332+5434
# Telescope        =  AR
# Epoch_topo       =  57972.124341605093
# Epoch_bary       =  N/A
# T_sample         =  0.002
# Data Folded      =  7340032
# Data Avg         =  0.0112755196990162
# Data StdDev      =  2.3195607480937  
# Profile Bins     =  512
# Profile Avg      =  161.69252131313  
# Profile StdDev   =  277.728051429622 
# Reduced chi-sqr  =  1.199
# Prob(Noise)      <  0.00131   (~3.0 sigma)
# P_topo (ms)      =  714.467122469278  +/- 0.000103
# P'_topo (s/s)    =  -0                +/- 5.46e-11
# P''_topo (s/s^2) =  0                 +/- 2.41e-14
# P_bary (ms)      =  N/A
# P'_bary (s/s)    =  N/A
# P''_bary (s/s^2) =  N/A
# P_orb (s)        =  N/A
# asin(i)/c (s)    =  N/A
# eccentricity     =  N/A
# w (rad)          =  N/A
# T_peri           =  N/A
######################################################
   0  -54.67792
   1  266.2723
   2  407.8398
   3  205.6295
   4  337.974
   5  419.6644
   6  232.5121
   7  80.5731
   8  269.7542
   9  412.7046
  10  673.0379
  11  360.7046
  12  277.3942
  13  93.02199
  14  -48.41644
  15  31.41271
  16  23.02295
  17  258.8979
  18  383.1489
  19  162.097
  20  -293.5934
  21  -192.1822
  22  268.9018
  23  347.719
  24  154.7719
  25  72.10599
  26  121.9598
  27  139.1775
  28  226.6543
  29  34.40917
  30  20.27262
  31  -60.97661
  32  411.5067
  33  379.106
  34  23.66052
  35  -65.10327
  36  -61.556
  37  -150.4327
  38  40.31514
  39  -243.7637
  40  -296.8442
  41  -377.7794
  42  -133.5812
  43  393.3173
  44  302.4027
  45  22.0557
  46  304.1895
  47  204.0723
  48  -125.4341
  49  200.8185
  50  72.41238
  51  -236.2983
  52  -141.4576
  53  -80.88228
  54  -233.3056
  55  -115.016
  56  200.0226
  57  409.9296
  58  49.4573
  59  249.5093
  60  339.1004
  61  310.9413
  62  376.2357
  63  167.8992
  64  67.77679
  65  265.663
  66  60.85324
  67  -98.04293
  68  -81.8511
  69  171.1448
  70  485.288
  71  492.4825
  72  86.00938
  73  204.3297
  74  276.7004
  75  251.619
  76  66.6076
  77  97.35937
  78  188.6935
  79  417.8715
  80  562.6451
  81  210.748
  82  175.6323
  83  231.2173
  84  145.0003
  85  115.9257
  86  322.465
  87  215.4235
  88  -52.72783
  89  -13.37134
  90  474.7513
  91  373.348
  92  285.4182
  93  407.8788
  94  277.9053
  95  296.6235
  96  335.9018
  97  566.6506
  98  280.4637
  99  260.1473
 100  500.321
 101  59.8141
 102  -86.68684
 103  141.8594
 104  445.1948
 105  522.4025
 106  308.0698
 107  116.7604
 108  122.7739
 109  232.9208
 110  264.0855
 111  132.3949
 112  134.9462
 113  -35.60953
 114  154.4425
 115  350.8903
 116  402.9726
 117  219.4649
 118  225.889
 119  5.025303
 120  -12.98746
 121  60.21272
 122  153.5027
 123  328.2756
 124  122.7348
 125  267.4323
 126  493.4605
 127  136.8129
 128  130.7236
 129  144.1991
 130  347.8845
 131  189.2769
 132  11.72733
 133  327.0714
 134  313.3026
 135  223.7131
 136  487.6024
 137  463.6975
 138  185.483
 139  -46.86475
 140  269.2986
 141  536.2173
 142  601.1584
 143  301.0408
 144  138.7535
 145  178.2152
 146  -25.48181
 147  149.3315
 148  226.811
 149  208.2662
 150  256.1255
 151  220.592
 152  369.9104
 153  196.4727
 154  127.3866
 155  92.79122
 156  193.008
 157  419.3157
 158  271.0337
 159  125.3977
 160  123.015
 161  -143.1902
 162  68.72997
 163  399.4507
 164  284.3453
 165  11.33522
 166  -48.451
 167  142.9735
 168  -33.73128
 169  -6.451652
 170  400.8005
 171  341.6574
 172  61.18737
 173  328.0873
 174  314.2125
 175  425.8892
 176  470.3962
 177  -85.95953
 178  -158.6008
 179  77.23071
 180  148.7062
 181  129.2267
 182  -80.10806
 183  138.4847
 184  403.6549
 185  494.7101
 186  138.4525
 187  315.73
 188  451.9191
 189  596.0734
 190  363.3323
 191  -84.37938
 192  77.93542
 193  11.51914
 194  130.8783
 195  192.1417
 196  360.6474
 197  225.2049
 198  10.43578
 199  232.4556
 200  370.9409
 201  494.6277
 202  308.0258
 203  176.6841
 204  133.5707
 205  224.2185
 206  532.0392
 207  150.5245
 208  305.243
 209  177.1891
 210  275.1709
 211  96.16338
 212  16.0506
 213  -44.6678
 214  229.5061
 215  113.7599
 216  221.3327
 217  14.81932
 218  73.74599
 219  -239.6978
 220  266.3492
 221  246.8141
 222  237.0629
 223  527.2908
 224  181.038
 225  234.6957
 226  270.6152
 227  -291.2473
 228  -260.9792
 229  198.7439
 230  328.8419
 231  141.9138
 232  -46.92439
 233  248.4301
 234  -63.0402
 235  31.07656
 236  -34.07333
 237  85.92558
 238  -95.56577
 239  -21.14419
 240  84.55214
 241  83.44977
 242  -76.84605
 243  -416.2068
 244  64.74438
 245  152.6497
 246  -50.87818
 247  37.04854
 248  253.2683
 249  463.3324
 250  448.1151
 251  -2.281595
 252  -41.66407
 253  293.3074
 254  254.7619
 255  -116.2044
 256  -326.5314
 257  100.2494
 258  111.1753
 259  166.9696
 260  104.7259
 261  -6.540594
 262  176.7205
 263  74.46446
 264  349.1896
 265  386.8071
 266  483.1625
 267  185.4709
 268  17.34927
 269  72.78853
 270  211.6632
 271  286.1198
 272  193.903
 273  477.3751
 274  315.4802
 275  117.8889
 276  -222.8801
 277  -94.09188
 278  323.9642
 279  469.7054
 280  67.10504
 281  172.9463
 282  497.2671
 283  248.3549
 284  -65.08981
 285  52.74579
 286  293.2626
 287  525.2164
 288  138.5951
 289  202.7386
 290  21.18983
 291  267.7664
 292  173.5925
 293  195.8988
 294  257.4171
 295  538.2567
 296  -34.30526
 297  -155.4537
 298  113.6692
 299  142.2902
 300  630.2384
 301  400.1176
 302  -165.2376
 303  -258.571
 304  156.1637
 305  125.5491
 306  251.9938
 307  225.202
 308  245.3855
 309  -332.9463
 310  -159.6151
 311  63.82118
 312  275.931
 313  673.3815
 314  363.7371
 315  -21.87871
 316  131.7769
 317  312.538
 318  391.9254
 319  282.3243
 320  467.3427
 321  670.8234
 322  971.0439
 323  1044.404
 324  1268.286
 325  1124.29
 326  942.1197
 327  757.2796
 328  371.492
 329  57.73668
 330  225.5624
 331  142.0733
 332  -203.9349
 333  -304.4596
 334  -312.6149
 335  126.9259
 336  286.2662
 337  323.2357
 338  401.7185
 339  122.6706
 340  204.3525
 341  66.37334
 342  -131.3929
 343  82.11958
 344  -152.7337
 345  -45.51062
 346  347.2651
 347  365.0334
 348  -90.86954
 349  -101.6497
 350  225.2596
 351  -108.1271
 352  -48.21525
 353  113.8973
 354  158.6124
 355  38.96511
 356  -43.3603
 357  172.8905
 358  -23.95885
 359  -31.98043
 360  5.708535
 361  -90.78202
 362  -83.01338
 363  -239.5875
 364  156.499
 365  196.7526
 366  -95.13663
 367  -182.7734
 368  202.1789
 369  115.6027
 370  224.9149
 371  21.27063
 372  -65.49637
 373  109.1865
 374  336.2761
 375  176.9623
 376  -79.66801
 377  170.5491
 378  190.1561
 379  250.0926
 380  74.53024
 381  40.81734
 382  46.96172
 383  -104.1645
 384  39.26857
 385  173.4397
 386  116.3191
 387  -197.5348
 388  302.807
 389  360.9267
 390  -143.352
 391  -37.24271
 392  433.1998
 393  140.9633
 394  10.67853
 395  -92.19087
 396  57.19282
 397  205.4672
 398  208.9676
 399  421.1836
 400  277.8052
 401  417.6384
 402  163.4673
 403  -50.59778
 404  125.6349
 405  -12.57021
 406  218.8737
 407  154.4314
 408  138.7143
 409  246.9447
 410  511.0807
 411  383.2372
 412  142.7518
 413  -9.305963
 414  403.6348
 415  346.8338
 416  248.5372
 417  8.737394
 418  177.2621
 419  111.9975
 420  125.4653
 421  -48.63352
 422  -149.5614
 423  214.1277
 424  154.6639
 425  57.60461
 426  82.03468
 427  135.0879
 428  53.69232
 429  52.63334
 430  271.796
 431  216.3184
 432  92.58217
 433  309.9097
 434  179.9016
 435  276.8884
 436  363.5423
 437  733.5496
 438  425.3059
 439  403.5097
 440  202.7673
 441  -209.8154
 442  84.59488
 443  272.7283
 444  176.5908
 445  241.325
 446  244.2392
 447  286.7128
 448  259.8014
 449  -5.566516
 450  77.8624
 451  36.87523
 452  329.5912
 453  163.7289
 454  146.396
 455  142.2413
 456  13.32237
 457  106.2698
 458  319.0374
 459  353.7936
 460  421.2476
 461  397.2363
 462  56.11221
 463  100.868
 464  -39.93893
 465  -22.83663
 466  130.1836
 467  41.42026
 468  67.7686
 469  41.06429
 470  99.66235
 471  76.03197
 472  176.2107
 473  38.34668
 474  121.5687
 475  209.8015
 476  373.0699
 477  591.6284
 478  252.2602
 479  227.4019
 480  96.97392
 481  -62.99461
 482  -79.93703
 483  -252.408
 484  -421.4492
 485  -486.5307
 486  -204.9794
 487  112.2779
 488  221.3464
 489  -52.2804
 490  -243.5052
 491  -289.1599
 492  -60.46183
 493  328.5486
 494  32.09892
 495  -166.2866
 496  99.79558
 497  179.3566
 498  133.2906
 499  86.77001
 500  143.944
 501  86.26158
 502  266.365
 503  326.0637
 504  273.4297
 505  151.6315
 506  161.6249
 507  -62.14831
 508  -263.1522
 509  110.0205
 510  -44.25755
 511  -97.23843
