# Input file       =  1186297159.116241_cleaned.dat
# Candidate        =  PSR_0332+5434
# Telescope        =  AR
# Epoch_topo       =  57974.291413382416
# Epoch_bary       =  N/A
# T_sample         =  0.002
# Data Folded      =  7340032
# Data Avg         =  0.0336349993969115
# Data StdDev      =  2.93227442034074 
# Profile Bins     =  512
# Profile Avg      =  482.229711177531 
# Profile StdDev   =  351.090119837319 
# Reduced chi-sqr  =  1.187
# Prob(Noise)      <  0.00225   (~2.8 sigma)
# P_topo (ms)      =  714.46674762877   +/- 0.00015
# P'_topo (s/s)    =  -0                +/- 7.94e-11
# P''_topo (s/s^2) =  0                 +/- 3.5e-14
# P_bary (ms)      =  N/A
# P'_bary (s/s)    =  N/A
# P''_bary (s/s^2) =  N/A
# P_orb (s)        =  N/A
# asin(i)/c (s)    =  N/A
# eccentricity     =  N/A
# w (rad)          =  N/A
# T_peri           =  N/A
######################################################
   0  289.8057
   1  446.2889
   2  392.1168
   3  376.7368
   4  330.8662
   5  441.7244
   6  489.8439
   7  686.6859
   8  811.6069
   9  747.3132
  10  109.0689
  11  214.5811
  12  360.9745
  13  180.4539
  14  102.9266
  15  350.6676
  16  504.0486
  17  468.7038
  18  735.3085
  19  848.7789
  20  605.6992
  21  870.0909
  22  510.9985
  23  473.6624
  24  404.3171
  25  654.4125
  26  988.2078
  27  458.0105
  28  560.5677
  29  515.6487
  30  647.2766
  31  541.3137
  32  49.07947
  33  605.3137
  34  759.5371
  35  349.298
  36  915.0108
  37  683.075
  38  329.9332
  39  367.3301
  40  389.1469
  41  543.3949
  42  256.9812
  43  427.8773
  44  464.3455
  45  615.5966
  46  838.3098
  47  454.2764
  48  522.1941
  49  386.5857
  50  485.6582
  51  499.8144
  52  693.867
  53  424.7274
  54  419.6681
  55  603.7276
  56  529.5573
  57  221.2016
  58  467.7816
  59  581.27
  60  549.6839
  61  523.4437
  62  777.3698
  63  613.5289
  64  617.8865
  65  1147.898
  66  1014.962
  67  864.6322
  68  569.5894
  69  946.176
  70  604.662
  71  134.6096
  72  459.3165
  73  796.3415
  74  1009.327
  75  853.9193
  76  756.4506
  77  461.0032
  78  419.4523
  79  362.6241
  80  401.023
  81  749.1752
  82  573.4052
  83  254.416
  84  172.7673
  85  504.0949
  86  1003.821
  87  405.2849
  88  260.1058
  89  84.75887
  90  687.6726
  91  962.8325
  92  777.1874
  93  562.1592
  94  155.1268
  95  115.8994
  96  309.2985
  97  616.8005
  98  811.2906
  99  654.1873
 100  326.5145
 101  326.9533
 102  302.4889
 103  449.7518
 104  681.7131
 105  851.972
 106  1067.594
 107  587.3254
 108  88.80841
 109  266.6568
 110  685.2346
 111  444.3712
 112  531.1395
 113  469.1433
 114  372.5746
 115  511.0053
 116  877.1922
 117  850.479
 118  1064.902
 119  613.9733
 120  634.124
 121  801.0117
 122  953.976
 123  625.2968
 124  568.5878
 125  688.8594
 126  523.814
 127  733.3696
 128  932.7271
 129  835.7148
 130  464.5601
 131  308.6035
 132  517.5597
 133  756.3333
 134  534.7375
 135  538.8983
 136  349.9507
 137  364.76
 138  654.25
 139  939.8183
 140  811.6893
 141  789.1682
 142  520.9094
 143  406.3337
 144  500.2842
 145  264.7543
 146  316.8104
 147  1007.863
 148  592.1485
 149  430.9481
 150  579.4341
 151  582.4968
 152  536.1733
 153  423.7173
 154  422.6283
 155  550.7916
 156  865.4305
 157  499.8805
 158  532.9828
 159  571.0067
 160  585.4755
 161  937.8053
 162  436.2916
 163  461.5616
 164  429.8868
 165  464.0158
 166  261.2906
 167  361.4408
 168  435.875
 169  542.1511
 170  409.8897
 171  449.6529
 172  337.1488
 173  415.309
 174  726.2369
 175  709.6026
 176  676.5414
 177  776.7564
 178  474.4392
 179  407.7991
 180  562.2723
 181  499.7188
 182  662.3394
 183  581.4564
 184  641.9279
 185  777.425
 186  1025.943
 187  443.8924
 188  264.2415
 189  283.0221
 190  437.4673
 191  368.4562
 192  477.5184
 193  892.6404
 194  964.4906
 195  821.1163
 196  498.1003
 197  -78.50715
 198  424.6546
 199  717.7427
 200  470.5676
 201  7.881986
 202  286.9661
 203  386.0526
 204  754.3271
 205  932.8615
 206  509.1054
 207  580.7443
 208  620.1068
 209  391.5526
 210  212.1382
 211  456.7799
 212  920.0641
 213  805.5374
 214  244.1992
 215  216.024
 216  274.6019
 217  36.04801
 218  161.4734
 219  481.7043
 220  797.4295
 221  804.3954
 222  295.0175
 223  527.9686
 224  181.2532
 225  238.6525
 226  389.7785
 227  460.3776
 228  752.832
 229  760.4807
 230  383.3321
 231  14.15769
 232  -154.3478
 233  273.8034
 234  290.2175
 235  377.8272
 236  381.5975
 237  266.4979
 238  142.0827
 239  238.8142
 240  215.9706
 241  101.9026
 242  93.16116
 243  -9.287573
 244  -56.61411
 245  184.3066
 246  293.6473
 247  421.5401
 248  598.6543
 249  616.9989
 250  873.7952
 251  921.1078
 252  637.6467
 253  575.815
 254  446.3242
 255  910.4881
 256  645.3331
 257  531.0955
 258  603.4301
 259  488.1195
 260  284.7405
 261  224.4266
 262  435.0243
 263  282.8566
 264  428.2952
 265  180.8077
 266  499.2047
 267  426.5954
 268  243.0715
 269  104.7273
 270  168.6246
 271  165.766
 272  95.7299
 273  872.6652
 274  606.855
 275  603.4979
 276  651.425
 277  374.3845
 278  246.4225
 279  -7.070006
 280  -379.4323
 281  -114.6643
 282  -82.49085
 283  272.1275
 284  829.351
 285  673.4329
 286  657.8336
 287  257.3978
 288  315.0115
 289  214.6788
 290  10.92893
 291  29.93111
 292  262.4802
 293  325.5379
 294  187.4417
 295  308.9368
 296  388.9726
 297  395.9571
 298  362.9146
 299  424.6623
 300  755.8455
 301  456.0786
 302  599.9775
 303  663.1962
 304  696.6563
 305  687.8498
 306  843.4734
 307  876.5309
 308  284.8156
 309  96.98992
 310  461.5528
 311  88.478
 312  158.9847
 313  421.6773
 314  408.0144
 315  477.923
 316  329.5024
 317  352.1814
 318  380.795
 319  474.5099
 320  771.0601
 321  1292.706
 322  1558.569
 323  1509.057
 324  1624.471
 325  1880.936
 326  1686.298
 327  718.0535
 328  245.1069
 329  391.8153
 330  517.9172
 331  487.4377
 332  290.0012
 333  376.8858
 334  948.7375
 335  625.7194
 336  382.1063
 337  555.2366
 338  867.6483
 339  338.5636
 340  409.746
 341  984.4733
 342  792.2618
 343  409.4923
 344  580.2801
 345  519.9138
 346  434.282
 347  750.9689
 348  661.9885
 349  706.1432
 350  757.4265
 351  789.0383
 352  822.4892
 353  278.8189
 354  312.5778
 355  275.7666
 356  246.456
 357  351.0862
 358  510.4329
 359  828.2313
 360  616.1636
 361  268.6385
 362  357.3861
 363  482.9629
 364  527.5121
 365  703.896
 366  623.6241
 367  297.3594
 368  445.1402
 369  330.9245
 370  391.5095
 371  511.3042
 372  266.2566
 373  320.0233
 374  293.451
 375  374.4655
 376  305.0772
 377  390.1702
 378  517.041
 379  594.6599
 380  76.37424
 381  36.36482
 382  533.978
 383  521.6024
 384  488.2866
 385  554.5229
 386  193.1194
 387  587.8392
 388  859.2692
 389  354.6791
 390  284.7289
 391  214.3607
 392  493.355
 393  485.9484
 394  368.5941
 395  446.7888
 396  324.0918
 397  295.8512
 398  736.6003
 399  842.9584
 400  659.8315
 401  633.1832
 402  257.4619
 403  168.5506
 404  188.0371
 405  459.3117
 406  489.8055
 407  360.0469
 408  1.65102
 409  167.9346
 410  158.4095
 411  260.3047
 412  442.2469
 413  364.0217
 414  486.2898
 415  502.9413
 416  507.6357
 417  628.2361
 418  672.532
 419  411.2433
 420  596.3492
 421  802.6355
 422  754.9242
 423  719.5944
 424  370.2493
 425  343.7945
 426  171.4067
 427  521.9716
 428  256.1307
 429  183.6313
 430  197.216
 431  321.8932
 432  373.8541
 433  180.657
 434  96.74166
 435  203.3357
 436  315.2771
 437  357.2193
 438  46.82294
 439  321.9523
 440  238.1035
 441  173.4541
 442  183.5282
 443  220.4388
 444  286.8549
 445  381.8824
 446  181.1129
 447  645.3085
 448  470.3023
 449  157.0526
 450  139.9906
 451  286.2871
 452  603.0887
 453  440.7849
 454  -33.81446
 455  124.0422
 456  229.047
 457  113.3065
 458  161.4678
 459  370.36
 460  261.3944
 461  155.155
 462  464.119
 463  482.2391
 464  562.9243
 465  713.1807
 466  623.9531
 467  559.3348
 468  289.5412
 469  615.4315
 470  884.5825
 471  853.0194
 472  675.0336
 473  654.4564
 474  338.244
 475  577.2877
 476  531.3054
 477  377.4992
 478  415.4109
 479  40.87743
 480  340.3607
 481  368.9581
 482  52.30726
 483  -100.2432
 484  257.5946
 485  580.0125
 486  918.0223
 487  710.3949
 488  505.9818
 489  63.28307
 490  -545.3134
 491  -48.11593
 492  132.8207
 493  -16.92541
 494  377.7256
 495  492.4916
 496  346.2161
 497  209.9994
 498  377.0402
 499  493.2166
 500  198.2394
 501  543.735
 502  842.7953
 503  688.6962
 504  523.424
 505  541.1545
 506  587.3588
 507  870.2521
 508  1050.04
 509  699.1707
 510  716.6484
 511  491.1061
