# Input file       =  1186196071.12301_cleaned.dat
# Candidate        =  PSR_0332+5434
# Telescope        =  AR
# Epoch_topo       =  57973.121413460765
# Epoch_bary       =  N/A
# T_sample         =  0.002
# Data Folded      =  7340032
# Data Avg         =  0.0244526916326971
# Data StdDev      =  2.30747750783951 
# Profile Bins     =  256
# Profile Avg      =  700.412834660278 
# Profile StdDev   =  390.72074506358  
# Reduced chi-sqr  =  1.614
# Prob(Noise)      <  1.83e-09   (~5.9 sigma)
# P_topo (ms)      =  714.466787349292  +/- 0.000241
# P'_topo (s/s)    =  -0                +/- 1.27e-10
# P''_topo (s/s^2) =  0                 +/- 5.62e-14
# P_bary (ms)      =  N/A
# P'_bary (s/s)    =  N/A
# P''_bary (s/s^2) =  N/A
# P_orb (s)        =  N/A
# asin(i)/c (s)    =  N/A
# eccentricity     =  N/A
# w (rad)          =  N/A
# T_peri           =  N/A
######################################################
   0  792.8301
   1  538.9235
   2  331.0611
   3  469.2864
   4  -204.8737
   5  940.9953
   6  990.9732
   7  772.0395
   8  630.9976
   9  795.8622
  10  771.7283
  11  850.2342
  12  643.8876
  13  796.6766
  14  944.4828
  15  816.4963
  16  1123.72
  17  861.6852
  18  1285.392
  19  848.6318
  20  624.4426
  21  622.0643
  22  639.6909
  23  999.1351
  24  462.8277
  25  930.0168
  26  577.121
  27  1649.873
  28  934.3431
  29  1297.701
  30  582.853
  31  626.1031
  32  922.1856
  33  463.5199
  34  552.5724
  35  858.1821
  36  635.9521
  37  686.9832
  38  1047.828
  39  919.3057
  40  631.9105
  41  777.4698
  42  517.1979
  43  739.3657
  44  1220.891
  45  550.8033
  46  1145.282
  47  866.2681
  48  562.7717
  49  1289.812
  50  1205.739
  51  337.0119
  52  889.194
  53  1203.088
  54  261.5166
  55  780.9191
  56  801.0735
  57  725.2289
  58  619.7826
  59  547.8865
  60  637.6741
  61  453.5934
  62  937.1971
  63  922.0414
  64  860.1016
  65  445.2102
  66  472.0252
  67  395.7292
  68  1047.882
  69  787.2503
  70  712.2258
  71  197.8316
  72  178.2412
  73  435.9073
  74  239.3352
  75  818.3868
  76  642.9853
  77  1085.77
  78  963.1483
  79  960.0319
  80  719.688
  81  844.9952
  82  501.6672
  83  790.6696
  84  839.0892
  85  910.6961
  86  921.3688
  87  409.6703
  88  337.3689
  89  368.5482
  90  308.1392
  91  -224.9913
  92  264.2613
  93  256.7153
  94  695.7733
  95  740.2831
  96  394.8717
  97  969.5771
  98  509.3882
  99  708.8281
 100  367.5604
 101  641.9409
 102  228.4821
 103  161.3252
 104  908.1296
 105  746.5494
 106  871.2482
 107  549.8222
 108  368.2151
 109  378.217
 110  730.6497
 111  774.19
 112  795.4517
 113  1192.674
 114  1492.539
 115  1383.282
 116  521.3012
 117  1313.593
 118  1119.767
 119  1142.261
 120  795.1332
 121  641.114
 122  226.814
 123  378.0849
 124  1073.421
 125  171.7505
 126  1149.865
 127  627.8822
 128  675.2632
 129  521.817
 130  298.1672
 131  861.1051
 132  684.114
 133  491.6713
 134  657.465
 135  559.0397
 136  1428.696
 137  938.2495
 138  736.167
 139  85.1162
 140  833.8903
 141  255.8656
 142  502.1942
 143  463.322
 144  121.3592
 145  344.225
 146  501.2002
 147  257.7577
 148  753.8845
 149  437.2529
 150  636.3418
 151  176.3615
 152  784.0354
 153  1452.526
 154  441.0744
 155  618.0762
 156  -13.1849
 157  175.3801
 158  610.0033
 159  525.9333
 160  1884.903
 161  2668.351
 162  3827.283
 163  3048.548
 164  633.5068
 165  294.1317
 166  549.2892
 167  774.0298
 168  702.689
 169  427.8224
 170  971.373
 171  540.8455
 172  499.3994
 173  827.4876
 174  523.8962
 175  762.9473
 176  608.7894
 177  954.4084
 178  1081.976
 179  761.4376
 180  747.5787
 181  443.0676
 182  1452.222
 183  1406.385
 184  469.5993
 185  941.0514
 186  854.4877
 187  732.7915
 188  704.9005
 189  337.9436
 190  658.8091
 191  551.5562
 192  387.4659
 193  607.6785
 194  939.4632
 195  300.6725
 196  816.3251
 197  1647.219
 198  573.7595
 199  756.506
 200  784.6136
 201  92.08164
 202  -32.22714
 203  456.864
 204  394.1658
 205  384.2943
 206  34.14646
 207  -191.8464
 208  439.5732
 209  187.0757
 210  688.6921
 211  587.2689
 212  119.5585
 213  153.6398
 214  133.1835
 215  430.4991
 216  528.2193
 217  536.338
 218  258.7025
 219  682.476
 220  795.471
 221  602.5366
 222  854.5539
 223  525.5936
 224  278.0804
 225  824.3166
 226  665.9992
 227  817.2189
 228  443.6693
 229  606.262
 230  1241.531
 231  821.373
 232  847.6693
 233  589.5782
 234  1038.1
 235  597.7371
 236  603.9403
 237  442.2496
 238  700.7109
 239  1107.521
 240  1194.353
 241  469.84
 242  453.5778
 243  428.2371
 244  798.4178
 245  706.5828
 246  523.8962
 247  926.656
 248  523.261
 249  499.9563
 250  811.479
 251  562.4943
 252  434.8478
 253  637.2007
 254  819.4282
 255  1039.676
