# Input file       =  1186956974.095455-PSRB0329-2ms-sampling-dd.dat
# Candidate        =  PSR_0332+5434
# Telescope        =  AR
# Epoch_topo       =  57981.928160827025
# Epoch_bary       =  N/A
# T_sample         =  0.002
# Data Folded      =  7143424
# Data Avg         =  7.93054458858047e-11
# Data StdDev      =  5.07818849737438 
# Profile Bins     =  512
# Profile Avg      =  0.100372937561367
# Profile StdDev   =  599.828437041962 
# Reduced chi-sqr  =  0.915
# Prob(Noise)      <  0.916   (~0.0 sigma)
# P_topo (ms)      =  714.464446422161  +/- 9.27e-05
# P'_topo (s/s)    =  -0                +/- 5.03e-11
# P''_topo (s/s^2) =  0                 +/- 2.28e-14
# P_bary (ms)      =  N/A
# P'_bary (s/s)    =  N/A
# P''_bary (s/s^2) =  N/A
# P_orb (s)        =  N/A
# asin(i)/c (s)    =  N/A
# eccentricity     =  N/A
# w (rad)          =  N/A
# T_peri           =  N/A
######################################################
   0  -689.9502
   1  -400.806
   2  -140.0637
   3  123.0706
   4  169.955
   5  194.5715
   6  -97.51473
   7  -375.1363
   8  -407.731
   9  -871.7079
  10  -288.9631
  11  -187.3168
  12  -381.9381
  13  -253.7395
  14  -326.9554
  15  -659.3481
  16  -787.657
  17  -639.2571
  18  -380.2701
  19  -365.9171
  20  69.66925
  21  73.21719
  22  -377.5045
  23  -672.4839
  24  -668.2352
  25  -441.4956
  26  115.2769
  27  390.0677
  28  -94.39716
  29  -86.85647
  30  127.3008
  31  -227.9833
  32  -401.3595
  33  -480.1426
  34  -207.1364
  35  82.49039
  36  -55.89326
  37  -210.8522
  38  -7.778062
  39  -36.86078
  40  -257.3859
  41  -456.6807
  42  -401.6553
  43  67.92855
  44  -24.88349
  45  111.5762
  46  33.47829
  47  -10.99198
  48  -427.5182
  49  -283.2685
  50  -47.45535
  51  -204.0443
  52  -110.8818
  53  -156.1595
  54  71.50237
  55  -134.2195
  56  -210.6793
  57  -514.5798
  58  -471.5511
  59  -170.3459
  60  -204.7827
  61  -53.33994
  62  -1.91125
  63  -478.984
  64  -358.4712
  65  -77.48387
  66  -107.4948
  67  -65.64864
  68  460.4825
  69  127.3797
  70  228.2754
  71  105.9969
  72  -72.22955
  73  13.86902
  74  -272.7434
  75  -105.1722
  76  -98.25654
  77  87.19418
  78  -201.1912
  79  8.275384
  80  62.23387
  81  12.47438
  82  -375.3035
  83  -824.8417
  84  -222.3534
  85  95.93955
  86  371.646
  87  539.4097
  88  151.8999
  89  150.0271
  90  -574.6164
  91  -180.1661
  92  209.6155
  93  187.4069
  94  573.7681
  95  484.9477
  96  373.4674
  97  608.5703
  98  219.4482
  99  360.038
 100  391.4709
 101  97.82902
 102  377.8078
 103  816.3285
 104  850.4259
 105  524.5225
 106  665.5958
 107  354.4416
 108  178.3788
 109  230.6021
 110  716.869
 111  533.4444
 112  118.7129
 113  64.36032
 114  -116.5238
 115  -202.1644
 116  205.6622
 117  360.2088
 118  399.3222
 119  308.4843
 120  -60.44276
 121  103.0245
 122  34.2695
 123  20.06502
 124  -220.2659
 125  206.5036
 126  467.9695
 127  326.4299
 128  306.637
 129  99.15712
 130  -179.0014
 131  -173.2199
 132  43.65154
 133  514.07
 134  637.0145
 135  443.7677
 136  233.5845
 137  431.871
 138  562.7031
 139  406.9803
 140  344.9242
 141  293.9536
 142  304.0299
 143  589.9942
 144  292.0406
 145  -130.1716
 146  -355.2725
 147  -342.9069
 148  -218.6573
 149  15.49369
 150  349.2254
 151  282.7103
 152  204.6945
 153  -69.00191
 154  -420.8976
 155  -425.5547
 156  -293.2713
 157  -27.56164
 158  182.6907
 159  304.1064
 160  -279.9652
 161  65.18827
 162  -70.8223
 163  -111.4483
 164  55.24768
 165  23.09417
 166  495.725
 167  576.1665
 168  931.3235
 169  322.3911
 170  568.1774
 171  590.3818
 172  246.933
 173  205.1241
 174  306.3334
 175  401.8048
 176  467.7688
 177  705.6715
 178  619.4116
 179  204.4083
 180  177.0704
 181  140.1482
 182  196.1084
 183  117.0979
 184  98.6629
 185  370.5866
 186  733.2076
 187  885.4941
 188  605.0378
 189  244.3913
 190  228.6757
 191  299.0544
 192  558.9689
 193  926.4917
 194  947.4511
 195  637.6066
 196  507.7703
 197  372.7647
 198  327.5216
 199  143.6319
 200  729.9742
 201  765.0029
 202  632.3135
 203  480.1621
 204  92.81347
 205  159.4635
 206  -88.58304
 207  358.0249
 208  427.8895
 209  676.9896
 210  594.1185
 211  577.0381
 212  344.6791
 213  67.3099
 214  -111.5321
 215  -177.5412
 216  -41.26405
 217  397.7339
 218  568.9544
 219  613.6731
 220  450.4232
 221  172.3569
 222  -35.18808
 223  -119.6531
 224  92.27757
 225  178.5697
 226  410.4366
 227  80.36134
 228  312.4629
 229  -57.16722
 230  -50.34153
 231  228.5307
 232  263.7206
 233  477.3777
 234  647.4493
 235  397.8357
 236  189.1843
 237  339.1175
 238  1008.077
 239  587.673
 240  214.9171
 241  533.0708
 242  511.1323
 243  6.292226
 244  189.2275
 245  257.4187
 246  151.3669
 247  125.5178
 248  209.938
 249  349.8221
 250  470.4376
 251  387.3362
 252  290.7481
 253  518.3165
 254  491.3141
 255  644.92
 256  431.7286
 257  323.2735
 258  448.303
 259  396.2004
 260  196.3007
 261  10.58805
 262  226.0367
 263  443.2674
 264  322.3881
 265  295.2113
 266  448.0616
 267  946.8528
 268  593.8293
 269  550.2355
 270  397.0157
 271  -260.8896
 272  -257.9909
 273  -489.5264
 274  169.0448
 275  331.5969
 276  317.969
 277  -56.68174
 278  40.1232
 279  62.48279
 280  169.9256
 281  86.96271
 282  391.2668
 283  1126.664
 284  1408.343
 285  1595.678
 286  1784.333
 287  1984.886
 288  1648.393
 289  771.6085
 290  217.4552
 291  256.9706
 292  -190.5427
 293  379.4732
 294  368.3151
 295  175.7212
 296  388.3815
 297  94.62332
 298  -142.7876
 299  -261.3178
 300  269.7325
 301  30.46144
 302  55.8502
 303  497.0705
 304  400.75
 305  -464.6949
 306  -431.9435
 307  19.27125
 308  291.5381
 309  151.6082
 310  93.51538
 311  261.5816
 312  364.2449
 313  22.85428
 314  -92.551
 315  10.38268
 316  -225.151
 317  -40.66616
 318  50.57474
 319  238.4368
 320  516.1375
 321  148.7446
 322  171.5767
 323  108.4154
 324  -155.7494
 325  -394.2412
 326  -29.66351
 327  -146.1885
 328  -138.8122
 329  365.5355
 330  56.75397
 331  -86.82789
 332  -197.7803
 333  25.90428
 334  -129.7799
 335  -263.6559
 336  129.4512
 337  243.4857
 338  -208.2216
 339  -366.4526
 340  -461.5004
 341  -8.102521
 342  -109.8457
 343  -191.3846
 344  -324.1419
 345  -225.6309
 346  -513.9645
 347  -638.2113
 348  -150.3585
 349  147.5478
 350  451.1866
 351  168.776
 352  71.35878
 353  85.43873
 354  -226.6571
 355  -352.3188
 356  6.435306
 357  -49.95758
 358  -140.1518
 359  -252.4032
 360  -323.8948
 361  -562.3957
 362  -571.6526
 363  -553.9502
 364  -889.5715
 365  -855.693
 366  -580.1285
 367  -63.83981
 368  -226.6888
 369  -327.0317
 370  -246.5478
 371  -428.8323
 372  -948.3906
 373  -720.9761
 374  -354.6744
 375  -214.3759
 376  -296.9455
 377  -161.4109
 378  -213.4517
 379  -374.6183
 380  -215.0115
 381  -274.3478
 382  63.74902
 383  14.25323
 384  -282.3006
 385  -394.8301
 386  -394.6335
 387  -363.8762
 388  -434.7361
 389  -360.168
 390  47.97715
 391  49.38126
 392  -120.1107
 393  -357.8022
 394  -567.1378
 395  -609.6555
 396  -635.0047
 397  -282.7487
 398  -11.87115
 399  -204.4498
 400  -149.1437
 401  -13.89229
 402  53.95834
 403  -164.415
 404  -340.2098
 405  -406.6104
 406  -498.4746
 407  -324.3067
 408  -42.119
 409  -140.2174
 410  -75.43033
 411  -261.7016
 412  17.49647
 413  -249.201
 414  -151.0346
 415  68.25952
 416  94.35609
 417  139.0021
 418  -106.5912
 419  -156.45
 420  -209.4564
 421  -395.9134
 422  -444.2448
 423  -598.1226
 424  -89.26434
 425  -121.2362
 426  -14.76125
 427  -324.1147
 428  -696.9469
 429  -328.5023
 430  -556.6055
 431  -60.9047
 432  7.12168
 433  -106.4542
 434  -416.4645
 435  -747.03
 436  -642.7408
 437  -579.451
 438  -578.1987
 439  -273.4029
 440  -542.2823
 441  -779.5778
 442  -309.2063
 443  -308.4294
 444  -389.7585
 445  -558.0663
 446  -757.361
 447  -529.4529
 448  -486.919
 449  -232.5916
 450  -288.4746
 451  -131.3294
 452  -379.4694
 453  -696.3896
 454  -652.2017
 455  -834.1986
 456  -400.1709
 457  -264.324
 458  -423.5194
 459  -281.3134
 460  -540.7222
 461  -801.2441
 462  -978.0518
 463  -765.0809
 464  -241.8626
 465  -14.63532
 466  353.4886
 467  243.6566
 468  -87.15163
 469  -530.5992
 470  -428.921
 471  -410.2612
 472  -102.3887
 473  161.9849
 474  -298.7622
 475  -572.4055
 476  -354.5472
 477  -276.6595
 478  -442.5305
 479  -601.0541
 480  -309.054
 481  16.02729
 482  134.4481
 483  -175.6863
 484  -313.0418
 485  -527.0885
 486  -290.064
 487  -816.9731
 488  -706.7831
 489  -187.3414
 490  -182.2287
 491  -361.3872
 492  -524.8702
 493  -355.867
 494  -594.9854
 495  -653.0374
 496  -613.937
 497  -600.033
 498  -74.96101
 499  212.3159
 500  115.9624
 501  159.2519
 502  118.2337
 503  -2.645012
 504  -148.3166
 505  -301.3513
 506  -364.3385
 507  -294.071
 508  -510.503
 509  -81.93739
 510  -176.3766
 511  -526.9609
