# Input file       =  1186814826.088579_cleaned.dat
# Candidate        =  PSR_0332+5434
# Telescope        =  AR
# Epoch_topo       =  57980.282929265959
# Epoch_bary       =  N/A
# T_sample         =  0.002
# Data Folded      =  7340032
# Data Avg         =  0.0253642977508466
# Data StdDev      =  2.71927033162057 
# Profile Bins     =  256
# Profile Avg      =  726.720410021766 
# Profile StdDev   =  460.448834881547 
# Reduced chi-sqr  =  1.117
# Prob(Noise)      <  0.0972   (~1.3 sigma)
# P_topo (ms)      =  714.465158779998  +/- 0.000243
# P'_topo (s/s)    =  -0                +/- 1.28e-10
# P''_topo (s/s^2) =  0                 +/- 5.66e-14
# P_bary (ms)      =  N/A
# P'_bary (s/s)    =  N/A
# P''_bary (s/s^2) =  N/A
# P_orb (s)        =  N/A
# asin(i)/c (s)    =  N/A
# eccentricity     =  N/A
# w (rad)          =  N/A
# T_peri           =  N/A
######################################################
   0  1110.214
   1  491.2
   2  542.6773
   3  556.5396
   4  813.2055
   5  543.3993
   6  693.794
   7  1228.402
   8  1280.319
   9  525.2602
  10  1194.861
  11  225.8492
  12  697.6349
  13  543.8322
  14  595.3231
  15  192.3353
  16  552.4293
  17  925.0732
  18  1025.001
  19  415.2437
  20  919.1861
  21  1080.708
  22  509.0179
  23  384.4718
  24  820.4968
  25  759.308
  26  715.0657
  27  561.1483
  28  645.9962
  29  853.6624
  30  592.953
  31  579.5552
  32  580.8074
  33  642.2277
  34  784.7632
  35  496.6646
  36  -115.4534
  37  198.6294
  38  799.5974
  39  943.3473
  40  379.4677
  41  386.2284
  42  383.8218
  43  750.1138
  44  542.1287
  45  201.7178
  46  413.6133
  47  428.3198
  48  710.0435
  49  690.6584
  50  123.1658
  51  808.0908
  52  805.5177
  53  705.9857
  54  896.8029
  55  411.0517
  56  782.9813
  57  491.8537
  58  699.3608
  59  1492.128
  60  1260.863
  61  867.3202
  62  604.0396
  63  707.8266
  64  826.7349
  65  329.9381
  66  652.2205
  67  1493.684
  68  1207.604
  69  719.4434
  70  776.5519
  71  741.3442
  72  568.4902
  73  980.8582
  74  1027.254
  75  1057.961
  76  520.9803
  77  387.8933
  78  666.2885
  79  620.1345
  80  403.3843
  81  1365.627
  82  713.8069
  83  560.8226
  84  515.8856
  85  242.523
  86  384.0319
  87  358.4135
  88  973.7038
  89  1241.29
  90  324.9252
  91  824.7054
  92  398.2018
  93  612.2134
  94  434.8102
  95  458.6556
  96  761.3096
  97  623.4245
  98  700.627
  99  1210.988
 100  747.3372
 101  745.8466
 102  853.7863
 103  858.5325
 104  794.6336
 105  1103.245
 106  402.4715
 107  448.2082
 108  370.7786
 109  610.3622
 110  252.2267
 111  127.5041
 112  906.8887
 113  702.0052
 114  720.8491
 115  1267.95
 116  627.4713
 117  511.2487
 118  71.98954
 119  283.3047
 120  410.6187
 121  608.5068
 122  913.443
 123  921.8366
 124  710.6848
 125  954.6826
 126  710.8657
 127  1670.533
 128  832.704
 129  564.0731
 130  240.5241
 131  1345.442
 132  847.1403
 133  819.0237
 134  127.6529
 135  943.3722
 136  906.4341
 137  727.5022
 138  425.4869
 139  322.0197
 140  1143.44
 141  573.0306
 142  381.159
 143  961.4857
 144  602.3983
 145  600.0762
 146  625.8578
 147  955.1844
 148  806.6881
 149  971.2544
 150  1182.07
 151  728.7516
 152  1667.861
 153  1681.933
 154  1250.179
 155  1408.471
 156  800.8546
 157  788.075
 158  781.0012
 159  458.5377
 160  1662.328
 161  2739.414
 162  3487.469
 163  2460.486
 164  1048.804
 165  487.413
 166  506.4482
 167  756.4783
 168  1313.844
 169  1083.126
 170  1587.956
 171  700.0118
 172  917.1288
 173  1292.743
 174  764.8588
 175  1000.33
 176  614.2341
 177  552.826
 178  233.1884
 179  939.7278
 180  -100.0168
 181  675.1251
 182  971.8545
 183  683.1481
 184  766.8323
 185  -216.7609
 186  648.9999
 187  922.7644
 188  348.37
 189  557.7634
 190  227.1489
 191  -55.67207
 192  576.4296
 193  924.035
 194  378.1499
 195  581.4442
 196  747.6865
 197  640.4852
 198  -76.4714
 199  963.439
 200  349.1385
 201  363.0733
 202  1169.298
 203  699.5796
 204  678.2265
 205  936.5164
 206  992.852
 207  852.405
 208  509.6602
 209  888.7364
 210  623.6661
 211  455.0201
 212  984.6934
 213  1044.798
 214  925.3589
 215  710.1544
 216  644.2975
 217  1089.278
 218  444.4566
 219  78.30262
 220  720.2742
 221  851.1833
 222  386.3058
 223  734.0436
 224  562.645
 225  -63.42088
 226  588.3146
 227  947.9142
 228  750.2756
 229  546.6558
 230  772.1741
 231  1111.757
 232  893.0347
 233  1643.649
 234  773.2249
 235  1169.492
 236  523.7632
 237  618.4048
 238  1020.168
 239  102.596
 240  696.3473
 241  787.2693
 242  -114.4776
 243  197.251
 244  954.7226
 245  723.8588
 246  52.60654
 247  686.4559
 248  653.6958
 249  325.6862
 250  218.9272
 251  807.1122
 252  268.3745
 253  442.2036
 254  738.6536
 255  1284.129
