# Input file       =  1186900367.104086_cleaned.dat
# Candidate        =  PSR_0332+5434
# Telescope        =  AR
# Epoch_topo       =  57981.272987315810
# Epoch_bary       =  N/A
# T_sample         =  0.002
# Data Folded      =  7340032
# Data Avg         =  0.00826562250485076
# Data StdDev      =  1.00005171200232 
# Profile Bins     =  512
# Profile Avg      =  118.455843311143 
# Profile StdDev   =  119.739228011822 
# Reduced chi-sqr  =  1.285
# Prob(Noise)      <  1.32e-05   (~4.2 sigma)
# P_topo (ms)      =  714.464929361569  +/- 0.000195
# P'_topo (s/s)    =  -0                +/- 1.03e-10
# P''_topo (s/s^2) =  0                 +/- 4.55e-14
# P_bary (ms)      =  N/A
# P'_bary (s/s)    =  N/A
# P''_bary (s/s^2) =  N/A
# P_orb (s)        =  N/A
# asin(i)/c (s)    =  N/A
# eccentricity     =  N/A
# w (rad)          =  N/A
# T_peri           =  N/A
######################################################
   0  28.26733
   1  137.1659
   2  286.5107
   3  185.6904
   4  94.38238
   5  139.3688
   6  248.9024
   7  106.5484
   8  -100.3383
   9  -5.903601
  10  85.35332
  11  140.6358
  12  224.5577
  13  157.3553
  14  158.0187
  15  201.2645
  16  221.9619
  17  203.6529
  18  205.3549
  19  180.6346
  20  15.84224
  21  9.238561
  22  107.3905
  23  182.5563
  24  171.7403
  25  81.08512
  26  61.50221
  27  72.12213
  28  92.84307
  29  74.72482
  30  4.979867
  31  -58.07681
  32  86.56672
  33  -3.150312
  34  186.7616
  35  263.3798
  36  234.7294
  37  193.9669
  38  182.7609
  39  274.6599
  40  98.30324
  41  69.23849
  42  54.50755
  43  117.8347
  44  141.4218
  45  5.922195
  46  49.64893
  47  30.54993
  48  64.11643
  49  124.8953
  50  112.3071
  51  101.5868
  52  76.02956
  53  29.63431
  54  -7.196103
  55  152.7897
  56  157.4968
  57  55.07479
  58  189.3447
  59  158.3735
  60  86.44315
  61  105.9399
  62  91.46255
  63  -82.29979
  64  -26.3184
  65  73.42084
  66  66.91272
  67  -26.97986
  68  39.44909
  69  150.2736
  70  -3.158134
  71  -84.81075
  72  -32.21558
  73  103.1124
  74  286.3945
  75  250.645
  76  225.4895
  77  241.008
  78  101.1086
  79  -7.118998
  80  157.2856
  81  105.8547
  82  22.02929
  83  30.86379
  84  193.4943
  85  99.77222
  86  28.50703
  87  30.31934
  88  76.56715
  89  96.70539
  90  181.3595
  91  130.4323
  92  138.6316
  93  160.7624
  94  82.22942
  95  132.1719
  96  166.1982
  97  7.906657
  98  -37.69711
  99  111.3684
 100  154.9021
 101  2.10001
 102  72.16212
 103  97.11734
 104  49.94996
 105  169.2695
 106  45.52248
 107  3.87543
 108  25.92146
 109  10.75171
 110  80.82572
 111  76.57369
 112  174.1413
 113  155.3356
 114  90.98193
 115  24.25439
 116  114.637
 117  23.96894
 118  -49.34236
 119  44.15789
 120  187.1601
 121  51.97057
 122  105.6636
 123  146.6256
 124  45.49747
 125  113.3309
 126  272.5731
 127  133.3512
 128  160.0858
 129  207.1203
 130  -16.71613
 131  98.85358
 132  28.54449
 133  -67.54235
 134  -0.48904
 135  81.28833
 136  25.67645
 137  193.9699
 138  316.3348
 139  246.8201
 140  116.4356
 141  187.1951
 142  218.1255
 143  49.62756
 144  181.7966
 145  187.6481
 146  268.8282
 147  66.69987
 148  -5.140073
 149  -62.31554
 150  9.991042
 151  129.354
 152  216.2061
 153  285.4725
 154  167.3491
 155  35.61796
 156  1.131944
 157  59.24046
 158  120.2243
 159  74.53365
 160  183.6366
 161  104.0289
 162  94.61606
 163  136.1321
 164  214.1654
 165  161.9632
 166  110.2087
 167  175.3802
 168  299.408
 169  145.3745
 170  237.0504
 171  191.1655
 172  81.77968
 173  98.03684
 174  49.81433
 175  116.0017
 176  92.1861
 177  107.2343
 178  108.0895
 179  216.6167
 180  222.8523
 181  168.1739
 182  169.6739
 183  146.7146
 184  129.1537
 185  111.9912
 186  192.1532
 187  175.2542
 188  186.774
 189  113.0916
 190  -23.47441
 191  73.69828
 192  200.844
 193  62.60181
 194  -2.805794
 195  105.8332
 196  163.7898
 197  161.1703
 198  129.868
 199  138.6683
 200  125.0801
 201  82.83923
 202  105.1654
 203  66.21675
 204  99.96767
 205  63.71992
 206  201.7595
 207  99.0276
 208  45.25999
 209  54.55337
 210  40.79543
 211  87.47849
 212  89.58118
 213  46.59912
 214  97.94923
 215  170.3351
 216  215.8977
 217  141.5974
 218  227.1042
 219  197.257
 220  110.2664
 221  36.98354
 222  64.7824
 223  36.47128
 224  55.67886
 225  -23.80793
 226  -37.10333
 227  96.97633
 228  287.1636
 229  79.16535
 230  59.37923
 231  219.9489
 232  235.5667
 233  189.9268
 234  280.8062
 235  466.7268
 236  377.7836
 237  495.7183
 238  618.2491
 239  665.7394
 240  572.4304
 241  312.3592
 242  265.9037
 243  184.6648
 244  52.37704
 245  186.2033
 246  163.2287
 247  266.1463
 248  59.29529
 249  31.52613
 250  156.7819
 251  106.8538
 252  133.6938
 253  234.3815
 254  184.6722
 255  226.7942
 256  116.8938
 257  -32.01402
 258  -24.04998
 259  30.04314
 260  135.8885
 261  170.8544
 262  312.0554
 263  336.9293
 264  252.5698
 265  80.15733
 266  144.2145
 267  119.2704
 268  68.4222
 269  133.0044
 270  87.55652
 271  84.33591
 272  168.5558
 273  153.7097
 274  101.9118
 275  52.92763
 276  111.0945
 277  102.3107
 278  137.8764
 279  283.8861
 280  145.3467
 281  111.8846
 282  97.07236
 283  88.07216
 284  -49.22786
 285  -79.88802
 286  168.61
 287  259.0298
 288  234.1177
 289  243.2085
 290  248.1332
 291  345.0547
 292  199.1766
 293  176.4855
 294  110.1824
 295  119.4183
 296  255.4479
 297  339.7622
 298  269.1973
 299  65.71687
 300  11.33718
 301  46.34517
 302  79.91578
 303  53.342
 304  104.3619
 305  171.241
 306  106.6537
 307  77.50604
 308  1.094318
 309  54.79383
 310  265.2017
 311  129.3069
 312  151.6826
 313  185.5016
 314  -121.2026
 315  -24.28143
 316  134.4025
 317  206.5088
 318  112.9579
 319  15.57462
 320  74.99471
 321  87.81583
 322  52.25312
 323  151.8625
 324  180.9559
 325  112.9276
 326  175.1492
 327  159.7772
 328  33.55945
 329  86.2672
 330  183.5675
 331  194.5526
 332  237.1619
 333  72.30918
 334  120.872
 335  181.925
 336  18.52221
 337  104.2421
 338  152.6199
 339  99.84995
 340  133.0834
 341  231.7284
 342  215.6507
 343  210.6328
 344  71.97651
 345  57.67501
 346  67.99156
 347  63.79324
 348  51.64239
 349  116.5499
 350  159.6078
 351  172.3698
 352  88.22002
 353  194.8048
 354  72.14159
 355  120.9629
 356  111.6197
 357  60.67614
 358  146.5411
 359  69.71182
 360  12.66744
 361  114.7911
 362  201.0066
 363  70.9668
 364  -173.6237
 365  -15.81216
 366  -52.15646
 367  10.0136
 368  71.35808
 369  188.8922
 370  259.4805
 371  143.8441
 372  -74.69865
 373  -43.56404
 374  77.13585
 375  232.6072
 376  267.7143
 377  269.5001
 378  136.4785
 379  89.98948
 380  36.77435
 381  163.9985
 382  129.3082
 383  163.2913
 384  -142.9256
 385  -195.5061
 386  106.6851
 387  301.2594
 388  259.1603
 389  146.2681
 390  150.8434
 391  137.9069
 392  68.53757
 393  41.86449
 394  -111.7725
 395  -68.86707
 396  59.32104
 397  113.7734
 398  125.5499
 399  187.397
 400  139.2622
 401  -14.7344
 402  54.98141
 403  110.1745
 404  77.45518
 405  20.4016
 406  121.9263
 407  114.3263
 408  120.4554
 409  165.196
 410  60.83526
 411  72.85079
 412  56.66358
 413  141.9534
 414  52.95697
 415  11.57843
 416  90.85673
 417  208.0185
 418  196.0559
 419  185.7172
 420  2.178734
 421  -49.25254
 422  61.85536
 423  212.9264
 424  168.1371
 425  -69.73846
 426  30.26445
 427  54.67879
 428  127.382
 429  132.6294
 430  148.1614
 431  145.9178
 432  255.1653
 433  286.0778
 434  50.86758
 435  99.96279
 436  178.7926
 437  138.122
 438  184.0012
 439  196.1567
 440  147.0097
 441  51.11456
 442  90.84459
 443  230.8157
 444  93.95477
 445  -28.40141
 446  40.09287
 447  37.56932
 448  127.211
 449  131.2766
 450  174.3583
 451  53.39658
 452  7.473253
 453  37.04478
 454  39.45041
 455  32.27488
 456  75.98171
 457  146.6215
 458  191.4276
 459  82.56966
 460  32.01051
 461  27.87028
 462  230.9568
 463  83.27143
 464  46.58671
 465  135.7736
 466  158.9984
 467  90.84493
 468  121.3727
 469  107.0895
 470  108.9567
 471  64.20461
 472  175.3981
 473  70.28701
 474  102.9644
 475  8.362082
 476  20.197
 477  14.92772
 478  48.82485
 479  172.558
 480  272.1785
 481  222.7145
 482  21.57317
 483  65.83445
 484  57.93759
 485  5.549061
 486  68.40178
 487  199.9817
 488  146.2066
 489  77.50477
 490  161.6111
 491  215.8221
 492  141.6937
 493  92.09102
 494  191.2427
 495  236.6591
 496  111.938
 497  72.53882
 498  125.099
 499  34.85981
 500  67.82776
 501  42.04176
 502  67.31089
 503  114.4321
 504  119.5834
 505  188.8873
 506  169.8218
 507  166.7349
 508  232.103
 509  288.4645
 510  273.4766
 511  220.5521
