# Input file       =  1186038713.111496_cleaned.dat
# Candidate        =  PSR_0332+5434
# Telescope        =  AR
# Epoch_topo       =  57971.300140179352
# Epoch_bary       =  N/A
# T_sample         =  0.002
# Data Folded      =  7340032
# Data Avg         =  0.0143653273678085
# Data StdDev      =  2.56965470746754 
# Profile Bins     =  512
# Profile Avg      =  205.856431921428 
# Profile StdDev   =  307.672560564939 
# Reduced chi-sqr  =  1.177
# Prob(Noise)      <  0.00346   (~2.7 sigma)
# P_topo (ms)      =  714.46774583558   +/- 0.000169
# P'_topo (s/s)    =  -0                +/- 8.92e-11
# P''_topo (s/s^2) =  0                 +/- 3.94e-14
# P_bary (ms)      =  N/A
# P'_bary (s/s)    =  N/A
# P''_bary (s/s^2) =  N/A
# P_orb (s)        =  N/A
# asin(i)/c (s)    =  N/A
# eccentricity     =  N/A
# w (rad)          =  N/A
# T_peri           =  N/A
######################################################
   0  267.2054
   1  66.77621
   2  -150.4727
   3  86.02554
   4  189.9074
   5  182.4692
   6  136.3182
   7  97.7882
   8  618.3926
   9  247.8193
  10  166.5372
  11  172.4677
  12  68.52502
  13  139.7271
  14  543.5809
  15  709.1982
  16  482.2684
  17  225.3462
  18  298.7845
  19  626.5856
  20  212.6612
  21  -123.1069
  22  -149.7237
  23  205.4716
  24  601.6771
  25  416.3174
  26  402.2088
  27  264.9002
  28  427.9937
  29  649.1392
  30  303.3077
  31  474.1682
  32  578.2342
  33  390.5277
  34  238.2588
  35  275.1183
  36  480.5737
  37  362.9583
  38  420.0535
  39  337.5236
  40  381.5234
  41  329.6955
  42  302.5884
  43  172.1317
  44  291.9419
  45  638.059
  46  611.6602
  47  573.8691
  48  683.6187
  49  493.9417
  50  161.3501
  51  286.3214
  52  -84.7999
  53  58.34171
  54  421.7357
  55  262.8058
  56  190.0191
  57  231.5828
  58  345.3573
  59  -297.3571
  60  69.20866
  61  429.8913
  62  347.3754
  63  401.1716
  64  182.3475
  65  126.4094
  66  118.9943
  67  333.1371
  68  381.0523
  69  333.0336
  70  391.5925
  71  399.9862
  72  310.4363
  73  137.8505
  74  345.286
  75  352.8331
  76  306.055
  77  471.7469
  78  492.6847
  79  428.2229
  80  -71.18192
  81  -87.0005
  82  364.1882
  83  604.9994
  84  419.7632
  85  330.4114
  86  -99.37819
  87  83.49475
  88  332.3087
  89  227.6066
  90  293.3795
  91  188.5979
  92  197.2886
  93  260.2044
  94  126.207
  95  128.875
  96  15.11043
  97  1.312246
  98  186.9574
  99  373.0242
 100  644.7892
 101  438.9259
 102  101.496
 103  155.061
 104  280.1102
 105  383.8396
 106  370.5551
 107  122.35
 108  95.02055
 109  288.2223
 110  383.1918
 111  226.5395
 112  376.2311
 113  410.628
 114  252.3432
 115  377.8873
 116  152.1908
 117  -217.1035
 118  -99.67088
 119  -214.4956
 120  -92.95549
 121  253.7829
 122  213.7066
 123  -63.32261
 124  -74.04551
 125  242.2289
 126  -66.86217
 127  55.98097
 128  188.2725
 129  359.4873
 130  332.3274
 131  61.619
 132  -14.16494
 133  -101.8195
 134  50.46903
 135  243.8816
 136  34.53258
 137  -54.60754
 138  38.20183
 139  -158.8542
 140  15.49567
 141  -108.2421
 142  -231.6368
 143  55.57745
 144  157.857
 145  433.3062
 146  317.2735
 147  504.4873
 148  457.0478
 149  71.02375
 150  441.3522
 151  465.307
 152  475.2814
 153  537.6821
 154  330.9224
 155  41.25786
 156  -83.3865
 157  395.9373
 158  609.1552
 159  263.7659
 160  67.57724
 161  171.6838
 162  434.5327
 163  472.1711
 164  213.0145
 165  350.0586
 166  264.8799
 167  17.05986
 168  199.9792
 169  58.2386
 170  -30.97936
 171  304.4995
 172  565.9387
 173  345.925
 174  -141.3387
 175  61.27879
 176  1052.278
 177  1417.143
 178  1664.542
 179  1896.107
 180  1598.558
 181  899.7574
 182  614.6292
 183  632.6013
 184  176.1404
 185  108.0745
 186  262.1936
 187  462.5439
 188  532.7283
 189  205.1641
 190  -161.3434
 191  42.37312
 192  476.4458
 193  277.8123
 194  398.2683
 195  435.5931
 196  363.4542
 197  315.2714
 198  466.5374
 199  221.1456
 200  99.6691
 201  148.1239
 202  194.1302
 203  283.8203
 204  327.714
 205  -127.3896
 206  177.8957
 207  267.3575
 208  152.4651
 209  -265.7185
 210  87.87476
 211  143.2651
 212  187.6753
 213  49.93917
 214  -73.61927
 215  71.51388
 216  -37.96717
 217  -262.856
 218  310.0574
 219  404.1425
 220  355.5423
 221  -103.9754
 222  -132.1416
 223  123.0005
 224  206.5285
 225  436.935
 226  205.6136
 227  -50.329
 228  -262.4784
 229  -253.1099
 230  -181.0034
 231  115.33
 232  -8.025039
 233  -28.94687
 234  287.5599
 235  92.98353
 236  -209.4624
 237  -194.5027
 238  -107.0435
 239  22.32518
 240  -134.9988
 241  -287.413
 242  156.5905
 243  -27.35377
 244  -185.7101
 245  -229.2714
 246  -272.2669
 247  -12.41426
 248  314.6387
 249  172.8509
 250  142.8929
 251  265.028
 252  309.7223
 253  195.6637
 254  134.6554
 255  10.14765
 256  151.5156
 257  -6.843664
 258  -21.33434
 259  392.7124
 260  538.2759
 261  220.2266
 262  304.0671
 263  331.1291
 264  383.5008
 265  91.15324
 266  239.3412
 267  399.9421
 268  262.6103
 269  79.02297
 270  138.1327
 271  199.7296
 272  143.2244
 273  99.31391
 274  81.85737
 275  327.7352
 276  296.9873
 277  135.2179
 278  55.67488
 279  -255.8914
 280  33.95744
 281  -59.02001
 282  63.00102
 283  192.0833
 284  347.3804
 285  357.0157
 286  510.5315
 287  273.5585
 288  297.3756
 289  125.57
 290  363.22
 291  8.202493
 292  -232.0523
 293  74.74673
 294  366.1257
 295  253.7246
 296  194.602
 297  190.5805
 298  316.0927
 299  377.6512
 300  109.0644
 301  -25.39809
 302  65.36118
 303  84.50571
 304  -34.06149
 305  374.6091
 306  308.5472
 307  -60.59458
 308  126.0105
 309  214.1873
 310  77.28987
 311  99.53366
 312  107.9072
 313  370.6853
 314  611.3496
 315  264.4195
 316  332.3214
 317  353.5222
 318  69.15998
 319  433.3689
 320  289.4853
 321  -212.4729
 322  153.6012
 323  269.902
 324  368.3784
 325  431.2041
 326  136.5209
 327  230.7779
 328  181.6832
 329  262.9899
 330  291.5353
 331  40.47174
 332  -17.63483
 333  53.96379
 334  64.96356
 335  57.94448
 336  -77.07732
 337  -118.6733
 338  228.5985
 339  253.0006
 340  353.347
 341  204.387
 342  120.1329
 343  400.1984
 344  25.97109
 345  105.5071
 346  -44.09016
 347  538.0433
 348  346.0296
 349  -154.3618
 350  -388.916
 351  -116.8563
 352  337.0413
 353  192.0327
 354  54.69616
 355  -62.97522
 356  -31.29821
 357  63.87564
 358  9.421086
 359  136.3619
 360  87.16878
 361  133.605
 362  94.74721
 363  88.39644
 364  37.38778
 365  169.3583
 366  -103.7441
 367  68.67049
 368  128.1975
 369  347.7454
 370  223.1324
 371  134.0565
 372  -96.32378
 373  114.7563
 374  53.24371
 375  -158.9622
 376  94.85448
 377  -54.98377
 378  408.8472
 379  590.6624
 380  274.6285
 381  412.9771
 382  129.048
 383  24.02243
 384  146.4395
 385  193.795
 386  -40.6982
 387  100.3999
 388  312.3604
 389  193.1985
 390  -170.8419
 391  -122.7119
 392  41.10584
 393  385.1087
 394  287.726
 395  221.1782
 396  -28.2388
 397  -72.21072
 398  279.4968
 399  495.142
 400  282.4796
 401  30.2314
 402  -18.39617
 403  -189.5816
 404  -208.2291
 405  76.5452
 406  293.8069
 407  82.9451
 408  200.518
 409  408.6505
 410  251.3477
 411  131.6672
 412  250.8607
 413  10.319
 414  196.5948
 415  393.439
 416  277.5093
 417  -1.203709
 418  160.3548
 419  108.4399
 420  321.2351
 421  551.1998
 422  423.2268
 423  491.894
 424  175.8036
 425  61.4811
 426  115.9699
 427  284.1394
 428  38.29188
 429  104.9882
 430  112.4497
 431  144.9716
 432  345.4912
 433  218.4762
 434  130.9348
 435  125.0716
 436  354.3562
 437  185.9174
 438  -85.7925
 439  -123.2899
 440  2.304039
 441  138.0328
 442  117.1764
 443  103.8862
 444  -178.3226
 445  153.8648
 446  49.23811
 447  325.6386
 448  333.4761
 449  161.9535
 450  211.1898
 451  128.893
 452  315.4059
 453  210.6508
 454  288.4911
 455  260.405
 456  176.6513
 457  129.9421
 458  -39.91899
 459  67.01606
 460  68.66903
 461  241.4714
 462  86.95104
 463  256.909
 464  352.3019
 465  330.334
 466  141.3901
 467  43.74803
 468  192.1494
 469  457.3095
 470  369.1808
 471  242.4087
 472  356.871
 473  628.4457
 474  400.6572
 475  16.37091
 476  182.5744
 477  263.9156
 478  76.26966
 479  215.9449
 480  383.5833
 481  399.1807
 482  285.5603
 483  188.5496
 484  -22.11743
 485  92.14957
 486  309.0014
 487  450.7306
 488  406.5946
 489  72.35548
 490  432.3617
 491  224.6506
 492  369.1255
 493  481.0966
 494  410.1391
 495  239.0315
 496  222.9358
 497  287.5471
 498  140.5122
 499  -63.12293
 500  -9.602898
 501  231.3542
 502  47.32051
 503  315.2731
 504  115.5484
 505  169.599
 506  203.1575
 507  331.3434
 508  259.0237
 509  100.5914
 510  269.4204
 511  459.7379
