# Input file       =  1186267588.110569_cleaned.dat
# Candidate        =  PSR_0332+5434
# Telescope        =  AR
# Epoch_topo       =  57973.949156372328
# Epoch_bary       =  N/A
# T_sample         =  0.002
# Data Folded      =  7208960
# Data Avg         =  0.00844192154317977
# Data StdDev      =  1.00012133763208 
# Profile Bins     =  512
# Profile Avg      =  118.792974261621 
# Profile StdDev   =  118.673573616946 
# Reduced chi-sqr  =  1.542
# Prob(Noise)      <  3.82e-14   (~7.5 sigma)
# P_topo (ms)      =  714.466507310013  +/- 0.00016
# P'_topo (s/s)    =  -0                +/- 8.6e-11
# P''_topo (s/s^2) =  0                 +/- 3.87e-14
# P_bary (ms)      =  N/A
# P'_bary (s/s)    =  N/A
# P''_bary (s/s^2) =  N/A
# P_orb (s)        =  N/A
# asin(i)/c (s)    =  N/A
# eccentricity     =  N/A
# w (rad)          =  N/A
# T_peri           =  N/A
######################################################
   0  51.37384
   1  34.6083
   2  -5.64226
   3  76.35283
   4  202.088
   5  198.4484
   6  61.51154
   7  63.76474
   8  204.4232
   9  83.62218
  10  33.01166
  11  28.30864
  12  115.6193
  13  230.0531
  14  189.3607
  15  18.25484
  16  -25.42495
  17  139.7948
  18  231.8141
  19  136.3526
  20  199.1716
  21  180.4905
  22  143.7168
  23  41.51617
  24  146.2321
  25  46.98932
  26  -20.02693
  27  -19.30208
  28  -20.39061
  29  17.80583
  30  9.234688
  31  -0.6216276
  32  54.16795
  33  149.2079
  34  173.0728
  35  106.5634
  36  161.8963
  37  212.5158
  38  131.2047
  39  190.928
  40  195.5261
  41  283.7584
  42  108.5539
  43  45.6803
  44  95.41262
  45  168.0653
  46  -14.38241
  47  47.61787
  48  138.1025
  49  65.03915
  50  -16.37809
  51  202.1528
  52  201.6133
  53  157.0469
  54  127.6757
  55  230.8387
  56  246.8486
  57  79.18124
  58  121.3694
  59  117.6177
  60  275.5638
  61  187.9798
  62  221.0554
  63  79.38386
  64  -5.930357
  65  36.67459
  66  27.18964
  67  147.4393
  68  217.2207
  69  162.4366
  70  239.1661
  71  259.7148
  72  172.6345
  73  56.29383
  74  -8.204316
  75  63.97346
  76  158.2085
  77  129.9424
  78  218.1565
  79  391.0277
  80  254.3548
  81  141.7595
  82  45.03986
  83  32.87057
  84  136.3998
  85  177.1255
  86  56.0537
  87  50.87165
  88  79.19859
  89  62.77352
  90  18.50593
  91  129.7716
  92  268.2404
  93  98.61212
  94  147.8435
  95  110.8288
  96  196.0915
  97  168.9537
  98  155.149
  99  158.1003
 100  217.8629
 101  218.6348
 102  204.2865
 103  94.37449
 104  44.45066
 105  103.9215
 106  115.9159
 107  186.1349
 108  220.5446
 109  254.0642
 110  157.6456
 111  66.66317
 112  59.61422
 113  34.38628
 114  45.34672
 115  107.1176
 116  185.8166
 117  62.17399
 118  -71.45148
 119  59.50758
 120  140.5716
 121  7.850607
 122  -60.92409
 123  -5.011064
 124  171.0255
 125  51.3197
 126  43.25629
 127  -50.193
 128  23.97198
 129  24.90388
 130  51.17219
 131  164.0814
 132  218.5708
 133  176.8373
 134  73.33811
 135  -6.350004
 136  -0.8863222
 137  67.82149
 138  188.0383
 139  208.2679
 140  104.6326
 141  144.1317
 142  155.417
 143  174.8994
 144  192.9302
 145  193.4444
 146  92.98995
 147  -32.87062
 148  -67.32848
 149  44.69316
 150  187.0749
 151  191.6833
 152  213.0202
 153  24.65104
 154  -201.6964
 155  11.5536
 156  56.61583
 157  155.2836
 158  237.8448
 159  168.4262
 160  86.54777
 161  36.6966
 162  108.7666
 163  102.8786
 164  88.27888
 165  97.8065
 166  139.8233
 167  82.21342
 168  63.02227
 169  111.0686
 170  62.87368
 171  90.37254
 172  64.91375
 173  75.69466
 174  35.45282
 175  -57.71355
 176  137.1721
 177  115.1221
 178  -71.24155
 179  27.30271
 180  72.96327
 181  36.75117
 182  -71.80273
 183  38.05478
 184  157.0676
 185  81.00535
 186  161.6891
 187  48.493
 188  85.92976
 189  100.8993
 190  213.7079
 191  247.6374
 192  193.1935
 193  107.029
 194  180.9557
 195  35.4387
 196  108.5465
 197  53.54578
 198  184.777
 199  170.483
 200  51.44621
 201  -22.58543
 202  103.2518
 203  21.27938
 204  -97.88204
 205  -58.73664
 206  4.143702
 207  159.1396
 208  228.8638
 209  224.719
 210  239.6646
 211  52.19606
 212  49.6582
 213  93.32793
 214  192.7659
 215  63.81178
 216  50.50679
 217  46.0441
 218  213.5971
 219  135.8772
 220  5.825816
 221  -14.21918
 222  56.58326
 223  94.86161
 224  143.5605
 225  130.4013
 226  147.5907
 227  160.3769
 228  95.58839
 229  56.85495
 230  7.620552
 231  80.0333
 232  69.65924
 233  -34.3097
 234  -5.307485
 235  5.887561
 236  216.039
 237  129.9822
 238  229.5076
 239  118.0939
 240  60.7032
 241  127.9302
 242  89.76284
 243  154.4179
 244  173.4335
 245  93.58884
 246  135.9305
 247  84.48577
 248  99.31983
 249  -47.65243
 250  99.412
 251  148.3836
 252  64.02519
 253  13.84228
 254  -42.02706
 255  90.97523
 256  203.3722
 257  115.7249
 258  120.2505
 259  209.3891
 260  297.382
 261  183.348
 262  185.3084
 263  243.9684
 264  191.2743
 265  122.6763
 266  174.6978
 267  174.2438
 268  46.49478
 269  82.74818
 270  28.95275
 271  120.0488
 272  131.1681
 273  55.49286
 274  80.01819
 275  128.9456
 276  201.0037
 277  133.0085
 278  47.63958
 279  78.79181
 280  128.8723
 281  -76.30835
 282  74.11005
 283  16.2957
 284  83.53725
 285  59.23022
 286  -25.30087
 287  117.9653
 288  100.1925
 289  42.17857
 290  -8.690183
 291  65.57777
 292  133.8612
 293  185.4979
 294  77.33755
 295  60.97005
 296  131.6582
 297  105.2679
 298  85.06596
 299  38.36338
 300  79.08947
 301  90.56983
 302  151.2377
 303  104.3164
 304  -18.577
 305  -65.36928
 306  201.2871
 307  173.4385
 308  148.8983
 309  43.50557
 310  17.41694
 311  137.4999
 312  214.9417
 313  27.84966
 314  -72.57749
 315  -71.9622
 316  184.7348
 317  282.8982
 318  218.779
 319  232.6242
 320  20.05919
 321  -45.97454
 322  21.7753
 323  55.20396
 324  150.4587
 325  -16.72092
 326  40.47619
 327  87.12275
 328  92.65073
 329  40.4239
 330  -38.26124
 331  54.85102
 332  47.65891
 333  105.3275
 334  144.6816
 335  159.0188
 336  91.96716
 337  121.8943
 338  -20.17525
 339  37.14407
 340  1.842033
 341  178.5197
 342  199.5621
 343  115.1118
 344  24.18434
 345  106.2685
 346  142.2298
 347  160.6163
 348  83.59251
 349  59.18287
 350  83.26659
 351  42.22926
 352  161.8005
 353  222.1912
 354  206.8819
 355  96.84316
 356  143.6654
 357  57.1852
 358  133.3125
 359  175.8219
 360  172.5506
 361  150.989
 362  187.6445
 363  171.2726
 364  91.07499
 365  145.8871
 366  269.3056
 367  142.224
 368  86.6056
 369  89.84072
 370  175.953
 371  125.0246
 372  198.4973
 373  24.72054
 374  64.2746
 375  187.375
 376  199.838
 377  265.6102
 378  245.6177
 379  87.269
 380  177.4317
 381  226.9692
 382  235.4139
 383  78.01887
 384  14.10274
 385  185.8477
 386  190.6347
 387  180.448
 388  110.5031
 389  149.7753
 390  109.7836
 391  119.8134
 392  140.1543
 393  155.7801
 394  149.2434
 395  82.4833
 396  226.315
 397  211.3231
 398  380.1648
 399  611.905
 400  664.3582
 401  761.5202
 402  823.8799
 403  773.1327
 404  680.9927
 405  463.4074
 406  191.8565
 407  219.0053
 408  213.807
 409  116.3646
 410  160.4024
 411  94.26952
 412  -19.94256
 413  89.62066
 414  192.7146
 415  256.2229
 416  223.5505
 417  217.0433
 418  264.271
 419  173.0524
 420  29.71739
 421  130.5722
 422  131.5547
 423  152.7684
 424  215.5567
 425  -27.54976
 426  -5.243077
 427  38.23726
 428  153.984
 429  240.2928
 430  98.55249
 431  -36.97359
 432  -2.724418
 433  67.72768
 434  161.8779
 435  255.0574
 436  226.4918
 437  211.7428
 438  45.36068
 439  119.952
 440  214.9844
 441  114.4982
 442  251.667
 443  219.0148
 444  127.3633
 445  106.3189
 446  61.69009
 447  57.03174
 448  108.7474
 449  35.34837
 450  90.51296
 451  192.5724
 452  192.2399
 453  52.53854
 454  114.8119
 455  162.4382
 456  118.9601
 457  -43.4823
 458  -36.82607
 459  185.8751
 460  254.5932
 461  224.736
 462  116.9006
 463  -14.32306
 464  109.9234
 465  167.8222
 466  79.78554
 467  57.1569
 468  95.01064
 469  158.2453
 470  81.05973
 471  106.3573
 472  132.8653
 473  33.54099
 474  113.6886
 475  94.60762
 476  150.8311
 477  195.8409
 478  169.4494
 479  119.5972
 480  71.20509
 481  25.39426
 482  111.7662
 483  146.2061
 484  63.29346
 485  179.8996
 486  278.8527
 487  154.3844
 488  167.1842
 489  221.1933
 490  82.11156
 491  145.1484
 492  297.275
 493  116.1565
 494  -47.66599
 495  -46.54203
 496  186.1792
 497  83.95969
 498  98.66138
 499  139.8423
 500  279.701
 501  166.7775
 502  123.6087
 503  79.81558
 504  103.5815
 505  33.14983
 506  126.0925
 507  124.387
 508  48.24245
 509  36.30947
 510  54.83777
 511  47.09147
