# Input file       =  1186023785.110087_cleaned.dat
# Candidate        =  PSR_0332+5434
# Telescope        =  AR
# Epoch_topo       =  57971.127362385268
# Epoch_bary       =  N/A
# T_sample         =  0.002
# Data Folded      =  7340032
# Data Avg         =  0.0102549861345939
# Data StdDev      =  1.00005720629119 
# Profile Bins     =  512
# Profile Avg      =  146.96098080041  
# Profile StdDev   =  119.73988585971  
# Reduced chi-sqr  =  1.590
# Prob(Noise)      <  4.18e-16   (~8.0 sigma)
# P_topo (ms)      =  714.467471698042  +/- 0.000105
# P'_topo (s/s)    =  -0                +/- 5.56e-11
# P''_topo (s/s^2) =  0                 +/- 2.45e-14
# P_bary (ms)      =  N/A
# P'_bary (s/s)    =  N/A
# P''_bary (s/s^2) =  N/A
# P_orb (s)        =  N/A
# asin(i)/c (s)    =  N/A
# eccentricity     =  N/A
# w (rad)          =  N/A
# T_peri           =  N/A
######################################################
   0  34.29074
   1  142.706
   2  68.58006
   3  -9.09286
   4  94.27897
   5  98.89798
   6  60.58472
   7  115.7116
   8  111.9714
   9  61.70959
  10  24.58161
  11  79.82912
  12  214.6692
  13  117.8582
  14  220.412
  15  182.317
  16  173.0296
  17  159.5683
  18  264.0904
  19  160.5723
  20  117.1335
  21  37.25436
  22  -8.51407
  23  189.5783
  24  168.2525
  25  159.149
  26  152.9161
  27  227.7243
  28  173.7545
  29  115.5434
  30  135.4657
  31  75.08405
  32  130.3833
  33  145.4912
  34  134.4197
  35  159.037
  36  159.8098
  37  121.1928
  38  161.5732
  39  91.11945
  40  37.83228
  41  220.7714
  42  228.0483
  43  86.3209
  44  173.0483
  45  343.4032
  46  292.1644
  47  116.1671
  48  149.2601
  49  94.98239
  50  54.7186
  51  134.4337
  52  198.7892
  53  269.9887
  54  290.2448
  55  32.2779
  56  48.12165
  57  31.46342
  58  -13.61287
  59  -40.71888
  60  9.960443
  61  141.6832
  62  204.4044
  63  195.4335
  64  80.94566
  65  96.21099
  66  88.58045
  67  97.67219
  68  139.654
  69  123.5393
  70  197.3372
  71  178.3253
  72  89.12218
  73  214.9688
  74  189.1926
  75  178.5133
  76  147.4368
  77  67.94169
  78  216.7919
  79  269.4067
  80  134.9773
  81  56.12034
  82  102.7394
  83  97.19871
  84  245.2513
  85  122.187
  86  216.8303
  87  -1.246713
  88  37.33174
  89  96.7953
  90  36.5668
  91  154.2573
  92  111.269
  93  21.5375
  94  88.75091
  95  210.3436
  96  331.3212
  97  209.1314
  98  173.4436
  99  286.1982
 100  217.1848
 101  244.3839
 102  260.5761
 103  178.1113
 104  222.2576
 105  265.4018
 106  68.24647
 107  98.77248
 108  220.0189
 109  232.1713
 110  237.3324
 111  214.3261
 112  217.8833
 113  290.2447
 114  239.9411
 115  340.2928
 116  512.8655
 117  647.7875
 118  790.7234
 119  843.7392
 120  762.5887
 121  728.3963
 122  345.1161
 123  178.8747
 124  138.8728
 125  171.5681
 126  112.8294
 127  236.7103
 128  247.5974
 129  209.3628
 130  186.387
 131  57.39929
 132  87.21664
 133  -49.79364
 134  49.03952
 135  275.6552
 136  225.1043
 137  6.681339
 138  40.92485
 139  192.324
 140  156.5402
 141  200.1515
 142  94.67108
 143  93.4235
 144  9.117501
 145  128.0355
 146  275.4417
 147  169.154
 148  92.99303
 149  158.7953
 150  98.44481
 151  15.61802
 152  107.6351
 153  237.3931
 154  293.1884
 155  270.924
 156  245.2147
 157  113.8618
 158  22.44324
 159  125.4152
 160  76.43248
 161  113.5471
 162  150.2147
 163  124.7103
 164  106.4924
 165  232.4837
 166  75.92818
 167  9.432742
 168  159.0137
 169  183.8154
 170  163.2821
 171  153.6064
 172  211.7378
 173  187.2576
 174  166.1808
 175  42.9652
 176  76.42266
 177  -2.537688
 178  115.1497
 179  218.4298
 180  98.89766
 181  77.45029
 182  135.8458
 183  15.53414
 184  27.59042
 185  123.9876
 186  78.90364
 187  -20.01783
 188  82.77164
 189  33.49503
 190  166.0444
 191  347.7799
 192  147.2776
 193  162.2953
 194  163.8498
 195  295.6727
 196  220.8574
 197  208.0924
 198  163.9323
 199  158.3383
 200  153.5423
 201  242.688
 202  120.4373
 203  239.3657
 204  195.49
 205  73.87044
 206  153.4681
 207  215.9994
 208  73.43705
 209  18.2298
 210  28.20311
 211  88.58894
 212  81.25172
 213  171.2617
 214  160.8607
 215  224.3507
 216  281.5719
 217  322.21
 218  426.7625
 219  296.1515
 220  183.8173
 221  112.4436
 222  145.8459
 223  5.28343
 224  -114.2411
 225  45.5011
 226  199.943
 227  108.979
 228  182.5983
 229  314.0058
 230  147.5063
 231  297.9805
 232  312.1116
 233  135.3189
 234  164.019
 235  211.8645
 236  130.8233
 237  149.4949
 238  174.0084
 239  224.4064
 240  222.9754
 241  136.2775
 242  151.3112
 243  213.7557
 244  135.9162
 245  157.0307
 246  109.1533
 247  184.8906
 248  116.7992
 249  78.77097
 250  128.1246
 251  84.39702
 252  87.63287
 253  -4.372566
 254  161.0519
 255  242.1378
 256  124.092
 257  215.5859
 258  369.7357
 259  209.9014
 260  82.38664
 261  146.3273
 262  248.5337
 263  151.1568
 264  22.90506
 265  -34.3765
 266  70.13502
 267  162.3649
 268  150.0365
 269  65.8524
 270  124.4655
 271  214.1774
 272  9.680801
 273  -120.867
 274  16.17219
 275  228.3328
 276  229.8295
 277  237.1156
 278  171.6521
 279  67.25794
 280  94.86511
 281  139.8318
 282  46.4571
 283  78.06989
 284  160.7982
 285  122.0621
 286  130.0224
 287  228.821
 288  199.9522
 289  235.6778
 290  130.871
 291  209.2841
 292  147.1014
 293  -9.126241
 294  -122.1428
 295  -92.08012
 296  112.0874
 297  137.1274
 298  169.3044
 299  253.0147
 300  225.9209
 301  226.4748
 302  321.1982
 303  104.75
 304  57.42966
 305  270.2865
 306  208.4648
 307  187.4909
 308  178.0594
 309  193.762
 310  231.1048
 311  157.2722
 312  111.2208
 313  210.8021
 314  145.2658
 315  85.58153
 316  26.63838
 317  95.80925
 318  230.5177
 319  182.5051
 320  127.2706
 321  50.67007
 322  101.6155
 323  205.6449
 324  71.21404
 325  14.86649
 326  79.17848
 327  62.78864
 328  102.0879
 329  118.6808
 330  134.6708
 331  120.0748
 332  153.4052
 333  104.7409
 334  150.8634
 335  117.4703
 336  120.049
 337  32.2533
 338  49.3603
 339  126.1168
 340  57.14212
 341  42.32254
 342  78.36163
 343  60.21597
 344  87.96383
 345  83.32137
 346  113.0533
 347  161.5409
 348  180.7108
 349  253.4314
 350  77.88331
 351  60.41068
 352  152.9798
 353  101.2885
 354  177.3623
 355  154.6004
 356  144.413
 357  216.123
 358  199.8338
 359  183.9958
 360  172.8593
 361  87.25457
 362  119.1652
 363  194.7253
 364  176.3844
 365  21.40147
 366  -147.8781
 367  -13.21023
 368  111.6422
 369  59.23475
 370  65.86621
 371  156.1246
 372  68.50568
 373  127.2156
 374  186.3322
 375  173.3923
 376  86.91473
 377  114.0026
 378  37.99184
 379  -98.15588
 380  -89.54575
 381  42.78376
 382  174.9626
 383  136.8475
 384  64.23209
 385  121.2917
 386  50.10523
 387  14.36264
 388  -23.58246
 389  158.6637
 390  312.2647
 391  212.8918
 392  225.4987
 393  263.1546
 394  41.30552
 395  -27.63778
 396  102.1735
 397  179.3461
 398  229.8354
 399  304.0573
 400  219.5192
 401  58.73847
 402  218.1415
 403  287.3912
 404  258.3924
 405  225.0437
 406  202.87
 407  228.8175
 408  250.9189
 409  146.0159
 410  18.41702
 411  56.82436
 412  104.4923
 413  292.3051
 414  389.1046
 415  266.0889
 416  254.308
 417  212.836
 418  160.7952
 419  46.36562
 420  -47.96713
 421  -53.69102
 422  43.66282
 423  149.052
 424  231.5271
 425  194.0199
 426  210.7281
 427  34.56837
 428  118.291
 429  98.4012
 430  -94.16849
 431  20.8985
 432  125.6767
 433  24.60836
 434  149.5024
 435  156.7948
 436  26.6723
 437  80.67411
 438  23.16093
 439  325.5925
 440  297.5199
 441  202.3661
 442  115.2417
 443  147.7932
 444  225.6779
 445  249.2298
 446  221.85
 447  66.90121
 448  112.8493
 449  356.5204
 450  220.14
 451  190.747
 452  130.5121
 453  146.1651
 454  146.1234
 455  159.9923
 456  41.31425
 457  86.86462
 458  255.5164
 459  253.0028
 460  291.5148
 461  181.7457
 462  24.90558
 463  48.36274
 464  149.9461
 465  179.8156
 466  144.4606
 467  224.3837
 468  266.6612
 469  158.8485
 470  40.77764
 471  109.279
 472  22.97046
 473  -91.31133
 474  173.5236
 475  370.5329
 476  402.1778
 477  42.82295
 478  43.50174
 479  225.0173
 480  112.1071
 481  89.77058
 482  181.7795
 483  155.9426
 484  125.0254
 485  125.3556
 486  143.376
 487  124.0198
 488  104.1234
 489  166.6203
 490  150.1806
 491  120.3583
 492  12.1682
 493  31.5211
 494  50.73143
 495  86.47266
 496  56.35977
 497  147.9271
 498  90.39302
 499  105.9833
 500  247.2752
 501  283.9197
 502  171.5029
 503  38.85543
 504  51.18115
 505  180.2211
 506  124.8584
 507  147.612
 508  230.7139
 509  149.7139
 510  109.9205
 511  127.807
