# Input file       =  1186038713.111496-PSRB0329-2ms-sampling-dd.dat
# Candidate        =  PSR_0332+5434
# Telescope        =  AR
# Epoch_topo       =  57971.300140179352
# Epoch_bary       =  N/A
# T_sample         =  0.002
# Data Folded      =  7340032
# Data Avg         =  5.27307967305674e-10
# Data StdDev      =  6.48715209846673 
# Profile Bins     =  512
# Profile Avg      =  -0.0774618045580308
# Profile StdDev   =  776.726418187331 
# Reduced chi-sqr  =  0.831
# Prob(Noise)      <  0.998   (~0.0 sigma)
# P_topo (ms)      =  714.46774583558   +/- 0.000187
# P'_topo (s/s)    =  -0                +/- 9.88e-11
# P''_topo (s/s^2) =  0                 +/- 4.36e-14
# P_bary (ms)      =  N/A
# P'_bary (s/s)    =  N/A
# P''_bary (s/s^2) =  N/A
# P_orb (s)        =  N/A
# asin(i)/c (s)    =  N/A
# eccentricity     =  N/A
# w (rad)          =  N/A
# T_peri           =  N/A
######################################################
   0  -124.9342
   1  43.98248
   2  -383.9487
   3  -318.4207
   4  -414.3559
   5  -634.5035
   6  -621.0621
   7  -474.4935
   8  162.811
   9  -125.43
  10  -321.1916
  11  -275.0936
  12  -358.2663
  13  -446.7064
  14  190.9426
  15  336.3397
  16  192.0497
  17  99.95985
  18  434.9564
  19  934.9478
  20  122.4505
  21  -359.2037
  22  -400.1991
  23  -275.0083
  24  154.5848
  25  -27.60524
  26  -14.52319
  27  -388.0457
  28  -272.6122
  29  235.0526
  30  -31.40832
  31  180.3421
  32  109.1864
  33  -85.43526
  34  -158.6003
  35  23.87206
  36  124.1596
  37  -29.24458
  38  -31.43916
  39  -431.6163
  40  -271.5121
  41  -58.32397
  42  204.7691
  43  202.1371
  44  381.0793
  45  820.765
  46  539.7524
  47  309.3768
  48  567.225
  49  641.0643
  50  253.0441
  51  360.1056
  52  -57.19135
  53  -0.5036073
  54  590.5246
  55  500.1057
  56  574.438
  57  305.3339
  58  453.1663
  59  -349.4351
  60  -49.1319
  61  419.0728
  62  519.386
  63  643.6194
  64  390.5936
  65  183.2078
  66  -90.63972
  67  142.6543
  68  234.1012
  69  389.7586
  70  348.9572
  71  432.6387
  72  -117.4361
  73  -185.0295
  74  8.67197
  75  143.4833
  76  308.9561
  77  616.8947
  78  746.6703
  79  444.1742
  80  253.3229
  81  -149.0492
  82  478.3835
  83  824.6835
  84  693.2943
  85  630.154
  86  -100.3664
  87  31.95248
  88  304.4971
  89  122.0604
  90  -8.4978
  91  11.57994
  92  154.6814
  93  386.1803
  94  84.88394
  95  -191.4061
  96  -179.3114
  97  -599.2061
  98  -219.0336
  99  88.56701
 100  658.3641
 101  348.2725
 102  -174.4418
 103  -237.9743
 104  -293.0833
 105  -98.20319
 106  -224.2975
 107  -213.9207
 108  -266.6463
 109  -121.3472
 110  105.463
 111  150.4707
 112  549.6293
 113  557.1503
 114  106.1034
 115  336.2349
 116  27.97116
 117  -273.674
 118  -29.52481
 119  -330.2231
 120  -232.812
 121  133.5583
 122  -204.4418
 123  -606.585
 124  -531.5211
 125  -187.0496
 126  -483.3985
 127  -319.7193
 128  1.837675
 129  -47.45107
 130  -107.2225
 131  -433.6581
 132  -555.2139
 133  -646.0038
 134  -263.6882
 135  38.4361
 136  -275.8173
 137  -79.56397
 138  -17.05772
 139  -454.6893
 140  -684.0886
 141  -200.8203
 142  -260.9561
 143  -166.3025
 144  169.6702
 145  541.8047
 146  266.4951
 147  311.8019
 148  583.5198
 149  223.92
 150  688.7938
 151  588.7325
 152  456.744
 153  402.4455
 154  383.0536
 155  -67.42877
 156  -256.4818
 157  304.6879
 158  627.87
 159  -60.6245
 160  -290.8436
 161  74.78191
 162  407.649
 163  550.81
 164  47.87724
 165  111.2126
 166  -246.0003
 167  -525.4741
 168  -367.3305
 169  -219.5848
 170  57.72289
 171  93.17863
 172  500.2829
 173  111.0032
 174  -259.7408
 175  -159.6759
 176  1019.458
 177  1610.643
 178  1970.722
 179  2457.92
 180  2134.981
 181  1646.746
 182  1380.611
 183  1230.378
 184  619.2969
 185  196.9035
 186  703.564
 187  1355.782
 188  1136.684
 189  189.9433
 190  -207.1837
 191  0.4284182
 192  330.408
 193  150.4882
 194  449.6224
 195  498.0387
 196  14.29116
 197  -141.3819
 198  110.384
 199  -190.0816
 200  -214.7304
 201  -474.346
 202  -538.7441
 203  -327.0381
 204  -246.3446
 205  -628.5667
 206  -424.0738
 207  -227.653
 208  -185.112
 209  -596.4796
 210  -280.7776
 211  -89.34626
 212  -137.1281
 213  -162.1564
 214  -47.69347
 215  -64.6797
 216  -72.00986
 217  -518.7064
 218  -4.441975
 219  179.8222
 220  312.2711
 221  11.10665
 222  -255.3424
 223  -105.3218
 224  -173.0537
 225  -1.154701
 226  -234.0207
 227  -121.7024
 228  -128.1542
 229  -402.5912
 230  -256.5999
 231  -390.1359
 232  -447.1752
 233  -465.5522
 234  -341.9012
 235  -354.1232
 236  -257.5598
 237  -146.1625
 238  -232.8051
 239  -240.1594
 240  -525.3575
 241  -683.3012
 242  -195.8579
 243  -278.399
 244  -123.1269
 245  -236.3014
 246  -311.0889
 247  -420.3362
 248  -110.7439
 249  -251.4037
 250  -88.2134
 251  207.3539
 252  269.7928
 253  -7.114667
 254  -505.1948
 255  -370.0819
 256  129.3137
 257  262.5742
 258  230.4415
 259  515.1064
 260  327.9534
 261  -199.8308
 262  -294.362
 263  -70.86079
 264  -5.242723
 265  8.705194
 266  336.7758
 267  180.8617
 268  -327.7155
 269  -688.0422
 270  -311.3914
 271  -427.3131
 272  -421.1776
 273  -217.2243
 274  -130.3418
 275  -416.046
 276  -627.0044
 277  -606.6287
 278  -652.4001
 279  -999.814
 280  -350.7012
 281  -117.5767
 282  -140.5105
 283  -152.405
 284  -259.6096
 285  -94.53134
 286  59.20979
 287  40.53499
 288  -220.7291
 289  -257.9751
 290  -54.96515
 291  -732.8442
 292  -907.2239
 293  -457.4518
 294  -59.55452
 295  -63.04328
 296  -95.48325
 297  -100.3032
 298  -178.2428
 299  -120.2385
 300  -480.2508
 301  -594.16
 302  -268.9038
 303  -429.4726
 304  -644.3845
 305  -411.7397
 306  -381.6454
 307  -667.4442
 308  -595.1766
 309  -506.245
 310  -820.2381
 311  -676.9407
 312  -592.2875
 313  49.26235
 314  623.1535
 315  202.7763
 316  13.77192
 317  -432.2169
 318  -652.8157
 319  -113.9667
 320  19.2514
 321  -462.4438
 322  97.40974
 323  255.7721
 324  63.17453
 325  -206.0507
 326  -508.629
 327  -139.6148
 328  -92.36339
 329  -101.0036
 330  -28.02505
 331  -264.7786
 332  -438.562
 333  -588.9738
 334  -609.062
 335  -503.9381
 336  -629.1482
 337  -643.2971
 338  -118.8197
 339  164.6957
 340  -90.74795
 341  -109.5534
 342  -430.1017
 343  34.59176
 344  -282.6358
 345  -393.2577
 346  -351.1347
 347  393.6386
 348  496.5559
 349  87.46865
 350  -306.9641
 351  -164.9952
 352  287.7632
 353  -35.04333
 354  96.5669
 355  106.5738
 356  568.6083
 357  458.0368
 358  171.7466
 359  34.47437
 360  -255.4274
 361  -155.3059
 362  -488.028
 363  155.3932
 364  326.4489
 365  409.4987
 366  -51.94287
 367  -287.8975
 368  -315.9466
 369  -329.6438
 370  -447.7566
 371  -372.7848
 372  -231.2771
 373  79.17061
 374  -258.2818
 375  -599.9697
 376  -384.8289
 377  -483.0311
 378  14.21231
 379  225.9445
 380  229.1624
 381  466.3215
 382  -184.0949
 383  -332.8448
 384  -263.8252
 385  -242.2404
 386  -386.5614
 387  -294.566
 388  88.00003
 389  157.8637
 390  141.1648
 391  404.7639
 392  78.12812
 393  535.5167
 394  262.7722
 395  -95.77521
 396  -258.4437
 397  71.2502
 398  432.5997
 399  336.0135
 400  -101.5472
 401  -433.8847
 402  -479.3754
 403  -883.4724
 404  -901.3741
 405  -441.6863
 406  -69.04766
 407  -332.465
 408  -474.0208
 409  -330.6567
 410  -628.5419
 411  -778.262
 412  -830.3899
 413  -778.541
 414  -441.5991
 415  -228.0329
 416  -317.503
 417  -884.907
 418  -664.2203
 419  -902.7723
 420  -271.3539
 421  86.09174
 422  259.5551
 423  384.9242
 424  -346.1882
 425  -649.5016
 426  -774.5454
 427  -286.8608
 428  -360.5455
 429  59.54596
 430  409.7941
 431  182.4395
 432  -51.96986
 433  -520.7859
 434  -352.5541
 435  -80.79536
 436  192.2808
 437  140.8827
 438  -136.5969
 439  -196.5123
 440  -386.9062
 441  -382.6765
 442  -361.849
 443  -263.1248
 444  -567.9816
 445  -290.2692
 446  -135.4881
 447  589.817
 448  557.1612
 449  390.9417
 450  493.1084
 451  202.2802
 452  669.8486
 453  827.7805
 454  1134.256
 455  2277.158
 456  2126.881
 457  2259.765
 458  1845.168
 459  1372.298
 460  1131.431
 461  1383.335
 462  2096.483
 463  2418.608
 464  2204.086
 465  1348.296
 466  631.4495
 467  179.156
 468  -12.61054
 469  -67.10225
 470  -249.0122
 471  -57.61306
 472  325.6631
 473  636.2711
 474  397.4046
 475  -505.3074
 476  -415.4276
 477  -401.2886
 478  -280.4823
 479  89.11449
 480  464.9427
 481  568.9363
 482  46.84772
 483  -275.6913
 484  -628.8412
 485  -404.9136
 486  -220.3837
 487  -39.46378
 488  233.7403
 489  -219.021
 490  182.1629
 491  21.85535
 492  127.0245
 493  -286.0423
 494  -243.64
 495  -400.6125
 496  -297.3134
 497  59.49384
 498  160.8325
 499  204.9167
 500  17.54511
 501  45.12075
 502  -536.2549
 503  -250.6431
 504  -266.8599
 505  -54.86219
 506  146.84
 507  111.866
 508  -47.47837
 509  -497.204
 510  -455.7312
 511  -35.23887
