# Input file       =  1186353793.111462_cleaned.dat
# Candidate        =  PSR_0332+5434
# Telescope        =  AR
# Epoch_topo       =  57974.946899438219
# Epoch_bary       =  N/A
# T_sample         =  0.002
# Data Folded      =  7208960
# Data Avg         =  0.0132648373532907
# Data StdDev      =  1.00009295588563 
# Profile Bins     =  512
# Profile Avg      =  186.823317381692 
# Profile StdDev   =  118.670205862304 
# Reduced chi-sqr  =  1.707
# Prob(Noise)      <  2.71e-21   (~9.4 sigma)
# P_topo (ms)      =  714.466197886514  +/- 0.000189
# P'_topo (s/s)    =  -0                +/- 1.01e-10
# P''_topo (s/s^2) =  0                 +/- 4.56e-14
# P_bary (ms)      =  N/A
# P'_bary (s/s)    =  N/A
# P''_bary (s/s^2) =  N/A
# P_orb (s)        =  N/A
# asin(i)/c (s)    =  N/A
# eccentricity     =  N/A
# w (rad)          =  N/A
# T_peri           =  N/A
######################################################
   0  83.61974
   1  55.6479
   2  115.0382
   3  164.0842
   4  231.945
   5  182.6142
   6  92.50687
   7  47.46152
   8  32.63969
   9  208.9181
  10  189.6206
  11  239.8786
  12  260.5138
  13  146.4704
  14  58.58541
  15  146.8287
  16  69.71247
  17  71.18249
  18  42.1978
  19  188.8035
  20  293.6344
  21  290.9723
  22  171.7386
  23  147.7816
  24  227.5984
  25  190.6848
  26  142.6974
  27  96.78835
  28  106.3925
  29  212.3766
  30  191.6943
  31  212.5065
  32  281.1915
  33  222.0795
  34  113.9324
  35  116.3244
  36  176.2921
  37  211.4559
  38  182.2215
  39  79.82036
  40  201.8564
  41  161.4072
  42  66.15824
  43  123.9132
  44  79.23141
  45  201.5471
  46  198.1199
  47  149.7342
  48  219.2531
  49  164.2224
  50  162.7901
  51  128.2433
  52  187.4904
  53  133.4312
  54  141.0838
  55  115.347
  56  194.6785
  57  259.5033
  58  162.6008
  59  149.6482
  60  254.1915
  61  216.8238
  62  121.2975
  63  124.0262
  64  215.0973
  65  232.3083
  66  124.7374
  67  99.89135
  68  -21.8058
  69  132.4926
  70  291.4994
  71  303.2208
  72  250.0557
  73  154.7641
  74  129.6317
  75  283.6051
  76  206.6966
  77  254.9488
  78  234.3654
  79  250.2579
  80  316.2433
  81  200.655
  82  76.4344
  83  226.9238
  84  275.3465
  85  156.3384
  86  168.9287
  87  337.1607
  88  305.7025
  89  394.076
  90  483.9098
  91  404.2702
  92  327.9789
  93  225.874
  94  225.374
  95  200.201
  96  155.8254
  97  178.6376
  98  236.1083
  99  164.9393
 100  129.6772
 101  26.39578
 102  119.5391
 103  164.9961
 104  121.7055
 105  89.79254
 106  87.47725
 107  226.9065
 108  264.8523
 109  261.5247
 110  373.529
 111  308.3197
 112  224.2029
 113  243.2967
 114  159.6424
 115  94.94772
 116  198.0267
 117  226.8602
 118  275.6442
 119  124.5065
 120  283.226
 121  402.4048
 122  288.1135
 123  104.2748
 124  68.46663
 125  88.97475
 126  98.65701
 127  249.6993
 128  357.9227
 129  302.3465
 130  324.2887
 131  402.0719
 132  394.4536
 133  285.1707
 134  282.2549
 135  284.4871
 136  195.6797
 137  143.2693
 138  229.1689
 139  248.9038
 140  230.496
 141  157.4696
 142  182.2326
 143  188.3356
 144  222.0467
 145  311.6585
 146  199.8722
 147  263.8672
 148  252.1783
 149  66.59811
 150  169.6428
 151  339.5667
 152  289.8645
 153  307.0222
 154  325.6179
 155  189.6671
 156  172.3745
 157  156.8071
 158  173.6473
 159  214.3371
 160  251.8394
 161  275.328
 162  291.5497
 163  254.6759
 164  221.9098
 165  218.8721
 166  147.9133
 167  114.2508
 168  138.0706
 169  286.3661
 170  188.4046
 171  188.6748
 172  416.8174
 173  395.4469
 174  264.4399
 175  413.0928
 176  546.4125
 177  750.6219
 178  949.5994
 179  909.8595
 180  910.6063
 181  621.5601
 182  435.9026
 183  333.4664
 184  233.1596
 185  235.6538
 186  117.8868
 187  205.4024
 188  277.2022
 189  187.3745
 190  78.31583
 191  197.204
 192  371.1801
 193  236.5113
 194  171.0341
 195  262.3948
 196  279.2256
 197  251.1103
 198  164.6
 199  163.96
 200  73.89745
 201  156.2883
 202  141.4893
 203  235.3327
 204  235.8895
 205  191.9151
 206  69.13246
 207  166.0906
 208  334.4582
 209  107.1719
 210  53.86802
 211  227.8961
 212  258.5212
 213  197.6535
 214  179.6345
 215  158.1785
 216  168.7825
 217  163.4975
 218  12.66595
 219  220.452
 220  205.0847
 221  10.68962
 222  -57.27146
 223  145.9058
 224  241.4961
 225  257.4071
 226  177.9416
 227  108.785
 228  64.47527
 229  155.2546
 230  267.4043
 231  331.0143
 232  182.1571
 233  105.7523
 234  138.8406
 235  94.33194
 236  200.9468
 237  273.0961
 238  299.5173
 239  95.98665
 240  99.16071
 241  107.788
 242  262.2327
 243  227.8049
 244  70.36584
 245  30.89215
 246  311.5529
 247  302.7276
 248  -23.67319
 249  -83.37267
 250  29.67206
 251  75.31505
 252  76.26108
 253  134.7857
 254  262.8747
 255  137.8765
 256  156.1996
 257  208.5231
 258  203.4722
 259  127.656
 260  193.847
 261  184.752
 262  34.7063
 263  10.7968
 264  158.8607
 265  228.1032
 266  298.7143
 267  250.6464
 268  89.46381
 269  65.41415
 270  2.914192
 271  53.3729
 272  156.2785
 273  128.9034
 274  39.04216
 275  108.9296
 276  72.83012
 277  51.63805
 278  147.1509
 279  290.7196
 280  211.1522
 281  203.2877
 282  111.5127
 283  156.3138
 284  33.29725
 285  25.93447
 286  126.1001
 287  142.2895
 288  63.29763
 289  119.0302
 290  199.5856
 291  291.3618
 292  241.3618
 293  204.9559
 294  209.6239
 295  168.683
 296  134.0692
 297  245.4729
 298  200.5851
 299  210.1472
 300  206.1956
 301  350.3269
 302  296.9768
 303  196.1441
 304  31.21446
 305  159.6304
 306  213.0551
 307  291.4713
 308  301.1676
 309  162.9612
 310  113.1143
 311  238.407
 312  213.6187
 313  43.46492
 314  182.7041
 315  276.0971
 316  361.9579
 317  397.2014
 318  358.8284
 319  321.3319
 320  207.3249
 321  142.6371
 322  113.8266
 323  98.7681
 324  282.201
 325  203.8751
 326  47.59033
 327  209.4626
 328  210.6771
 329  228.7947
 330  169.9319
 331  170.0589
 332  171.0795
 333  143.7611
 334  290.7654
 335  222.8487
 336  354.2401
 337  398.0225
 338  360.9816
 339  218.2006
 340  297.0758
 341  342.1221
 342  315.0821
 343  294.0887
 344  209.3455
 345  105.255
 346  82.58924
 347  43.78345
 348  69.01135
 349  83.09656
 350  169.5777
 351  244.2128
 352  142.5709
 353  106.8606
 354  137.5201
 355  63.18364
 356  256.6257
 357  272.8708
 358  51.3887
 359  164.1873
 360  156.0295
 361  136.5728
 362  169.5469
 363  233.1943
 364  154.9185
 365  225.0095
 366  200.1983
 367  258.99
 368  229.1479
 369  97.12337
 370  102.4645
 371  122.5427
 372  167.6927
 373  181.3084
 374  107.9354
 375  115.9565
 376  98.88013
 377  45.84218
 378  72.17712
 379  147.3926
 380  74.44491
 381  94.42893
 382  136.1986
 383  99.27689
 384  124.063
 385  235.4545
 386  331.4304
 387  137.6886
 388  47.03738
 389  143.7839
 390  38.99117
 391  166.0661
 392  255.838
 393  181.6396
 394  148.361
 395  76.64338
 396  106.5534
 397  174.043
 398  331.3037
 399  282.327
 400  121.685
 401  239.4563
 402  280.3902
 403  247.5533
 404  225.9272
 405  198.4084
 406  112.5606
 407  60.96645
 408  222.8417
 409  235.3259
 410  128.5932
 411  90.8399
 412  103.7634
 413  129.1719
 414  75.63699
 415  177.5005
 416  268.7264
 417  210.7156
 418  193.3044
 419  20.67917
 420  29.83405
 421  216.8002
 422  166.2781
 423  159.0741
 424  232.7886
 425  299.3184
 426  255.7107
 427  226.3155
 428  257.1184
 429  154.8268
 430  172.1717
 431  169.938
 432  212.8351
 433  186.5049
 434  163.5411
 435  195.1263
 436  117.6472
 437  43.87476
 438  152.6722
 439  27.55724
 440  154.0572
 441  146.223
 442  106.3081
 443  62.5061
 444  84.83961
 445  247.0233
 446  214.7636
 447  222.8804
 448  162.4933
 449  172.5224
 450  214.3719
 451  208.9188
 452  89.42484
 453  68.42384
 454  98.49385
 455  58.70827
 456  76.51956
 457  247.5898
 458  182.1637
 459  74.99554
 460  122.1055
 461  161.2288
 462  98.10016
 463  277.9965
 464  350.1165
 465  178.3786
 466  108.2818
 467  204.545
 468  170.2234
 469  91.05738
 470  65.50489
 471  127.8018
 472  146.7929
 473  280.681
 474  272.3934
 475  186.7137
 476  229.5518
 477  205.5183
 478  240.116
 479  171.7099
 480  84.25665
 481  93.26374
 482  176.5162
 483  329.3365
 484  316.0101
 485  168.1373
 486  171.5989
 487  191.9139
 488  65.14705
 489  27.27868
 490  -24.95885
 491  -12.21386
 492  65.41319
 493  63.71497
 494  -0.7375136
 495  28.38832
 496  27.07043
 497  35.50133
 498  112.0149
 499  195.3589
 500  115.1307
 501  156.2179
 502  252.2196
 503  128.5025
 504  156.3741
 505  47.77135
 506  44.57121
 507  229.3452
 508  264.3261
 509  101.2112
 510  95.67835
 511  185.7803
