# Input file       =  1186784914.239803-PSRB0329-2ms-sampling-dd.dat
# Candidate        =  PSR_0332+5434
# Telescope        =  AR
# Epoch_topo       =  57979.936727312539
# Epoch_bary       =  N/A
# T_sample         =  0.002
# Data Folded      =  7405568
# Data Avg         =  8.28930962416485e-10
# Data StdDev      =  7.22062637093778 
# Profile Bins     =  512
# Profile Avg      =  -0.030996982953494
# Profile StdDev   =  868.398530174423 
# Reduced chi-sqr  =  0.951
# Prob(Noise)      <  0.783   (~0.0 sigma)
# P_topo (ms)      =  714.464866935116  +/- 0.00016
# P'_topo (s/s)    =  -0                +/- 8.39e-11
# P''_topo (s/s^2) =  0                 +/- 3.67e-14
# P_bary (ms)      =  N/A
# P'_bary (s/s)    =  N/A
# P''_bary (s/s^2) =  N/A
# P_orb (s)        =  N/A
# asin(i)/c (s)    =  N/A
# eccentricity     =  N/A
# w (rad)          =  N/A
# T_peri           =  N/A
######################################################
   0  -288.6466
   1  -305.8647
   2  -455.2651
   3  -590.4163
   4  -621.9988
   5  -405.2405
   6  -788.3719
   7  -463.0406
   8  -422.1467
   9  -168.4926
  10  -187.3128
  11  -152.7525
  12  -681.4114
  13  -625.0415
  14  -274.4554
  15  -294.1475
  16  40.63754
  17  -147.5203
  18  -113.9504
  19  -277.6395
  20  -412.3829
  21  -119.5031
  22  -155.0941
  23  -394.2975
  24  -206.3638
  25  -229.3361
  26  117.4697
  27  -365.3612
  28  -462.4793
  29  -364.1218
  30  -577.7709
  31  -300.3801
  32  -130.3238
  33  171.2502
  34  261.911
  35  -35.75713
  36  103.1352
  37  -81.07056
  38  -178.8504
  39  -256.2766
  40  24.20924
  41  306.6494
  42  -14.88267
  43  118.1887
  44  -62.75175
  45  123.3168
  46  123.0943
  47  -12.17296
  48  41.56698
  49  517.8675
  50  264.8166
  51  185.1929
  52  -180.8206
  53  64.04018
  54  85.43006
  55  -27.48601
  56  56.28135
  57  153.7655
  58  66.77748
  59  -95.31519
  60  201.6799
  61  415.4967
  62  -4.897634
  63  -31.04689
  64  10.54063
  65  245.3564
  66  56.7524
  67  -181.8792
  68  -102.8772
  69  -148.7036
  70  -65.86987
  71  -256.2712
  72  -277.3296
  73  49.97898
  74  540.5811
  75  260.7602
  76  -4.779985
  77  138.8947
  78  280.7902
  79  -50.47132
  80  -25.04611
  81  -134.006
  82  -274.6451
  83  -6.652759
  84  -12.13046
  85  84.55627
  86  -24.62523
  87  111.9748
  88  14.28558
  89  -74.59362
  90  -392.628
  91  16.78429
  92  454.9151
  93  82.40296
  94  159.1225
  95  441.9852
  96  389.3835
  97  158.2107
  98  166.9568
  99  215.5591
 100  465.2522
 101  24.13025
 102  -71.03213
 103  305.4413
 104  123.0439
 105  11.98697
 106  91.49569
 107  -88.07337
 108  397.3904
 109  141.7271
 110  -44.64572
 111  12.72988
 112  278.2033
 113  -555.4011
 114  -22.98996
 115  185.4141
 116  -866.1382
 117  698.1757
 118  609.8663
 119  -1224.226
 120  6930.295
 121  6619.958
 122  3733.926
 123  -2009.32
 124  -456.6065
 125  1031.479
 126  -298.7885
 127  628.7103
 128  701.9751
 129  -173.4321
 130  276.384
 131  151.0722
 132  -214.9733
 133  650.9001
 134  505.3857
 135  174.1098
 136  352.4924
 137  242.3914
 138  -50.86817
 139  344.8505
 140  276.9083
 141  198.6857
 142  464.9442
 143  118.1464
 144  258.9464
 145  287.6325
 146  23.27855
 147  -59.98352
 148  -34.35746
 149  -5.670402
 150  -14.21657
 151  -4.734122
 152  338.3652
 153  -21.69077
 154  -50.18378
 155  -425.535
 156  -297.3948
 157  -124.4362
 158  -257.812
 159  -153.8751
 160  113.1749
 161  277.6899
 162  -100.7341
 163  -209.5415
 164  -325.3492
 165  -3.699355
 166  150.6767
 167  321.0769
 168  157.7938
 169  -26.14769
 170  -63.11981
 171  -606.2081
 172  -32.50481
 173  297.978
 174  180.6642
 175  413.7908
 176  243.5481
 177  -20.6524
 178  -21.45129
 179  79.7904
 180  -30.39057
 181  -276.9018
 182  -279.4499
 183  -412.089
 184  43.53839
 185  -39.50045
 186  -225.0895
 187  124.5743
 188  -294.157
 189  -834.9266
 190  -629.2755
 191  -272.4762
 192  -393.7485
 193  29.2984
 194  -24.59374
 195  -336.9877
 196  -457.7899
 197  -682.8433
 198  -417.3812
 199  169.8113
 200  64.79105
 201  366.342
 202  462.1932
 203  122.7749
 204  -187.968
 205  -263.9094
 206  -46.22528
 207  -144.6767
 208  -204.0919
 209  -180.4105
 210  177.7496
 211  103.5018
 212  198.7233
 213  27.24202
 214  172.2719
 215  126.3312
 216  482.5728
 217  510.7019
 218  296.7034
 219  50.27547
 220  -10.18164
 221  -168.0039
 222  -657.45
 223  -332.5167
 224  197.1017
 225  -67.69032
 226  49.40168
 227  255.7269
 228  69.72401
 229  182.7437
 230  89.31665
 231  92.06208
 232  163.5161
 233  434.3251
 234  588.0931
 235  482.1603
 236  168.5975
 237  276.4605
 238  -92.21783
 239  -285.2368
 240  162.4611
 241  65.39348
 242  242.1503
 243  562.3819
 244  315.7169
 245  268.2139
 246  -110.6906
 247  209.9349
 248  461.5918
 249  -100.3658
 250  -7.854109
 251  238.2666
 252  415.2986
 253  383.8131
 254  619.5163
 255  405.962
 256  290.2885
 257  437.4807
 258  303.3209
 259  224.7642
 260  131.6453
 261  560.6509
 262  678.6743
 263  161.2533
 264  126.46
 265  506.9104
 266  712.9075
 267  755.8182
 268  790.2444
 269  1103.045
 270  703.6244
 271  150.2976
 272  132.4504
 273  498.8988
 274  806.0967
 275  667.2612
 276  580.9652
 277  603.7134
 278  426.9677
 279  483.1671
 280  680.5795
 281  711.2409
 282  717.6772
 283  476.7683
 284  667.0349
 285  -30.14899
 286  -84.6848
 287  376.5732
 288  535.1617
 289  415.3432
 290  348.3122
 291  282.176
 292  -101.6826
 293  -71.16532
 294  256.5069
 295  582.3684
 296  447.8752
 297  693.5864
 298  713.2365
 299  592.6953
 300  586.6061
 301  720.4827
 302  731.7518
 303  479.9177
 304  309.3884
 305  316.7094
 306  90.57132
 307  272.6754
 308  341.0971
 309  171.787
 310  69.72316
 311  -165.0607
 312  -94.93948
 313  -190.7861
 314  -32.11709
 315  467.925
 316  335.6117
 317  -39.76534
 318  -135.8358
 319  69.03461
 320  45.41121
 321  48.09871
 322  358.7335
 323  459.8393
 324  381.4601
 325  39.83887
 326  332.1967
 327  746.8765
 328  862.5373
 329  683.7355
 330  51.19449
 331  -195.1894
 332  412.4237
 333  -203.0917
 334  220.6412
 335  509.0079
 336  540.6732
 337  448.1502
 338  -17.77223
 339  144.6832
 340  -14.16005
 341  279.0723
 342  226.5103
 343  646.8763
 344  196.0497
 345  -177.6427
 346  1.773126
 347  -263.5186
 348  -214.7535
 349  -352.052
 350  -219.0341
 351  -252.8624
 352  -142.4859
 353  -391.9188
 354  -684.8466
 355  -781.2579
 356  -59.47799
 357  294.0285
 358  351.6809
 359  517.6613
 360  -397.1191
 361  -634.6592
 362  -508.3526
 363  -218.04
 364  -366.3788
 365  -367.1195
 366  -461.4651
 367  -974.9272
 368  -687.6921
 369  -374.7387
 370  -315.297
 371  -375.1844
 372  -400.4377
 373  -232.7867
 374  -517.8376
 375  -816.4146
 376  -283.7212
 377  -493.9403
 378  -517.7963
 379  -687.6041
 380  -425.8691
 381  -455.049
 382  -512.3362
 383  -350.9147
 384  -250.2543
 385  -183.6478
 386  -248.2321
 387  -237.1577
 388  -198.1213
 389  -262.1355
 390  -205.69
 391  -261.492
 392  -623.3801
 393  -454.1322
 394  -268.8497
 395  -257.5829
 396  -209.1003
 397  -136.1115
 398  -204.4231
 399  -517.707
 400  -996.957
 401  -750.5051
 402  -645.9652
 403  -344.4507
 404  -397.883
 405  -427.5272
 406  -549.3755
 407  -756.8929
 408  -637.6907
 409  -792.3411
 410  -706.5825
 411  -401.3688
 412  -551.2899
 413  -537.8338
 414  -555.4666
 415  -297.6453
 416  -64.23011
 417  -56.31897
 418  -223.5387
 419  -505.8044
 420  -690.6091
 421  -600.9758
 422  -416.6786
 423  -269.2243
 424  -291.1315
 425  -37.20289
 426  -245.7268
 427  -478.3787
 428  -526.8406
 429  -301.356
 430  -251.9185
 431  84.35916
 432  -29.60464
 433  -640.2347
 434  -1014.408
 435  -600.7595
 436  -1040.433
 437  -955.2237
 438  -775.2507
 439  -349.2124
 440  -429.9318
 441  -871.4159
 442  -809.5856
 443  -397.3783
 444  -664.691
 445  -1143.433
 446  -1065.941
 447  -589.9405
 448  -702.4102
 449  -682.6647
 450  -525.2151
 451  -700.8416
 452  -503.5076
 453  -554.4357
 454  -492.9711
 455  -321.9608
 456  -281.589
 457  -325.0172
 458  -354.4323
 459  -322.5559
 460  -773.2679
 461  -555.7102
 462  -311.1343
 463  -141.7992
 464  -145.527
 465  170.5635
 466  473.233
 467  453.8112
 468  470.1218
 469  773.0219
 470  1037.466
 471  1355.983
 472  1271.574
 473  1080.113
 474  447.2974
 475  38.09796
 476  92.47754
 477  -101.5266
 478  43.03467
 479  -34.88846
 480  -185.2277
 481  -293.0003
 482  -423.9048
 483  -136.4913
 484  -343.4463
 485  -210.6298
 486  20.6651
 487  -29.80232
 488  -222.5779
 489  -344.043
 490  -436.3556
 491  -349.2257
 492  207.6308
 493  252.1245
 494  75.64742
 495  106.2339
 496  105.6063
 497  4.911276
 498  77.51277
 499  225.6989
 500  -3.997116
 501  -201.8564
 502  -238.139
 503  -115.7434
 504  -17.16733
 505  -190.5348
 506  22.6544
 507  37.97072
 508  -275.4269
 509  -474.3275
 510  -526.7791
 511  -438.8479
