# Input file       =  1186038713.111496_cleaned.dat
# Candidate        =  PSR_0332+5434
# Telescope        =  AR
# Epoch_topo       =  57971.300140179352
# Epoch_bary       =  N/A
# T_sample         =  0.002
# Data Folded      =  7340032
# Data Avg         =  0.00628752600236561
# Data StdDev      =  1.00003141551158 
# Profile Bins     =  512
# Profile Avg      =  90.092756076872  
# Profile StdDev   =  119.736797851357 
# Reduced chi-sqr  =  1.233
# Prob(Noise)      <  0.000244   (~3.5 sigma)
# P_topo (ms)      =  714.467745042238  +/- 0.000121
# P'_topo (s/s)    =  -0                +/- 6.36e-11
# P''_topo (s/s^2) =  0                 +/- 2.81e-14
# P_bary (ms)      =  N/A
# P'_bary (s/s)    =  N/A
# P''_bary (s/s^2) =  N/A
# P_orb (s)        =  N/A
# asin(i)/c (s)    =  N/A
# eccentricity     =  N/A
# w (rad)          =  N/A
# T_peri           =  N/A
######################################################
   0  735.3237
   1  492.7083
   2  284.9952
   3  306.8474
   4  192.6668
   5  68.54579
   6  84.33619
   7  156.9028
   8  204.6555
   9  183.139
  10  -25.79272
  11  -0.8349062
  12  167.4332
  13  168.9007
  14  122.5213
  15  166.2104
  16  171.4185
  17  112.7274
  18  192.6093
  19  142.3053
  20  68.27072
  21  47.76552
  22  81.18369
  23  95.82402
  24  173.6301
  25  11.28318
  26  6.55358
  27  43.66246
  28  119.91
  29  -64.23092
  30  -13.2025
  31  65.90649
  32  80.41824
  33  68.38148
  34  -20.54198
  35  -19.04532
  36  67.22491
  37  -112.7929
  38  58.72237
  39  154.2033
  40  169.4259
  41  26.00427
  42  -91.93658
  43  49.83025
  44  32.47138
  45  141.1095
  46  144.4219
  47  21.07347
  48  -87.7355
  49  -94.1842
  50  -86.20472
  51  -0.07311444
  52  28.77123
  53  -5.857062
  54  70.57801
  55  131.3813
  56  -60.85279
  57  -100.5586
  58  -52.58812
  59  12.41387
  60  35.83332
  61  -117.7122
  62  9.036912
  63  35.22534
  64  -64.8138
  65  -66.14619
  66  -131.8776
  67  -47.30969
  68  97.87555
  69  104.2014
  70  26.15892
  71  96.69656
  72  161.2829
  73  99.34153
  74  60.55444
  75  -43.53645
  76  63.73835
  77  34.89305
  78  5.079416
  79  41.96181
  80  233.9989
  81  132.5851
  82  132.1559
  83  118.2864
  84  198.076
  85  78.99039
  86  75.8716
  87  143.1451
  88  150.0724
  89  55.49426
  90  42.96851
  91  77.27691
  92  53.07497
  93  77.62993
  94  18.76208
  95  114.1203
  96  135.7671
  97  66.38266
  98  28.11431
  99  -57.00527
 100  -27.49597
 101  44.53443
 102  -5.821329
 103  40.45123
 104  92.89974
 105  144.8595
 106  180.6048
 107  142.7932
 108  133.0058
 109  90.98532
 110  119.5006
 111  98.83341
 112  -72.88153
 113  -21.69551
 114  129.3895
 115  133.4085
 116  90.70213
 117  83.59298
 118  79.19181
 119  151.8243
 120  73.48431
 121  12.57988
 122  -6.917144
 123  52.43235
 124  29.53666
 125  87.89413
 126  186.0212
 127  9.436511
 128  5.559765
 129  77.35741
 130  53.78958
 131  41.99369
 132  71.22691
 133  86.86747
 134  249.4484
 135  173.9969
 136  103.4786
 137  167.792
 138  85.20019
 139  89.37017
 140  183.7667
 141  -35.23894
 142  -1.589166
 143  122.1428
 144  127.5546
 145  190.7223
 146  92.71587
 147  90.7179
 148  86.50768
 149  52.28366
 150  108.0658
 151  72.9967
 152  -38.25362
 153  54.17347
 154  32.28354
 155  -0.8908224
 156  -13.58781
 157  -17.98022
 158  64.82388
 159  155.1365
 160  149.5137
 161  147.9112
 162  42.97359
 163  112.0581
 164  105.0697
 165  48.88913
 166  25.78269
 167  113.9907
 168  251.5745
 169  42.8643
 170  -114.3337
 171  -84.81995
 172  69.38654
 173  134.3326
 174  46.65383
 175  -8.110812
 176  46.60149
 177  -2.429667
 178  38.18271
 179  -1.24027
 180  45.40144
 181  63.88755
 182  83.61804
 183  53.3874
 184  56.37641
 185  69.79066
 186  19.31956
 187  -14.99218
 188  44.68203
 189  150.4725
 190  114.3104
 191  91.96456
 192  -65.51976
 193  14.69273
 194  62.76448
 195  -10.692
 196  30.03816
 197  56.79444
 198  64.39252
 199  264.8505
 200  121.5042
 201  135.7979
 202  98.86879
 203  28.33055
 204  48.9448
 205  104.3783
 206  23.97972
 207  25.76691
 208  83.39699
 209  167.7186
 210  11.61168
 211  -24.80754
 212  2.9253
 213  123.6541
 214  149.8067
 215  133.8807
 216  44.72974
 217  -47.65807
 218  84.83135
 219  199.8579
 220  208.5783
 221  29.15759
 222  22.0458
 223  -20.02956
 224  -94.3904
 225  -13.72781
 226  89.96564
 227  118.6561
 228  32.2295
 229  158.7183
 230  128.6092
 231  109.0222
 232  85.92951
 233  57.75939
 234  47.5083
 235  144.7639
 236  169.3585
 237  53.59115
 238  51.82346
 239  89.95629
 240  66.2397
 241  178.8822
 242  146.0138
 243  178.5997
 244  128.6364
 245  21.16652
 246  82.75458
 247  142.5392
 248  67.15617
 249  28.11494
 250  6.857356
 251  56.25987
 252  89.34369
 253  145.3737
 254  37.85458
 255  31.99338
 256  123.9722
 257  112.5879
 258  11.48506
 259  -52.69476
 260  -5.876817
 261  52.09137
 262  69.87424
 263  47.27404
 264  -33.62089
 265  34.36441
 266  41.36058
 267  63.32154
 268  154.6444
 269  93.51114
 270  91.88263
 271  58.6092
 272  86.80221
 273  176.5705
 274  80.04193
 275  117.1773
 276  60.45863
 277  80.46443
 278  10.29271
 279  28.93813
 280  34.68424
 281  83.13879
 282  73.46027
 283  63.77984
 284  134.0469
 285  136.9677
 286  88.73777
 287  -5.390601
 288  86.32046
 289  194.4754
 290  199.6745
 291  151.5481
 292  102.0024
 293  229.2624
 294  246.8039
 295  54.85796
 296  38.79534
 297  96.13014
 298  55.25455
 299  30.06862
 300  104.6248
 301  184.379
 302  146.8398
 303  118.9547
 304  25.85192
 305  31.12695
 306  79.73627
 307  183.3426
 308  162.3432
 309  66.53065
 310  129.0336
 311  187.0681
 312  144.8011
 313  193.5952
 314  180.8293
 315  113.6292
 316  80.02518
 317  122.4822
 318  89.74119
 319  7.44788
 320  -18.01223
 321  127.12
 322  49.76441
 323  95.22595
 324  125.5176
 325  60.71743
 326  87.60135
 327  105.238
 328  172.7264
 329  63.56601
 330  56.80978
 331  148.7477
 332  115.9461
 333  51.77022
 334  -13.27347
 335  -17.2221
 336  85.71487
 337  87.03438
 338  117.3994
 339  36.66175
 340  172.3224
 341  167.6463
 342  28.42074
 343  86.16724
 344  39.70884
 345  24.21885
 346  135.1533
 347  292.917
 348  229.1302
 349  100.7334
 350  72.13326
 351  185.0122
 352  187.2032
 353  -20.13781
 354  -58.2684
 355  -9.211589
 356  192.2432
 357  214.6809
 358  186.9711
 359  150.8818
 360  166.6577
 361  266.858
 362  219.8808
 363  99.68848
 364  304.7094
 365  199.0642
 366  135.9406
 367  81.41711
 368  170.7056
 369  186.7782
 370  123.8921
 371  156.0181
 372  171.6548
 373  171.6863
 374  112.1494
 375  101.7067
 376  82.25394
 377  242.3273
 378  260.7541
 379  247.3195
 380  256.9499
 381  271.6124
 382  103.8036
 383  123.8168
 384  13.23662
 385  -51.79696
 386  139.609
 387  156.8484
 388  66.01102
 389  94.57057
 390  156.5363
 391  20.54784
 392  -84.59568
 393  175.6181
 394  167.2934
 395  189.015
 396  139.9573
 397  51.58526
 398  63.0126
 399  94.76553
 400  191.0904
 401  158.5727
 402  146.3248
 403  144.2662
 404  172.1363
 405  145.7631
 406  124.5569
 407  171.0083
 408  105.7533
 409  177.0249
 410  219.3909
 411  236.6003
 412  84.91019
 413  -38.82781
 414  89.255
 415  281.813
 416  217.1272
 417  125.2241
 418  23.92621
 419  -61.22999
 420  158.676
 421  100.2926
 422  104.0433
 423  102.5695
 424  61.8161
 425  106.3942
 426  75.45522
 427  77.85446
 428  33.4041
 429  7.726921
 430  87.64524
 431  145.3859
 432  201.905
 433  199.5927
 434  91.53308
 435  40.12975
 436  133.3513
 437  151.2527
 438  174.3143
 439  74.49868
 440  30.83272
 441  91.58657
 442  134.2235
 443  136.4669
 444  99.25208
 445  216.3114
 446  104.5763
 447  194.3238
 448  119.1592
 449  -7.16053
 450  -72.67654
 451  -37.77884
 452  -73.14114
 453  65.89235
 454  121.9656
 455  58.71841
 456  -100.3401
 457  62.91826
 458  19.82601
 459  16.28441
 460  58.73553
 461  134.6804
 462  111.7048
 463  109.5717
 464  -2.760123
 465  -20.91562
 466  -56.55959
 467  70.66504
 468  63.18018
 469  -43.98217
 470  6.292811
 471  -50.88148
 472  2.812215
 473  28.71319
 474  -79.39183
 475  -6.454844
 476  45.61304
 477  111.2656
 478  146.3466
 479  116.6027
 480  211.4873
 481  65.3784
 482  93.7833
 483  201.1119
 484  169.791
 485  218.5206
 486  139.9059
 487  80.12685
 488  -18.53803
 489  51.40044
 490  199.4061
 491  142.1225
 492  33.6315
 493  16.93415
 494  106.3497
 495  198.9775
 496  145.8797
 497  86.80278
 498  161.9795
 499  11.6684
 500  79.75272
 501  78.11859
 502  27.542
 503  61.59737
 504  168.7707
 505  193.2711
 506  55.96642
 507  -41.44742
 508  261.0512
 509  544.2111
 510  628.9294
 511  741.3416
