# Input file       =  1186353793.111462_cleaned.dat
# Candidate        =  PSR_0332+5434
# Telescope        =  AR
# Epoch_topo       =  57974.946899438219
# Epoch_bary       =  N/A
# T_sample         =  0.002
# Data Folded      =  7208960
# Data Avg         =  0.0132648373532907
# Data StdDev      =  1.00009295588563 
# Profile Bins     =  512
# Profile Avg      =  186.823296327011 
# Profile StdDev   =  118.670205862304 
# Reduced chi-sqr  =  1.707
# Prob(Noise)      <  2.82e-21   (~9.4 sigma)
# P_topo (ms)      =  714.466196991222  +/- 0.000187
# P'_topo (s/s)    =  -0                +/- 1.01e-10
# P''_topo (s/s^2) =  0                 +/- 4.52e-14
# P_bary (ms)      =  N/A
# P'_bary (s/s)    =  N/A
# P''_bary (s/s^2) =  N/A
# P_orb (s)        =  N/A
# asin(i)/c (s)    =  N/A
# eccentricity     =  N/A
# w (rad)          =  N/A
# T_peri           =  N/A
######################################################
   0  929.8574
   1  713.4307
   2  450.5297
   3  387.8012
   4  233.7093
   5  265.1604
   6  130.5506
   7  169.0456
   8  260.7475
   9  230.3555
  10  101.9382
  11  130.219
  12  352.3914
  13  272.4861
  14  181.1453
  15  218.4276
  16  306.0992
  17  257.0708
  18  193.3636
  19  169.2427
  20  76.82161
  21  147.8325
  22  132.2253
  23  216.5634
  24  234.1308
  25  215.0362
  26  93.37752
  27  99.06013
  28  334.3159
  29  183.3326
  30  23.33601
  31  194.0964
  32  260.3083
  33  221.9041
  34  174.4301
  35  173.2707
  36  153.39
  37  190.8155
  38  27.13626
  39  154.0588
  40  244.5263
  41  75.53854
  42  -93.31802
  43  103.6729
  44  206.0558
  45  288.2622
  46  182.4572
  47  134.8751
  48  72.42241
  49  106.0088
  50  264.3605
  51  314.951
  52  251.384
  53  98.74973
  54  129.2163
  55  103.9179
  56  150.3745
  57  270.3532
  58  298.7124
  59  155.8623
  60  83.42193
  61  90.76649
  62  232.2628
  63  250.7449
  64  123.387
  65  3.37427
  66  236.8448
  67  350.4345
  68  48.73956
  69  -91.06318
  70  3.172526
  71  67.56487
  72  83.84663
  73  89.79929
  74  275.693
  75  150.6455
  76  157.9148
  77  178.9991
  78  234.6242
  79  129.2934
  80  170.6412
  81  207.3496
  82  71.43949
  83  -6.436192
  84  124.2401
  85  210.7709
  86  284.0085
  87  279.2552
  88  129.3605
  89  65.23318
  90  10.96902
  91  21.07343
  92  134.3688
  93  164.6952
  94  51.59025
  95  91.26012
  96  87.76496
  97  50.60801
  98  101.4009
  99  275.5065
 100  235.5277
 101  201.479
 102  134.7098
 103  155.3897
 104  81.08566
 105  -4.270662
 106  91.3167
 107  154.7551
 108  82.53728
 109  89.41827
 110  176.3693
 111  280.117
 112  265.8804
 113  216.0389
 114  201.1858
 115  200.308
 116  99.04394
 117  240.4346
 118  201.1512
 119  223.1211
 120  182.8951
 121  322.101
 122  333.0943
 123  223.5416
 124  62.49937
 125  121.233
 126  201.0708
 127  273.9829
 128  295.3563
 129  222.13
 130  98.50108
 131  195.5423
 132  264.0776
 133  51.18203
 134  134.3245
 135  262.1599
 136  336.0903
 137  409.2664
 138  359.7042
 139  352.6714
 140  227.1771
 141  162.2349
 142  126.4537
 143  66.97807
 144  236.0027
 145  267.3536
 146  57.32401
 147  172.2273
 148  209.3878
 149  219.2134
 150  199.1
 151  146.1401
 152  189.9663
 153  123.8984
 154  284.9052
 155  224.29
 156  330.9616
 157  377.3289
 158  386.4068
 159  248.4445
 160  239.3537
 161  373.3047
 162  289.4212
 163  339.0808
 164  206.5978
 165  147.9999
 166  75.12405
 167  55.65818
 168  66.08663
 169  68.55566
 170  148.3293
 171  228.9539
 172  184.7979
 173  98.28393
 174  153.4743
 175  70.54919
 176  182.5358
 177  303.0844
 178  93.20472
 179  121.9294
 180  179.1841
 181  139.7281
 182  149.9954
 183  225.8474
 184  167.1559
 185  214.6529
 186  204.1537
 187  245.9325
 188  247.2464
 189  127.8763
 190  78.40997
 191  128.3329
 192  141.5601
 193  201.0751
 194  128.638
 195  110.0079
 196  110.8584
 197  56.21702
 198  33.68429
 199  166.5798
 200  70.0136
 201  96.60818
 202  118.3065
 203  120.9853
 204  118.0788
 205  178.1033
 206  343.2906
 207  192.7971
 208  49.64305
 209  125.0286
 210  49.25454
 211  134.44
 212  247.3956
 213  208.5932
 214  152.7391
 215  86.86209
 216  79.26638
 217  167.657
 218  277.8893
 219  348.5818
 220  133.0844
 221  207.3203
 222  269.9979
 223  249.9014
 224  239.4742
 225  214.7382
 226  140.9679
 227  54.08381
 228  165.978
 229  258.3888
 230  155.1353
 231  93.14656
 232  88.43322
 233  123.0963
 234  100.2095
 235  139.2837
 236  268.5748
 237  223.7495
 238  197.4676
 239  72.0442
 240  -7.5728
 241  183.1423
 242  200.9467
 243  130.8632
 244  213.9611
 245  288.0523
 246  290.4343
 247  222.2959
 248  252.5385
 249  176.0002
 250  162.5381
 251  156.7431
 252  221.7435
 253  194.7214
 254  159.2335
 255  197.5545
 256  149.287
 257  42.08438
 258  134.5714
 259  58.58509
 260  102.0719
 261  172.2254
 262  110.7666
 263  72.84213
 264  77.62243
 265  186.8698
 266  250.8267
 267  204.8577
 268  207.6328
 269  135.6539
 270  211.7051
 271  212.1771
 272  134.3737
 273  52.20876
 274  102.483
 275  60.30191
 276  77.01947
 277  192.6281
 278  242.1433
 279  76.45342
 280  96.8696
 281  173.0096
 282  85.62686
 283  224.8844
 284  351.7057
 285  239.5607
 286  103.3015
 287  174.6138
 288  202.0516
 289  96.71184
 290  77.38412
 291  106.2099
 292  134.6894
 293  241.1543
 294  300.9146
 295  190.2434
 296  206.9306
 297  224.8408
 298  229.7325
 299  203.1577
 300  101.045
 301  74.87321
 302  170.1643
 303  274.9425
 304  356.8709
 305  188.5249
 306  149.7301
 307  205.2977
 308  101.9568
 309  26.4875
 310  -6.87474
 311  -17.73668
 312  32.35867
 313  87.39111
 314  -11.66562
 315  45.8299
 316  19.52747
 317  34.83782
 318  78.58898
 319  180.992
 320  164.3905
 321  100.3003
 322  286.5239
 323  117.6761
 324  176.4003
 325  54.69783
 326  31.83261
 327  178.4749
 328  285.6513
 329  157.7454
 330  49.34502
 331  196.5567
 332  94.97648
 333  69.22704
 334  95.06852
 335  152.8059
 336  221.5475
 337  193.6706
 338  116.4263
 339  65.73889
 340  7.421053
 341  174.5623
 342  192.9428
 343  228.5978
 344  253.8089
 345  195.7154
 346  61.07225
 347  141.5773
 348  88.5243
 349  70.57848
 350  38.46384
 351  146.2607
 352  269.0755
 353  314.9568
 354  193.6462
 355  144.2459
 356  207.441
 357  209.3343
 358  147.6098
 359  112.9914
 360  92.10993
 361  190.1653
 362  205.8069
 363  193.1016
 364  275.5634
 365  248.1531
 366  134.1593
 367  105.7142
 368  151.1522
 369  211.393
 370  197.726
 371  90.88844
 372  160.9959
 373  196.981
 374  81.3918
 375  117.4519
 376  69.84396
 377  179.0974
 378  204.1496
 379  161.127
 380  203.5011
 381  164.5128
 382  174.6234
 383  116.7611
 384  195.0328
 385  144.1966
 386  143.4937
 387  105.4203
 388  175.0575
 389  254.3929
 390  196.7718
 391  129.0326
 392  232.442
 393  248.9203
 394  146.932
 395  93.91299
 396  208.3946
 397  221.8751
 398  162.112
 399  113.2938
 400  -5.815148
 401  84.98122
 402  249.3089
 403  325.1432
 404  254.553
 405  184.9673
 406  120.2955
 407  239.0941
 408  241.4145
 409  240.9571
 410  251.2741
 411  224.1048
 412  296.2932
 413  262.64
 414  85.19407
 415  171.4962
 416  293.3527
 417  167.781
 418  158.3854
 419  288.0917
 420  352.655
 421  316.7529
 422  505.4866
 423  409.6091
 424  366.2986
 425  236.8422
 426  237.581
 427  203.9791
 428  160.2495
 429  161.3173
 430  234.6847
 431  182.4667
 432  149.7798
 433  50.67008
 434  78.71603
 435  173.1446
 436  119.3072
 437  97.8571
 438  77.03636
 439  198.1357
 440  270.9914
 441  241.7595
 442  347.8364
 443  334.8271
 444  256.3463
 445  221.9967
 446  213.6339
 447  80.75529
 448  166.9851
 449  217.1082
 450  275.3904
 451  174.7068
 452  210.1422
 453  398.8742
 454  332.6046
 455  126.4419
 456  80.5187
 457  74.53098
 458  87.7408
 459  204.3132
 460  357.2216
 461  315.9637
 462  305.9287
 463  368.0919
 464  427.9964
 465  302.269
 466  289.9026
 467  273.203
 468  234.7612
 469  132.4568
 470  209.4729
 471  259.7231
 472  242.2834
 473  175.2472
 474  153.9826
 475  206.3131
 476  188.0724
 477  316.0447
 478  221.6423
 479  232.7715
 480  284.5617
 481  104.8845
 482  112.3276
 483  316.7633
 484  292.1417
 485  314.3069
 486  328.9157
 487  229.2593
 488  161.7933
 489  158.6896
 490  170.1214
 491  197.404
 492  264.4
 493  251.8529
 494  299.3845
 495  264.1031
 496  228.5962
 497  221.6252
 498  158.4116
 499  121.4426
 500  117.2037
 501  248.9881
 502  251.4565
 503  151.8087
 504  355.0435
 505  426.312
 506  281.7809
 507  352.3248
 508  532.9175
 509  681.1555
 510  906.886
 511  927.0251
