# Input file       =  1186900367.104086_cleaned.dat
# Candidate        =  PSR_0332+5434
# Telescope        =  AR
# Epoch_topo       =  57981.272987315810
# Epoch_bary       =  N/A
# T_sample         =  0.002
# Data Folded      =  7340032
# Data Avg         =  0.0217387163346367
# Data StdDev      =  2.65785292925797 
# Profile Bins     =  512
# Profile Avg      =  311.568688151691 
# Profile StdDev   =  318.232801462939 
# Reduced chi-sqr  =  1.218
# Prob(Noise)      <  0.000508   (~3.3 sigma)
# P_topo (ms)      =  714.464929361569  +/- 0.000229
# P'_topo (s/s)    =  -0                +/- 1.21e-10
# P''_topo (s/s^2) =  0                 +/- 5.34e-14
# P_bary (ms)      =  N/A
# P'_bary (s/s)    =  N/A
# P''_bary (s/s^2) =  N/A
# P_orb (s)        =  N/A
# asin(i)/c (s)    =  N/A
# eccentricity     =  N/A
# w (rad)          =  N/A
# T_peri           =  N/A
######################################################
   0  133.4627
   1  418.2746
   2  799.6432
   3  492.9792
   4  219.7825
   5  279.639
   6  601.2368
   7  259.3583
   8  -231.7883
   9  1.34682
  10  273.2775
  11  444.0577
  12  581.4366
  13  400.4092
  14  386.507
  15  470.034
  16  564.8574
  17  536.8986
  18  541.603
  19  438.2054
  20  14.86596
  21  0.07843041
  22  283.1289
  23  456.7946
  24  434.1499
  25  244.9964
  26  127.4146
  27  192.4654
  28  244.671
  29  183.6974
  30  38.83487
  31  -123.0037
  32  307.2549
  33  31.88791
  34  447.7073
  35  700.2452
  36  607.7997
  37  423.1469
  38  370.598
  39  656.3998
  40  209.2651
  41  85.83426
  42  8.870906
  43  248.4644
  44  358.0661
  45  41.7892
  46  65.29189
  47  -20.37211
  48  149.5183
  49  366.7404
  50  327.4035
  51  215.6401
  52  93.9864
  53  52.18955
  54  -15.66631
  55  312.7466
  56  276.5632
  57  92.78867
  58  430.3386
  59  383.4405
  60  216.8466
  61  320.5406
  62  251.6396
  63  -148.6948
  64  5.914714
  65  185.8757
  66  111.9221
  67  -90.19336
  68  125.0778
  69  410.3353
  70  -11.7659
  71  -220.8093
  72  -78.90026
  73  281.7418
  74  737.3105
  75  563.6184
  76  538.7823
  77  686.0809
  78  284.6599
  79  7.798227
  80  423.2373
  81  352.5439
  82  94.76105
  83  60.91288
  84  508.7553
  85  219.9325
  86  73.0108
  87  97.05038
  88  137.4353
  89  214.0495
  90  423.9351
  91  296.7533
  92  425.8011
  93  406.2096
  94  213.9028
  95  353.6411
  96  393.5975
  97  2.11821
  98  -137.6193
  99  291.8075
 100  406.1638
 101  40.28868
 102  214.7501
 103  160.0819
 104  116.3885
 105  429.2595
 106  126.1801
 107  -45.23004
 108  49.46143
 109  53.64315
 110  299.937
 111  220.3615
 112  321.2893
 113  344.8589
 114  212.16
 115  105.3039
 116  257.4269
 117  3.478557
 118  -82.21465
 119  213.6885
 120  487.226
 121  45.15324
 122  260.7897
 123  325.6241
 124  52.12959
 125  357.6707
 126  683.326
 127  224.7984
 128  336.367
 129  542.144
 130  -10.99148
 131  271.9962
 132  80.84259
 133  -138.8572
 134  42.35857
 135  229.9527
 136  105.3588
 137  461.3201
 138  767.4521
 139  642.7379
 140  330.7416
 141  582.5959
 142  644.7712
 143  189.7505
 144  546.2411
 145  522.9103
 146  697.2145
 147  206.9397
 148  33.95984
 149  -79.89982
 150  128.139
 151  393.6429
 152  568.1727
 153  783.7895
 154  451.5425
 155  38.29961
 156  -24.6232
 157  142.9404
 158  368.8651
 159  235.7106
 160  542.2004
 161  363.2219
 162  301.7173
 163  417.8501
 164  558.0319
 165  316.6855
 166  235.8502
 167  511.6295
 168  820.7348
 169  401.556
 170  619.3011
 171  432.9703
 172  192.5317
 173  317.4592
 174  165.1866
 175  342.4221
 176  308.7374
 177  320.098
 178  219.1599
 179  580.4067
 180  614.7418
 181  445.5453
 182  505.6855
 183  406.935
 184  369.5647
 185  331.9809
 186  476.0331
 187  352.3547
 188  390.276
 189  205.1996
 190  -107.305
 191  159.3495
 192  482.2676
 193  81.1441
 194  -93.95222
 195  265.1925
 196  331.8709
 197  247.535
 198  263.8936
 199  337.5955
 200  318.9788
 201  213.4156
 202  275.6476
 203  214.5834
 204  285.2638
 205  159.7345
 206  495.4666
 207  202.8291
 208  84.26147
 209  118.3903
 210  165.6215
 211  244.5924
 212  210.2457
 213  127.6307
 214  256.9764
 215  456.9741
 216  548.9502
 217  377.7498
 218  626.0861
 219  583.0631
 220  322.7862
 221  64.21712
 222  185.9326
 223  226.1708
 224  214.2142
 225  26.3251
 226  15.30676
 227  348.7057
 228  792.655
 229  311.6447
 230  173.7856
 231  500.6825
 232  591.9937
 233  578.3373
 234  794.2654
 235  1191.382
 236  1004.854
 237  1313.908
 238  1649.396
 239  1732.63
 240  1426.29
 241  860.4578
 242  771.4013
 243  508.5248
 244  130.579
 245  457.0052
 246  399.9023
 247  703.8182
 248  128.685
 249  68.85249
 250  435.3453
 251  279.4885
 252  328.3445
 253  612.5693
 254  443.8108
 255  559.15
 256  312.6232
 257  -61.00371
 258  -9.37495
 259  55.77766
 260  274.876
 261  462.0578
 262  775.8458
 263  812.9708
 264  623.7139
 265  133.9214
 266  376.3846
 267  356.1632
 268  194.2474
 269  308.5639
 270  204.4685
 271  263.243
 272  477.3031
 273  400.5905
 274  308.8757
 275  130.4222
 276  261.9601
 277  252.5518
 278  392.6114
 279  682.9664
 280  370.337
 281  331.5515
 282  291.369
 283  181.7457
 284  -134.5131
 285  -226.608
 286  345.7
 287  605.9788
 288  587.6335
 289  565.3148
 290  622.7205
 291  949.5312
 292  608.9805
 293  511.4771
 294  321.2946
 295  264.4023
 296  573.7352
 297  823.6738
 298  720.8611
 299  271.8299
 300  105.6
 301  182.09
 302  228.6606
 303  186.086
 304  292.8143
 305  485.049
 306  226.6098
 307  142.4507
 308  37.10648
 309  132.8749
 310  706.7484
 311  385.7298
 312  424.4549
 313  431.1581
 314  -311.9274
 315  -40.85274
 316  300.9012
 317  449.9811
 318  274.207
 319  68.78774
 320  247.0449
 321  217.1969
 322  69.98079
 323  383.2029
 324  442.8642
 325  329.6191
 326  430.1011
 327  387.6654
 328  133.8838
 329  296.7242
 330  474.4696
 331  409.0311
 332  462.4473
 333  104.1321
 334  289.5326
 335  509.1157
 336  127.7543
 337  272.8065
 338  334.6688
 339  262.1299
 340  392.5588
 341  593.0956
 342  567.5671
 343  604.799
 344  265.165
 345  224.7744
 346  290.1457
 347  241.6186
 348  149.8054
 349  373.7499
 350  474.7762
 351  521.2609
 352  270.1661
 353  525.4908
 354  251.4774
 355  377.9605
 356  329.0344
 357  188.4891
 358  356.8568
 359  105.0496
 360  2.203637
 361  378.8878
 362  584.1218
 363  232.6857
 364  -423.5126
 365  52.25002
 366  -36.18596
 367  90.05675
 368  331.9971
 369  604.4502
 370  804.7889
 371  510.4998
 372  -78.06485
 373  -58.85925
 374  256.3301
 375  640.3586
 376  723.7169
 377  688.4639
 378  412.9654
 379  221.6603
 380  97.36725
 381  501.4632
 382  423.0677
 383  500.9257
 384  -324.9039
 385  -485.3139
 386  288.6249
 387  790.8391
 388  657.282
 389  411.231
 390  400.3867
 391  281.092
 392  131.4564
 393  126.6548
 394  -280.9064
 395  -150.5097
 396  142.4956
 397  295.867
 398  298.1702
 399  441.6469
 400  338.0756
 401  22.16574
 402  219.4784
 403  329.0257
 404  213.7376
 405  55.58977
 406  341.3763
 407  366.5387
 408  401.3055
 409  474.4954
 410  170.488
 411  206.9246
 412  129.7961
 413  335.4958
 414  58.06893
 415  8.760254
 416  265.3259
 417  556.3585
 418  532.787
 419  558.5681
 420  38.35823
 421  -190.861
 422  134.4055
 423  562.6064
 424  494.1431
 425  -238.067
 426  17.71093
 427  169.1824
 428  336.7329
 429  299.5149
 430  430.1855
 431  451.3828
 432  611.0198
 433  662.1371
 434  105.754
 435  290.9409
 436  530.7037
 437  438.1273
 438  537.4825
 439  485.8407
 440  387.2574
 441  224.2968
 442  303.5764
 443  663.2018
 444  305.4665
 445  -36.25867
 446  193.0205
 447  158.9746
 448  334.5236
 449  364.8546
 450  418.5061
 451  41.13141
 452  -28.21167
 453  119.5144
 454  116.5367
 455  107.9257
 456  236.6281
 457  381.5381
 458  495.3852
 459  258.3753
 460  38.66174
 461  91.17015
 462  642.1315
 463  212.9544
 464  173.5496
 465  367.3085
 466  407.0529
 467  303.4883
 468  395.6689
 469  263.4579
 470  288.7395
 471  168.4381
 472  437.5706
 473  176.2998
 474  261.548
 475  -43.19387
 476  5.204486
 477  -47.82459
 478  63.74292
 479  420.2196
 480  711.3978
 481  573.3773
 482  38.19101
 483  136.0504
 484  119.4853
 485  -36.82116
 486  187.0509
 487  529.0236
 488  418.6849
 489  137.9535
 490  357.6817
 491  477.8371
 492  285.3983
 493  159.7911
 494  429.7156
 495  593.53
 496  357.8836
 497  265.8918
 498  252.5014
 499  38.44614
 500  167.1267
 501  65.33988
 502  147.0846
 503  313.5995
 504  277.6054
 505  450.6453
 506  513.7072
 507  479.8744
 508  580.7778
 509  673.7958
 510  679.0099
 511  559.3813
