# Input file       =  1186368433.119517_cleaned.dat
# Candidate        =  PSR_0332+5434
# Telescope        =  AR
# Epoch_topo       =  57975.116343975889
# Epoch_bary       =  N/A
# T_sample         =  0.002
# Data Folded      =  7340032
# Data Avg         =  0.0103454919602136
# Data StdDev      =  1.0000142954544  
# Profile Bins     =  512
# Profile Avg      =  148.155011231702 
# Profile StdDev   =  119.734748014928 
# Reduced chi-sqr  =  1.763
# Prob(Noise)      <  5.62e-24   (~10.0 sigma)
# P_topo (ms)      =  714.466160785599  +/- 0.000155
# P'_topo (s/s)    =  -0                +/- 8.16e-11
# P''_topo (s/s^2) =  0                 +/- 3.6e-14
# P_bary (ms)      =  N/A
# P'_bary (s/s)    =  N/A
# P''_bary (s/s^2) =  N/A
# P_orb (s)        =  N/A
# asin(i)/c (s)    =  N/A
# eccentricity     =  N/A
# w (rad)          =  N/A
# T_peri           =  N/A
######################################################
   0  -52.05078
   1  188.0176
   2  229.3394
   3  165.3354
   4  300.6373
   5  184.0914
   6  187.1481
   7  220.9726
   8  97.57695
   9  79.91296
  10  137.9754
  11  300.859
  12  215.6668
  13  120.2872
  14  -12.21211
  15  134.6604
  16  154.5697
  17  228.1927
  18  86.83389
  19  145.7118
  20  237.8231
  21  242.6027
  22  228.4706
  23  349.4284
  24  252.097
  25  183.744
  26  152.6131
  27  130.928
  28  211.5024
  29  184.5916
  30  73.49316
  31  109.9522
  32  208.9492
  33  243.2912
  34  63.37642
  35  63.26712
  36  245.1745
  37  143.2334
  38  126.3795
  39  21.90328
  40  125.3273
  41  190.8168
  42  181.0735
  43  142.6027
  44  103.798
  45  82.40023
  46  36.80372
  47  4.414582
  48  -20.02974
  49  -48.67454
  50  -52.15511
  51  174.0488
  52  214.9619
  53  3.556831
  54  -29.86416
  55  85.73145
  56  23.50072
  57  -39.96325
  58  89.82448
  59  87.42542
  60  28.23207
  61  62.1646
  62  56.60725
  63  43.83859
  64  96.07674
  65  208.1117
  66  -5.652987
  67  -44.76959
  68  70.86823
  69  17.41182
  70  110.8421
  71  59.15003
  72  18.98677
  73  8.973296
  74  41.32465
  75  76.31178
  76  18.67098
  77  -93.18775
  78  -26.86619
  79  144.9696
  80  112.7183
  81  23.34606
  82  78.63071
  83  -7.727334
  84  112.7906
  85  123.7093
  86  145.2437
  87  233.8174
  88  247.4421
  89  -8.789736
  90  48.92196
  91  108.613
  92  92.80861
  93  147.4105
  94  107.869
  95  54.68826
  96  205.138
  97  182.2031
  98  180.169
  99  231.9332
 100  137.8605
 101  5.326946
 102  142.474
 103  237.6589
 104  76.8035
 105  14.76806
 106  237.7749
 107  227.4901
 108  102.7982
 109  154.7204
 110  117.054
 111  100.6108
 112  116.3316
 113  155.4427
 114  258.4595
 115  219.4491
 116  309.9664
 117  250.8447
 118  -1.342577
 119  -25.21133
 120  23.27592
 121  165.2668
 122  278.3238
 123  287.6619
 124  67.9709
 125  45.60534
 126  3.984073
 127  174.7918
 128  174.863
 129  166.5858
 130  156.7304
 131  12.7063
 132  142.2842
 133  203.0311
 134  36.28166
 135  -47.59713
 136  39.61187
 137  56.75186
 138  81.34008
 139  158.1404
 140  230.8754
 141  184.1461
 142  82.97645
 143  -59.03972
 144  -34.79216
 145  9.187439
 146  -16.58853
 147  -45.5974
 148  116.5617
 149  333.3227
 150  334.4055
 151  260.8124
 152  284.0717
 153  280.3744
 154  79.90115
 155  138.269
 156  55.05665
 157  200.6267
 158  177.8978
 159  122.4647
 160  98.16529
 161  154.4976
 162  203.0373
 163  281.9469
 164  177.1536
 165  267.5982
 166  219.0125
 167  227.9966
 168  240.4735
 169  343.8673
 170  99.41151
 171  95.3567
 172  244.0492
 173  203.9654
 174  169.0603
 175  97.04074
 176  224.3624
 177  176.0603
 178  13.46293
 179  221.9877
 180  137.4142
 181  197.9308
 182  217.4023
 183  186.8635
 184  111.2225
 185  41.43478
 186  43.8485
 187  189.7137
 188  201.6357
 189  235.3174
 190  278.6728
 191  180.8203
 192  76.25452
 193  42.42877
 194  -22.78396
 195  79.4768
 196  126.0469
 197  208.25
 198  229.1821
 199  46.91817
 200  7.555718
 201  -35.49477
 202  84.57401
 203  16.81275
 204  111.6277
 205  237.7789
 206  141.0527
 207  217.847
 208  324.6917
 209  223.8198
 210  181.502
 211  212.1459
 212  325.2656
 213  252.5858
 214  96.37975
 215  213.7916
 216  56.04963
 217  102.2874
 218  51.54979
 219  25.12811
 220  -43.00755
 221  125.5534
 222  117.2864
 223  143.656
 224  61.15906
 225  78.05655
 226  75.47034
 227  149.1292
 228  156.0983
 229  205.0843
 230  84.02366
 231  132.297
 232  216.3968
 233  193.8805
 234  124.1951
 235  0.3904335
 236  9.376514
 237  103.0177
 238  92.51809
 239  44.91398
 240  105.649
 241  168.1147
 242  132.7276
 243  108.7359
 244  264.166
 245  234.2804
 246  307.1259
 247  143.7509
 248  113.5073
 249  100.354
 250  213.1615
 251  191.581
 252  178.3498
 253  193.3463
 254  244.5782
 255  83.1851
 256  105.513
 257  204.176
 258  108.2386
 259  279.4993
 260  406.2862
 261  537.6404
 262  822.2211
 263  953.7031
 264  893.3129
 265  809.363
 266  711.926
 267  505.7661
 268  327.7986
 269  147.4823
 270  230.0566
 271  168.9425
 272  229.1378
 273  98.12688
 274  132.5474
 275  197.2835
 276  219.7139
 277  293.2256
 278  367.8792
 279  207.6841
 280  155.6656
 281  156.6228
 282  160.9819
 283  176.1639
 284  279.6553
 285  228.3909
 286  180.8313
 287  75.86566
 288  207.8015
 289  144.4698
 290  129.5444
 291  131.2753
 292  131.9254
 293  71.42262
 294  154.959
 295  147.9462
 296  267.3234
 297  253.9972
 298  200.8848
 299  200.4372
 300  -1.761571
 301  91.52372
 302  123.6933
 303  87.69625
 304  157.0032
 305  245.2467
 306  247.3662
 307  268.1616
 308  367.5792
 309  299.1683
 310  171.7657
 311  130.9079
 312  185.711
 313  227.0995
 314  162.2596
 315  194.6317
 316  102.2763
 317  113.7384
 318  241.2963
 319  259.1949
 320  231.595
 321  233.104
 322  209.2848
 323  206.7465
 324  183.5039
 325  49.14225
 326  187.6947
 327  268.77
 328  220.1685
 329  120.7239
 330  95.69325
 331  40.75394
 332  116.0082
 333  -9.562641
 334  27.83999
 335  91.41171
 336  260.0306
 337  304.762
 338  228.5738
 339  245.2261
 340  180.7436
 341  57.19057
 342  60.24704
 343  78.14845
 344  226.4034
 345  267.5716
 346  169.3423
 347  111.838
 348  89.40651
 349  183.3253
 350  106.2246
 351  124.7431
 352  225.3995
 353  3.462486
 354  6.006316
 355  52.23389
 356  65.40248
 357  43.63014
 358  91.73663
 359  133.0679
 360  159.5935
 361  141.1036
 362  75.72292
 363  117.7609
 364  178.8569
 365  175.789
 366  200.8072
 367  108.4345
 368  264.7971
 369  190.1297
 370  172.3001
 371  140.2848
 372  110.8793
 373  124.0744
 374  221.7024
 375  208.4925
 376  137.7401
 377  126.2274
 378  131.8735
 379  220.1014
 380  169.8541
 381  97.68311
 382  171.3497
 383  272.6126
 384  54.99714
 385  13.98513
 386  21.79501
 387  46.76217
 388  -87.91734
 389  -12.099
 390  265.7685
 391  155.7114
 392  87.21597
 393  86.07941
 394  238.3708
 395  124.1081
 396  40.51943
 397  12.31521
 398  17.45494
 399  166.6823
 400  62.53836
 401  38.94246
 402  83.36843
 403  291.1657
 404  299.6139
 405  242.8099
 406  88.67086
 407  104.1669
 408  154.0392
 409  151.2482
 410  184.8563
 411  143.1059
 412  -15.44704
 413  -29.6718
 414  69.0252
 415  76.70616
 416  130.4859
 417  53.10992
 418  95.85056
 419  215.3267
 420  216.7099
 421  22.0956
 422  51.60454
 423  151.8381
 424  163.57
 425  81.56367
 426  214.942
 427  262.4943
 428  200.1133
 429  54.30066
 430  40.87489
 431  151.0344
 432  258.9684
 433  228.864
 434  64.86713
 435  135.9282
 436  167.8154
 437  151.0787
 438  151.5217
 439  140.9005
 440  -33.74825
 441  38.36985
 442  188.8518
 443  104.1622
 444  127.4661
 445  101.5786
 446  201.4298
 447  233.1527
 448  160.041
 449  244.5918
 450  191.733
 451  220.3164
 452  184.602
 453  67.93806
 454  80.3644
 455  -34.72602
 456  138.7444
 457  259.7095
 458  193.6987
 459  138.5856
 460  84.27093
 461  163.7705
 462  154.5382
 463  141.0026
 464  -47.35296
 465  -7.373228
 466  168.8311
 467  327.9259
 468  159.2684
 469  94.78683
 470  141.6644
 471  58.91872
 472  135.8891
 473  78.1949
 474  69.55009
 475  226.3094
 476  166.2407
 477  231.169
 478  221.9549
 479  133.1653
 480  178.8547
 481  163.4549
 482  154.6207
 483  116.5819
 484  225.7001
 485  346.4633
 486  265.5045
 487  187.1211
 488  134.6824
 489  114.5698
 490  141.375
 491  309.0504
 492  269.6756
 493  58.02594
 494  40.07168
 495  211.187
 496  163.222
 497  133.6077
 498  53.19897
 499  121.9989
 500  31.11356
 501  15.53782
 502  92.0268
 503  118.9052
 504  164.6819
 505  226.135
 506  270.2697
 507  140.5878
 508  92.22116
 509  160.2258
 510  124.9771
 511  20.98835
