# Input file       =  1186986415.105928_cleaned.dat
# Candidate        =  PSR_0332+5434
# Telescope        =  AR
# Epoch_topo       =  57982.268913263055
# Epoch_bary       =  N/A
# T_sample         =  0.002
# Data Folded      =  7340032
# Data Avg         =  0.0134460071175981
# Data StdDev      =  1.00005626342995 
# Profile Bins     =  512
# Profile Avg      =  192.76117540908  
# Profile StdDev   =  119.739772968072 
# Reduced chi-sqr  =  1.261
# Prob(Noise)      <  5.19e-05   (~3.9 sigma)
# P_topo (ms)      =  714.464727716281  +/- 0.000251
# P'_topo (s/s)    =  -0                +/- 1.32e-10
# P''_topo (s/s^2) =  0                 +/- 5.84e-14
# P_bary (ms)      =  N/A
# P'_bary (s/s)    =  N/A
# P''_bary (s/s^2) =  N/A
# P_orb (s)        =  N/A
# asin(i)/c (s)    =  N/A
# eccentricity     =  N/A
# w (rad)          =  N/A
# T_peri           =  N/A
######################################################
   0  118.0955
   1  -13.26292
   2  6.683493
   3  169.2283
   4  230.0142
   5  159.8902
   6  171.4141
   7  91.78089
   8  68.39867
   9  140.5853
  10  122.1587
  11  101.049
  12  154.9911
  13  231.5029
  14  90.25984
  15  52.92186
  16  120.902
  17  98.51817
  18  176.6712
  19  233.5393
  20  182.297
  21  184.2106
  22  27.07856
  23  36.35255
  24  102.216
  25  176.7284
  26  249.0746
  27  146.1346
  28  224.7044
  29  271.4003
  30  147.6553
  31  165.8766
  32  215.0008
  33  149.4625
  34  130.683
  35  28.24428
  36  176.3998
  37  218.3216
  38  240.3824
  39  39.81631
  40  122.6793
  41  134.3497
  42  277.135
  43  201.2416
  44  84.53953
  45  240.7099
  46  183.3568
  47  184.3041
  48  278.7432
  49  259.0354
  50  142.9476
  51  165.332
  52  295.3627
  53  229.448
  54  156.3549
  55  16.03152
  56  67.98354
  57  170.5498
  58  240.5703
  59  57.57715
  60  142.6302
  61  141.1304
  62  139.9007
  63  169.6052
  64  62.78043
  65  98.87471
  66  172.1504
  67  -18.57711
  68  79.38091
  69  67.33864
  70  156.9487
  71  149.2841
  72  83.46703
  73  245.131
  74  186.1266
  75  188.6561
  76  82.97044
  77  160.6375
  78  131.1207
  79  109.9519
  80  -24.99139
  81  -38.76041
  82  -23.0345
  83  166.9429
  84  158.6226
  85  21.00632
  86  85.71054
  87  101.0407
  88  66.14264
  89  114.0733
  90  89.75404
  91  120.5123
  92  50.0198
  93  193.5949
  94  208.7445
  95  155.8564
  96  197.1532
  97  145.5861
  98  169.4931
  99  174.5564
 100  297.51
 101  310.4534
 102  236.1183
 103  201.2265
 104  133.1812
 105  175.9279
 106  200.7038
 107  269.4473
 108  184.4863
 109  127.9354
 110  179.0527
 111  97.01823
 112  111.7239
 113  200.5153
 114  200.9094
 115  156.856
 116  41.45447
 117  220.8115
 118  170.6909
 119  231.4872
 120  179.3332
 121  111.6335
 122  252.9155
 123  318.9454
 124  232.6713
 125  175.8467
 126  301.213
 127  348.1485
 128  349.318
 129  320.0751
 130  311.3492
 131  359.074
 132  255.8666
 133  293.089
 134  378.3286
 135  49.77254
 136  43.978
 137  298.445
 138  235.8072
 139  177.1473
 140  130.1534
 141  281.3685
 142  204.4691
 143  89.1697
 144  14.47899
 145  120.9262
 146  198.2062
 147  203.5685
 148  306.9984
 149  269.3616
 150  290.4886
 151  303.209
 152  270.9331
 153  161.2103
 154  84.86852
 155  13.77572
 156  109.9665
 157  -33.13369
 158  57.21473
 159  98.33073
 160  -10.18219
 161  61.58243
 162  147.2105
 163  171.7252
 164  200.5562
 165  186.9261
 166  218.0676
 167  178.5006
 168  125.985
 169  161.3919
 170  242.5072
 171  190.8372
 172  147.1205
 173  218.4592
 174  145.6471
 175  279.1628
 176  342.065
 177  235.2928
 178  141.3997
 179  291.2332
 180  222.1183
 181  186.3076
 182  182.4063
 183  206.763
 184  172.8031
 185  224.3903
 186  312.3329
 187  230.6384
 188  339.5387
 189  221.583
 190  149.1764
 191  102.1339
 192  157.6308
 193  210.5263
 194  235.1659
 195  169.5996
 196  98.42042
 197  167.2141
 198  211.2224
 199  309.0089
 200  198.6761
 201  219.6744
 202  297.6313
 203  271.5291
 204  167.0986
 205  331.218
 206  353.0442
 207  212.4513
 208  224.7315
 209  263.9308
 210  185.0882
 211  198.3482
 212  266.5717
 213  262.5738
 214  223.5421
 215  289.6002
 216  340.652
 217  222.5874
 218  174.8398
 219  194.8941
 220  210.7912
 221  196.666
 222  167.4776
 223  149.4573
 224  215.3844
 225  169.1328
 226  129.8249
 227  106.181
 228  52.92055
 229  242.2612
 230  412.4658
 231  458.9657
 232  530.4493
 233  672.596
 234  725.506
 235  807.8743
 236  640.7595
 237  480.2006
 238  272.7093
 239  108.8615
 240  141.5317
 241  178.0787
 242  167.2536
 243  148.4571
 244  201.7546
 245  263.3658
 246  333.492
 247  442.6421
 248  282.1209
 249  339.2459
 250  369.1614
 251  274.1836
 252  254.9954
 253  339.8675
 254  322.155
 255  164.9228
 256  190.7368
 257  184.4687
 258  194.241
 259  320.9567
 260  356.807
 261  227.6734
 262  240.0559
 263  328.7561
 264  191.0519
 265  207.135
 266  241.4616
 267  295.1094
 268  207.7501
 269  167.6253
 270  174.0874
 271  310.9177
 272  209.3635
 273  203.0372
 274  213.5605
 275  53.18194
 276  137.2085
 277  136.9865
 278  214.3633
 279  310.2418
 280  289.0977
 281  283.27
 282  212.2601
 283  252.1113
 284  225.7942
 285  70.18427
 286  61.13385
 287  155.6093
 288  247.0052
 289  253.9323
 290  326.8131
 291  282.7599
 292  137.0005
 293  149.1824
 294  198.0035
 295  117.233
 296  161.3114
 297  8.740039
 298  25.66305
 299  163.9482
 300  134.1243
 301  121.607
 302  179.4979
 303  196.6728
 304  319.0605
 305  182.4523
 306  53.42132
 307  54.2778
 308  132.0268
 309  207.5979
 310  112.0776
 311  82.63159
 312  114.0286
 313  154.4993
 314  169.4194
 315  167.2649
 316  50.38595
 317  179.3934
 318  286.3907
 319  230.3006
 320  196.3364
 321  184.0917
 322  123.4449
 323  80.77187
 324  121.7166
 325  195.9846
 326  304.5101
 327  380.3906
 328  271.5315
 329  127.426
 330  137.2026
 331  170.1477
 332  171.0079
 333  345.6182
 334  330.0473
 335  186.0358
 336  185.4684
 337  160.3293
 338  232.4769
 339  264.071
 340  279.6663
 341  176.4311
 342  68.04287
 343  125.9666
 344  71.03764
 345  156.6199
 346  224.2389
 347  248.4483
 348  190.8687
 349  181.6649
 350  188.2474
 351  249.899
 352  272.0805
 353  113.8058
 354  272.3243
 355  250.8535
 356  131.2182
 357  84.71155
 358  178.5413
 359  149.4501
 360  153.8955
 361  222.0033
 362  175.5637
 363  76.07108
 364  170.1932
 365  188.0788
 366  15.65927
 367  191.5362
 368  337.5818
 369  304.3731
 370  238.8178
 371  139.4496
 372  203.8132
 373  238.1113
 374  132.1863
 375  198.3151
 376  147.501
 377  161.8951
 378  217.8667
 379  194.3308
 380  141.9885
 381  195.094
 382  71.05043
 383  108.4823
 384  31.81952
 385  92.08259
 386  91.06564
 387  125.674
 388  81.4259
 389  95.43073
 390  178.9837
 391  254.3676
 392  287.0168
 393  231.0603
 394  306.1917
 395  302.8616
 396  347.0138
 397  149.5794
 398  191.3196
 399  198.6489
 400  124.3429
 401  162.3816
 402  232.3213
 403  401.9177
 404  216.3869
 405  151.237
 406  235.0869
 407  267.965
 408  291.1889
 409  262.9002
 410  264.4233
 411  168.5971
 412  180.3884
 413  284.6443
 414  198.0124
 415  80.50597
 416  146.0139
 417  208.1865
 418  234.1586
 419  268.2718
 420  191.601
 421  96.58754
 422  244.5796
 423  155.4847
 424  123.2232
 425  317.0115
 426  305.3658
 427  184.0301
 428  200.7333
 429  207.8778
 430  155.6965
 431  60.92546
 432  152.6294
 433  144.6984
 434  377.5323
 435  352.1078
 436  89.1596
 437  204.2072
 438  269.4146
 439  253.0817
 440  83.97702
 441  127.3893
 442  225.5222
 443  296.2013
 444  326.2733
 445  235.707
 446  177.0349
 447  308.0906
 448  174.9182
 449  172.1371
 450  217.5166
 451  267.9059
 452  281.2699
 453  152.3755
 454  172.1643
 455  274.332
 456  187.276
 457  145.1548
 458  121.2881
 459  6.434791
 460  125.5835
 461  160.6163
 462  258.2078
 463  158.625
 464  84.07377
 465  143.2852
 466  294.9611
 467  241.5764
 468  341.7951
 469  254.8326
 470  231.9906
 471  123.7702
 472  131.8615
 473  167.4294
 474  166.1192
 475  211.9083
 476  217.9163
 477  198.2948
 478  190.7594
 479  188.8308
 480  237.9989
 481  249.4951
 482  177.6743
 483  183.4766
 484  265.8109
 485  240.345
 486  324.234
 487  219.7354
 488  275.8283
 489  214.1526
 490  203.1904
 491  270.5182
 492  173.6238
 493  194.4879
 494  231.3652
 495  141.6422
 496  179.4091
 497  158.2945
 498  102.5348
 499  181.1771
 500  159.3142
 501  184.7951
 502  159.8586
 503  185.7686
 504  189.6353
 505  165.0701
 506  143.2084
 507  -17.29659
 508  39.82949
 509  218.0284
 510  184.4554
 511  109.628
