# Input file       =  1186383347.125036_cleaned.dat
# Candidate        =  PSR_0332+5434
# Telescope        =  AR
# Epoch_topo       =  57975.288959780512
# Epoch_bary       =  N/A
# T_sample         =  0.002
# Data Folded      =  7340032
# Data Avg         =  0.00877273176495503
# Data StdDev      =  1.00003161190954 
# Profile Bins     =  512
# Profile Avg      =  125.782697136143 
# Profile StdDev   =  119.736821366682 
# Reduced chi-sqr  =  1.387
# Prob(Noise)      <  1.43e-08   (~5.5 sigma)
# P_topo (ms)      =  714.466444381967  +/- 0.000197
# P'_topo (s/s)    =  -0                +/- 1.04e-10
# P''_topo (s/s^2) =  0                 +/- 4.59e-14
# P_bary (ms)      =  N/A
# P'_bary (s/s)    =  N/A
# P''_bary (s/s^2) =  N/A
# P_orb (s)        =  N/A
# asin(i)/c (s)    =  N/A
# eccentricity     =  N/A
# w (rad)          =  N/A
# T_peri           =  N/A
######################################################
   0  138.2702
   1  71.53242
   2  183.8303
   3  182.0235
   4  174.453
   5  213.5484
   6  164.379
   7  64.82175
   8  48.96021
   9  106.0914
  10  -22.59671
  11  90.3419
  12  67.12046
  13  76.99525
  14  88.78284
  15  47.26274
  16  60.13272
  17  75.12415
  18  161.3849
  19  50.23731
  20  19.80688
  21  91.59208
  22  208.1119
  23  129.7538
  24  160.5781
  25  107.7898
  26  275.2335
  27  272.4093
  28  68.91934
  29  28.28376
  30  147.8738
  31  190.0609
  32  98.80882
  33  87.47439
  34  182.2486
  35  195.4489
  36  -49.08798
  37  10.31821
  38  78.68998
  39  170.854
  40  104.2697
  41  89.93439
  42  88.83997
  43  213.6413
  44  358.4395
  45  238.521
  46  50.62104
  47  -13.04313
  48  222.1998
  49  189.6628
  50  9.765021
  51  65.97631
  52  196.9464
  53  187.5934
  54  77.65948
  55  164.8381
  56  225.0249
  57  164.7255
  58  194.5166
  59  152.8291
  60  24.18155
  61  142.0384
  62  116.1876
  63  176.9443
  64  25.96323
  65  73.04769
  66  141.2539
  67  327.8515
  68  299.7488
  69  150.7423
  70  83.5378
  71  169.535
  72  59.77303
  73  -35.12149
  74  150.947
  75  301.7864
  76  348.7235
  77  198.4411
  78  257.8807
  79  180.3542
  80  153.2791
  81  123.9121
  82  212.5834
  83  111.2745
  84  91.66544
  85  47.57736
  86  144.2443
  87  266.6162
  88  249.6533
  89  158.654
  90  92.69981
  91  307.703
  92  653.1843
  93  661.9678
  94  649.8082
  95  820.7823
  96  625.5804
  97  403.3417
  98  248.3668
  99  147.8191
 100  202.3796
 101  214.0564
 102  184.1556
 103  112.6126
 104  25.50685
 105  112.6328
 106  166.0752
 107  144.0522
 108  102.8899
 109  161.355
 110  231.9295
 111  205.6595
 112  96.86678
 113  125.5275
 114  99.87934
 115  -63.06015
 116  94.40998
 117  210.6975
 118  26.37272
 119  84.52504
 120  251.1492
 121  117.6635
 122  59.78378
 123  209.0277
 124  181.921
 125  277.8504
 126  75.17279
 127  194.9726
 128  141.8815
 129  42.95551
 130  4.965483
 131  -4.638601
 132  29.86456
 133  -79.74927
 134  14.58071
 135  82.05131
 136  114.3718
 137  116.4135
 138  175.3276
 139  97.25522
 140  97.61255
 141  186.8523
 142  255.7566
 143  307.9096
 144  270.826
 145  201.8455
 146  117.0855
 147  111.9658
 148  17.68618
 149  -19.86092
 150  105.8423
 151  24.81905
 152  78.29538
 153  123.1856
 154  192.3305
 155  163.6639
 156  251.9629
 157  171.0729
 158  121.667
 159  190.6647
 160  174.9559
 161  90.28082
 162  85.31938
 163  -1.694052
 164  -36.5961
 165  23.04413
 166  194.0818
 167  66.18495
 168  27.26797
 169  186.4376
 170  236.6503
 171  265.9408
 172  56.41009
 173  -14.60052
 174  152.9693
 175  190.3905
 176  160.5552
 177  34.24026
 178  127.1845
 179  86.84074
 180  -70.67623
 181  100.8066
 182  61.31142
 183  117.4455
 184  136.6066
 185  58.51068
 186  87.2299
 187  62.18676
 188  -68.96841
 189  67.10931
 190  10.02129
 191  78.95655
 192  126.7757
 193  80.52749
 194  -17.66899
 195  86.42841
 196  174.7752
 197  143.8154
 198  30.59997
 199  17.10905
 200  96.81467
 201  96.66689
 202  134.5836
 203  191.3163
 204  136.453
 205  85.16963
 206  46.76036
 207  143.5588
 208  57.74521
 209  23.31944
 210  67.14594
 211  318.5179
 212  316.719
 213  257.8836
 214  153.6486
 215  124.9029
 216  8.220189
 217  79.19836
 218  232.177
 219  247.7895
 220  146.3866
 221  187.895
 222  172.3037
 223  158.3037
 224  109.3499
 225  104.1574
 226  189.0277
 227  81.42778
 228  99.41865
 229  161.3492
 230  -13.88481
 231  65.11887
 232  65.53893
 233  151.3379
 234  140.6408
 235  105.5258
 236  166.3773
 237  28.73167
 238  112.1468
 239  107.0556
 240  10.23098
 241  66.31075
 242  88.41893
 243  119.3648
 244  -21.78542
 245  33.93789
 246  192.4747
 247  20.77024
 248  -79.0664
 249  -39.84882
 250  -46.19215
 251  -76.18163
 252  105.421
 253  165.3777
 254  33.42903
 255  79.61447
 256  145.5895
 257  136.2893
 258  62.24783
 259  60.68274
 260  64.75297
 261  27.59894
 262  162.4198
 263  91.79412
 264  133.7726
 265  109.2855
 266  128.0209
 267  124.81
 268  126.3349
 269  69.05982
 270  67.71024
 271  78.58838
 272  128.4913
 273  186.5453
 274  186.1254
 275  241.5383
 276  231.3629
 277  148.0128
 278  114.9352
 279  190.086
 280  175.1231
 281  216.9105
 282  198.0257
 283  339.0871
 284  246.402
 285  109.0102
 286  193.3384
 287  65.401
 288  172.7471
 289  123.1633
 290  188.6481
 291  261.5453
 292  141.5047
 293  287.1784
 294  277.5256
 295  185.3667
 296  130.5949
 297  81.52411
 298  173.1758
 299  135.9585
 300  205.5234
 301  47.26488
 302  67.20029
 303  63.30759
 304  23.48112
 305  124.2865
 306  225.908
 307  145.1897
 308  195.4043
 309  186.6976
 310  242.5843
 311  48.13844
 312  51.24548
 313  133.1079
 314  132.1678
 315  183.7071
 316  229.7448
 317  141.834
 318  65.29806
 319  27.71148
 320  182.6379
 321  130.128
 322  107.9322
 323  46.1089
 324  190.1778
 325  41.75924
 326  -68.64811
 327  -39.80733
 328  159.6252
 329  189.2074
 330  67.67981
 331  -55.6788
 332  53.31026
 333  210.5014
 334  155.4726
 335  259.1086
 336  222.1397
 337  71.79817
 338  45.58678
 339  -10.64472
 340  48.24985
 341  37.02718
 342  244.377
 343  121.8917
 344  89.84679
 345  24.14448
 346  40.60083
 347  -17.67353
 348  164.5797
 349  320.6757
 350  245.5191
 351  187.0029
 352  239.5552
 353  308.7464
 354  63.13607
 355  125.39
 356  162.951
 357  136.4692
 358  211.7071
 359  45.70227
 360  171.5548
 361  210.0998
 362  170.2343
 363  130.8209
 364  83.17216
 365  73.49954
 366  14.33216
 367  7.019985
 368  176.3945
 369  173.7228
 370  59.52352
 371  89.05594
 372  45.33174
 373  159.1059
 374  137.7854
 375  66.85547
 376  77.11514
 377  84.93915
 378  62.39999
 379  -16.21217
 380  55.07628
 381  81.29441
 382  93.02142
 383  135.4586
 384  79.35146
 385  104.8061
 386  -5.661225
 387  -94.62357
 388  68.32956
 389  164.7204
 390  44.70656
 391  33.6606
 392  27.74254
 393  8.822919
 394  95.70406
 395  84.6501
 396  166.606
 397  -11.03959
 398  -15.10074
 399  56.42845
 400  63.42585
 401  53.74258
 402  66.16707
 403  111.5852
 404  198.3201
 405  137.5375
 406  5.779084
 407  -106.8196
 408  -46.03327
 409  121.6766
 410  145.4702
 411  25.3979
 412  20.11947
 413  16.60223
 414  93.10271
 415  150.1147
 416  161.7578
 417  264.0764
 418  206.1267
 419  164.1653
 420  105.704
 421  120.4365
 422  84.77895
 423  -11.51446
 424  12.31737
 425  -51.93502
 426  67.39874
 427  112.8575
 428  1.220679
 429  -5.724446
 430  2.342211
 431  88.81984
 432  128.2304
 433  169.2449
 434  172.2408
 435  144.5844
 436  276.7536
 437  233.8073
 438  331.5054
 439  250.5507
 440  137.0005
 441  219.9881
 442  92.69819
 443  138.2873
 444  103.9097
 445  -9.964802
 446  64.7693
 447  76.47499
 448  137.3112
 449  275.2371
 450  163.8193
 451  129.9974
 452  220.1513
 453  111.2525
 454  96.90991
 455  108.4248
 456  187.959
 457  204.1012
 458  161.9483
 459  66.77528
 460  123.7272
 461  149.6401
 462  92.56207
 463  139.0028
 464  239.8534
 465  153.9668
 466  75.48608
 467  75.27057
 468  167.4752
 469  39.24595
 470  64.25021
 471  40.59389
 472  77.9492
 473  5.245754
 474  132.0855
 475  17.76787
 476  48.28468
 477  174.5538
 478  163.3562
 479  22.67867
 480  75.17555
 481  111.1713
 482  -15.97275
 483  48.27511
 484  142.5901
 485  281.7386
 486  310.2508
 487  260.507
 488  131.0353
 489  136.6793
 490  270.1762
 491  175.2851
 492  -8.065365
 493  45.72457
 494  102.9007
 495  168.882
 496  233.1924
 497  49.45671
 498  56.40318
 499  109.7193
 500  201.2743
 501  278.5771
 502  226.8831
 503  264.7492
 504  175.6977
 505  71.80061
 506  142.4191
 507  225.8146
 508  253.1027
 509  137.0584
 510  8.098671
 511  111.3492
