# Input file       =  1186971524.099253_cleaned.dat
# Candidate        =  PSR_0332+5434
# Telescope        =  AR
# Epoch_topo       =  57982.096563648760
# Epoch_bary       =  N/A
# T_sample         =  0.002
# Data Folded      =  7340032
# Data Avg         =  0.00738725368345125
# Data StdDev      =  2.2180781017105  
# Profile Bins     =  512
# Profile Avg      =  106.446578378609 
# Profile StdDev   =  265.577226038612 
# Reduced chi-sqr  =  1.021
# Prob(Noise)      <  0.361   (~0.4 sigma)
# P_topo (ms)      =  714.464427032597  +/- 0.000165
# P'_topo (s/s)    =  -0                +/- 8.7e-11
# P''_topo (s/s^2) =  0                 +/- 3.84e-14
# P_bary (ms)      =  N/A
# P'_bary (s/s)    =  N/A
# P''_bary (s/s^2) =  N/A
# P_orb (s)        =  N/A
# asin(i)/c (s)    =  N/A
# eccentricity     =  N/A
# w (rad)          =  N/A
# T_peri           =  N/A
######################################################
   0  116.2339
   1  44.90902
   2  187.6176
   3  -18.15435
   4  -24.24024
   5  -51.91481
   6  -23.78362
   7  -2.874853
   8  27.69069
   9  10.92602
  10  119.8427
  11  57.07508
  12  162.1875
  13  -9.306722
  14  330.8204
  15  320.3073
  16  265.1407
  17  135.8232
  18  105.5105
  19  140.3243
  20  71.83909
  21  186.9921
  22  133.7945
  23  152.7094
  24  -54.74213
  25  122.2625
  26  464.3685
  27  134.827
  28  347.0479
  29  343.6974
  30  101.3182
  31  198.8836
  32  -36.75672
  33  101.8316
  34  155.832
  35  159.9399
  36  363.4853
  37  69.40934
  38  109.525
  39  235.7236
  40  162.9478
  41  46.94691
  42  161.5246
  43  315.084
  44  281.5158
  45  155.6947
  46  171.2485
  47  129.1305
  48  187.6997
  49  136.6442
  50  248.4027
  51  134.6677
  52  -64.42011
  53  -8.502954
  54  310.5843
  55  145.5128
  56  -160.9784
  57  -77.44845
  58  148.5788
  59  256.2009
  60  178.877
  61  353.7958
  62  176.831
  63  120.0447
  64  379.9727
  65  358.3042
  66  141.8906
  67  -179.696
  68  -293.5213
  69  -26.34274
  70  5.025586
  71  -93.27216
  72  -230.0775
  73  -141.3047
  74  37.86906
  75  148.659
  76  243.2103
  77  -44.14257
  78  88.51299
  79  4.985332
  80  -58.14591
  81  276.2646
  82  296.8319
  83  240.0082
  84  334.082
  85  234.1564
  86  -234.8938
  87  189.4221
  88  253.5467
  89  237.4773
  90  261.216
  91  149.1955
  92  220.201
  93  127.1393
  94  67.38748
  95  308.3058
  96  505.2495
  97  638.3799
  98  335.1401
  99  32.92186
 100  293.5273
 101  294.3006
 102  221.2645
 103  62.03411
 104  4.637263
 105  34.98153
 106  -61.58796
 107  54.87241
 108  172.1412
 109  79.00768
 110  155.944
 111  280.972
 112  224.8539
 113  -43.93604
 114  35.12127
 115  31.87709
 116  161.6232
 117  308.5736
 118  225.0548
 119  96.28689
 120  -28.61601
 121  294.7438
 122  -63.55909
 123  85.83463
 124  178.4186
 125  -87.8428
 126  129.4002
 127  -148.53
 128  12.581
 129  224.5501
 130  90.5588
 131  176.154
 132  363.9982
 133  275.9116
 134  103.2647
 135  -36.65046
 136  110.4281
 137  67.16272
 138  -197.8829
 139  -112.817
 140  -182.7995
 141  -261.8171
 142  22.26188
 143  -100.0245
 144  122.705
 145  599.8578
 146  768.0937
 147  599.8564
 148  5.292321
 149  -38.59873
 150  -255.8892
 151  -4.786344
 152  184.2346
 153  -204.7396
 154  -78.81013
 155  56.33069
 156  -92.1001
 157  135.4541
 158  -15.12853
 159  -66.72437
 160  197.9772
 161  387.347
 162  175.4218
 163  121.6194
 164  -22.59954
 165  191.9484
 166  70.05392
 167  203.611
 168  114.4113
 169  284.4522
 170  469.4854
 171  460.0511
 172  111.7973
 173  3.029098
 174  26.73775
 175  387.7495
 176  282.9212
 177  88.94211
 178  159.0829
 179  267.6776
 180  217.8339
 181  -5.724006
 182  308.5507
 183  359.0576
 184  31.1612
 185  121.9605
 186  325.6332
 187  377.4013
 188  133.6594
 189  14.96533
 190  177.578
 191  326.641
 192  233.3374
 193  -66.5287
 194  -46.1229
 195  106.1311
 196  110.1871
 197  139.4687
 198  93.95273
 199  234.3684
 200  188.0913
 201  -46.89178
 202  48.67651
 203  58.33836
 204  -169.4961
 205  -32.79645
 206  -81.56503
 207  170.7361
 208  80.62362
 209  -91.1339
 210  70.01273
 211  346.2308
 212  132.7787
 213  21.49668
 214  222.4409
 215  -6.517147
 216  60.34802
 217  262.3589
 218  369.2045
 219  43.68577
 220  -125.1927
 221  184.2723
 222  68.21248
 223  -34.95794
 224  151.3763
 225  140.377
 226  349.6916
 227  165.3052
 228  -102.8362
 229  51.7118
 230  202.0258
 231  162.4948
 232  301.7157
 233  308.0578
 234  45.46695
 235  -236.7155
 236  -29.48645
 237  146.6596
 238  -135.288
 239  -28.67571
 240  297.1719
 241  240.5099
 242  -41.67449
 243  132.5942
 244  52.37793
 245  -196.0687
 246  -97.01541
 247  -92.18924
 248  -240.7251
 249  13.02818
 250  -122.6308
 251  241.531
 252  435.0709
 253  221.0968
 254  138.6438
 255  226.1554
 256  160.8821
 257  -50.41164
 258  -180.2825
 259  181.5522
 260  74.96087
 261  -219.7121
 262  80.89543
 263  131.0226
 264  157.9714
 265  309.3348
 266  162.1401
 267  57.05561
 268  13.08961
 269  -139.2848
 270  -269.5298
 271  -145.3892
 272  174.0793
 273  63.24965
 274  -77.56927
 275  31.26147
 276  -47.94839
 277  89.14027
 278  492.9811
 279  345.2459
 280  113.0665
 281  5.017637
 282  -35.408
 283  145.4106
 284  201.1871
 285  206.1691
 286  179.0145
 287  309.9159
 288  -100.826
 289  -139.9145
 290  279.5164
 291  63.39273
 292  85.31988
 293  335.531
 294  107.8428
 295  -160.9059
 296  29.56888
 297  44.03608
 298  196.9291
 299  -43.06983
 300  -205.768
 301  -69.75437
 302  128.9948
 303  154.9575
 304  270.0252
 305  333.9568
 306  129.4
 307  -98.84778
 308  173.8713
 309  276.032
 310  55.66002
 311  193.7211
 312  456.6804
 313  176.023
 314  65.88029
 315  167.7088
 316  69.13163
 317  138.0701
 318  103.5524
 319  39.45292
 320  -12.7297
 321  -54.64008
 322  56.45601
 323  197.5117
 324  434.9899
 325  514.2221
 326  484.0341
 327  339.2903
 328  171.6232
 329  438.9053
 330  903.5583
 331  989.3992
 332  1205.982
 333  1164.712
 334  745.8855
 335  331.6539
 336  177.2248
 337  -109.6639
 338  21.27583
 339  -0.09227793
 340  55.99218
 341  83.23398
 342  95.65931
 343  149.1341
 344  112.4776
 345  193.268
 346  178.2906
 347  89.79237
 348  39.91731
 349  -129.8376
 350  -184.2206
 351  -156.7815
 352  15.12391
 353  94.58595
 354  267.6357
 355  293.4681
 356  -244.246
 357  -231.1887
 358  -75.50434
 359  -68.84248
 360  16.68073
 361  -55.00196
 362  67.19228
 363  -11.13881
 364  -21.21236
 365  -52.37366
 366  173.5708
 367  436.7982
 368  -25.93118
 369  104.2837
 370  68.0542
 371  55.66378
 372  -37.1106
 373  100.4017
 374  107.3546
 375  281.5236
 376  292.1469
 377  156.9767
 378  -65.98901
 379  -173.1904
 380  -254.8381
 381  137.7904
 382  180.1402
 383  9.042849
 384  22.94253
 385  -16.59141
 386  251.1092
 387  391.5648
 388  -148.5418
 389  -83.04138
 390  -297.5493
 391  -372.0025
 392  -32.95347
 393  -73.98721
 394  -74.73055
 395  -174.7768
 396  74.04764
 397  401.1145
 398  205.3169
 399  -253.6624
 400  -72.63838
 401  -87.7434
 402  96.98027
 403  181.8492
 404  245.2681
 405  373.6382
 406  -144.7346
 407  32.46756
 408  145.6046
 409  -14.84896
 410  -117.4878
 411  -200.4867
 412  26.74802
 413  -183.7096
 414  -290.9425
 415  -36.33585
 416  -127.0823
 417  -263.3617
 418  89.44348
 419  256.2459
 420  202.0087
 421  141.0727
 422  152.3867
 423  -12.54993
 424  -80.59972
 425  44.25036
 426  -35.98032
 427  142.1071
 428  140.2947
 429  -61.45921
 430  60.12697
 431  273.2864
 432  116.089
 433  2.089025
 434  7.430419
 435  189.4025
 436  195.1831
 437  63.34029
 438  -77.24071
 439  152.312
 440  202.832
 441  187.589
 442  255.7512
 443  208.5095
 444  207.5627
 445  -118.0159
 446  58.93065
 447  135.1131
 448  112.4539
 449  178.7729
 450  311.423
 451  108.6072
 452  -127.0319
 453  -35.62627
 454  -75.73645
 455  -267.5787
 456  -117.1409
 457  -165.3578
 458  206.561
 459  172.0549
 460  329.5863
 461  455.6541
 462  96.92824
 463  -8.281364
 464  -151.4635
 465  -198.6727
 466  -167.2436
 467  -48.09368
 468  78.83721
 469  178.2136
 470  125.2661
 471  -20.9874
 472  232.4434
 473  216.0923
 474  11.91898
 475  -119.3021
 476  48.78134
 477  267.613
 478  -184.8209
 479  -72.81228
 480  130.805
 481  132.8934
 482  269.396
 483  303.6477
 484  83.56733
 485  -143.9395
 486  19.74939
 487  241.1424
 488  13.81944
 489  -207.1819
 490  51.82609
 491  222.5978
 492  277.0996
 493  312.7351
 494  208.7539
 495  -49.9396
 496  90.27641
 497  388.9585
 498  369.7825
 499  396.8735
 500  229.9781
 501  140.3429
 502  -65.25085
 503  84.25652
 504  -49.82138
 505  -279.6939
 506  109.6967
 507  202.9345
 508  185.8656
 509  419.0129
 510  195.8194
 511  65.03207
