# Input file       =  1186297159.116241_cleaned.dat
# Candidate        =  PSR_0332+5434
# Telescope        =  AR
# Epoch_topo       =  57974.291413382416
# Epoch_bary       =  N/A
# T_sample         =  0.002
# Data Folded      =  7340032
# Data Avg         =  0.0336349993969115
# Data StdDev      =  2.93227442034074 
# Profile Bins     =  512
# Profile Avg      =  482.22971101906  
# Profile StdDev   =  351.090119837319 
# Reduced chi-sqr  =  1.188
# Prob(Noise)      <  0.00217   (~2.9 sigma)
# P_topo (ms)      =  714.46674756521   +/- 0.00015
# P'_topo (s/s)    =  -0                +/- 7.92e-11
# P''_topo (s/s^2) =  0                 +/- 3.5e-14
# P_bary (ms)      =  N/A
# P'_bary (s/s)    =  N/A
# P''_bary (s/s^2) =  N/A
# P_orb (s)        =  N/A
# asin(i)/c (s)    =  N/A
# eccentricity     =  N/A
# w (rad)          =  N/A
# T_peri           =  N/A
######################################################
   0  846.0535
   1  663.8035
   2  636.096
   3  270.6861
   4  171.1946
   5  176.437
   6  455.6323
   7  492.632
   8  370.2144
   9  0.9953278
  10  165.9119
  11  155.335
  12  261.0085
  13  438.002
  14  373.9261
  15  471.1508
  16  506.1111
  17  500.7813
  18  631.4734
  19  676.981
  20  413.4769
  21  581.1818
  22  808.351
  23  756.4078
  24  727.7251
  25  369.4444
  26  351.3105
  27  160.9032
  28  525.9752
  29  258.4013
  30  189.6238
  31  194.7716
  32  312.7661
  33  377.8799
  34  186.9935
  35  97.82714
  36  197.7252
  37  315.8838
  38  361.2763
  39  52.60587
  40  309.2828
  41  244.1923
  42  169.4883
  43  188.6092
  44  218.8104
  45  278.5062
  46  389.6231
  47  178.8412
  48  636.29
  49  477.4576
  50  166.5471
  51  138.1916
  52  273.7285
  53  603.1837
  54  449.5134
  55  -25.50107
  56  117.7873
  57  230.3701
  58  119.354
  59  147.7444
  60  363.658
  61  278.2588
  62  138.9821
  63  464.4853
  64  482.1132
  65  563.2141
  66  707.8298
  67  625.7258
  68  566.3817
  69  288.6425
  70  608.3005
  71  874.9874
  72  860.3771
  73  676.4868
  74  660.0493
  75  342.9713
  76  570.3079
  77  540.9498
  78  373.9532
  79  427.0203
  80  40.95584
  81  330.7248
  82  377.1003
  83  62.39675
  84  -107.5394
  85  244.362
  86  569.474
  87  916.2366
  88  714.406
  89  511.2177
  90  85.4914
  91  -540.6744
  92  -64.12695
  93  138.9537
  94  -18.43725
  95  363.0354
  96  495.8511
  97  346.9941
  98  218.2681
  99  358.0358
 100  505.9323
 101  197.935
 102  525.889
 103  844.0107
 104  699.8806
 105  528.8249
 106  534.8774
 107  586.6347
 108  850.605
 109  1067.664
 110  694.6489
 111  722.8741
 112  499.2489
 113  290.1782
 114  444.6349
 115  396.0128
 116  374.098
 117  331.8248
 118  435.2496
 119  485.407
 120  681.1104
 121  810.1981
 122  761.4835
 123  118.8286
 124  205.628
 125  363.4327
 126  190.5943
 127  92.0085
 128  349.3966
 129  497.2608
 130  470.7812
 131  714.9018
 132  861.83
 133  608.2858
 134  867.2397
 135  521.5093
 136  472.2411
 137  406.2747
 138  637.0093
 139  990.9401
 140  478.004
 141  546.9216
 142  525.0796
 143  630.5709
 144  563.3222
 145  47.23928
 146  585.1536
 147  773.3918
 148  348.7845
 149  897.938
 150  702.0833
 151  332.2145
 152  371.6649
 153  380.018
 154  543.113
 155  259.5791
 156  428.1383
 157  457.5573
 158  615.7807
 159  832.4004
 160  460.9027
 161  525.0065
 162  386.9487
 163  482.4908
 164  492.8187
 165  700.0962
 166  433.4174
 167  413.7431
 168  598.554
 169  543.5594
 170  216.6629
 171  458.9597
 172  584.9315
 173  545.7456
 174  523.6683
 175  768.881
 176  631.3764
 177  597.5402
 178  1151.034
 179  1011.516
 180  879.9269
 181  561.2512
 182  946.3032
 183  622.0667
 184  130.6488
 185  455.9806
 186  782.9575
 187  1011.287
 188  851.8601
 189  764.5388
 190  466.7051
 191  425.5002
 192  361.6783
 193  388.3676
 194  750.9434
 195  583.9052
 196  262.0975
 197  172.859
 198  474.6172
 199  1014.096
 200  416.3892
 201  265.0517
 202  79.99059
 203  664.8331
 204  969.4302
 205  780.3435
 206  575.6637
 207  162.3777
 208  114.0175
 209  300.6331
 210  607.3902
 211  809.7272
 212  664.764
 213  332.6724
 214  324.8088
 215  297.9165
 216  448.1028
 217  679.4438
 218  841.8621
 219  1066.139
 220  601.6329
 221  100.2394
 222  252.8683
 223  684.7848
 224  444.3199
 225  532.1945
 226  471.8787
 227  373.2782
 228  497.587
 229  876.5413
 230  846.4506
 231  1066.524
 232  627.8686
 233  628.5803
 234  794.5287
 235  957.9562
 236  637.7112
 237  556.9587
 238  696.7086
 239  521.9526
 240  725.9113
 241  928.8204
 242  847.5309
 243  470.7856
 244  308.1141
 245  507.8616
 246  753.4907
 247  538.0118
 248  539.511
 249  355.8623
 250  362.5083
 251  642.6347
 252  938.5508
 253  816.3005
 254  792.3464
 255  533.1422
 256  400.2055
 257  502.7349
 258  270.7636
 259  300.5668
 260  996.5751
 261  612.6631
 262  428.0222
 263  579.1481
 264  586.6731
 265  535.7562
 266  420.0119
 267  424.5942
 268  544.4089
 269  869.4
 270  506.1915
 271  521.8392
 272  576.4346
 273  570.2004
 274  946.1794
 275  446.2723
 276  460.2073
 277  430.9188
 278  465.5449
 279  263.6509
 280  359.7605
 281  431.5618
 282  540.5425
 283  415.5405
 284  445.6616
 285  343.9022
 286  408.2221
 287  719.0275
 288  716.9713
 289  664.7163
 290  782.0438
 291  481.9964
 292  406.7994
 293  561.1555
 294  502.0185
 295  660.0618
 296  580.7922
 297  642.8062
 298  767.1456
 299  1034.882
 300  454.3372
 301  263.1797
 302  281.256
 303  432.8804
 304  369.8011
 305  476.088
 306  874.8071
 307  974.7403
 308  813.3072
 309  521.4896
 310  -75.39561
 311  406.0476
 312  718.5057
 313  488.4416
 314  4.175087
 315  281.8292
 316  377.5049
 317  744.4661
 318  935.2701
 319  528.4436
 320  568.2394
 321  624.7987
 322  398.4095
 323  210.0782
 324  447.9034
 325  912.2574
 326  820.1702
 327  252.813
 328  208.1795
 329  287.0529
 330  37.33846
 331  144.685
 332  475.4942
 333  788.2715
 334  823.5331
 335  292.3125
 336  527.4809
 337  192.7062
 338  231.3967
 339  391.587
 340  452.5723
 341  745.1806
 342  764.5847
 343  396.6916
 344  22.3225
 345  -157.247
 346  264.848
 347  296.7426
 348  371.6693
 349  387.7587
 350  266.5816
 351  144.026
 352  236.5914
 353  212.7049
 354  110.8707
 355  88.56337
 356  -1.987261
 357  -60.43182
 358  179.4746
 359  293.1418
 360  412.3843
 361  596.3791
 362  613.1844
 363  866.9635
 364  926.6803
 365  641.0941
 366  584.1319
 367  438.6941
 368  898.5426
 369  659.1132
 370  532.2759
 371  603.4862
 372  492.8408
 373  289.6336
 374  218.3716
 375  439.8028
 376  274.764
 377  435.1714
 378  181.6622
 379  492.1943
 380  440.4337
 381  237.3216
 382  108.8965
 383  159.8497
 384  176.5492
 385  78.70553
 386  862.9702
 387  618.3654
 388  602.6133
 389  650.0609
 390  388.7697
 391  238.7897
 392  13.26312
 393  -381.8527
 394  -117.8805
 395  -87.2177
 396  256.221
 397  815.973
 398  688.0826
 399  652.2793
 400  278.2536
 401  301.7879
 402  224.4871
 403  15.9607
 404  27.2869
 405  257.288
 406  327.5471
 407  186.2006
 408  300.8639
 409  394.177
 410  386.4984
 411  371.8619
 412  416.0385
 413  749.7259
 414  475.9286
 415  582.355
 416  668.8429
 417  688.9448
 418  690.0286
 419  833.1483
 420  889.3397
 421  306.8109
 422  82.10938
 423  460.6503
 424  98.98721
 425  147.5617
 426  420.62
 427  411.9571
 428  476.9027
 429  331.5655
 430  352.8077
 431  381.6991
 432  460.8674
 433  764.4442
 434  1272.515
 435  1563.767
 436  1503.241
 437  1628.333
 438  1863.606
 439  1710.84
 440  747.3865
 441  245.9437
 442  387.0388
 443  520.5688
 444  489.7819
 445  293.499
 446  360.0674
 447  940.3876
 448  640.9453
 449  381.4876
 450  542.256
 451  875.8086
 452  354.0423
 453  390.8222
 454  979.1954
 455  808.4209
 456  410.489
 457  569.0854
 458  528.0206
 459  431.7694
 460  744.5814
 461  666.3759
 462  699.8873
 463  760.9006
 464  781.6572
 465  834.3829
 466  290.5526
 467  307.7309
 468  281.1222
 469  242.9077
 470  347.4373
 471  502.049
 472  824.4211
 473  630.6143
 474  271.0256
 475  346.5796
 476  486.3405
 477  528.6
 478  691.7397
 479  643.4863
 480  291.2454
 481  444.4835
 482  335.248
 483  382.6961
 484  515.4186
 485  270.4102
 486  317.4428
 487  296.9948
 488  371.5679
 489  306.2632
 490  387.6292
 491  506.8219
 492  603.2698
 493  91.72105
 494  31.52116
 495  519.9189
 496  527.9389
 497  478.4366
 498  565.0823
 499  194.2506
 500  568.5616
 501  872.2202
 502  361.8954
 503  282.9588
 504  214.1136
 505  487.5778
 506  487.7014
 507  368.6851
 508  443.9435
 509  334.1576
 510  289.1402
 511  722.6756
