# Input file       =  1186109924.11468_cleaned.dat
# Candidate        =  PSR_0332+5434
# Telescope        =  AR
# Epoch_topo       =  57972.124341605093
# Epoch_bary       =  N/A
# T_sample         =  0.002
# Data Folded      =  7340032
# Data Avg         =  0.0043356963753022
# Data StdDev      =  1.0000514361775  
# Profile Bins     =  512
# Profile Avg      =  62.176523951229  
# Profile StdDev   =  119.739194986478 
# Reduced chi-sqr  =  1.182
# Prob(Noise)      <  0.00285   (~2.8 sigma)
# P_topo (ms)      =  714.467122568855  +/- 0.000101
# P'_topo (s/s)    =  -0                +/- 5.31e-11
# P''_topo (s/s^2) =  0                 +/- 2.35e-14
# P_bary (ms)      =  N/A
# P'_bary (s/s)    =  N/A
# P''_bary (s/s^2) =  N/A
# P_orb (s)        =  N/A
# asin(i)/c (s)    =  N/A
# eccentricity     =  N/A
# w (rad)          =  N/A
# T_peri           =  N/A
######################################################
   0  120.3513
   1  35.10538
   2  63.52992
   3  -71.22013
   4  -10.88278
   5  144.6913
   6  170.7647
   7  5.434939
   8  -23.65286
   9  7.429767
  10  2.721569
  11  -78.81324
  12  134.8241
  13  182.4033
  14  63.23276
  15  87.92751
  16  126.5512
  17  121.1906
  18  208.2623
  19  3.844141
  20  -114.9939
  21  17.42774
  22  8.885346
  23  64.64365
  24  -36.32747
  25  28.50837
  26  126.7568
  27  211.4344
  28  62.84462
  29  83.89005
  30  163.5441
  31  232.1731
  32  203.1103
  33  -20.62499
  34  0.2923393
  35  21.69114
  36  34.69968
  37  71.42078
  38  161.6558
  39  109.5615
  40  26.57207
  41  44.83678
  42  142.3748
  43  194.6875
  44  167.4362
  45  109.4911
  46  86.31133
  47  26.33132
  48  212.5259
  49  72.30355
  50  107.1726
  51  79.65361
  52  97.2066
  53  57.66395
  54  14.04083
  55  -39.63969
  56  54.73829
  57  60.79922
  58  99.95709
  59  -4.272604
  60  33.51501
  61  -117.1954
  62  45.64205
  63  107.7332
  64  51.78503
  65  216.2551
  66  109.048
  67  54.68181
  68  136.9366
  69  -84.21069
  70  -148.0206
  71  1.146752
  72  138.0476
  73  85.69521
  74  -24.9651
  75  75.55965
  76  -8.609816
  77  -47.03879
  78  -32.34071
  79  5.567557
  80  -3.783987
  81  -25.89525
  82  50.09049
  83  8.717722
  84  7.710581
  85  -182.2289
  86  -38.23939
  87  62.57043
  88  -21.11666
  89  -28.7895
  90  94.60268
  91  153.4116
  92  231.0159
  93  30.57019
  94  -32.88175
  95  85.31367
  96  118.6569
  97  -14.68759
  98  -150.723
  99  -33.48266
 100  42.79919
 101  33.09616
 102  60.37772
 103  -48.35767
 104  58.71441
 105  7.232371
 106  80.55082
 107  155.1854
 108  177.5402
 109  101.5803
 110  20.72647
 111  9.759507
 112  75.76329
 113  115.4074
 114  84.17714
 115  143.0443
 116  167.3806
 117  90.15861
 118  -62.78741
 119  -72.74468
 120  101.7184
 121  184.3287
 122  51.81255
 123  -1.20414
 124  170.2147
 125  129.5257
 126  -17.18051
 127  -17.39585
 128  86.6778
 129  213.7832
 130  90.12708
 131  83.5609
 132  -0.1295277
 133  62.23838
 134  66.49277
 135  60.70775
 136  106.7689
 137  203.2915
 138  28.42595
 139  -127.4801
 140  26.14282
 141  13.82443
 142  211.9427
 143  230.503
 144  -29.14543
 145  -133.2598
 146  26.77283
 147  63.12281
 148  77.90337
 149  97.51374
 150  107.9845
 151  -90.29547
 152  -120.6068
 153  1.374484
 154  71.81281
 155  241.2091
 156  214.7713
 157  3.180088
 158  29.84965
 159  103.5912
 160  162.6411
 161  117.7428
 162  160.1647
 163  239.0933
 164  396.1523
 165  463.6318
 166  565.8788
 167  524.3871
 168  434.6474
 169  330.4327
 170  240.6131
 171  9.864234
 172  85.25043
 173  61.5023
 174  -58.45549
 175  -137.7665
 176  -146.8574
 177  -14.03187
 178  142.1669
 179  97.35545
 180  202.0552
 181  52.9771
 182  51.34923
 183  63.33943
 184  -28.33419
 185  39.63515
 186  -60.39553
 187  -40.65374
 188  87.21122
 189  159.4008
 190  -1.837151
 191  -89.42996
 192  103.8288
 193  -6.329394
 194  -58.71866
 195  55.00016
 196  67.76738
 197  44.27704
 198  -44.37725
 199  46.24337
 200  -0.7628161
 201  -37.43347
 202  19.84956
 203  -36.62803
 204  -41.06583
 205  -80.70947
 206  31.14529
 207  120.022
 208  1.153249
 209  -89.86121
 210  26.56049
 211  79.4537
 212  41.27129
 213  36.55212
 214  -81.71175
 215  3.176636
 216  95.33548
 217  104.5097
 218  -61.29989
 219  33.38283
 220  53.09711
 221  111.9828
 222  66.5721
 223  1.417888
 224  31.0881
 225  -63.42419
 226  -12.13876
 227  62.54667
 228  74.54737
 229  -76.60224
 230  31.7124
 231  168.1155
 232  -9.075982
 233  -95.31666
 234  178.4657
 235  90.38466
 236  -6.068694
 237  -28.63028
 238  -54.94324
 239  72.6031
 240  40.05144
 241  164.6265
 242  110.3633
 243  162.28
 244  97.20985
 245  -47.91517
 246  42.25201
 247  8.331902
 248  68.84736
 249  64.84869
 250  53.77267
 251  78.87036
 252  194.4192
 253  170.0674
 254  104.839
 255  3.243115
 256  138.2373
 257  152.2348
 258  100.9536
 259  19.11709
 260  22.0185
 261  56.13701
 262  34.23908
 263  20.41599
 264  -81.9772
 265  67.4697
 266  75.00719
 267  29.29449
 268  16.33971
 269  71.13133
 270  33.65062
 271  13.81289
 272  59.4211
 273  101.5638
 274  32.94155
 275  129.8545
 276  101.935
 277  90.87802
 278  154.1732
 279  270.3194
 280  196.1824
 281  130.2182
 282  137.3509
 283  -89.07105
 284  4.027392
 285  124.2676
 286  97.92968
 287  58.0158
 288  96.86923
 289  84.82565
 290  134.7448
 291  2.690661
 292  40.22169
 293  -25.34418
 294  117.1389
 295  66.25142
 296  39.29919
 297  45.24551
 298  6.406194
 299  42.13269
 300  76.25468
 301  108.6658
 302  160.3549
 303  193.6901
 304  50.19152
 305  34.19991
 306  21.53853
 307  -30.02597
 308  52.83575
 309  3.727651
 310  12.54877
 311  1.55926
 312  42.23733
 313  16.07268
 314  71.30328
 315  7.017733
 316  59.37533
 317  72.64611
 318  120.9698
 319  253.1535
 320  140.0214
 321  72.5251
 322  65.10776
 323  -26.91549
 324  -1.490764
 325  -72.48032
 326  -124.5631
 327  -188.4948
 328  -136.0318
 329  18.68625
 330  109.6778
 331  15.22217
 332  -99.11477
 333  -126.0032
 334  -76.51363
 335  126.9054
 336  67.01897
 337  -74.76871
 338  0.2430679
 339  80.61069
 340  75.41796
 341  40.87244
 342  89.56191
 343  33.75883
 344  105.2203
 345  159.9487
 346  107.8406
 347  80.77995
 348  55.88832
 349  51.03625
 350  -105.6053
 351  13.4518
 352  11.98288
 353  -52.78364
 354  -17.65422
 355  95.38015
 356  173.1057
 357  90.1414
 358  109.6138
 359  191.0783
 360  130.0869
 361  31.09837
 362  101.8825
 363  133.7829
 364  273.8916
 365  227.6427
 366  115.4334
 367  74.7212
 368  -9.227974
 369  30.08776
 370  26.28688
 371  86.77788
 372  157.5336
 373  121.9955
 374  -73.9825
 375  -113.2453
 376  82.50656
 377  162.4473
 378  60.33508
 379  20.73267
 380  34.4129
 381  69.41139
 382  88.97527
 383  10.76181
 384  2.934667
 385  -47.31505
 386  112.6124
 387  156.0653
 388  41.78779
 389  -54.94611
 390  -8.574634
 391  -31.44433
 392  15.43694
 393  -64.45769
 394  -133.9931
 395  -126.5459
 396  -107.8943
 397  145.6484
 398  185.0147
 399  -2.759854
 400  84.35632
 401  151.7688
 402  -44.27005
 403  48.97633
 404  68.86224
 405  -87.67885
 406  -56.88988
 407  -18.4345
 408  -92.97058
 409  -61.6291
 410  29.1697
 411  195.045
 412  11.77284
 413  51.16821
 414  153.2769
 415  116.2162
 416  147.3907
 417  81.40237
 418  -0.6461375
 419  92.05184
 420  42.64037
 421  -82.34604
 422  -38.22425
 423  15.3427
 424  163.9808
 425  237.2374
 426  51.23516
 427  87.34454
 428  97.9125
 429  127.7898
 430  39.22052
 431  37.83254
 432  95.73481
 433  151.932
 434  256.3092
 435  104.0803
 436  57.81999
 437  98.92937
 438  66.66827
 439  5.010933
 440  73.49495
 441  112.0519
 442  24.44223
 443  -29.77059
 444  149.4559
 445  203.7678
 446  106.0393
 447  158.5654
 448  116.1191
 449  108.1692
 450  134.072
 451  220.8506
 452  172.7892
 453  55.01171
 454  220.5319
 455  48.92115
 456  -16.14973
 457  16.60504
 458  196.2989
 459  233.0773
 460  149.2576
 461  59.92005
 462  9.18013
 463  63.94178
 464  100.2397
 465  39.40546
 466  74.18961
 467  0.7382573
 468  0.4086639
 469  119.0214
 470  141.0921
 471  125.5969
 472  75.78056
 473  50.89897
 474  -25.04822
 475  29.79533
 476  22.51198
 477  150.5712
 478  87.7536
 479  78.83614
 480  208.1102
 481  90.28192
 482  47.32786
 483  53.05536
 484  125.6347
 485  78.02175
 486  -28.91621
 487  71.598
 488  163.4792
 489  65.20522
 490  168.8104
 491  187.4369
 492  129.0414
 493  -26.39216
 494  42.24839
 495  181.9794
 496  244.3932
 497  144.9981
 498  37.5344
 499  90.20187
 500  -7.540268
 501  20.88694
 502  82.71349
 503  56.03026
 504  105.0023
 505  32.48714
 506  138.5479
 507  69.26212
 508  42.03225
 509  20.14957
 510  46.89208
 511  157.1333
