# Input file       =  1186009154.1103_cleaned.dat
# Candidate        =  PSR_0332+5434
# Telescope        =  AR
# Epoch_topo       =  57970.958022109953
# Epoch_bary       =  N/A
# T_sample         =  0.002
# Data Folded      =  7208960
# Data Avg         =  0.175825890680691
# Data StdDev      =  4.90660579483301 
# Profile Bins     =  256
# Profile Avg      =  4951.42354075563 
# Profile StdDev   =  823.374651536609 
# Reduced chi-sqr  =  0.476
# Prob(Noise)      <  1   (~0.0 sigma)
# P_topo (ms)      =  714.467518078488  +/- 0.00147
# P'_topo (s/s)    =  -0                +/- 7.88e-10
# P''_topo (s/s^2) =  0                 +/- 3.54e-13
# P_bary (ms)      =  N/A
# P'_bary (s/s)    =  N/A
# P''_bary (s/s^2) =  N/A
# P_orb (s)        =  N/A
# asin(i)/c (s)    =  N/A
# eccentricity     =  N/A
# w (rad)          =  N/A
# T_peri           =  N/A
######################################################
   0  5120.517
   1  5610.35
   2  4544.048
   3  3910.697
   4  4378.162
   5  4492.939
   6  5398.231
   7  4478.367
   8  3475.147
   9  3981.431
  10  4659.496
  11  4712.493
  12  5317.529
  13  5302.333
  14  5449.96
  15  5033.195
  16  4979.265
  17  5055.136
  18  4770.308
  19  4377.355
  20  5176.093
  21  5414.124
  22  5150.194
  23  5130.345
  24  4798.066
  25  4668.098
  26  4677.184
  27  5168.211
  28  5603.104
  29  4877.427
  30  5798.803
  31  4775.202
  32  4920.353
  33  4959.768
  34  4719.005
  35  5004.923
  36  4688.664
  37  4727.819
  38  4580.997
  39  5502.118
  40  5568.816
  41  5256.031
  42  5274.74
  43  4966.104
  44  5217.795
  45  5477.124
  46  5249.633
  47  4796.541
  48  4454.463
  49  5402.948
  50  5917.726
  51  5320.14
  52  4780.036
  53  4791.042
  54  5520.666
  55  4958.283
  56  5120.145
  57  4994.646
  58  4860.891
  59  4949.591
  60  4888.727
  61  4931.531
  62  4844.91
  63  5225.865
  64  4605.149
  65  4737.128
  66  4545.691
  67  4385.128
  68  4897.563
  69  5323.386
  70  5374.236
  71  5518.684
  72  5392.293
  73  4955.157
  74  4620.996
  75  5275.442
  76  5517.97
  77  4652.837
  78  5190.755
  79  4721.177
  80  5186.019
  81  4767.16
  82  3929.026
  83  4480.835
  84  5029.15
  85  5463.907
  86  5549.335
  87  5518.253
  88  5000.188
  89  4428.271
  90  5821.43
  91  5628.582
  92  5488.394
  93  5105.012
  94  5405.198
  95  4709.228
  96  4915.192
  97  5461.685
  98  4954.916
  99  4401.703
 100  4867.273
 101  5371.539
 102  4970.837
 103  3855.563
 104  4449.91
 105  5218.886
 106  4648.041
 107  4781.333
 108  4279.658
 109  5065.459
 110  4899.826
 111  4749.436
 112  4489.062
 113  4679.414
 114  4294.788
 115  4201.898
 116  4031.98
 117  4976.765
 118  4419.513
 119  4999.027
 120  4692.423
 121  3813.932
 122  4708.352
 123  4343.337
 124  5398.236
 125  4987.561
 126  5043.432
 127  5440.266
 128  5174.958
 129  5199.319
 130  5020.241
 131  5009.57
 132  4851.038
 133  4748.053
 134  5555.223
 135  5636.142
 136  4634.578
 137  4650.091
 138  4774.596
 139  5516.293
 140  4141.917
 141  3812.092
 142  4684.965
 143  5183.716
 144  5571.91
 145  4934.729
 146  4868.256
 147  4726.271
 148  4383.339
 149  4018.356
 150  4225.055
 151  5154.683
 152  5312.79
 153  5083.267
 154  4635.706
 155  5726.047
 156  4957.724
 157  4809.282
 158  4951.455
 159  6049.39
 160  5722.307
 161  6753.559
 162  7230.109
 163  6269.612
 164  5641.46
 165  5311.674
 166  5058.128
 167  4681.55
 168  5703.841
 169  5445.636
 170  5145.517
 171  5435.84
 172  5172.694
 173  4603.885
 174  4371.849
 175  4842.068
 176  4537.77
 177  4558.367
 178  5670.428
 179  4759.177
 180  4558.067
 181  5500.68
 182  4958.696
 183  5384.011
 184  4859.565
 185  4964.025
 186  5267.612
 187  4662.295
 188  5089.369
 189  4719.663
 190  5229.603
 191  4970.897
 192  4591.415
 193  4939.106
 194  5041.58
 195  5345.867
 196  4902.558
 197  4814.523
 198  5854.355
 199  5447.628
 200  4680.342
 201  5012.188
 202  5517.861
 203  5310.019
 204  5003.17
 205  5591.585
 206  5715.156
 207  5186.797
 208  5275.07
 209  4525.558
 210  4521.04
 211  5504.639
 212  4746.433
 213  5195.439
 214  5444.201
 215  5104.105
 216  4727.576
 217  4061.042
 218  4389.472
 219  4107.172
 220  4684.805
 221  4466.168
 222  4360.463
 223  4858.632
 224  5218.034
 225  5630.439
 226  4602.787
 227  4978.138
 228  4590.575
 229  5100.018
 230  4991.443
 231  4624.456
 232  4398.874
 233  4608.267
 234  5123.976
 235  5055.963
 236  5015.482
 237  4558.75
 238  4216.863
 239  4534.352
 240  4170.694
 241  3979.247
 242  4695.567
 243  5065.279
 244  5016.448
 245  4491.19
 246  4815.254
 247  5599.186
 248  4908.343
 249  4365.665
 250  4519.945
 251  4927.024
 252  4993.358
 253  5384.491
 254  4343.329
 255  4243.348
