# Input file       =  1186368433.119517-PSRB0329-2ms-sampling-dd.dat
# Candidate        =  PSR_0332+5434
# Telescope        =  AR
# Epoch_topo       =  57975.116343975889
# Epoch_bary       =  N/A
# T_sample         =  0.002
# Data Folded      =  7340032
# Data Avg         =  -1.3208380362816e-10
# Data StdDev      =  3.21145633455035 
# Profile Bins     =  512
# Profile Avg      =  0.0927404567336647
# Profile StdDev   =  384.517418127114 
# Reduced chi-sqr  =  1.123
# Prob(Noise)      <  0.0277   (~1.9 sigma)
# P_topo (ms)      =  714.466160785599  +/- 0.00056
# P'_topo (s/s)    =  -0                +/- 2.95e-10
# P''_topo (s/s^2) =  0                 +/- 1.3e-13
# P_bary (ms)      =  N/A
# P'_bary (s/s)    =  N/A
# P''_bary (s/s^2) =  N/A
# P_orb (s)        =  N/A
# asin(i)/c (s)    =  N/A
# eccentricity     =  N/A
# w (rad)          =  N/A
# T_peri           =  N/A
######################################################
   0  -604.0112
   1  -138.3888
   2  -134.6331
   3  -202.0199
   4  166.9025
   5  -171.2231
   6  -160.4975
   7  -34.84859
   8  -319.2606
   9  -463.8749
  10  -397.6948
  11  -35.43494
  12  -139.9221
  13  -296.9641
  14  -506.013
  15  -90.37598
  16  -112.3439
  17  -85.66897
  18  -546.004
  19  -378.3633
  20  -26.97461
  21  -90.91498
  22  -182.6939
  23  104.8662
  24  25.13518
  25  -173.8602
  26  -260.8736
  27  -286.2116
  28  -164.1995
  29  -261.757
  30  -504.3472
  31  -300.037
  32  -90.62593
  33  2.081576
  34  -436.6006
  35  -520.9341
  36  -153.8042
  37  -337.803
  38  -337.3714
  39  -569.612
  40  -266.0238
  41  -142.2507
  42  -198.0056
  43  -248.7302
  44  -297.9425
  45  -342.525
  46  -506.8723
  47  -565.9075
  48  -523.4302
  49  -550.2992
  50  -600.7578
  51  -73.80338
  52  -5.891257
  53  -402.4872
  54  -366.2233
  55  -145.1916
  56  -317.8926
  57  -401.4771
  58  -71.57305
  59  -91.16889
  60  -240.5896
  61  -288.3513
  62  -345.5322
  63  -355.8103
  64  -73.92982
  65  205.6408
  66  -288.6973
  67  -449.2204
  68  -232.1101
  69  -390.2486
  70  -58.28545
  71  -239.6582
  72  -300.5102
  73  -189.3604
  74  -165.7066
  75  -93.65752
  76  -404.9041
  77  -659.2598
  78  -506.5624
  79  -199.8439
  80  -171.4501
  81  -383.6019
  82  -164.7029
  83  -352.9636
  84  -7.708807
  85  -39.67318
  86  43.53528
  87  99.03748
  88  62.98574
  89  -398.6932
  90  -195.5359
  91  -92.21964
  92  -230.7628
  93  -97.46406
  94  -187.8684
  95  -293.861
  96  9.900213
  97  -50.57281
  98  51.24015
  99  122.5247
 100  -84.56766
 101  -361.8221
 102  -75.65985
 103  80.60112
 104  -308.7382
 105  -378.3296
 106  -6.093815
 107  89.88329
 108  -263.29
 109  -143.7707
 110  -196.162
 111  -187.7369
 112  -113.1899
 113  -120.2314
 114  190.8199
 115  49.26368
 116  269.7204
 117  177.3773
 118  -378.6482
 119  -349.7926
 120  -269.6395
 121  -84.86486
 122  141.6189
 123  179.824
 124  -321.2556
 125  -354.5966
 126  -385.1771
 127  28.63808
 128  19.26687
 129  -108.446
 130  -108.9672
 131  -433.8572
 132  -68.45972
 133  54.68276
 134  -289.4013
 135  -440.0414
 136  -273.1391
 137  -204.2971
 138  -131.0887
 139  -40.01179
 140  125.304
 141  181.7314
 142  -6.182347
 143  -499.4762
 144  -511.3163
 145  -470.1537
 146  -512.3056
 147  -516.7875
 148  -78.62178
 149  407.5674
 150  345.0795
 151  119.7571
 152  116.9247
 153  114.2735
 154  -311.1192
 155  -127.1229
 156  -246.1794
 157  14.8157
 158  -42.92094
 159  -298.7815
 160  -311.4047
 161  -220.2161
 162  -12.79685
 163  209.0126
 164  -29.7686
 165  99.61771
 166  59.21434
 167  120.9865
 168  123.5865
 169  398.9427
 170  -199.69
 171  -207.4857
 172  122.4097
 173  -50.62821
 174  -126.5715
 175  -273.7034
 176  154.1887
 177  23.34887
 178  -315.1002
 179  101.8135
 180  74.13101
 181  288.0779
 182  397.2622
 183  319.682
 184  145.3067
 185  35.02591
 186  -198.4086
 187  183.5463
 188  354.0161
 189  477.1071
 190  630.7748
 191  294.4084
 192  -110.485
 193  -137.1261
 194  -339.5777
 195  -116.3242
 196  -23.09005
 197  186.0624
 198  236.1288
 199  -85.7518
 200  -195.8161
 201  -390.427
 202  -117.1693
 203  -208.7339
 204  35.16216
 205  207.7836
 206  30.52403
 207  239.8488
 208  463.0244
 209  310.5841
 210  162.8516
 211  264.5699
 212  410.3884
 213  254.794
 214  -174.5934
 215  87.21398
 216  -196.9593
 217  -34.18186
 218  -110.8027
 219  -242.855
 220  -395.4845
 221  -84.93451
 222  -111.8579
 223  28.96231
 224  -151.7925
 225  -151.2689
 226  -155.8545
 227  10.58593
 228  -75.90273
 229  79.28095
 230  -137.9388
 231  7.292371
 232  165.1341
 233  49.11968
 234  -3.820321
 235  -323.5502
 236  -185.3139
 237  -10.28451
 238  28.19343
 239  -110.2686
 240  -71.54404
 241  112.7543
 242  38.89465
 243  55.53619
 244  394.1272
 245  300.9363
 246  465.4728
 247  82.50251
 248  -61.77243
 249  -158.8885
 250  135.6228
 251  108.7581
 252  211.5728
 253  213.5543
 254  273.9206
 255  -157.4164
 256  -162.6138
 257  152.0963
 258  -60.25868
 259  250.7345
 260  585.5239
 261  826.348
 262  1464.201
 263  1786.088
 264  1590.42
 265  1424.257
 266  1377.745
 267  919.4752
 268  480.9014
 269  -8.604392
 270  113.1076
 271  28.80487
 272  166.696
 273  -27.09414
 274  -9.891928
 275  90.56418
 276  153.567
 277  302.3557
 278  511.1708
 279  178.5115
 280  34.83819
 281  51.62024
 282  140.4695
 283  172.9458
 284  431.3271
 285  314.8286
 286  197.0919
 287  -74.53366
 288  257.53
 289  43.26791
 290  -33.93508
 291  -21.55719
 292  -72.69244
 293  -223.062
 294  -6.377102
 295  -0.7296056
 296  249.8965
 297  185.6691
 298  228.7507
 299  269.7292
 300  -180.9915
 301  -31.76854
 302  -55.55711
 303  -138.183
 304  97.58748
 305  412.6585
 306  326.5463
 307  389.3096
 308  547.5129
 309  363.1155
 310  118.8427
 311  57.27499
 312  206.1138
 313  329.2571
 314  200.9967
 315  224.1632
 316  24.44824
 317  -11.45542
 318  204.1829
 319  264.4538
 320  248.8116
 321  138.7852
 322  87.48862
 323  252.6277
 324  184.27
 325  -70.25687
 326  193.0444
 327  289.8885
 328  165.633
 329  -100.983
 330  -109.4311
 331  -168.2001
 332  -6.789709
 333  -288.4068
 334  -258.4541
 335  -100.9153
 336  225.7329
 337  350.1635
 338  311.9959
 339  390.2835
 340  247.078
 341  -118.1218
 342  -110.9707
 343  -55.801
 344  288.1433
 345  342.9706
 346  197.1431
 347  12.31227
 348  -43.37744
 349  99.74834
 350  -60.60892
 351  -10.31787
 352  207.7103
 353  -155.1647
 354  -106.9697
 355  -159.8749
 356  -199.0426
 357  -253.5354
 358  -169.2958
 359  -49.30281
 360  5.342778
 361  38.51082
 362  -10.83682
 363  100.0109
 364  178.1366
 365  105.1567
 366  163.0574
 367  49.63675
 368  366.1852
 369  145.2975
 370  118.371
 371  128.3466
 372  72.60228
 373  -44.40973
 374  194.0777
 375  74.88858
 376  -62.25102
 377  -100.3873
 378  -90.73511
 379  197.0889
 380  29.87114
 381  -56.6418
 382  133.3943
 383  343.9575
 384  -230.9358
 385  -386.7985
 386  -331.7487
 387  -241.2536
 388  -509.0305
 389  -338.8369
 390  277.999
 391  -42.7934
 392  -182.9087
 393  -181.1366
 394  141.4119
 395  -14.39237
 396  -130.7757
 397  -291.9103
 398  -271.3923
 399  140.663
 400  12.71785
 401  -119.5172
 402  -128.8442
 403  342.4799
 404  449.1763
 405  307.496
 406  -33.7539
 407  134.7276
 408  279.8035
 409  212.6444
 410  307.6114
 411  175.328
 412  -305.9862
 413  -228.3416
 414  19.55484
 415  162.2585
 416  239.027
 417  -8.89343
 418  4.858706
 419  314.6896
 420  300.0858
 421  -240.0342
 422  -16.69695
 423  167.5545
 424  102.7437
 425  -38.95729
 426  222.3032
 427  294.3426
 428  248.0487
 429  -113.6066
 430  -50.85286
 431  181.7579
 432  448.343
 433  282.9324
 434  -124.6681
 435  25.55288
 436  113.7099
 437  103.2588
 438  110.8664
 439  28.0613
 440  -354.786
 441  -42.94661
 442  291.1837
 443  88.98277
 444  150.1524
 445  117.7041
 446  226.2584
 447  174.8787
 448  105.9407
 449  392.1518
 450  163.3223
 451  204.5781
 452  133.4849
 453  -110.7516
 454  -214.8545
 455  -466.9483
 456  -144.6369
 457  152.4037
 458  1.940661
 459  -167.268
 460  -217.8715
 461  -16.46824
 462  -11.55261
 463  -44.42774
 464  -499.6073
 465  -412.3681
 466  -78.48124
 467  392.4255
 468  34.31056
 469  144.9464
 470  505.0534
 471  433.3142
 472  645.767
 473  366.6118
 474  184.3543
 475  -2.135566
 476  382.7958
 477  792.0827
 478  955.9565
 479  549.7206
 480  447.4977
 481  274.3357
 482  -38.91473
 483  -110.3462
 484  104.298
 485  396.3851
 486  187.5379
 487  80.5666
 488  -142.1015
 489  -185.0504
 490  -103.7215
 491  251.3966
 492  168.2186
 493  -320.0445
 494  -270.8435
 495  157.6608
 496  168.1607
 497  149.4745
 498  -240.7548
 499  -150.1162
 500  -361.5103
 501  -334.9542
 502  -100.6775
 503  -52.49998
 504  16.20621
 505  -15.63695
 506  -22.01653
 507  -192.525
 508  -300.6609
 509  -56.46416
 510  -59.48518
 511  -234.3415
