# Input file       =  1186986415.105928_cleaned.dat
# Candidate        =  PSR_0332+5434
# Telescope        =  AR
# Epoch_topo       =  57982.268913263055
# Epoch_bary       =  N/A
# T_sample         =  0.002
# Data Folded      =  7340032
# Data Avg         =  0.0434702289016318
# Data StdDev      =  2.83383327655606 
# Profile Bins     =  256
# Profile Avg      =  1246.37527779741 
# Profile StdDev   =  479.847558834346 
# Reduced chi-sqr  =  1.324
# Prob(Noise)      <  0.000397   (~3.4 sigma)
# P_topo (ms)      =  714.464727665447  +/- 0.000288
# P'_topo (s/s)    =  -0                +/- 1.52e-10
# P''_topo (s/s^2) =  0                 +/- 6.71e-14
# P_bary (ms)      =  N/A
# P'_bary (s/s)    =  N/A
# P''_bary (s/s^2) =  N/A
# P_orb (s)        =  N/A
# asin(i)/c (s)    =  N/A
# eccentricity     =  N/A
# w (rad)          =  N/A
# T_peri           =  N/A
######################################################
   0  1067.727
   1  1953.145
   2  1425.65
   3  1297.727
   4  803.8328
   5  1592.638
   6  1707.882
   7  1362.956
   8  1269.198
   9  1217.67
  10  2009.805
  11  1441.943
  12  1649.819
  13  1274.669
  14  1760.037
  15  1010.031
  16  1250.121
  17  961.7041
  18  538.8696
  19  1278.862
  20  988.6333
  21  1318.726
  22  1762.045
  23  1465.844
  24  867.7525
  25  1112.603
  26  1390.03
  27  1127.253
  28  1238.784
  29  1377.44
  30  1490.725
  31  1527.643
  32  1513.381
  33  1417.603
  34  1319.658
  35  1467.659
  36  1126.83
  37  1007.677
  38  1205.462
  39  1270.937
  40  1333.12
  41  1264.808
  42  369.7464
  43  1382.401
  44  808.2891
  45  104.327
  46  1324.096
  47  1136.921
  48  532.9765
  49  831.8481
  50  990.3096
  51  973.9186
  52  580.29
  53  863.6766
  54  1293.212
  55  860.8419
  56  638.4078
  57  1252.713
  58  979.8508
  59  1513.904
  60  1282.409
  61  885.3519
  62  759.6368
  63  1343.859
  64  817.3065
  65  1228.438
  66  876.6003
  67  1270.623
  68  1357.828
  69  1460.102
  70  1687.812
  71  1595.086
  72  461.093
  73  1476.556
  74  887.4538
  75  1066.87
  76  1061.656
  77  1147.849
  78  612.136
  79  784.4773
  80  1007.827
  81  1457.729
  82  1020.965
  83  1126.19
  84  606.3812
  85  60.16666
  86  1110.098
  87  576.4638
  88  781.7985
  89  888.7029
  90  707.6204
  91  1313.516
  92  1090.111
  93  970.9743
  94  1254.597
  95  1623.841
  96  1094.955
  97  1007.877
  98  1281.887
  99  944.0085
 100  812.6445
 101  1070.093
 102  630.4024
 103  1280.77
 104  1305.222
 105  1044.708
 106  1830.516
 107  1336.651
 108  2064.295
 109  1829.383
 110  1779.186
 111  2149.918
 112  611.0588
 113  1534.051
 114  1118.5
 115  1585.444
 116  518.39
 117  844.9019
 118  1382.125
 119  1622.878
 120  1803.806
 121  948.4834
 122  368.5786
 123  251.264
 124  500.3992
 125  543.5804
 126  957.2464
 127  1064.25
 128  786.0889
 129  1086.843
 130  1066.422
 131  1012.475
 132  1660.222
 133  1226.971
 134  1603.924
 135  1064.411
 136  1259.372
 137  1319.336
 138  1559.201
 139  1052.298
 140  747.3481
 141  1208.959
 142  952.2448
 143  1108.466
 144  1487.786
 145  1688.693
 146  1586.851
 147  1923.403
 148  1302.595
 149  1462.062
 150  1541.081
 151  1460.748
 152  1836.354
 153  1279.543
 154  1278.529
 155  1261.714
 156  1202.277
 157  1090.742
 158  745.8685
 159  1880.949
 160  2855.49
 161  3890.864
 162  4164.582
 163  2238.695
 164  868.1366
 165  979.816
 166  1057.124
 167  1766.956
 168  2148.876
 169  2005.742
 170  1496.424
 171  2078.641
 172  1145.264
 173  953.1612
 174  1780.568
 175  1339.157
 176  1586.038
 177  1462.102
 178  1671.551
 179  992.1202
 180  1652.378
 181  1321.768
 182  767.3716
 183  1203.127
 184  1869.546
 185  1727.122
 186  1481.218
 187  717.0417
 188  1346.592
 189  1827.15
 190  1492.746
 191  1123.719
 192  1061.547
 193  421.4503
 194  1205.437
 195  997.0974
 196  1631.161
 197  1081.208
 198  499.9188
 199  1191.067
 200  780.8566
 201  955.8931
 202  875.15
 203  1313.616
 204  1402.34
 205  1227.063
 206  543.6992
 207  1216.878
 208  2050.946
 209  836.1081
 210  1115.829
 211  1961.945
 212  1124.479
 213  1146.705
 214  1752.244
 215  1154.865
 216  896.7684
 217  1141.229
 218  1491.069
 219  1089.8
 220  1935.478
 221  1324.494
 222  1544.101
 223  1000.607
 224  1098.455
 225  1372.703
 226  942.0061
 227  1056.992
 228  1672.766
 229  1718.933
 230  1292.641
 231  1088.269
 232  1114.369
 233  1352.977
 234  1111.135
 235  904.3426
 236  577.8018
 237  584.5285
 238  615.3324
 239  934.2831
 240  1604.847
 241  1560.975
 242  1930.331
 243  1057.679
 244  1114.844
 245  1209.51
 246  1906.875
 247  1294.384
 248  1517.472
 249  1707.031
 250  1159.647
 251  1382.791
 252  801.4072
 253  1322.779
 254  1596.475
 255  1057.351
