# Input file       =  1186540742.11421_cleaned.dat
# Candidate        =  PSR_0332+5434
# Telescope        =  AR
# Epoch_topo       =  57977.110661044098
# Epoch_bary       =  N/A
# T_sample         =  0.002
# Data Folded      =  7340032
# Data Avg         =  0.0282398727587341
# Data StdDev      =  2.33428474920699 
# Profile Bins     =  512
# Profile Avg      =  405.003924920876 
# Profile StdDev   =  279.491000790531 
# Reduced chi-sqr  =  2.187
# Prob(Noise)      <  2.56e-47   (~14.4 sigma)
# P_topo (ms)      =  714.465590902232  +/- 0.000266
# P'_topo (s/s)    =  -0                +/- 1.4e-10
# P''_topo (s/s^2) =  0                 +/- 6.19e-14
# P_bary (ms)      =  N/A
# P'_bary (s/s)    =  N/A
# P''_bary (s/s^2) =  N/A
# P_orb (s)        =  N/A
# asin(i)/c (s)    =  N/A
# eccentricity     =  N/A
# w (rad)          =  N/A
# T_peri           =  N/A
######################################################
   0  473.4183
   1  410.3248
   2  599.849
   3  600.8367
   4  515.2826
   5  632.6631
   6  385.6534
   7  563.9279
   8  523.9861
   9  590.3618
  10  702.9915
  11  522.0832
  12  485.878
  13  450.489
  14  724.2933
  15  618.2927
  16  417.0865
  17  493.4843
  18  472.359
  19  402.5444
  20  726.7741
  21  816.0384
  22  562.0231
  23  805.4226
  24  1055.417
  25  740.9458
  26  534.1564
  27  502.5063
  28  613.7057
  29  369.3076
  30  460.2814
  31  524.6964
  32  214.8187
  33  230.7876
  34  598.8901
  35  826.2363
  36  853.5007
  37  752.1913
  38  783.5111
  39  867.2648
  40  820.3086
  41  887.3536
  42  757.8729
  43  452.1778
  44  411.1808
  45  586.8788
  46  592.8326
  47  484.0638
  48  523.4066
  49  797.9921
  50  513.3123
  51  414.8948
  52  454.3524
  53  313.2758
  54  253.6456
  55  6.203254
  56  311.7956
  57  418.1924
  58  486.3654
  59  433.1743
  60  744.949
  61  493.0347
  62  435.3694
  63  367.491
  64  634.1068
  65  454.0455
  66  335.2119
  67  476.9934
  68  403.9275
  69  237.6062
  70  577.7902
  71  600.9218
  72  184.4425
  73  228.9191
  74  488.7912
  75  601.1819
  76  404.8346
  77  455.0446
  78  162.1818
  79  195.6774
  80  309.5132
  81  251.1997
  82  222.4953
  83  213.2092
  84  -26.20233
  85  28.55758
  86  159.9519
  87  251.0117
  88  280.0909
  89  198.3092
  90  263.2495
  91  343.806
  92  320.253
  93  389.0515
  94  122.7844
  95  128.3213
  96  329.279
  97  289.7255
  98  242.5192
  99  92.75266
 100  143.0098
 101  3.477864
 102  258.8973
 103  465.812
 104  260.3873
 105  -37.0537
 106  48.88496
 107  564.0858
 108  531.662
 109  453.2865
 110  284.2976
 111  3.174183
 112  -27.58012
 113  153.6826
 114  308.5153
 115  450.0131
 116  486.9444
 117  194.7876
 118  59.89355
 119  -45.87124
 120  282.4425
 121  175.2804
 122  364.2166
 123  362.8531
 124  370.3255
 125  90.9475
 126  43.79949
 127  -105.9245
 128  -64.62427
 129  118.1371
 130  220.0161
 131  -76.11475
 132  165.1362
 133  -128.7531
 134  82.73208
 135  123.7925
 136  75.43075
 137  31.78111
 138  117.5537
 139  324.731
 140  -33.57696
 141  181.2713
 142  91.8025
 143  -222.9423
 144  205.4902
 145  265.8336
 146  -99.40398
 147  43.11546
 148  76.77199
 149  115.3687
 150  53.08
 151  161.1887
 152  -53.08176
 153  -141.3759
 154  71.00243
 155  -324.5982
 156  -333.3457
 157  441.3518
 158  365.0679
 159  194.729
 160  113.553
 161  270.0359
 162  -95.98778
 163  92.54975
 164  271.7716
 165  110.8251
 166  335.5415
 167  150.1012
 168  266.3871
 169  201.0254
 170  332.2646
 171  -161.1002
 172  107.3913
 173  48.19511
 174  157.6633
 175  402.9958
 176  355.1091
 177  715.4842
 178  882.3597
 179  715.7045
 180  360.7106
 181  390.4521
 182  205.4879
 183  -86.66232
 184  354.6267
 185  422.0611
 186  204.7367
 187  221.5186
 188  288.5199
 189  348.2491
 190  271.2029
 191  391.8266
 192  497.5725
 193  506.1552
 194  211.7966
 195  224.0635
 196  147.7269
 197  93.39276
 198  -5.348089
 199  -116.0141
 200  129.1638
 201  200.6904
 202  217.0919
 203  453.5291
 204  318.57
 205  252.1736
 206  355.9397
 207  121.3363
 208  289.7202
 209  196.4833
 210  35.09697
 211  55.69897
 212  140.7161
 213  339.467
 214  219.139
 215  14.03538
 216  89.0555
 217  576.4336
 218  449.3452
 219  312.0174
 220  248.4492
 221  114.9076
 222  169.9991
 223  352.4143
 224  51.43565
 225  -74.00342
 226  257.981
 227  385.1312
 228  602.3217
 229  204.4791
 230  255.4977
 231  316.155
 232  24.2303
 233  94.5559
 234  467.2275
 235  588.3543
 236  340.6775
 237  -35.28572
 238  254.1295
 239  223.5515
 240  394.3069
 241  393.5054
 242  418.5803
 243  416.7823
 244  188.9249
 245  186.2739
 246  127.3965
 247  427.752
 248  515.7633
 249  241.9857
 250  185.6839
 251  422.1852
 252  297.6014
 253  423.6233
 254  417.583
 255  493.5515
 256  507.5209
 257  415.1036
 258  328.4587
 259  239.905
 260  78.60995
 261  396.892
 262  194.4179
 263  -110.1259
 264  25.54529
 265  9.039332
 266  369.4682
 267  485.9901
 268  561.306
 269  490.3771
 270  432.1465
 271  355.7035
 272  381.9078
 273  286.8983
 274  447.3076
 275  435.3124
 276  551.1829
 277  20.08213
 278  45.46276
 279  296.1538
 280  336.7075
 281  535.1041
 282  394.7744
 283  183.4661
 284  81.16911
 285  513.7654
 286  502.1826
 287  246.8245
 288  334.624
 289  85.0714
 290  107.7402
 291  136.0071
 292  5.055571
 293  47.09157
 294  138.7978
 295  506.7389
 296  483.2592
 297  253.8945
 298  97.92892
 299  88.7512
 300  58.09934
 301  171.9901
 302  117.8462
 303  390.3315
 304  590.2504
 305  553.0837
 306  453.0267
 307  401.5298
 308  168.7307
 309  176.503
 310  169.868
 311  314.6978
 312  605.1559
 313  743.2848
 314  634.9609
 315  411.1441
 316  146.2222
 317  484.1923
 318  605.1039
 319  486.3926
 320  652.5146
 321  465.4316
 322  571.2976
 323  797.4706
 324  707.0383
 325  310.7557
 326  561.2579
 327  966.3461
 328  653.5132
 329  272.1592
 330  177.7495
 331  474.7186
 332  92.18027
 333  553.3053
 334  377.4571
 335  465.8065
 336  851.628
 337  644.0306
 338  430.9787
 339  413.136
 340  517.86
 341  707.2952
 342  628.2429
 343  491.9549
 344  374.5247
 345  647.0327
 346  611.8595
 347  415.7231
 348  590.8376
 349  615.6782
 350  346.8426
 351  392.5711
 352  397.2251
 353  379.6552
 354  452.2778
 355  598.4865
 356  828.7956
 357  496.2931
 358  255.5206
 359  305.8447
 360  410.7711
 361  461.3903
 362  513.0428
 363  484.9616
 364  284.1665
 365  348.2949
 366  689.1946
 367  525.8362
 368  89.56133
 369  142.6472
 370  119.197
 371  48.29111
 372  96.2161
 373  341.508
 374  503.8433
 375  210.1622
 376  729.0285
 377  573.2467
 378  155.1723
 379  257.0762
 380  170.923
 381  107.7214
 382  250.1703
 383  217.8599
 384  219.9686
 385  483.5145
 386  172.0513
 387  168.2534
 388  294.1911
 389  536.5518
 390  343.0146
 391  422.8476
 392  298.2611
 393  269.9926
 394  639.1189
 395  715.6272
 396  320.5293
 397  13.46597
 398  404.8667
 399  312.2701
 400  115.9037
 401  753.3003
 402  614.7557
 403  495.9963
 404  216.1602
 405  137.6349
 406  494.1817
 407  401.3787
 408  518.3915
 409  609.8098
 410  682.8922
 411  426.2075
 412  574.6885
 413  586.7227
 414  644.8503
 415  667.7159
 416  817.278
 417  604.8047
 418  791.1284
 419  791.4113
 420  838.6983
 421  750.6194
 422  520.1778
 423  695.0112
 424  691.1382
 425  292.6061
 426  719.2834
 427  891.4393
 428  978.7077
 429  572.1359
 430  843.8795
 431  1079.031
 432  1117.607
 433  1134.644
 434  1631.913
 435  1960.177
 436  2084.53
 437  2196.399
 438  2185.416
 439  1370.222
 440  931.6339
 441  487.5589
 442  896.0862
 443  769.1464
 444  481.7339
 445  175.3397
 446  152.1635
 447  284.6809
 448  487.9091
 449  758.2803
 450  686.5533
 451  565.2931
 452  573.0661
 453  734.0969
 454  730.1122
 455  560.932
 456  822.5604
 457  936.7682
 458  376.4837
 459  124.9911
 460  210.5388
 461  530.3242
 462  435.3596
 463  911.2402
 464  769.8771
 465  566.1998
 466  418.195
 467  460.6107
 468  692.9744
 469  958.6707
 470  746.8774
 471  402.7456
 472  519.8947
 473  690.8422
 474  765.6444
 475  592.467
 476  589.091
 477  693.655
 478  465.7426
 479  423.8889
 480  351.5725
 481  586.5789
 482  661.0905
 483  946.3434
 484  571.8884
 485  315.8786
 486  170.4225
 487  273.3184
 488  412.8296
 489  797.4199
 490  768.6257
 491  461.1103
 492  377.7941
 493  603.9352
 494  516.411
 495  274.6096
 496  714.4207
 497  816.9598
 498  711.3799
 499  500.1598
 500  517.7593
 501  379.5627
 502  588.999
 503  640.103
 504  454.4652
 505  569.0706
 506  719.7105
 507  641.6096
 508  630.7064
 509  293.1592
 510  202.6093
 511  377.1596
