# Input file       =  1186383347.125036_cleaned.dat
# Candidate        =  PSR_0332+5434
# Telescope        =  AR
# Epoch_topo       =  57975.288959780512
# Epoch_bary       =  N/A
# T_sample         =  0.002
# Data Folded      =  7340032
# Data Avg         =  0.0237297357702378
# Data StdDev      =  2.78840540473126 
# Profile Bins     =  512
# Profile Avg      =  340.221524315712 
# Profile StdDev   =  333.864245757859 
# Reduced chi-sqr  =  1.259
# Prob(Noise)      <  6e-05   (~3.8 sigma)
# P_topo (ms)      =  714.466444355573  +/- 0.000223
# P'_topo (s/s)    =  -0                +/- 1.18e-10
# P''_topo (s/s^2) =  0                 +/- 5.19e-14
# P_bary (ms)      =  N/A
# P'_bary (s/s)    =  N/A
# P''_bary (s/s^2) =  N/A
# P_orb (s)        =  N/A
# asin(i)/c (s)    =  N/A
# eccentricity     =  N/A
# w (rad)          =  N/A
# T_peri           =  N/A
######################################################
   0  660.5309
   1  956.7515
   2  481.6855
   3  369.0182
   4  429.8989
   5  169.7338
   6  472.7305
   7  304.3328
   8  583.5648
   9  547.0075
  10  434.8504
  11  790.6003
  12  666.215
  13  447.3774
  14  282.3538
  15  241.9281
  16  448.3541
  17  506.2469
  18  621.6589
  19  110.5983
  20  259.4446
  21  201.3223
  22  100.9387
  23  422.2903
  24  675.6492
  25  404.36
  26  548.5165
  27  610.0302
  28  629.7077
  29  124.4373
  30  232.844
  31  475.6853
  32  398.129
  33  583.6074
  34  690.0839
  35  512.5186
  36  160.6428
  37  200.5448
  38  525.3949
  39  337.4353
  40  357.1531
  41  207.876
  42  528.6714
  43  -52.92971
  44  -149.686
  45  -26.05573
  46  492.9015
  47  443.8697
  48  31.72669
  49  -218.8864
  50  305.8159
  51  687.1254
  52  400.8753
  53  758.7375
  54  396.08
  55  189.1211
  56  45.87154
  57  115.0064
  58  113.9107
  59  259.5426
  60  611.9947
  61  322.3952
  62  155.5364
  63  70.74734
  64  20.14102
  65  38.34715
  66  664.6389
  67  880.0657
  68  568.1319
  69  420.4096
  70  793.6101
  71  625.3981
  72  166.9635
  73  480.357
  74  368.6841
  75  517.4541
  76  553.7515
  77  135.4025
  78  601.8465
  79  637.6461
  80  508.5397
  81  294.4201
  82  206.6811
  83  221.6362
  84  -60.44184
  85  230.6909
  86  544.3818
  87  387.0767
  88  288.1665
  89  343.6147
  90  275.485
  91  543.9539
  92  416.6902
  93  129.2296
  94  201.769
  95  306.7746
  96  48.45119
  97  29.14726
  98  298.1793
  99  164.671
 100  391.3526
 101  212.0729
 102  301.5968
 103  298.9874
 104  -33.67842
 105  -214.4565
 106  251.2317
 107  321.6422
 108  86.82384
 109  57.58918
 110  -10.47201
 111  2.637345
 112  160.3856
 113  194.0773
 114  300.7233
 115  -165.4034
 116  -40.8653
 117  213.2632
 118  137.9641
 119  209.5526
 120  170.0275
 121  380.3343
 122  582.1115
 123  368.8957
 124  8.06319
 125  -275.7348
 126  -24.11012
 127  383.7005
 128  375.7022
 129  159.5727
 130  95.79184
 131  31.18831
 132  261.5354
 133  411.8502
 134  455.5357
 135  645.7072
 136  478.6483
 137  369.9662
 138  255.3915
 139  385.5533
 140  46.53207
 141  -132.5805
 142  -93.5547
 143  -127.7547
 144  235.7111
 145  137.7695
 146  -83.95073
 147  4.221554
 148  138.2078
 149  326.7798
 150  350.1412
 151  436.1507
 152  390.7243
 153  446.4279
 154  749.7512
 155  614.0831
 156  836.3996
 157  616.8212
 158  437.164
 159  552.4744
 160  236.8102
 161  465.46
 162  236.2416
 163  73.498
 164  286.0052
 165  337.3644
 166  476.0565
 167  740.7587
 168  381.3405
 169  502.1133
 170  458.6332
 171  353.7273
 172  354.6256
 173  391.0562
 174  588.8196
 175  550.3506
 176  444.4676
 177  304.5414
 178  551.5755
 179  374.6613
 180  264.3765
 181  429.8618
 182  619.8995
 183  353.4426
 184  202.1754
 185  245.7461
 186  412.0739
 187  134.3659
 188  274.8167
 189  196.3719
 190  191.9612
 191  26.39776
 192  343.0787
 193  37.56466
 194  254.7148
 195  399.6484
 196  334.1529
 197  17.3321
 198  267.7262
 199  155.4754
 200  -42.29088
 201  201.1737
 202  423.2357
 203  812.2742
 204  751.9725
 205  612.733
 206  280.5965
 207  367.7976
 208  643.6773
 209  181.1359
 210  -180.8488
 211  129.4191
 212  327.4922
 213  537.3741
 214  526.5844
 215  57.32029
 216  283.4404
 217  342.7751
 218  649.1156
 219  643.6715
 220  629.9856
 221  656.3212
 222  474.172
 223  192.2162
 224  544.1163
 225  700.4069
 226  615.2039
 227  199.409
 228  9.410625
 229  361.936
 230  366.7692
 231  275.3157
 232  525.6513
 233  483.42
 234  421.5376
 235  555.7188
 236  444.4683
 237  158.2444
 238  227.5516
 239  128.2953
 240  -13.44691
 241  343.3285
 242  196.0262
 243  210.8712
 244  183.6084
 245  173.4917
 246  114.4474
 247  332.5715
 248  476.6519
 249  121.9835
 250  159.5096
 251  385.4756
 252  535.7435
 253  265.044
 254  326.4464
 255  386.5608
 256  871.6302
 257  656.4442
 258  61.84653
 259  47.17442
 260  399.5879
 261  443.9184
 262  123.3652
 263  262.8604
 264  519.5787
 265  289.9814
 266  -92.67742
 267  -1.326721
 268  285.8686
 269  408.313
 270  190.9639
 271  238.2704
 272  343.3704
 273  707.1456
 274  889.7285
 275  500.3398
 276  -29.26944
 277  40.69673
 278  743.0558
 279  388.2697
 280  32.06458
 281  157.0907
 282  531.5007
 283  345.5023
 284  199.7505
 285  462.2613
 286  527.1553
 287  361.1377
 288  599.7122
 289  359.5681
 290  -2.375063
 291  401.1402
 292  349.4795
 293  456.408
 294  50.18782
 295  320.95
 296  430.304
 297  961.6379
 298  747.3458
 299  286.4225
 300  191.4373
 301  438.4792
 302  42.98514
 303  -20.47274
 304  465.8813
 305  820.5638
 306  784.4828
 307  492.4433
 308  682.0352
 309  452.8223
 310  310.5434
 311  411.9686
 312  588.0612
 313  205.8075
 314  148.4119
 315  100.5558
 316  517.6556
 317  614.8397
 318  633.5859
 319  345.1748
 320  338.7881
 321  1028.677
 322  1782.832
 323  1614.06
 324  1842.686
 325  1994.454
 326  1366.037
 327  992.1261
 328  608.8719
 329  433.4979
 330  589.7563
 331  527.9009
 332  493.2737
 333  253.0181
 334  200.9156
 335  305.0233
 336  419.6599
 337  399.6344
 338  288.2212
 339  537.1146
 340  642.1974
 341  462.3229
 342  190.1853
 343  317.1693
 344  59.41397
 345  -41.23923
 346  441.736
 347  463.6407
 348  -17.17595
 349  408.0467
 350  750.46
 351  200.6945
 352  185.2779
 353  451.782
 354  512.5864
 355  650.4366
 356  187.8785
 357  555.756
 358  325.3555
 359  124.5345
 360  -17.69126
 361  4.378351
 362  31.45179
 363  -205.1768
 364  56.48598
 365  264.3066
 366  340.9187
 367  304.3289
 368  476.5085
 369  347.6017
 370  384.3894
 371  573.6934
 372  832.8617
 373  917.6284
 374  732.7595
 375  450.6127
 376  223.0749
 377  276.0838
 378  -113.8589
 379  70.71953
 380  219.2791
 381  83.57715
 382  291.9379
 383  394.1049
 384  543.0678
 385  483.3672
 386  695.976
 387  374.5978
 388  285.135
 389  499.6596
 390  434.6585
 391  291.6456
 392  98.10398
 393  33.01472
 394  -58.9441
 395  225.5786
 396  513.6868
 397  96.78504
 398  184.7642
 399  582.7258
 400  571.8009
 401  567.1611
 402  -153.5772
 403  68.45921
 404  463.9444
 405  551.0303
 406  350.274
 407  150.465
 408  357.1846
 409  157.8064
 410  -140.7853
 411  371.9376
 412  48.79735
 413  320.8724
 414  284.3626
 415  64.58486
 416  265.1631
 417  -52.10757
 418  -155.7599
 419  148.0734
 420  -16.17828
 421  203.5827
 422  353.4735
 423  83.84925
 424  -46.6577
 425  329.7003
 426  487.1341
 427  242.0965
 428  41.00674
 429  61.80457
 430  343.1978
 431  205.3243
 432  390.3088
 433  477.2818
 434  377.3047
 435  66.87138
 436  10.42455
 437  326.381
 438  69.81762
 439  70.38519
 440  353.5461
 441  918.8968
 442  875.4933
 443  623.7528
 444  338.7104
 445  331.0257
 446  -9.073196
 447  356.5237
 448  727.5032
 449  718.702
 450  423.0988
 451  490.3554
 452  477.9985
 453  388.1205
 454  258.2204
 455  392.7791
 456  557.3403
 457  139.1051
 458  443.9523
 459  372.2196
 460  27.06332
 461  237.9091
 462  182.7993
 463  506.8089
 464  423.6718
 465  407.0013
 466  429.2608
 467  106.5316
 468  463.1862
 469  237.036
 470  161.7437
 471  326.7917
 472  311.6336
 473  275.0137
 474  -128.7234
 475  258.1151
 476  462.4514
 477  -23.56795
 478  -226.0516
 479  -77.81515
 480  -62.65992
 481  -153.4883
 482  417.7404
 483  399.5125
 484  154.4573
 485  159.5213
 486  350.4775
 487  299.584
 488  178.0343
 489  138.3667
 490  61.62264
 491  184.9507
 492  433.0032
 493  310.3347
 494  306.0107
 495  203.2598
 496  211.0453
 497  374.7196
 498  328.98
 499  137.298
 500  141.7322
 501  210.952
 502  402.4237
 503  427.9775
 504  571.6017
 505  611.5096
 506  545.0915
 507  274.7676
 508  272.4012
 509  531.5956
 510  491.5302
 511  637.0311
