# Input file       =  1186267588.110569_cleaned.dat
# Candidate        =  PSR_0332+5434
# Telescope        =  AR
# Epoch_topo       =  57973.949156372328
# Epoch_bary       =  N/A
# T_sample         =  0.002
# Data Folded      =  7208960
# Data Avg         =  0.0236932417843492
# Data StdDev      =  2.98872554099233 
# Profile Bins     =  256
# Profile Avg      =  666.936675345265 
# Profile StdDev   =  501.536286743181 
# Reduced chi-sqr  =  1.193
# Prob(Noise)      <  0.0186   (~2.1 sigma)
# P_topo (ms)      =  714.466507236455  +/- 0.00015
# P'_topo (s/s)    =  -0                +/- 8.07e-11
# P''_topo (s/s^2) =  0                 +/- 3.63e-14
# P_bary (ms)      =  N/A
# P'_bary (s/s)    =  N/A
# P''_bary (s/s^2) =  N/A
# P_orb (s)        =  N/A
# asin(i)/c (s)    =  N/A
# eccentricity     =  N/A
# w (rad)          =  N/A
# T_peri           =  N/A
######################################################
   0  1394.283
   1  1243.654
   2  268.5197
   3  792.7922
   4  452.3179
   5  621.9934
   6  278.9068
   7  1006.178
   8  878.0221
   9  1132.473
  10  686.5405
  11  994.8508
  12  981.6381
  13  557.4409
  14  784.8511
  15  1239.139
  16  938.4189
  17  127.7429
  18  437.0543
  19  765.2444
  20  60.07727
  21  529.4631
  22  -354.2632
  23  454.3131
  24  279.3522
  25  404.5107
  26  387.8675
  27  847.1227
  28  377.2482
  29  461.015
  30  954.2737
  31  584.0751
  32  900.1055
  33  1076.381
  34  405.7602
  35  -149.9059
  36  940.7969
  37  981.2983
  38  -374.1254
  39  398.8638
  40  947.512
  41  321.5154
  42  621.5546
  43  483.3678
  44  600.4243
  45  467.9754
  46  698.1286
  47  376.432
  48  -129.8759
  49  663.5001
  50  157.4185
  51  606.7493
  52  125.5411
  53  924.1503
  54  833.1357
  55  513.5349
  56  1108.807
  57  1056.124
  58  638.2272
  59  433.6459
  60  834.6002
  61  139.1559
  62  707.6181
  63  -31.39164
  64  261.3853
  65  1012.854
  66  1155.659
  67  347.3198
  68  397.5045
  69  99.16199
  70  817.5188
  71  236.6345
  72  265.7978
  73  692.6131
  74  644.2916
  75  558.0518
  76  448.4427
  77  318.9629
  78  187.6465
  79  1036.848
  80  880.9189
  81  358.9242
  82  625.2117
  83  964.6113
  84  757.025
  85  606.8804
  86  790.9838
  87  629.2054
  88  -6.254197
  89  670.0764
  90  925.0112
  91  1586.05
  92  940.083
  93  835.6794
  94  1108.695
  95  675.7708
  96  506.1705
  97  478.9099
  98  226.2112
  99  1068.007
 100  638.3801
 101  428.9165
 102  95.91533
 103  483.8738
 104  484.8317
 105  576.8864
 106  260.3599
 107  480.2726
 108  508.92
 109  601.4454
 110  331.8034
 111  487.9061
 112  696.8564
 113  57.90897
 114  812.717
 115  791.3055
 116  427.3196
 117  1076.305
 118  -240.9718
 119  995.1128
 120  1270.977
 121  119.4815
 122  -132.8931
 123  585.6636
 124  655.4667
 125  444.6085
 126  113.0345
 127  497.4444
 128  1056.709
 129  671.662
 130  143.3498
 131  182.491
 132  1010.808
 133  469.8857
 134  924.6227
 135  381.602
 136  559.8745
 137  1225.812
 138  920.9053
 139  346.1011
 140  404.7177
 141  1042.014
 142  1004.264
 143  771.6299
 144  954.4376
 145  567.4413
 146  857.8762
 147  821.3876
 148  403.6872
 149  1333.381
 150  1109.867
 151  871.5464
 152  1183.939
 153  626.145
 154  1118.305
 155  638.2197
 156  711.5796
 157  778.668
 158  676.8423
 159  973.3886
 160  2196.657
 161  3466.452
 162  3659.926
 163  2890.446
 164  1267.228
 165  1051.645
 166  916.3296
 167  179.5426
 168  1004.221
 169  1513.576
 170  1414.225
 171  504.193
 172  542.4326
 173  685.3654
 174  345.6274
 175  991.2845
 176  272.1078
 177  57.05828
 178  1101.2
 179  1411.335
 180  508.6677
 181  728.1523
 182  1415.711
 183  746.2703
 184  564.9556
 185  679.5448
 186  653.2437
 187  840.3252
 188  674.1057
 189  541.5143
 190  110.3941
 191  1282.422
 192  454.352
 193  660.7695
 194  487.9646
 195  556.79
 196  309.6813
 197  481.6579
 198  662.3508
 199  949.2816
 200  715.1998
 201  166.8673
 202  755.4194
 203  610.7831
 204  1138.631
 205  869.7424
 206  767.4871
 207  875.9886
 208  -59.48207
 209  757.8906
 210  411
 211  1275.845
 212  651.8369
 213  257.6335
 214  555.1489
 215  422.6708
 216  563.097
 217  253.0708
 218  276.7294
 219  1027.542
 220  214.6391
 221  713.7619
 222  375.1026
 223  648.5201
 224  736.2529
 225  174.3835
 226  944.4223
 227  860.5483
 228  476.1754
 229  488.8337
 230  159.2487
 231  -203.1857
 232  6.60029
 233  550.2085
 234  750.3825
 235  732.9194
 236  677.6695
 237  918.2147
 238  350.2196
 239  731.336
 240  270.7095
 241  683.4918
 242  339.6303
 243  1001.697
 244  957.2735
 245  603.1696
 246  362.9174
 247  1130.265
 248  1022.043
 249  -21.11188
 250  221.7983
 251  812.6383
 252  1137.628
 253  836.6993
 254  94.71265
 255  657.8529
