# Input file       =  1186784914.239803_cleaned.dat
# Candidate        =  PSR_0332+5434
# Telescope        =  AR
# Epoch_topo       =  57979.936727312539
# Epoch_bary       =  N/A
# T_sample         =  0.002
# Data Folded      =  7405568
# Data Avg         =  0.016460926447738
# Data StdDev      =  1.00031325506869 
# Profile Bins     =  512
# Profile Avg      =  238.084058071896 
# Profile StdDev   =  120.3040450773   
# Reduced chi-sqr  =  1.526
# Prob(Noise)      <  1.59e-13   (~7.3 sigma)
# P_topo (ms)      =  714.464866935116  +/- 0.000161
# P'_topo (s/s)    =  -0                +/- 8.43e-11
# P''_topo (s/s^2) =  0                 +/- 3.69e-14
# P_bary (ms)      =  N/A
# P'_bary (s/s)    =  N/A
# P''_bary (s/s^2) =  N/A
# P_orb (s)        =  N/A
# asin(i)/c (s)    =  N/A
# eccentricity     =  N/A
# w (rad)          =  N/A
# T_peri           =  N/A
######################################################
   0  284.5745
   1  193.9859
   2  176.4965
   3  192.2843
   4  249.9742
   5  226.2762
   6  111.3376
   7  65.12395
   8  50.41427
   9  252.5057
  10  268.3046
  11  334.5838
  12  69.91916
  13  137.1786
  14  269.1242
  15  201.864
  16  290.2043
  17  252.5274
  18  272.6172
  19  148.3295
  20  122.3941
  21  231.3803
  22  191.9251
  23  120.5217
  24  132.8173
  25  261.6227
  26  352.794
  27  241.8891
  28  81.75795
  29  203.9443
  30  54.617
  31  168.9001
  32  338.4643
  33  429.2348
  34  413.1539
  35  299.2315
  36  295.08
  37  293.1645
  38  294.9495
  39  171.2352
  40  270.9641
  41  367.7065
  42  199.1266
  43  259.0374
  44  265.4001
  45  317.7077
  46  254.5844
  47  309.615
  48  264.6813
  49  341.576
  50  303.6812
  51  352.2743
  52  147.8218
  53  258.1911
  54  310.9012
  55  251.6298
  56  313.5562
  57  371.9657
  58  242.1146
  59  186.1222
  60  340.3069
  61  389.7816
  62  248.9208
  63  175.4531
  64  254.4545
  65  360.5712
  66  288.5891
  67  160.3286
  68  228.149
  69  217.5832
  70  209.5967
  71  26.27473
  72  100.0566
  73  324.327
  74  387.4127
  75  289.2679
  76  165.1947
  77  282.6132
  78  373.6325
  79  255.1652
  80  260.6893
  81  173.3061
  82  202.29
  83  181.4506
  84  110.7577
  85  212.8171
  86  256.3497
  87  382.5945
  88  292.4799
  89  285.9745
  90  169.0963
  91  261.924
  92  351.3747
  93  216.8003
  94  233.5632
  95  375.6401
  96  401.1225
  97  312.1147
  98  293.0962
  99  339.666
 100  327.2656
 101  202.7293
 102  233.1873
 103  276.6625
 104  278.8411
 105  267.7784
 106  227.116
 107  237.3252
 108  370.963
 109  183.3634
 110  165.8521
 111  117.6069
 112  222.516
 113  181.9449
 114  287.44
 115  262.9941
 116  169.3344
 117  247.3943
 118  178.9585
 119  312.4854
 120  339.0132
 121  331.3995
 122  231.254
 123  127.1186
 124  139.5866
 125  126.3868
 126  179.4627
 127  252.6388
 128  241.3976
 129  283.0623
 130  306.4561
 131  293.8829
 132  265.4256
 133  361.2733
 134  365.1267
 135  313.4232
 136  247.2608
 137  198.2607
 138  366.8749
 139  390.7394
 140  275.4339
 141  270.5045
 142  322.1531
 143  253.2565
 144  368.5387
 145  278.9481
 146  243.0346
 147  176.2055
 148  136.0147
 149  237.4026
 150  221.9387
 151  226.3065
 152  411.2684
 153  328.7317
 154  271.9636
 155  152.3148
 156  276.9228
 157  337.7249
 158  263.9867
 159  266.6862
 160  343.6932
 161  353.4464
 162  245.4489
 163  257.8609
 164  259.2631
 165  392.4592
 166  334.7915
 167  237.1224
 168  209.159
 169  194.7411
 170  200.5029
 171  86.79995
 172  375.769
 173  458.3079
 174  333.7684
 175  418.5254
 176  348.9142
 177  162.4437
 178  172.4477
 179  289.7174
 180  249.0755
 181  146.6072
 182  190.2642
 183  169.7469
 184  318.724
 185  239.0377
 186  218.0831
 187  303.9764
 188  294.5601
 189  192.8551
 190  159.4755
 191  243.2451
 192  103.7675
 193  278.9981
 194  137.5269
 195  72.31059
 196  125.7754
 197  80.33171
 198  184.1315
 199  298.6429
 200  281.623
 201  322.039
 202  412.1594
 203  312.275
 204  229.9341
 205  300.6244
 206  270.923
 207  163.5231
 208  74.06799
 209  60.54919
 210  364.7261
 211  333.7792
 212  335.7815
 213  236.6025
 214  242.5496
 215  179.8113
 216  222.3195
 217  250.2851
 218  364.929
 219  381.0961
 220  286.2769
 221  206.6523
 222  74.57309
 223  163.9211
 224  324.2516
 225  248.8344
 226  335.5757
 227  365.9171
 228  198.8855
 229  233.3688
 230  314.6927
 231  362.5756
 232  358.3423
 233  278.6171
 234  293.0998
 235  235.202
 236  83.09779
 237  305.4448
 238  230.111
 239  94.3588
 240  183.6391
 241  175.6904
 242  232.6192
 243  284.3653
 244  251.395
 245  200.152
 246  96.5525
 247  243.387
 248  296.9574
 249  86.18865
 250  187.9728
 251  245.5451
 252  331.6642
 253  279.4937
 254  351.296
 255  353.5571
 256  302.8407
 257  370.8974
 258  357.9314
 259  199.1629
 260  77.0453
 261  159.1333
 262  351.4391
 263  221.2439
 264  186.6663
 265  318.2342
 266  245.6826
 267  292.7895
 268  269.9916
 269  309.472
 270  306.1541
 271  215.3615
 272  261.1247
 273  314.591
 274  344.2552
 275  227.7222
 276  147.5824
 277  243.7573
 278  299.5371
 279  362.7127
 280  361.1391
 281  341.342
 282  257.2271
 283  164.6345
 284  267.0692
 285  95.77272
 286  100.9815
 287  207.4204
 288  214.579
 289  261.2926
 290  233.2626
 291  267.1593
 292  129.2259
 293  186.4328
 294  274.3329
 295  286.4934
 296  245.129
 297  370.5471
 298  377.6885
 299  188.2516
 300  210.5776
 301  294.6866
 302  301.3447
 303  262.7514
 304  277.459
 305  240.9383
 306  134.0873
 307  190.1809
 308  214.0674
 309  233.7123
 310  219.1696
 311  164.3577
 312  211.4731
 313  239.1418
 314  207.2262
 315  372.0074
 316  319.6275
 317  110.1454
 318  168.2226
 319  298.3456
 320  284.0322
 321  270.8059
 322  238.3283
 323  270.1657
 324  162.0284
 325  19.44355
 326  187.9817
 327  402.0336
 328  412.2374
 329  210.0084
 330  49.06895
 331  25.88543
 332  128.5741
 333  84.67068
 334  269.2935
 335  305.3156
 336  244.1451
 337  224.4198
 338  112.5272
 339  165.7299
 340  191.7605
 341  124.2522
 342  87.32751
 343  263.0919
 344  104.1438
 345  166.1619
 346  272.16
 347  182.7001
 348  96.31927
 349  59.18164
 350  139.9957
 351  74.61839
 352  145.5002
 353  156.9077
 354  61.07612
 355  26.93209
 356  208.1741
 357  241.5899
 358  278.1923
 359  398.5515
 360  191.604
 361  72.84807
 362  175.9665
 363  302.6505
 364  174.82
 365  116.3371
 366  71.62855
 367  -50.71049
 368  128.3992
 369  180.8019
 370  123.1696
 371  118.3708
 372  157.0867
 373  239.7404
 374  272.3181
 375  257.932
 376  343.7489
 377  179.7297
 378  113.2689
 379  73.57642
 380  171.6068
 381  225.4177
 382  224.1524
 383  173.1062
 384  258.1158
 385  326.8672
 386  206.308
 387  192.947
 388  112.489
 389  176.099
 390  273.4419
 391  259.5108
 392  208.3831
 393  233.1619
 394  278.9897
 395  192.7859
 396  177.4025
 397  350.4543
 398  284.1653
 399  158.2124
 400  14.31968
 401  83.98613
 402  168.7816
 403  250.9849
 404  236.1588
 405  191.2545
 406  158.3777
 407  162.6899
 408  193.3152
 409  146.7346
 410  91.04901
 411  162.5187
 412  174.6996
 413  155.654
 414  65.13537
 415  114.8181
 416  204.7766
 417  373.4354
 418  350.7921
 419  285.8167
 420  114.6949
 421  103.0769
 422  228.0255
 423  97.66172
 424  119.9738
 425  246.3411
 426  237.1715
 427  171.1625
 428  157.8586
 429  325.0276
 430  272.9384
 431  291.9743
 432  222.3762
 433  13.07632
 434  27.17649
 435  201.8814
 436  93.98279
 437  129.2693
 438  106.3432
 439  280.5926
 440  172.9798
 441  -29.20119
 442  147.011
 443  289.6975
 444  230.0349
 445  48.65022
 446  111.5345
 447  257.1635
 448  276.8117
 449  233.1673
 450  183.7135
 451  128.2662
 452  185.0047
 453  220.8013
 454  210.3301
 455  222.3308
 456  277.1059
 457  276.3552
 458  240.6195
 459  261.1623
 460  43.47746
 461  67.69405
 462  140.2627
 463  352.5395
 464  248.3725
 465  246.5718
 466  437.3803
 467  496.0266
 468  465.9075
 469  561.8674
 470  828.9615
 471  942.4323
 472  951.4612
 473  803.7606
 474  508.9811
 475  286.9974
 476  243.4353
 477  179.4213
 478  258.7897
 479  243.3888
 480  250.1035
 481  298.8559
 482  226.6288
 483  301.0613
 484  277.1714
 485  219.6133
 486  224.2372
 487  157.9839
 488  180.3359
 489  204.7899
 490  166.0694
 491  217.7413
 492  406.0966
 493  332.4721
 494  169.9839
 495  223.1626
 496  318.2307
 497  223.1025
 498  242.6311
 499  287.3434
 500  237.8891
 501  142.7281
 502  198.9336
 503  229.1943
 504  238.4483
 505  231.4026
 506  220.4482
 507  288.0316
 508  280.5928
 509  197.8299
 510  212.7513
 511  285.4582
