# Input file       =  1186526186.116844_cleaned.dat
# Candidate        =  PSR_0332+5434
# Telescope        =  AR
# Epoch_topo       =  57976.942188852358
# Epoch_bary       =  N/A
# T_sample         =  0.002
# Data Folded      =  7143424
# Data Avg         =  0.0127445885399629
# Data StdDev      =  1.00002427237558 
# Profile Bins     =  512
# Profile Avg      =  177.787886580724 
# Profile StdDev   =  118.121451500513 
# Reduced chi-sqr  =  1.457
# Prob(Noise)      <  6.21e-11   (~6.4 sigma)
# P_topo (ms)      =  714.465621529303  +/- 0.000213
# P'_topo (s/s)    =  -0                +/- 1.15e-10
# P''_topo (s/s^2) =  0                 +/- 5.24e-14
# P_bary (ms)      =  N/A
# P'_bary (s/s)    =  N/A
# P''_bary (s/s^2) =  N/A
# P_orb (s)        =  N/A
# asin(i)/c (s)    =  N/A
# eccentricity     =  N/A
# w (rad)          =  N/A
# T_peri           =  N/A
######################################################
   0  891.4077
   1  856.414
   2  698.2919
   3  472.9754
   4  253.7474
   5  205.5889
   6  139.274
   7  214.5033
   8  108.1208
   9  49.87923
  10  107.9602
  11  235.3367
  12  215.8254
  13  131.5254
  14  120.1534
  15  213.5306
  16  195.7248
  17  242.1544
  18  152.8817
  19  135.8099
  20  127.2468
  21  102.8419
  22  186.8215
  23  174.4951
  24  209.9519
  25  132.3325
  26  171.0125
  27  122.566
  28  13.50845
  29  153.7912
  30  108.2601
  31  179.7948
  32  91.26163
  33  113.4875
  34  84.3008
  35  103.8339
  36  135.7764
  37  131.78
  38  99.23296
  39  60.88813
  40  141.1723
  41  163.2574
  42  203.7254
  43  248.0378
  44  220.1921
  45  146.4129
  46  100.4188
  47  107.3931
  48  214.7568
  49  191.9359
  50  95.73227
  51  175.5215
  52  255.8407
  53  147.9624
  54  140.0649
  55  200.9228
  56  158.533
  57  116.1727
  58  33.42046
  59  92.39896
  60  160.5316
  61  136.6815
  62  202.1181
  63  250.6939
  64  190.0964
  65  119.7094
  66  83.65094
  67  163.5641
  68  15.59464
  69  124.838
  70  70.48813
  71  133.0582
  72  54.6054
  73  32.15231
  74  22.59627
  75  151.8401
  76  193.1846
  77  188.6199
  78  196.5617
  79  202.747
  80  94.00633
  81  133.74
  82  285.6847
  83  158.4969
  84  57.93959
  85  23.84548
  86  69.85725
  87  198.6579
  88  96.73349
  89  97.8456
  90  156.5714
  91  163.8379
  92  84.86791
  93  188.0606
  94  265.7437
  95  181.709
  96  166.469
  97  273.228
  98  131.3289
  99  45.19904
 100  30.54713
 101  61.04402
 102  69.5265
 103  196.701
 104  182.5748
 105  188.1044
 106  154.7196
 107  202.0092
 108  146.6263
 109  184.3477
 110  249.1586
 111  201.5939
 112  250.3671
 113  262.9531
 114  168.2828
 115  93.57167
 116  114.6342
 117  195.9916
 118  193.8501
 119  219.7626
 120  115.0824
 121  109.4065
 122  93.25001
 123  205.9277
 124  229.2421
 125  306.783
 126  163.2428
 127  96.95062
 128  203.0889
 129  72.64988
 130  92.56721
 131  73.10796
 132  105.4823
 133  129.5826
 134  148.3118
 135  -9.297795
 136  111.6081
 137  265.218
 138  191.3213
 139  171.8761
 140  49.03659
 141  122.0109
 142  173.4285
 143  142.0059
 144  81.91473
 145  144.2182
 146  241.3617
 147  297.797
 148  269.9471
 149  195.1012
 150  175.942
 151  149.7208
 152  227.6232
 153  248.4887
 154  203.7623
 155  164.0229
 156  84.18286
 157  18.50011
 158  202.1279
 159  229.5504
 160  162.2954
 161  229.7954
 162  196.9295
 163  306.3523
 164  246.592
 165  188.5695
 166  209.7382
 167  108.7837
 168  197.3854
 169  255.6598
 170  187.3474
 171  360.446
 172  281.3835
 173  180.7127
 174  317.5685
 175  260.5152
 176  152.9132
 177  67.64847
 178  158.8681
 179  207.6502
 180  144.3548
 181  282.1662
 182  253.8031
 183  196.1308
 184  131.3637
 185  31.33217
 186  -30.04657
 187  150.8019
 188  79.27557
 189  61.37537
 190  199.5618
 191  142.5568
 192  28.0204
 193  86.52892
 194  138.9411
 195  8.948411
 196  198.0768
 197  309.7186
 198  212.1078
 199  101.4074
 200  89.31005
 201  14.76238
 202  57.38795
 203  114.0318
 204  150.7291
 205  174.973
 206  190.8759
 207  284.897
 208  148.8428
 209  74.29615
 210  102.0189
 211  193.3489
 212  182.0792
 213  199.5519
 214  181.7328
 215  297.1332
 216  199.8472
 217  110.3983
 218  143.7899
 219  236.5391
 220  291.4175
 221  172.1554
 222  217.729
 223  179.4026
 224  204.3122
 225  274.3192
 226  233.1764
 227  217.6622
 228  269.7772
 229  183.6091
 230  165.2359
 231  213.1261
 232  333.325
 233  298.003
 234  208.7526
 235  211.4609
 236  169.8006
 237  208.5256
 238  176.0243
 239  172.6912
 240  235.3237
 241  215.8883
 242  103.1545
 243  130.9104
 244  207.9185
 245  247.7234
 246  250.7144
 247  226.3165
 248  237.9906
 249  244.0248
 250  270.3246
 251  272.4666
 252  193.5851
 253  183.8843
 254  141.755
 255  154.4744
 256  230.262
 257  176.969
 258  222.3231
 259  55.46463
 260  1.99303
 261  141.8629
 262  224.6214
 263  281.1424
 264  186.4608
 265  87.10086
 266  139.3887
 267  132.236
 268  87.10732
 269  56.25183
 270  140.8182
 271  177.5916
 272  238.0196
 273  136.4899
 274  119.6615
 275  -58.36304
 276  -109.5595
 277  73.32094
 278  179.0319
 279  400.9087
 280  226.3433
 281  107.5146
 282  237.9184
 283  164.7834
 284  135.7403
 285  207.8305
 286  135.2839
 287  85.06516
 288  158.549
 289  223.0526
 290  215.2053
 291  230.6904
 292  164.8133
 293  25.47997
 294  148.3259
 295  245.7136
 296  125.8819
 297  84.06858
 298  271.9241
 299  187.0021
 300  126.7889
 301  54.13783
 302  166.2876
 303  255.4581
 304  259.7695
 305  169.8256
 306  183.8434
 307  179.1633
 308  280.3628
 309  306.303
 310  295.6882
 311  219.8673
 312  58.88003
 313  153.8012
 314  109.6877
 315  127.6041
 316  194.4923
 317  175.9402
 318  149.4037
 319  294.2208
 320  192.4516
 321  121.816
 322  216.4001
 323  175.5972
 324  202.643
 325  268.8441
 326  150.3335
 327  189.3716
 328  190.7103
 329  102.5988
 330  -21.42041
 331  2.634286
 332  39.7768
 333  147.2409
 334  161.502
 335  155.9773
 336  212.7529
 337  178.3306
 338  214.4636
 339  200.5431
 340  157.7377
 341  109.2053
 342  124.8108
 343  188.1965
 344  183.3614
 345  124.0021
 346  122.2559
 347  57.28522
 348  61.15884
 349  82.34218
 350  158.3916
 351  195.3524
 352  210.5721
 353  212.4962
 354  287.9485
 355  157.713
 356  141.9015
 357  172.0576
 358  210.7572
 359  200.5087
 360  199.8531
 361  92.51659
 362  312.0941
 363  355.4736
 364  202.0779
 365  92.33012
 366  50.22422
 367  118.0714
 368  190.8055
 369  121.593
 370  79.24918
 371  140.3746
 372  136.4109
 373  204.4557
 374  62.39153
 375  118.7196
 376  205.164
 377  257.4593
 378  150.9087
 379  223.0872
 380  284.4493
 381  354.6803
 382  193.7544
 383  236.7294
 384  262.8415
 385  219.9151
 386  126.4166
 387  135.1208
 388  148.3131
 389  164.1001
 390  182.2332
 391  206.2393
 392  274.9075
 393  163.4638
 394  300.0184
 395  287.0088
 396  246.948
 397  121.4688
 398  110.1408
 399  264.0885
 400  276.0545
 401  319.6326
 402  328.6267
 403  389.9623
 404  314.0783
 405  291.3484
 406  165.4663
 407  78.79903
 408  137.6356
 409  107.6765
 410  131.5865
 411  14.97375
 412  -34.14229
 413  4.80231
 414  139.4453
 415  187.3619
 416  153.2836
 417  217.7377
 418  96.4594
 419  152.7734
 420  203.7668
 421  93.94034
 422  147.1655
 423  150.5107
 424  235.0894
 425  293.3344
 426  239.0566
 427  194.0083
 428  70.61505
 429  121.6494
 430  302.1385
 431  199.4666
 432  135.9744
 433  190.66
 434  260.0934
 435  350.422
 436  256.6686
 437  135.0241
 438  85.90893
 439  68.84716
 440  117.861
 441  183.7383
 442  109.4454
 443  151.9483
 444  207.624
 445  272.6235
 446  399.2607
 447  113.546
 448  15.97176
 449  117.7528
 450  192.7867
 451  184.8136
 452  151.6584
 453  154.3573
 454  160.7266
 455  203.5878
 456  179.7931
 457  176.6199
 458  161.4024
 459  201.6377
 460  314.4348
 461  226.1218
 462  172.813
 463  119.4124
 464  161.0415
 465  273.0554
 466  275.4932
 467  225.8332
 468  235.2858
 469  111.7368
 470  -4.471794
 471  197.0401
 472  259.8379
 473  277.4565
 474  181.9661
 475  151.6805
 476  2.992004
 477  143.4505
 478  315.6352
 479  337.497
 480  278.3186
 481  223.2452
 482  135.9426
 483  32.61347
 484  110.182
 485  243.0233
 486  153.0734
 487  104.4134
 488  277.6188
 489  343.4663
 490  306.5372
 491  237.9011
 492  217.5499
 493  92.4175
 494  3.867154
 495  93.17502
 496  113.9616
 497  218.0371
 498  326.4333
 499  330.7184
 500  122.5314
 501  106.8912
 502  30.62342
 503  132.2234
 504  165.0993
 505  273.845
 506  333.293
 507  272.7013
 508  273.8203
 509  446.6193
 510  768.2451
 511  900.1923
