# Input file       =  1186814826.088579_cleaned.dat
# Candidate        =  PSR_0332+5434
# Telescope        =  AR
# Epoch_topo       =  57980.282929265959
# Epoch_bary       =  N/A
# T_sample         =  0.002
# Data Folded      =  7340032
# Data Avg         =  0.0253642977508466
# Data StdDev      =  2.71927033162057 
# Profile Bins     =  512
# Profile Avg      =  363.360205010883 
# Profile StdDev   =  325.586493534187 
# Reduced chi-sqr  =  1.003
# Prob(Noise)      <  0.472   (~0.1 sigma)
# P_topo (ms)      =  714.465158779998  +/- 0.000235
# P'_topo (s/s)    =  -0                +/- 1.24e-10
# P''_topo (s/s^2) =  0                 +/- 5.47e-14
# P_bary (ms)      =  N/A
# P'_bary (s/s)    =  N/A
# P''_bary (s/s^2) =  N/A
# P_orb (s)        =  N/A
# asin(i)/c (s)    =  N/A
# eccentricity     =  N/A
# w (rad)          =  N/A
# T_peri           =  N/A
######################################################
   0  571.502
   1  538.7122
   2  324.3195
   3  166.8805
   4  250.251
   5  292.4263
   6  261.4504
   7  295.0892
   8  359.1215
   9  454.084
  10  119.0113
  11  424.388
  12  393.2799
  13  300.5141
  14  533.7919
  15  694.6098
  16  715.7218
  17  564.5972
  18  178.3153
  19  346.9449
  20  516.9041
  21  677.9573
  22  89.83212
  23  136.0171
  24  409.2181
  25  288.4169
  26  184.3225
  27  359.5097
  28  192.6668
  29  402.6563
  30  249.5472
  31  -57.21185
  32  125.7062
  33  426.723
  34  356.313
  35  568.7602
  36  572.7959
  37  452.2054
  38  318.9276
  39  96.3161
  40  402.7526
  41  516.4335
  42  586.7082
  43  494.0002
  44  360.3754
  45  148.6425
  46  140.3788
  47  244.0929
  48  377.0221
  49  443.4747
  50  344.7558
  51  414.5522
  52  498.0144
  53  217.0514
  54  145.7908
  55  415.3575
  56  335.0443
  57  310.9519
  58  605.6817
  59  247.9807
  60  191.3129
  61  401.64
  62  318.7999
  63  260.7553
  64  346.7988
  65  234.0087
  66  240.5576
  67  401.6701
  68  395.0224
  69  389.7408
  70  222.6267
  71  274.0379
  72  96.59966
  73  -212.0531
  74  -31.92548
  75  230.5549
  76  331.3391
  77  468.2583
  78  470.8814
  79  472.4659
  80  482.8541
  81  -103.3864
  82  265.9966
  83  120.2318
  84  39.66224
  85  344.1596
  86  356.8551
  87  393.2587
  88  367.8011
  89  174.3276
  90  43.46889
  91  158.2489
  92  195.3985
  93  218.2148
  94  299.4839
  95  128.8359
  96  265.0272
  97  445.0163
  98  374.4951
  99  316.1632
 100  196.8091
 101  -73.64325
 102  260.0488
 103  548.0421
 104  446.079
 105  359.4388
 106  143.2828
 107  562.7029
 108  472.3872
 109  424.4156
 110  258.1554
 111  152.8963
 112  412.6517
 113  370.3296
 114  355.553
 115  136.3006
 116  282.5021
 117  416.8587
 118  760.7281
 119  731.4001
 120  450.2088
 121  810.6541
 122  442.6061
 123  424.7141
 124  193.5831
 125  410.4565
 126  543.7568
 127  164.0698
 128  416.1991
 129  410.5359
 130  159.8585
 131  170.0795
 132  235.3292
 133  416.8913
 134  782.225
 135  711.4589
 136  632.3922
 137  575.2112
 138  433.3976
 139  286.0458
 140  379.6733
 141  396.8786
 142  478.4797
 143  262.8646
 144  147.0454
 145  421.4449
 146  436.3445
 147  544.5137
 148  435.0834
 149  592.1703
 150  765.4348
 151  292.5266
 152  361.4449
 153  159.5354
 154  185.1932
 155  202.7
 156  234.8744
 157  431.4141
 158  355.0103
 159  265.1242
 160  135.2613
 161  268.123
 162  581.1428
 163  784.4843
 164  449.4191
 165  264.3878
 166  349.3571
 167  211.4655
 168  244.4043
 169  271.4812
 170  16.77973
 171  225.7433
 172  123.8748
 173  260.1571
 174  190.1947
 175  168.2188
 176  510.29
 177  463.4138
 178  506.8645
 179  734.425
 180  296.6425
 181  28.28271
 182  443.4721
 183  381.2334
 184  344.3767
 185  53.8251
 186  218.5227
 187  393.6907
 188  341.0567
 189  93.75345
 190  139.8673
 191  318.7883
 192  419.2352
 193  342.0744
 194  218.4438
 195  404.9808
 196  235.8383
 197  464.7886
 198  752.6295
 199  458.358
 200  362.633
 201  384.7042
 202  471.2339
 203  274.6127
 204  451.0193
 205  402.767
 206  373.3346
 207  485.1979
 208  471.38
 209  323.2536
 210  588.5185
 211  514.7266
 212  309.7801
 213  92.69141
 214  138.4362
 215  309.772
 216  153.3691
 217  217.4095
 218  280.7731
 219  329.5891
 220  195.4088
 221  56.81791
 222  -96.19846
 223  223.7025
 224  417.2604
 225  489.6284
 226  396.711
 227  305.2942
 228  403.2869
 229  317.5622
 230  588.316
 231  679.634
 232  333.936
 233  293.5353
 234  262.3647
 235  248.8839
 236  70.73085
 237  1.258689
 238  120.6788
 239  162.626
 240  110.6785
 241  299.9402
 242  345.9059
 243  262.6009
 244  312.9135
 245  600.5295
 246  519.9031
 247  401.9335
 248  343.5778
 249  367.107
 250  472.7768
 251  481.9057
 252  319.2438
 253  391.6218
 254  825.7253
 255  844.8074
 256  534.7485
 257  297.9554
 258  209.1214
 259  354.9517
 260  -133.2087
 261  373.7328
 262  793.3156
 263  552.1263
 264  324.7159
 265  522.4244
 266  544.0845
 267  274.9392
 268  -25.73697
 269  153.3899
 270  346.8535
 271  596.5188
 272  579.5833
 273  326.8509
 274  422.2109
 275  305.2913
 276  123.2083
 277  302.2786
 278  -29.77583
 279  351.7956
 280  549.6071
 281  593.8333
 282  192.7897
 283  380.2409
 284  338.269
 285  42.89
 286  564.0336
 287  397.4521
 288  163.9405
 289  438.4578
 290  268.9886
 291  331.0876
 292  305.9683
 293  319.8895
 294  338.7519
 295  616.4326
 296  390.6426
 297  416.0455
 298  360.971
 299  610.2834
 300  648.6254
 301  533.4448
 302  321.975
 303  406.7766
 304  681.1072
 305  986.754
 306  872.0293
 307  809.9035
 308  517.4819
 309  732.6967
 310  852.7646
 311  555.7061
 312  435.4246
 313  365.43
 314  440.6601
 315  347.4149
 316  375.0596
 317  405.9416
 318  237.7346
 319  220.803
 320  444.4895
 321  1217.839
 322  1489.639
 323  1249.775
 324  1626.012
 325  1861.457
 326  1448.973
 327  1011.513
 328  591.8102
 329  456.9935
 330  227.9439
 331  259.4691
 332  17.03096
 333  489.4172
 334  491.3496
 335  265.1287
 336  419.7863
 337  894.0579
 338  670.7203
 339  412.4054
 340  711.7655
 341  876.1904
 342  388.8707
 343  311.1412
 344  399.2109
 345  517.918
 346  562.3252
 347  730.4181
 348  661.3228
 349  103.536
 350  565.1808
 351  435.1494
 352  294.7645
 353  319.4695
 354  112.6776
 355  440.1484
 356  57.2028
 357  175.9855
 358  440.9223
 359  498.8055
 360  209.9565
 361  -309.9733
 362  117.0447
 363  558.0804
 364  688.2247
 365  283.6298
 366  259.2584
 367  423.8896
 368  582.0745
 369  184.7579
 370  -67.90099
 371  -148.86
 372  90.04781
 373  558.9521
 374  702.9014
 375  219.8631
 376  121.9167
 377  226.4533
 378  238.0781
 379  319.6853
 380  239.6854
 381  -12.5365
 382  -100.9938
 383  45.32175
 384  175.5501
 385  400.8795
 386  551.9829
 387  372.0521
 388  114.8472
 389  263.3027
 390  124.9331
 391  456.5111
 392  525.8945
 393  221.7919
 394  97.0136
 395  543.4717
 396  218.313
 397  -294.7844
 398  340.8381
 399  622.6009
 400  273.0546
 401  76.08385
 402  181.7912
 403  181.2822
 404  587.4898
 405  581.8078
 406  470.0898
 407  229.4898
 408  355.821
 409  322.4056
 410  310.5712
 411  625.9452
 412  500.7996
 413  492.0524
 414  425.3979
 415  427.0071
 416  253.8845
 417  255.7756
 418  350.0103
 419  538.7261
 420  319.0568
 421  304.6094
 422  192.3918
 423  262.6283
 424  491.9888
 425  492.7045
 426  565.9787
 427  478.8193
 428  476.0638
 429  449.2951
 430  427.4332
 431  282.7211
 432  251.0644
 433  393.2332
 434  431.0945
 435  658.1838
 436  491.3561
 437  -46.89946
 438  -142.2116
 439  220.5142
 440  347.0422
 441  373.232
 442  602.7416
 443  248.4417
 444  174.3494
 445  211.9564
 446  490.0107
 447  244.0328
 448  286.7875
 449  275.8575
 450  -99.25942
 451  35.83854
 452  239.0252
 453  349.2893
 454  563.9645
 455  383.9497
 456  301.5988
 457  448.6768
 458  443.7331
 459  102.9227
 460  416.6277
 461  355.5464
 462  666.7678
 463  444.9891
 464  318.1018
 465  574.9329
 466  723.3624
 467  920.287
 468  477.1032
 469  296.1217
 470  546.3298
 471  623.1622
 472  168.4426
 473  355.3207
 474  211.0164
 475  407.3884
 476  677.9763
 477  342.192
 478  60.66062
 479  41.93537
 480  434.3152
 481  262.0321
 482  397.834
 483  389.4352
 484  35.1269
 485  -149.6045
 486  142.9855
 487  54.26554
 488  482.8923
 489  471.8304
 490  337.1822
 491  386.6767
 492  120.2384
 493  -67.6319
 494  200.4153
 495  486.0406
 496  491.2815
 497  162.4143
 498  233.8388
 499  91.84742
 500  30.53748
 501  188.3897
 502  309.6438
 503  497.4684
 504  189.0737
 505  79.30071
 506  358.9055
 507  83.29809
 508  263.4494
 509  475.2042
 510  818.3423
 511  465.7869
