# Input file       =  1186210989.145512_cleaned.dat
# Candidate        =  PSR_0332+5434
# Telescope        =  AR
# Epoch_topo       =  57973.294075758240
# Epoch_bary       =  N/A
# T_sample         =  0.002
# Data Folded      =  7340032
# Data Avg         =  0.0195053518982605
# Data StdDev      =  2.6931202214294  
# Profile Bins     =  256
# Profile Avg      =  559.078372480516 
# Profile StdDev   =  456.020886828889 
# Reduced chi-sqr  =  1.885
# Prob(Noise)      <  4.77e-16   (~8.0 sigma)
# P_topo (ms)      =  714.467065619097  +/- 0.000201
# P'_topo (s/s)    =  -0                +/- 1.06e-10
# P''_topo (s/s^2) =  0                 +/- 4.69e-14
# P_bary (ms)      =  N/A
# P'_bary (s/s)    =  N/A
# P''_bary (s/s^2) =  N/A
# P_orb (s)        =  N/A
# asin(i)/c (s)    =  N/A
# eccentricity     =  N/A
# w (rad)          =  N/A
# T_peri           =  N/A
######################################################
   0  592.8892
   1  702.5363
   2  1462.099
   3  254.0356
   4  -119.3063
   5  463.2879
   6  52.66739
   7  486.3201
   8  990.7324
   9  698.2109
  10  208.2309
  11  901.2293
  12  419.5806
  13  322.0003
  14  403.7954
  15  43.69707
  16  -92.45206
  17  -90.64834
  18  57.46161
  19  65.93334
  20  1179.234
  21  264.821
  22  459.0334
  23  472.4486
  24  1031.711
  25  575.3086
  26  263.9885
  27  -309.4549
  28  156.2825
  29  386.618
  30  384.0765
  31  564.5552
  32  839.5995
  33  712.7527
  34  474.675
  35  -387.3419
  36  217.9273
  37  195.5149
  38  517.8662
  39  195.2405
  40  1089.098
  41  671.03
  42  401.1208
  43  -763.3623
  44  166.5283
  45  190.3725
  46  259.06
  47  -228.5956
  48  578.1926
  49  612.2632
  50  562.4795
  51  58.31117
  52  802.7576
  53  224.8608
  54  278.9468
  55  417.6993
  56  443.182
  57  -329.1353
  58  236.9158
  59  566.7574
  60  661.4197
  61  1022.183
  62  485.0551
  63  329.8254
  64  458.6013
  65  269.5495
  66  896.4796
  67  79.06237
  68  606.6616
  69  1386.562
  70  1186.481
  71  915.0052
  72  954.9567
  73  83.95602
  74  716.2725
  75  910.5133
  76  197.5431
  77  794.0112
  78  702.9745
  79  -448.676
  80  130.1571
  81  289.9661
  82  571.2415
  83  200.1352
  84  378.0579
  85  30.69716
  86  376.6502
  87  1325.467
  88  961.529
  89  539.9138
  90  939.4882
  91  728.3
  92  216.3394
  93  61.46537
  94  526.3246
  95  337.8428
  96  255.5297
  97  374.4095
  98  682.2346
  99  -576.4313
 100  309.7141
 101  731.3231
 102  392.7231
 103  -191.3649
 104  564.6755
 105  892.7776
 106  1271.52
 107  682.7805
 108  427.5073
 109  320.4214
 110  364.2503
 111  873.998
 112  506.8879
 113  217.9464
 114  683.5989
 115  1439.634
 116  792.4196
 117  838.2791
 118  565.0611
 119  595.7447
 120  656.2058
 121  135.6476
 122  441.8896
 123  334.0484
 124  749.5099
 125  219.2899
 126  323.3111
 127  -23.32248
 128  924.8271
 129  203.0626
 130  -93.46061
 131  485.6438
 132  1101.882
 133  1364.076
 134  765.4462
 135  1028.329
 136  730.918
 137  500.4601
 138  1214.232
 139  610.8512
 140  797.3552
 141  573.27
 142  699.1099
 143  415.5067
 144  174.318
 145  422.5568
 146  920.5424
 147  891.8761
 148  584.9039
 149  451.9042
 150  54.88599
 151  -103.0593
 152  759.1452
 153  1065.648
 154  1135.342
 155  805.7103
 156  606.6121
 157  483.0692
 158  1260.664
 159  1162.078
 160  1704.848
 161  3196.757
 162  4054.518
 163  2562.24
 164  1042.238
 165  969.8121
 166  613.8904
 167  247.2203
 168  162.5327
 169  618.5048
 170  1708.08
 171  658.6209
 172  321.9622
 173  772.4401
 174  593.0188
 175  393.9966
 176  608.614
 177  529.9572
 178  674.6949
 179  404.2328
 180  202.5535
 181  319.0773
 182  170.8164
 183  -282.4532
 184  -148.2598
 185  -496.8404
 186  512.3589
 187  440.0271
 188  491.1507
 189  330.9918
 190  761.4915
 191  -267.9688
 192  242.726
 193  61.22943
 194  -116.2203
 195  -551.6465
 196  -96.76872
 197  130.0715
 198  23.84554
 199  -346.8495
 200  291.9388
 201  525.6332
 202  375.4845
 203  449.5648
 204  264.3797
 205  413.3113
 206  414.1515
 207  860.2433
 208  798.4404
 209  1019.85
 210  1158.991
 211  256.8063
 212  338.7697
 213  13.03244
 214  222.7824
 215  -117.81
 216  555.6022
 217  534.1482
 218  1052.591
 219  1111.808
 220  1549.123
 221  1409.693
 222  1114.157
 223  246.3794
 224  911.6758
 225  1023.408
 226  110.9895
 227  -91.59705
 228  986.7382
 229  1451.605
 230  787.9443
 231  549.1796
 232  318.0097
 233  364.254
 234  634.2163
 235  1257.896
 236  1467.585
 237  1067.178
 238  1284.831
 239  1407.454
 240  1054.455
 241  1202.755
 242  1320.285
 243  174.9301
 244  354.9878
 245  303.6052
 246  1982.933
 247  1092.452
 248  387.4496
 249  504.3342
 250  485.4066
 251  728.4593
 252  -271.2796
 253  833.6008
 254  925.3954
 255  508.7627
