# Input file       =  1186454626.109951_cleaned.dat
# Candidate        =  PSR_0332+5434
# Telescope        =  AR
# Epoch_topo       =  57976.113948031838
# Epoch_bary       =  N/A
# T_sample         =  0.002
# Data Folded      =  7340032
# Data Avg         =  0.0243026686927935
# Data StdDev      =  2.45112293139954 
# Profile Bins     =  512
# Profile Avg      =  348.317189774997 
# Profile StdDev   =  293.480391109187 
# Reduced chi-sqr  =  1.332
# Prob(Noise)      <  6.81e-07   (~4.8 sigma)
# P_topo (ms)      =  714.465869151258  +/- 0.000191
# P'_topo (s/s)    =  -0                +/- 1.01e-10
# P''_topo (s/s^2) =  0                 +/- 4.45e-14
# P_bary (ms)      =  N/A
# P'_bary (s/s)    =  N/A
# P''_bary (s/s^2) =  N/A
# P_orb (s)        =  N/A
# asin(i)/c (s)    =  N/A
# eccentricity     =  N/A
# w (rad)          =  N/A
# T_peri           =  N/A
######################################################
   0  157.9716
   1  200.588
   2  373.3393
   3  126.8398
   4  403.1767
   5  571.3461
   6  360.5529
   7  215.8266
   8  245.0551
   9  279.4497
  10  25.31713
  11  98.88544
  12  193.6445
  13  149.6207
  14  271.6799
  15  300.9043
  16  494.1511
  17  464.9165
  18  307.6386
  19  247.8053
  20  461.7583
  21  748.0178
  22  636.1963
  23  520.7368
  24  155.8691
  25  195.7526
  26  26.43192
  27  159.9039
  28  -57.53147
  29  470.4106
  30  785.3644
  31  404.0533
  32  374.3493
  33  372.2218
  34  470.3224
  35  540.8497
  36  766.2737
  37  519.8033
  38  390.1162
  39  657.2249
  40  414.3255
  41  132.2924
  42  195.685
  43  232.1941
  44  -9.179168
  45  258.4395
  46  446.4031
  47  457.6402
  48  583.0505
  49  451.9417
  50  442.1588
  51  208.4468
  52  390.5874
  53  608.3005
  54  495.49
  55  367.7673
  56  323.2415
  57  48.15172
  58  214.8219
  59  420.6987
  60  447.8993
  61  474.4007
  62  199.8747
  63  387.3941
  64  531.8292
  65  157.3761
  66  416.5042
  67  518.0896
  68  91.40647
  69  124.3881
  70  136.0575
  71  585.2918
  72  711.6058
  73  644.3439
  74  620.7388
  75  580.0402
  76  359.2064
  77  394.1663
  78  339.3159
  79  659.1996
  80  415.2426
  81  -76.70857
  82  383.474
  83  446.6428
  84  432.4809
  85  22.8836
  86  237.7195
  87  141.5827
  88  126.8953
  89  12.19064
  90  340.4818
  91  92.7157
  92  117.1786
  93  200.3909
  94  213.6542
  95  541.6891
  96  316.0765
  97  26.40265
  98  384.9426
  99  380.0923
 100  504.8232
 101  276.7074
 102  334.8884
 103  579.8555
 104  507.3785
 105  218.2143
 106  110.7902
 107  128.3968
 108  345.3485
 109  327.4034
 110  348.4514
 111  35.09564
 112  292.3244
 113  461.361
 114  451.5769
 115  109.0249
 116  388.7749
 117  723.9114
 118  541.5478
 119  616.7416
 120  572.0218
 121  547.1866
 122  226.05
 123  499.8895
 124  573.6528
 125  569.8427
 126  456.4385
 127  373.497
 128  -191.4741
 129  -14.99302
 130  42.60159
 131  470.6664
 132  410.9532
 133  487.3318
 134  382.267
 135  158.7684
 136  -46.30885
 137  11.57082
 138  226.5323
 139  339.4951
 140  275.2574
 141  269.6573
 142  -29.27116
 143  109.2849
 144  420.3723
 145  680.1937
 146  847.3995
 147  736.268
 148  420.1433
 149  528.712
 150  442.0508
 151  10.63978
 152  278.2788
 153  381.6305
 154  431.4562
 155  338.3681
 156  293.1117
 157  565.4154
 158  525.0254
 159  192.5465
 160  521.3566
 161  496.3472
 162  717.9089
 163  548.1561
 164  559.5123
 165  577.7883
 166  422.9022
 167  323.0245
 168  535.2333
 169  203.1888
 170  79.28566
 171  221.2194
 172  187.5038
 173  508.1025
 174  366.0477
 175  100.1726
 176  -64.59006
 177  28.38261
 178  290.2423
 179  329.4609
 180  187.8733
 181  125.1793
 182  8.776819
 183  -157.0482
 184  95.8822
 185  249.8953
 186  283.9554
 187  229.1417
 188  227.6888
 189  235.4903
 190  295.3167
 191  272.7325
 192  245.8257
 193  404.9014
 194  94.70273
 195  134.3613
 196  77.98091
 197  -104.1502
 198  56.09666
 199  370.2523
 200  286.3582
 201  295.4266
 202  -20.58058
 203  206.794
 204  51.70459
 205  87.21749
 206  341.348
 207  -40.92516
 208  199.5581
 209  351.5905
 210  549.6819
 211  422.2974
 212  540.9401
 213  566.0149
 214  662.9852
 215  252.1178
 216  456.1395
 217  217.6171
 218  439.7914
 219  363.9036
 220  506.129
 221  373.7142
 222  315.9316
 223  6.801604
 224  49.39716
 225  -74.2859
 226  74.9313
 227  -20.08542
 228  11.06014
 229  208.8227
 230  -62.46824
 231  267.2073
 232  243.6681
 233  450.9573
 234  324.2357
 235  220.3639
 236  81.30646
 237  321.2286
 238  182.8042
 239  162.8605
 240  -146.4418
 241  283.2163
 242  375.016
 243  328.5775
 244  237.2791
 245  258.1184
 246  609.4172
 247  739.7567
 248  329.0427
 249  16.4587
 250  303.1368
 251  343.6442
 252  238.2923
 253  89.34008
 254  -145.4916
 255  188.9286
 256  217.3039
 257  -138.3094
 258  -194.3255
 259  35.89618
 260  12.8045
 261  197.0673
 262  336.5792
 263  384.9536
 264  353.5331
 265  401.7852
 266  81.8859
 267  419.7857
 268  359.4719
 269  85.02615
 270  339.9326
 271  511.1614
 272  343.2967
 273  713.8272
 274  488.6025
 275  143.6705
 276  482.6757
 277  224.2146
 278  78.58936
 279  179.0079
 280  450.1299
 281  356.8394
 282  191.6309
 283  516.683
 284  303.0945
 285  96.62778
 286  -26.19087
 287  2.536543
 288  208.1242
 289  376.3948
 290  601.2728
 291  284.3003
 292  410.2635
 293  318.1169
 294  43.78298
 295  173.3258
 296  679.9597
 297  530.4764
 298  -197.3885
 299  106.7462
 300  460.9051
 301  231.0364
 302  228.2704
 303  501.8398
 304  537.4522
 305  138.7751
 306  7.260819
 307  195.5419
 308  224.9381
 309  366.1707
 310  680.4426
 311  458.9878
 312  453.0435
 313  494.5116
 314  434.8467
 315  403.3177
 316  269.4734
 317  434.2455
 318  818.7764
 319  620.5865
 320  775.8413
 321  1083.364
 322  1272.163
 323  1523.522
 324  1831.928
 325  2085.008
 326  1618.899
 327  970.7936
 328  458.8328
 329  219.9129
 330  113.1828
 331  318.7344
 332  262.4136
 333  289.2824
 334  307.5713
 335  322.8241
 336  228.8511
 337  -122.3278
 338  167.9286
 339  340.2543
 340  621.9685
 341  557.6558
 342  416.9793
 343  439.8652
 344  599.6054
 345  339.519
 346  210.0476
 347  209.7976
 348  236.9419
 349  300.115
 350  800.9318
 351  712.0585
 352  670.6124
 353  154.0095
 354  306.6061
 355  381.9056
 356  305.7566
 357  503.9753
 358  395.6662
 359  240.581
 360  163.5662
 361  171.9952
 362  25.08775
 363  41.76815
 364  179.7997
 365  426.7479
 366  308.0695
 367  1.367039
 368  285.6279
 369  450.3455
 370  839.0901
 371  906.0082
 372  651.9526
 373  669.0906
 374  579.5527
 375  226.4138
 376  334.8831
 377  333.9866
 378  733.2144
 379  649.384
 380  477.373
 381  372.5215
 382  305.0209
 383  251.9637
 384  398.6577
 385  380.728
 386  479.6262
 387  417.2719
 388  168.951
 389  685.6248
 390  750.976
 391  474.9417
 392  170.3736
 393  344.0326
 394  487.0845
 395  116.4924
 396  341.2921
 397  326.9486
 398  282.7576
 399  334.8441
 400  361.4909
 401  309.4256
 402  352.0058
 403  117.9066
 404  -66.97694
 405  463.0511
 406  695.7827
 407  556.7405
 408  360.7272
 409  167.6795
 410  414.0694
 411  631.8545
 412  354.2528
 413  -42.65078
 414  -16.9405
 415  332.5431
 416  510.7159
 417  407.3106
 418  286.307
 419  547.0754
 420  393.4893
 421  462.803
 422  476.6248
 423  429.4268
 424  379.5312
 425  281.9253
 426  53.79129
 427  124.1005
 428  220.3464
 429  246.1769
 430  476.282
 431  429.2552
 432  141.7816
 433  294.1565
 434  379.0121
 435  457.0255
 436  446.3965
 437  565.0461
 438  303.0576
 439  154.4545
 440  473.3219
 441  379.2739
 442  495.0991
 443  419.4444
 444  211.962
 445  536.0081
 446  354.5938
 447  314.2602
 448  219.0226
 449  415.6788
 450  384.5385
 451  326.0414
 452  514.5425
 453  434.4041
 454  386.8268
 455  237.3934
 456  33.04686
 457  85.28471
 458  622.1934
 459  616.5882
 460  171.9173
 461  182.9927
 462  72.51744
 463  180.0924
 464  419.6297
 465  458.0984
 466  510.2975
 467  698.6138
 468  474.3049
 469  441.47
 470  437.5153
 471  141.9879
 472  55.00098
 473  215.6722
 474  339.0218
 475  333.7027
 476  318.9494
 477  673.4484
 478  659.575
 479  473.5953
 480  358.5773
 481  365.1298
 482  335.2993
 483  336.776
 484  350.3045
 485  271.1186
 486  518.6341
 487  425.2313
 488  583.5084
 489  194.6784
 490  391.3159
 491  620.3639
 492  410.8809
 493  354.6465
 494  437.1303
 495  697.5776
 496  580.22
 497  312.5381
 498  254.6532
 499  396.4516
 500  761.0934
 501  698.1163
 502  238.549
 503  432.9696
 504  485.5373
 505  456.7795
 506  385.1294
 507  382.1655
 508  343.8845
 509  432.9863
 510  253.8333
 511  404.1997
