# Input file       =  1186282239.11017_cleaned.dat
# Candidate        =  PSR_0332+5434
# Telescope        =  AR
# Epoch_topo       =  57974.118728126967
# Epoch_bary       =  N/A
# T_sample         =  0.002
# Data Folded      =  7340032
# Data Avg         =  0.0155848041343104
# Data StdDev      =  2.33782003470562 
# Profile Bins     =  512
# Profile Avg      =  223.590409733323 
# Profile StdDev   =  279.914291257741 
# Reduced chi-sqr  =  1.553
# Prob(Noise)      <  1.3e-14   (~7.6 sigma)
# P_topo (ms)      =  714.466466931672  +/- 0.000216
# P'_topo (s/s)    =  -0                +/- 1.14e-10
# P''_topo (s/s^2) =  0                 +/- 5.02e-14
# P_bary (ms)      =  N/A
# P'_bary (s/s)    =  N/A
# P''_bary (s/s^2) =  N/A
# P_orb (s)        =  N/A
# asin(i)/c (s)    =  N/A
# eccentricity     =  N/A
# w (rad)          =  N/A
# T_peri           =  N/A
######################################################
   0  142.2045
   1  139.505
   2  99.31283
   3  125.5194
   4  12.78531
   5  -301.2361
   6  57.76569
   7  192.3275
   8  163.5027
   9  349.1244
  10  293.5599
  11  380.4051
  12  425.9115
  13  382.177
  14  396.7437
  15  152.6659
  16  311.3998
  17  296.6527
  18  335.9667
  19  300.9421
  20  417.3522
  21  298.5209
  22  176.5326
  23  144.8624
  24  54.75274
  25  192.4794
  26  284.1836
  27  138.2926
  28  342.0652
  29  257.9048
  30  234.3927
  31  165.8694
  32  200.0637
  33  420.6028
  34  382.9478
  35  494.2372
  36  327.6732
  37  148.0894
  38  72.40556
  39  365.6842
  40  519.6356
  41  267.0436
  42  69.59181
  43  344.7688
  44  133.5616
  45  124.5045
  46  421.1698
  47  288.4267
  48  129.1139
  49  53.73589
  50  254.8922
  51  483.2481
  52  671.2006
  53  393.3008
  54  319.5234
  55  390.8972
  56  362.861
  57  313.5491
  58  549.8687
  59  203.3043
  60  139.1285
  61  344.0573
  62  446.1861
  63  118.11
  64  273.6436
  65  58.20924
  66  50.47009
  67  57.03115
  68  93.24857
  69  85.57247
  70  249.4119
  71  359.9051
  72  305.2884
  73  -54.59566
  74  -122.891
  75  -71.64752
  76  39.84869
  77  -67.38514
  78  -67.05231
  79  -240.1937
  80  9.341786
  81  -196.9534
  82  -89.01469
  83  290.4496
  84  301.7393
  85  268.8508
  86  97.08817
  87  -111.1218
  88  -87.58327
  89  138.2039
  90  293.3849
  91  118.2165
  92  203.7566
  93  122.1168
  94  139.6926
  95  315.5236
  96  252.6221
  97  371.4878
  98  70.09271
  99  260.4326
 100  278.1148
 101  320.4523
 102  361.1799
 103  218.3624
 104  316.2165
 105  -19.01155
 106  -145.027
 107  217.9413
 108  254.411
 109  158.0636
 110  -77.66233
 111  -60.6299
 112  17.31602
 113  -21.33617
 114  31.58919
 115  4.236894
 116  250.0058
 117  69.46793
 118  312.3003
 119  139.8051
 120  66.22363
 121  135.2761
 122  363.5064
 123  449.2126
 124  596.9512
 125  112.8181
 126  -28.96616
 127  274.8356
 128  524.6631
 129  289.9337
 130  224.1766
 131  213.2005
 132  82.75659
 133  363.8907
 134  420.2363
 135  372.2177
 136  181.5074
 137  -97.99736
 138  -158.126
 139  78.41551
 140  410.8104
 141  267.2319
 142  114.9596
 143  299.4779
 144  164.5039
 145  -89.57591
 146  -73.08527
 147  250.2592
 148  664.0613
 149  597.9678
 150  280.365
 151  56.48877
 152  358.401
 153  324.5963
 154  433.5486
 155  290.8973
 156  -30.84464
 157  -95.58093
 158  19.09486
 159  316.4277
 160  341.1227
 161  106.9654
 162  -241.2854
 163  -26.15152
 164  306.0739
 165  404.194
 166  577.2064
 167  438.2061
 168  -18.53039
 169  109.6534
 170  218.4431
 171  578.9026
 172  -1.664811
 173  -60.9556
 174  203.4445
 175  286.3065
 176  509.9526
 177  615.9702
 178  292.0633
 179  298.8276
 180  419.656
 181  160.315
 182  39.30469
 183  505.7412
 184  516.6572
 185  408.0044
 186  342.2768
 187  389.4128
 188  206.4166
 189  454.1696
 190  282.7409
 191  234.5995
 192  20.27997
 193  274.5252
 194  342.9232
 195  272.1835
 196  542.3098
 197  171.4742
 198  39.87006
 199  83.54272
 200  247.6006
 201  312.9524
 202  367.4409
 203  312.5006
 204  507.5609
 205  624.9685
 206  278.3829
 207  126.3412
 208  95.8277
 209  124.1726
 210  347.4975
 211  372.1638
 212  307.2726
 213  79.96119
 214  116.5336
 215  193.0197
 216  322.276
 217  302.7158
 218  93.21774
 219  215.2419
 220  314.2599
 221  415.4309
 222  408.8727
 223  232.7333
 224  145.8999
 225  164.0949
 226  383.6162
 227  289.9251
 228  290.9159
 229  300.2869
 230  451.3348
 231  421.5976
 232  376.061
 233  400.7051
 234  127.9683
 235  231.0592
 236  136.171
 237  345.9119
 238  642.8365
 239  313.7811
 240  178.6351
 241  160.3552
 242  453.9212
 243  380.032
 244  271.335
 245  130.6752
 246  140.6317
 247  -84.80626
 248  61.99563
 249  175.3313
 250  83.40515
 251  66.93468
 252  29.10728
 253  53.88299
 254  340.0376
 255  12.66135
 256  -23.26334
 257  -72.86156
 258  -86.28552
 259  71.17284
 260  185.9271
 261  287.1723
 262  -102.9883
 263  123.7004
 264  358.9247
 265  -34.13903
 266  -66.3597
 267  195.2457
 268  34.8861
 269  -106.6668
 270  -139.7141
 271  -109.3532
 272  213.8447
 273  -7.852662
 274  324.1956
 275  308.428
 276  483.2455
 277  219.3297
 278  158.4317
 279  406.8683
 280  483.5744
 281  240.8222
 282  188.2665
 283  123.1097
 284  69.86093
 285  227.5716
 286  139.7723
 287  308.9821
 288  -12.20824
 289  -40.76347
 290  -126.1234
 291  -63.90041
 292  346.4722
 293  125.1593
 294  323.4434
 295  184.0727
 296  201.7778
 297  124.9402
 298  -56.15638
 299  62.18027
 300  -75.5634
 301  164.6613
 302  248.0641
 303  135.3687
 304  -14.91845
 305  -1.449955
 306  160.4921
 307  30.67489
 308  140.7895
 309  260.4597
 310  -18.52509
 311  4.606537
 312  227.4676
 313  147.9478
 314  9.5149
 315  253.5241
 316  251.4366
 317  235.1532
 318  353.6023
 319  634.7807
 320  593.1048
 321  1055.867
 322  1438.351
 323  1348.843
 324  1815.188
 325  1994.451
 326  1814.187
 327  1464.896
 328  689.3986
 329  519.7014
 330  474.0948
 331  276.6032
 332  236.8843
 333  254.6467
 334  280.274
 335  318.917
 336  390.4862
 337  595.5825
 338  611.5247
 339  90.98387
 340  -307.5806
 341  -506.3279
 342  -363.6696
 343  204.9149
 344  97.61369
 345  -131.1451
 346  -150.1147
 347  -91.08514
 348  -62.36043
 349  -243.6243
 350  -240.5351
 351  -119.6467
 352  -176.9828
 353  41.09436
 354  -15.79764
 355  133.9773
 356  319.7254
 357  -38.71631
 358  -142.1171
 359  158.0612
 360  227.6102
 361  136.5018
 362  119.8055
 363  79.66831
 364  285.0032
 365  299.1642
 366  389.2118
 367  88.57982
 368  380.0911
 369  428.607
 370  457.1937
 371  384.1864
 372  337.8919
 373  259.9084
 374  -238.2818
 375  11.75986
 376  232.5016
 377  541.1953
 378  220.4541
 379  -88.48262
 380  25.60042
 381  139.7975
 382  121.4748
 383  62.62842
 384  237.472
 385  176.3574
 386  345.3292
 387  282.5567
 388  -227.3306
 389  -124.1839
 390  58.47644
 391  138.2195
 392  49.52958
 393  26.31021
 394  280.8478
 395  228.8084
 396  54.64844
 397  -5.251272
 398  24.14417
 399  290.5405
 400  124.5406
 401  439.4799
 402  378.0292
 403  84.47961
 404  79.94858
 405  133.5125
 406  -51.00317
 407  229.4315
 408  87.55322
 409  164.0845
 410  72.98795
 411  288.4668
 412  121.631
 413  87.50635
 414  298.9788
 415  532.9407
 416  420.8275
 417  515.2594
 418  336.8336
 419  23.77122
 420  132.5526
 421  430.4649
 422  133.4114
 423  -9.044494
 424  351.5845
 425  248.5792
 426  189.2892
 427  513.8641
 428  443.1852
 429  46.54143
 430  208.4986
 431  63.3807
 432  148.4471
 433  252.1599
 434  -40.16092
 435  269.4493
 436  279.4164
 437  428.2267
 438  590.3666
 439  371.1601
 440  453.5424
 441  103.9196
 442  387.7044
 443  476.5728
 444  272.6075
 445  155.4446
 446  -240.5244
 447  55.7291
 448  569.3642
 449  582.491
 450  359.7821
 451  102.8006
 452  221.8018
 453  171.7108
 454  426.1826
 455  455.526
 456  271.1824
 457  87.29974
 458  182.1735
 459  162.2458
 460  237.1877
 461  533.2138
 462  447.9841
 463  524.6893
 464  426.9225
 465  511.5727
 466  425.7301
 467  35.62464
 468  223.9747
 469  388.7641
 470  367.4996
 471  306.5945
 472  149.3522
 473  217.2715
 474  187.5075
 475  309.8504
 476  515.473
 477  639.1805
 478  562.6596
 479  282.8309
 480  222.1157
 481  241.3489
 482  177.9136
 483  174.5516
 484  225.4563
 485  267.181
 486  -39.12429
 487  263.9555
 488  334.656
 489  580.5696
 490  526.4592
 491  137.9629
 492  -126.117
 493  -65.11365
 494  332.1733
 495  491.8415
 496  422.8598
 497  443.9803
 498  230.7813
 499  -126.2087
 500  94.69737
 501  338.4695
 502  126.7355
 503  253.6653
 504  11.51686
 505  -105.2945
 506  -98.64236
 507  82.2278
 508  4.178155
 509  -1.002558
 510  2.263372
 511  165.1722
