# Input file       =  1186540742.114210-PSRB0329-2ms-sampling-dd.dat
# Candidate        =  PSR_0332+5434
# Telescope        =  AR
# Epoch_topo       =  57977.110661044098
# Epoch_bary       =  N/A
# T_sample         =  0.002
# Data Folded      =  7340032
# Data Avg         =  4.60025624105514e-11
# Data StdDev      =  3.9729531818282  
# Profile Bins     =  512
# Profile Avg      =  -0.165063749740501
# Profile StdDev   =  475.693747843024 
# Reduced chi-sqr  =  1.531
# Prob(Noise)      <  9.79e-14   (~7.4 sigma)
# P_topo (ms)      =  714.465590902232  +/- 0.000478
# P'_topo (s/s)    =  -0                +/- 2.52e-10
# P''_topo (s/s^2) =  0                 +/- 1.11e-13
# P_bary (ms)      =  N/A
# P'_bary (s/s)    =  N/A
# P''_bary (s/s^2) =  N/A
# P_orb (s)        =  N/A
# asin(i)/c (s)    =  N/A
# eccentricity     =  N/A
# w (rad)          =  N/A
# T_peri           =  N/A
######################################################
   0  62.02788
   1  -64.04487
   2  104.5774
   3  90.59997
   4  -49.87816
   5  75.36658
   6  -208.8413
   7  -29.24509
   8  -30.43833
   9  43.20309
  10  167.2205
  11  9.749842
  12  11.86358
  13  -102.2219
  14  111.6299
  15  -57.68739
  16  -216.1902
  17  -53.11008
  18  -91.35607
  19  -164.8556
  20  99.44003
  21  169.4798
  22  -132.6526
  23  59.58261
  24  475.6776
  25  154.9579
  26  -90.5268
  27  -116.3481
  28  -18.96305
  29  -334.6834
  30  -258.4156
  31  -139.286
  32  -426.9668
  33  -379.5786
  34  -71.40102
  35  101.5451
  36  139.8732
  37  119.4624
  38  159.1987
  39  270.1352
  40  244.2361
  41  280.5268
  42  165.4142
  43  -186.5731
  44  -148.2916
  45  52.99081
  46  94.97925
  47  -25.35551
  48  -15.56608
  49  256.2129
  50  -99.86457
  51  -197.2217
  52  -178.8964
  53  -193.3685
  54  -171.8257
  55  -502.2002
  56  -130.0125
  57  -44.74591
  58  31.59026
  59  -18.67591
  60  278.1931
  61  -20.75778
  62  -97.13032
  63  -102.9623
  64  124.1606
  65  -75.08913
  66  -193.1034
  67  -60.55685
  68  -121.7569
  69  -292.6568
  70  67.15238
  71  102.9489
  72  -347.7133
  73  -279.6515
  74  17.61799
  75  27.30506
  76  -89.41568
  77  -50.30948
  78  -333.0293
  79  -278.0183
  80  -277.8574
  81  -335.5392
  82  -375.6512
  83  -306.286
  84  -511.2289
  85  -424.7273
  86  -332.5951
  87  -282.683
  88  -340.7374
  89  -446.1751
  90  -283.2883
  91  -218.822
  92  -263.4735
  93  -125.2635
  94  -297.4175
  95  -306.8421
  96  -203.6923
  97  -303.7204
  98  -385.1643
  99  -532.3741
 100  -385.5186
 101  -560.7602
 102  -241.9286
 103  -86.69142
 104  -349.0073
 105  -664.9017
 106  -618.3039
 107  -111.688
 108  -33.41674
 109  -51.64521
 110  -259.1799
 111  -535.9768
 112  -476.5238
 113  -354.9189
 114  -254.6034
 115  -62.06659
 116  -10.05191
 117  -432.19
 118  -491.5732
 119  -528.1265
 120  -203.2964
 121  -386.0197
 122  -166.7893
 123  -112.5757
 124  -121.4068
 125  -299.29
 126  -372.641
 127  -498.9041
 128  -465.7162
 129  -382.8887
 130  -240.25
 131  -530.5796
 132  -268.7055
 133  -564.3209
 134  -344.5311
 135  -247.2451
 136  -372.6739
 137  -445.693
 138  -324.1063
 139  -79.28075
 140  -469.1081
 141  -350.1606
 142  -359.3352
 143  -607.2065
 144  -147.8533
 145  -104.0054
 146  -487.7493
 147  -379.8716
 148  -412.0446
 149  -417.4523
 150  -462.7737
 151  -293.8112
 152  -496.926
 153  -498.2617
 154  -333.222
 155  -775.968
 156  -759.3773
 157  -81.10403
 158  -177.4156
 159  -246.8805
 160  -277.1392
 161  -190.8679
 162  -553.1022
 163  -408.4733
 164  -264.4496
 165  -333.9066
 166  -157.5077
 167  -336.1979
 168  -211.5995
 169  -221.459
 170  -93.00924
 171  -651.0386
 172  -350.4808
 173  -457.1628
 174  -394.9577
 175  -136.9657
 176  -144.1782
 177  204.7043
 178  337.7621
 179  212.9085
 180  -255.2948
 181  -255.2191
 182  -456.0499
 183  -694.684
 184  -223.4741
 185  -114.3213
 186  -332.9745
 187  -334.4271
 188  -366.9829
 189  -324.3178
 190  -294.8148
 191  -146.4986
 192  -28.34235
 193  -15.48463
 194  -253.469
 195  -288.8099
 196  -478.2868
 197  -459.0151
 198  -467.6165
 199  -605.0898
 200  -380.2035
 201  -286.0035
 202  -191.2069
 203  77.18938
 204  -117.7829
 205  -189.2184
 206  -112.4318
 207  -357.8529
 208  -225.9894
 209  -174.0627
 210  -324.5252
 211  -313.7902
 212  -286.8177
 213  -106.832
 214  -213.4573
 215  -430.9123
 216  -385.4103
 217  111.2964
 218  82.01301
 219  -125.5556
 220  -187.774
 221  -384.8773
 222  -329.5437
 223  -62.37499
 224  -378.2484
 225  -457.412
 226  -127.6636
 227  1.564153
 228  207.9419
 229  -221.7563
 230  -228.0392
 231  -257.5519
 232  -455.7692
 233  -307.666
 234  47.65947
 235  230.1719
 236  37.002
 237  -372.8475
 238  -141.0824
 239  -140.819
 240  44.02971
 241  37.50827
 242  66.50784
 243  63.15245
 244  -102.4213
 245  -208.0869
 246  -231.6595
 247  34.10665
 248  172.2796
 249  -180.8787
 250  -259.0015
 251  -63.25913
 252  -110.7809
 253  71.81571
 254  -8.911728
 255  46.59177
 256  85.38591
 257  0.8586817
 258  -68.13618
 259  -149.0294
 260  -306.3535
 261  -99.10851
 262  -276.8643
 263  -552.5708
 264  -426.5766
 265  -432.093
 266  -33.03655
 267  141.3642
 268  216.9712
 269  160.7511
 270  145.4457
 271  53.26636
 272  24.5592
 273  -108.5126
 274  102.6235
 275  30.04538
 276  107.5597
 277  -402.0876
 278  -328.3748
 279  -167.2638
 280  -52.55387
 281  216.007
 282  113.2704
 283  -86.49165
 284  -252.9616
 285  213.654
 286  197.5997
 287  -113.2266
 288  -85.71925
 289  -285.9285
 290  -238.0137
 291  -248.3663
 292  -373.4252
 293  -343.8586
 294  -310.4079
 295  116.1899
 296  116.9697
 297  -79.80371
 298  -329.2935
 299  -296.3127
 300  -330.2937
 301  -231.534
 302  -181.87
 303  101.1845
 304  380.5639
 305  288.7202
 306  164.9323
 307  52.84253
 308  -198.582
 309  -181.1858
 310  -147.0715
 311  46.20088
 312  266.5316
 313  464.0768
 314  296.1484
 315  49.06606
 316  -192.119
 317  110.4529
 318  271.0136
 319  216.9553
 320  428.8445
 321  137.0223
 322  202.2128
 323  308.3249
 324  295.3528
 325  -53.54822
 326  222.8405
 327  645.9215
 328  327.3547
 329  -18.88141
 330  -131.6163
 331  83.69114
 332  -239.1205
 333  254.6009
 334  124.6585
 335  165.7368
 336  565.0239
 337  336.5774
 338  113.1933
 339  115.6926
 340  241.8955
 341  395.0956
 342  301.8023
 343  162.7036
 344  26.62925
 345  363.8863
 346  274.8468
 347  78.87227
 348  244.5292
 349  342.8243
 350  65.21442
 351  39.11332
 352  55.79107
 353  -7.574783
 354  167.5346
 355  358.7718
 356  455.8103
 357  183.7971
 358  -88.73724
 359  -101.8099
 360  -24.08596
 361  94.07321
 362  191.4775
 363  207.3475
 364  -21.46459
 365  58.92853
 366  407.8359
 367  209.4545
 368  -233.5643
 369  -202.3205
 370  -215.0499
 371  -217.8856
 372  -182.0444
 373  103.0636
 374  268.265
 375  -125.881
 376  392.9822
 377  247.7021
 378  -244.7111
 379  -121.9678
 380  -151.7397
 381  -172.3694
 382  0.3150123
 383  -125.1228
 384  -200.382
 385  -22.83694
 386  -266.6212
 387  -242.3367
 388  -205.8427
 389  40.58458
 390  -153.5583
 391  -56.70908
 392  -148.9548
 393  -250.7543
 394  150.732
 395  258.1834
 396  -117.0638
 397  -512.2564
 398  -53.91653
 399  -114.4133
 400  -310.5998
 401  280.2513
 402  160.1861
 403  128.4608
 404  -181.0992
 405  -332.0577
 406  -20.15931
 407  -114.3629
 408  97.12095
 409  169.6479
 410  191.8577
 411  -17.53645
 412  156.3607
 413  125.285
 414  194.5919
 415  271.9202
 416  456.731
 417  227.2771
 418  442.5502
 419  462.9675
 420  461.1459
 421  371.3848
 422  63.78792
 423  162.0558
 424  252.4077
 425  -77.29819
 426  303.0507
 427  483.1533
 428  595.7163
 429  223.4734
 430  523.7014
 431  671.4401
 432  821.1617
 433  898.22
 434  1326.183
 435  1616.165
 436  1755.987
 437  1904.769
 438  1841.222
 439  1019.943
 440  637.9855
 441  230.0714
 442  550.6279
 443  353.6077
 444  96.87823
 445  -205.516
 446  -243.9213
 447  -72.63351
 448  140.4147
 449  342.0036
 450  256.7088
 451  158.0668
 452  180.4921
 453  371.5332
 454  336.3364
 455  165.2714
 456  411.7002
 457  426.2826
 458  -121.4714
 459  -360.7438
 460  -294.274
 461  101.3224
 462  105.5112
 463  500.2604
 464  330.6429
 465  126.2485
 466  -34.22976
 467  -17.36829
 468  274.4059
 469  478.0357
 470  323.9333
 471  -40.22441
 472  10.99559
 473  222.3326
 474  341.2911
 475  119.208
 476  122.0967
 477  206.6449
 478  28.84128
 479  1121.622
 480  1500.495
 481  1946.857
 482  2288.248
 483  1991.494
 484  960.3356
 485  -38.01895
 486  1339.363
 487  2375.317
 488  2572.018
 489  2457.283
 490  1616.269
 491  215.601
 492  -50.1713
 493  92.34965
 494  25.73127
 495  -212.5315
 496  181.2682
 497  266.0524
 498  181.0529
 499  101.4831
 500  162.8948
 501  -6.070746
 502  155.989
 503  161.6263
 504  9.590332
 505  148.8703
 506  354.6082
 507  263.2343
 508  325.8123
 509  3.5146
 510  -34.75258
 511  141.9824
