# Input file       =  1186023785.110087-PSRB0329-2ms-sampling-dd.dat
# Candidate        =  PSR_0332+5434
# Telescope        =  AR
# Epoch_topo       =  57971.127362385268
# Epoch_bary       =  N/A
# T_sample         =  0.002
# Data Folded      =  7340032
# Data Avg         =  -9.05614120452543e-10
# Data StdDev      =  3.55326649857337 
# Profile Bins     =  512
# Profile Avg      =  0.149548220614479
# Profile StdDev   =  425.44338693003  
# Reduced chi-sqr  =  1.016
# Prob(Noise)      <  0.391   (~0.3 sigma)
# P_topo (ms)      =  714.467471698042  +/- 0.000158
# P'_topo (s/s)    =  -0                +/- 8.34e-11
# P''_topo (s/s^2) =  0                 +/- 3.68e-14
# P_bary (ms)      =  N/A
# P'_bary (s/s)    =  N/A
# P''_bary (s/s^2) =  N/A
# P_orb (s)        =  N/A
# asin(i)/c (s)    =  N/A
# eccentricity     =  N/A
# w (rad)          =  N/A
# T_peri           =  N/A
######################################################
   0  -489.5708
   1  -243.3251
   2  -514.325
   3  -746.4589
   4  -466.1971
   5  -336.2584
   6  -440.1643
   7  -237.2529
   8  -257.2035
   9  -420.3332
  10  -475.0854
  11  -204.8894
  12  124.3543
  13  -60.36659
  14  49.65721
  15  -16.90879
  16  -175.6221
  17  -200.3406
  18  18.73757
  19  -247.2333
  20  -277.0855
  21  -352.7609
  22  -384.1319
  23  -47.59479
  24  -217.1426
  25  -257.9088
  26  -119.5982
  27  38.83585
  28  -41.12282
  29  -87.87952
  30  -203.6408
  31  -429.311
  32  -419.7686
  33  -218.8155
  34  -145.371
  35  2.989201
  36  52.43018
  37  -1.217829
  38  91.64499
  39  -283.128
  40  -360.5679
  41  127.5651
  42  178.5079
  43  -136.6012
  44  -45.33744
  45  362.7398
  46  168.6264
  47  -335.523
  48  -144.4805
  49  -88.05132
  50  -213.1763
  51  -47.76578
  52  133.659
  53  277.6292
  54  415.5288
  55  -188.5313
  56  -127.8613
  57  -251.1442
  58  -443.5737
  59  -484.7567
  60  -315.5995
  61  -43.5807
  62  51.98833
  63  147.7884
  64  -114.4861
  65  -228.0586
  66  -121.6029
  67  -148.7829
  68  -141.0088
  69  -162.8649
  70  111.6702
  71  76.68368
  72  -180.359
  73  196.1235
  74  69.29385
  75  18.87637
  76  -13.71461
  77  -68.31522
  78  79.26087
  79  282.2624
  80  21.69015
  81  -217.8354
  82  -172.0861
  83  -286.8907
  84  165.476
  85  -6.580074
  86  235.0088
  87  -344.9008
  88  -145.3599
  89  -2.944937
  90  -301.0404
  91  6.107458
  92  -113.962
  93  -136.4248
  94  101.7889
  95  342.0521
  96  673.0405
  97  133.1715
  98  27.01612
  99  257.1729
 100  147.8053
 101  338.8461
 102  540.0778
 103  461.6302
 104  496.5838
 105  372.0881
 106  -63.07522
 107  -66.97935
 108  250.5387
 109  486.8281
 110  621.952
 111  507.147
 112  506.7518
 113  585.4003
 114  432.8807
 115  608.2643
 116  914.0512
 117  1137.328
 118  1513.469
 119  1666.059
 120  1588.878
 121  1666.943
 122  878.1767
 123  382.8078
 124  190.742
 125  249.8637
 126  194.7986
 127  455.0165
 128  472.7484
 129  420.5627
 130  260.1226
 131  -150.5637
 132  -99.92429
 133  -367.0864
 134  -223.2397
 135  357.046
 136  278.5659
 137  -148.7665
 138  -38.63949
 139  131.3391
 140  84.87661
 141  243.2827
 142  80.90686
 143  77.96461
 144  -66.47999
 145  111.3559
 146  363.5067
 147  96.63512
 148  -134.578
 149  80.84393
 150  -151.1972
 151  -289.5675
 152  -71.36454
 153  246.5901
 154  455.993
 155  250.2657
 156  332.8874
 157  -89.05776
 158  -451.9574
 159  -175.3976
 160  -232.2705
 161  -165.8788
 162  -125.036
 163  -198.9789
 164  -180.7172
 165  88.33152
 166  -303.812
 167  -426.0628
 168  -58.31709
 169  -2.092641
 170  130.6434
 171  39.46484
 172  1.887035
 173  -47.17439
 174  -50.27354
 175  -481.7071
 176  -477.5852
 177  -527.0335
 178  -333.381
 179  -63.23327
 180  -285.4016
 181  -206.2476
 182  -120.5091
 183  -337.0319
 184  -287.8196
 185  -20.79447
 186  -177.0388
 187  -556.7029
 188  -346.2982
 189  -503.9493
 190  -152.042
 191  166.6978
 192  -256.6511
 193  -139.8689
 194  -119.5277
 195  176.012
 196  -12.11574
 197  -101.6343
 198  -339.0806
 199  -402.5501
 200  -278.5698
 201  -23.05669
 202  -330.3362
 203  20.98819
 204  -81.03367
 205  -381.9207
 206  -292.4872
 207  -71.89004
 208  -282.8583
 209  -292.5929
 210  -273.4932
 211  -134.0902
 212  -201.3143
 213  -148.8372
 214  -193.0322
 215  16.97297
 216  102.8826
 217  339.6897
 218  512.0663
 219  79.73106
 220  -219.2538
 221  -291.8016
 222  -129.9948
 223  -388.0391
 224  -640.5999
 225  -285.6214
 226  112.4236
 227  -102.7841
 228  -111.2768
 229  111.1796
 230  -268.087
 231  94.47066
 232  154.3164
 233  -203.0048
 234  -191.8972
 235  -46.66473
 236  -141.2214
 237  -64.09657
 238  -127.797
 239  -6.566205
 240  -29.18312
 241  -256.0276
 242  -118.6526
 243  -76.84408
 244  -162.3107
 245  -177.897
 246  -176.6556
 247  -31.02848
 248  -229.5485
 249  -335.2823
 250  -236.393
 251  -252.8455
 252  -260.9051
 253  -504.7846
 254  -194.7988
 255  13.96814
 256  -319.222
 257  -0.5315504
 258  441.0426
 259  182.0313
 260  -97.68732
 261  -133.0036
 262  114.7406
 263  -25.21393
 264  -341.3787
 265  -434.236
 266  -198.381
 267  52.34022
 268  -60.44011
 269  -353.6777
 270  -29.81094
 271  103.5551
 272  -336.0985
 273  -763.8435
 274  -350.5493
 275  218.6803
 276  151.0844
 277  98.21703
 278  -74.88505
 279  -131.3596
 280  -170.7001
 281  -193.7291
 282  -408.1684
 283  -378.2946
 284  -167.6651
 285  -251.4552
 286  -219.0545
 287  -1.907998
 288  13.33566
 289  116.1349
 290  -87.27657
 291  45.33778
 292  23.55133
 293  -289.9424
 294  -629.2704
 295  -521.6591
 296  61.58059
 297  174.1467
 298  132.1288
 299  433.6347
 300  430.3169
 301  338.6971
 302  548.2192
 303  47.86836
 304  -111.1083
 305  399.7488
 306  450.7901
 307  394.0218
 308  185.5617
 309  303.706
 310  486.4281
 311  144.6001
 312  -181.0765
 313  244.2952
 314  192.2845
 315  97.83636
 316  21.54848
 317  291.6784
 318  580.6001
 319  349.9739
 320  153.6372
 321  16.90478
 322  237.4985
 323  385.9867
 324  102.8083
 325  57.01152
 326  88.87414
 327  -16.77179
 328  -7.743658
 329  72.35532
 330  222.9491
 331  222.4362
 332  422.4763
 333  98.68381
 334  178.0809
 335  39.0083
 336  104.98
 337  -30.37884
 338  -63.7374
 339  282.4161
 340  -2.152439
 341  -104.0588
 342  248.8832
 343  97.99663
 344  91.37271
 345  -30.3437
 346  143.0379
 347  181.8122
 348  84.79851
 349  245.4079
 350  17.55618
 351  -74.90663
 352  20.06202
 353  -27.42176
 354  148.0544
 355  136.011
 356  218.7882
 357  568.9962
 358  353.7042
 359  303.6794
 360  248.9266
 361  -122.4127
 362  -6.366077
 363  167.7351
 364  204.7331
 365  -44.05875
 366  -480.8246
 367  -291.1012
 368  -139.992
 369  -299.3802
 370  -219.5528
 371  62.27919
 372  73.98481
 373  180.2905
 374  197.3568
 375  145.1434
 376  -115.4597
 377  -143.0988
 378  -374.5883
 379  -641.4964
 380  -565.6449
 381  -305.3257
 382  -68.94347
 383  -127.0116
 384  -245.1414
 385  -26.37137
 386  -263.8108
 387  -370.9994
 388  -444.0854
 389  78.03799
 390  396.2259
 391  114.0224
 392  299.8737
 393  249.2946
 394  -256.5266
 395  -187.6152
 396  140.3046
 397  198.863
 398  281.2612
 399  373.5056
 400  105.5423
 401  -284.602
 402  233.4457
 403  505.4287
 404  465.3415
 405  362.0009
 406  281.7778
 407  355.1066
 408  289.5578
 409  48.92382
 410  -295.8783
 411  -247.852
 412  34.52523
 413  475.658
 414  629.925
 415  311.6827
 416  311.6573
 417  257.7041
 418  105.6973
 419  -153.6082
 420  -329.4222
 421  -267.4944
 422  -42.64333
 423  151.9873
 424  454.5935
 425  322.7259
 426  248.5039
 427  -267.0933
 428  24.01358
 429  128.0941
 430  -265.8514
 431  -46.4705
 432  220.7909
 433  5.364285
 434  241.13
 435  180.681
 436  -230.7161
 437  -53.95018
 438  -126.9948
 439  708.5189
 440  585.279
 441  203.5467
 442  73.95188
 443  36.06884
 444  160.6725
 445  177.2534
 446  207.3469
 447  24.20039
 448  160.3428
 449  627.4807
 450  161.2855
 451  86.97555
 452  -109.4647
 453  -32.07145
 454  64.40839
 455  75.53259
 456  -101.909
 457  -73.04744
 458  305.9594
 459  359.4156
 460  343.739
 461  49.01534
 462  -366.3884
 463  -285.0972
 464  -25.79563
 465  13.99069
 466  56.15342
 467  344.9336
 468  458.9832
 469  109.6844
 470  -234.1443
 471  -104.2278
 472  -273.3492
 473  -574.8684
 474  64.86581
 475  528.4203
 476  608.0175
 477  -354.7513
 478  -339.6665
 479  82.43718
 480  -116.1296
 481  -99.3445
 482  -38.17349
 483  -79.41765
 484  -266.2283
 485  -261.4997
 486  -124.0341
 487  -198.2343
 488  -90.60249
 489  129.8672
 490  32.4504
 491  -103.1663
 492  -479.0759
 493  -506.3987
 494  -572.1116
 495  -330.6189
 496  -346.2004
 497  -139.3079
 498  -182.7337
 499  -260.1168
 500  -17.53054
 501  258.9666
 502  -12.60218
 503  -424.2201
 504  -313.2694
 505  75.67027
 506  -110.033
 507  -58.10227
 508  80.3344
 509  -96.57047
 510  -229.7901
 511  -172.7359
