# Input file       =  1186612281.106419_cleaned.dat
# Candidate        =  PSR_0332+5434
# Telescope        =  AR
# Epoch_topo       =  57977.938658639112
# Epoch_bary       =  N/A
# T_sample         =  0.002
# Data Folded      =  7208960
# Data Avg         =  0.016593590640928
# Data StdDev      =  1.00017414187862 
# Profile Bins     =  512
# Profile Avg      =  233.630926794302 
# Profile StdDev   =  118.679839325318 
# Reduced chi-sqr  =  1.420
# Prob(Noise)      <  1.15e-09   (~6.0 sigma)
# P_topo (ms)      =  714.46535674248   +/- 0.000165
# P'_topo (s/s)    =  -0                +/- 8.85e-11
# P''_topo (s/s^2) =  0                 +/- 3.98e-14
# P_bary (ms)      =  N/A
# P'_bary (s/s)    =  N/A
# P''_bary (s/s^2) =  N/A
# P_orb (s)        =  N/A
# asin(i)/c (s)    =  N/A
# eccentricity     =  N/A
# w (rad)          =  N/A
# T_peri           =  N/A
######################################################
   0  941.2075
   1  743.9924
   2  689.6471
   3  541.7326
   4  377.1115
   5  288.8723
   6  180.4611
   7  219.4759
   8  308.5721
   9  365.703
  10  318.1867
  11  161.71
  12  167.6865
  13  371.0757
  14  365.8764
  15  407.5888
  16  185.6032
  17  174.6706
  18  219.9788
  19  367.0824
  20  321.1618
  21  347.5781
  22  274.9566
  23  349.1052
  24  336.5399
  25  292.1938
  26  173.1579
  27  269.9216
  28  283.4004
  29  340.5265
  30  200.206
  31  283.1887
  32  215.2503
  33  222.5877
  34  356.1636
  35  329.1129
  36  293.2047
  37  227.7009
  38  187.6114
  39  228.9889
  40  334.5981
  41  374.5375
  42  276.7276
  43  111.6302
  44  74.07843
  45  225.4861
  46  293.6421
  47  268.0768
  48  259.5947
  49  277.1295
  50  246.437
  51  175.1121
  52  256.3711
  53  329.4431
  54  219.9157
  55  269.5017
  56  248.2385
  57  294.0612
  58  298.3698
  59  275.4199
  60  239.4718
  61  312.389
  62  352.1826
  63  242.262
  64  300.63
  65  389.8204
  66  327.6778
  67  306.9741
  68  269.9957
  69  212.9635
  70  236.464
  71  259.4792
  72  250.3877
  73  245.9296
  74  292.485
  75  125.4283
  76  14.86968
  77  42.77719
  78  117.962
  79  179.2982
  80  152.1273
  81  132.4458
  82  205.1243
  83  121.4157
  84  210.171
  85  182.2795
  86  233.1193
  87  265.9595
  88  273.967
  89  262.216
  90  130.4581
  91  110.2586
  92  213.2558
  93  125.5574
  94  23.8221
  95  89.09793
  96  219.5572
  97  208.8707
  98  181.9489
  99  120.5087
 100  195.8683
 101  282.2406
 102  198.7998
 103  296.1617
 104  227.1456
 105  75.67239
 106  113.3369
 107  308.7856
 108  267.2708
 109  221.0033
 110  207.6401
 111  258.59
 112  279.7
 113  301.1485
 114  387.4919
 115  184.5374
 116  88.89909
 117  151.0942
 118  303.4982
 119  258.3768
 120  349.35
 121  363.299
 122  212.5691
 123  239.3412
 124  195.6032
 125  247.4599
 126  263.049
 127  271.5945
 128  102.2467
 129  125.7447
 130  252.5793
 131  365.8204
 132  222.7822
 133  202.715
 134  235.7785
 135  290.0807
 136  235.7678
 137  293.133
 138  226.2336
 139  197.8657
 140  99.04693
 141  184.6021
 142  222.1228
 143  204.668
 144  222.2174
 145  352.6642
 146  336.1077
 147  238.3492
 148  82.76323
 149  264.4698
 150  275.2907
 151  279.6493
 152  204.7797
 153  239.3395
 154  389.9093
 155  197.3008
 156  243.6018
 157  172.4861
 158  221.0411
 159  113.8724
 160  108.6247
 161  368.3919
 162  454.8313
 163  274.0016
 164  157.3775
 165  356.0383
 166  420.1257
 167  267.0138
 168  311.2771
 169  206.8346
 170  264.4971
 171  287.0212
 172  226.226
 173  153.833
 174  201.715
 175  176.0504
 176  328.9765
 177  330.48
 178  279.2672
 179  193.6821
 180  217.08
 181  352.6537
 182  299.9373
 183  232.4595
 184  266.6583
 185  224.6353
 186  171.3096
 187  221.9634
 188  191.3853
 189  130.6819
 190  112.945
 191  233.4134
 192  276.4668
 193  234.8719
 194  373.2114
 195  166.0396
 196  125.4761
 197  277.1464
 198  164.2318
 199  129.8868
 200  319.6169
 201  308.4709
 202  197.8232
 203  263.1196
 204  301.7886
 205  257.6147
 206  237.3128
 207  187.3132
 208  175.099
 209  184.5751
 210  301.7093
 211  87.78411
 212  194.0706
 213  260.6244
 214  337.6287
 215  206.3472
 216  315.7131
 217  267.6625
 218  241.7098
 219  240.6385
 220  253.9612
 221  297.8494
 222  209.6929
 223  144.164
 224  85.49315
 225  226.8622
 226  216.731
 227  192.4843
 228  146.173
 229  129.877
 230  239.1964
 231  235.2384
 232  235.436
 233  202.7677
 234  239.3956
 235  103.7662
 236  200.4915
 237  168.981
 238  52.18342
 239  115.11
 240  167.3018
 241  209.7531
 242  250.5082
 243  257.0132
 244  213.7412
 245  166.5341
 246  273.9269
 247  216.834
 248  138.9227
 249  233.4946
 250  303.6968
 251  90.46188
 252  208.4701
 253  285.4666
 254  236.893
 255  138.1968
 256  197.215
 257  220.3874
 258  178.0701
 259  181.5608
 260  259.9822
 261  335.0845
 262  260.6483
 263  225.1375
 264  312.1364
 265  372.0318
 266  359.9401
 267  333.2096
 268  278.332
 269  187.8915
 270  177.4935
 271  383.0362
 272  280.7473
 273  198.4642
 274  190.6099
 275  58.57166
 276  142.3465
 277  232.3348
 278  193.6255
 279  228.9256
 280  304.3047
 281  317.4955
 282  203.3009
 283  133.0416
 284  62.06508
 285  207.299
 286  166.9468
 287  169.1854
 288  230.2164
 289  361.6389
 290  369.4498
 291  406.2948
 292  239.9491
 293  168.3126
 294  99.50581
 295  178.166
 296  298.278
 297  141.3927
 298  88.22824
 299  168.4138
 300  251.729
 301  297.7433
 302  47.60254
 303  76.65333
 304  120.2899
 305  197.1077
 306  195.7134
 307  185.9346
 308  158.3711
 309  288.6156
 310  280.3448
 311  183.7566
 312  181.6603
 313  213.1819
 314  352.3062
 315  157.9845
 316  85.55927
 317  141.1835
 318  157.0801
 319  84.63952
 320  137.4733
 321  167.4946
 322  244.3347
 323  269.1554
 324  206.0634
 325  79.78677
 326  141.4878
 327  114.5935
 328  307.2139
 329  431.6913
 330  310.8456
 331  131.4526
 332  90.04932
 333  220.2295
 334  205.5155
 335  236.9519
 336  192.1307
 337  196.2791
 338  279.2169
 339  234.1396
 340  183.6818
 341  133.843
 342  128.2439
 343  211.4729
 344  56.70673
 345  211.8029
 346  348.2578
 347  245.1693
 348  170.6163
 349  210.5308
 350  257.9803
 351  247.6593
 352  344.5775
 353  380.8161
 354  203.7837
 355  159.3732
 356  176.7018
 357  362.8892
 358  228.0899
 359  254.386
 360  193.6185
 361  223.3313
 362  191.5363
 363  141.0816
 364  231.1798
 365  263.7221
 366  245.2317
 367  140.7388
 368  147.9094
 369  145.403
 370  42.93668
 371  55.16366
 372  196.239
 373  164.1974
 374  198.0546
 375  331.288
 376  301.2141
 377  195.6741
 378  186.9703
 379  213.7424
 380  242.3162
 381  164.183
 382  248.8665
 383  331.3893
 384  270.3685
 385  235.2808
 386  208.2157
 387  141.9236
 388  130.1221
 389  295.1078
 390  393.1192
 391  348.2431
 392  173.7219
 393  254.5312
 394  336.0674
 395  336.5878
 396  238.684
 397  211.7938
 398  184.0271
 399  267.6526
 400  235.0199
 401  275.8053
 402  204.6612
 403  150.8283
 404  195.6195
 405  218.4005
 406  203.7929
 407  282.1203
 408  177.6665
 409  233.9046
 410  293.4506
 411  285.738
 412  101.0347
 413  210.3139
 414  308.1812
 415  242.859
 416  235.5929
 417  210.0594
 418  226.253
 419  146.5159
 420  121.5
 421  152.4455
 422  139.6821
 423  84.78584
 424  158.9403
 425  335.8816
 426  390.2423
 427  166.9489
 428  181.8283
 429  260.4627
 430  333.9909
 431  366.3189
 432  274.8033
 433  285.6992
 434  188.3817
 435  320.4605
 436  218.2828
 437  174.0378
 438  146.765
 439  149.8886
 440  152.0732
 441  241.051
 442  150.2812
 443  115.3952
 444  114.1333
 445  112.3674
 446  135.3999
 447  133.2656
 448  241.5169
 449  206.89
 450  141.4679
 451  190.6848
 452  295.2143
 453  242.0766
 454  271.1324
 455  360.5214
 456  354.7447
 457  366.4088
 458  284.0334
 459  194.7084
 460  149.9237
 461  154.0274
 462  207.2633
 463  230.43
 464  153.2837
 465  221.8233
 466  231.1107
 467  173.5613
 468  207.8068
 469  177.7851
 470  188.3209
 471  41.91663
 472  89.35329
 473  141.0501
 474  32.1801
 475  101.2984
 476  114.7362
 477  151.6732
 478  178.2141
 479  179.8706
 480  224.9921
 481  115.818
 482  89.56917
 483  255.3735
 484  298.8001
 485  257.5906
 486  175.7539
 487  193.8041
 488  281.9211
 489  378.7605
 490  356.1601
 491  217.357
 492  286.8419
 493  336.6568
 494  333.6265
 495  244.8181
 496  183.1202
 497  175.3091
 498  210.4564
 499  206.1939
 500  304.5096
 501  411.9282
 502  328.1304
 503  285.3416
 504  271.1691
 505  258.546
 506  370.9523
 507  255.6501
 508  395.1507
 509  507.3429
 510  755.0681
 511  1035.578
