# Input file       =  1186009154.110300-PSRB0329-2ms-sampling-dd.dat
# Candidate        =  PSR_0332+5434
# Telescope        =  AR
# Epoch_topo       =  57970.958022109953
# Epoch_bary       =  N/A
# T_sample         =  0.002
# Data Folded      =  7208960
# Data Avg         =  3.10783634992972e-10
# Data StdDev      =  7.45507941514617 
# Profile Bins     =  512
# Profile Avg      =  0.0608256554910476
# Profile StdDev   =  884.613578876561 
# Reduced chi-sqr  =  0.751
# Prob(Noise)      <  1   (~0.0 sigma)
# P_topo (ms)      =  714.467518086152  +/- 0.00053
# P'_topo (s/s)    =  -0                +/- 2.85e-10
# P''_topo (s/s^2) =  0                 +/- 1.28e-13
# P_bary (ms)      =  N/A
# P'_bary (s/s)    =  N/A
# P''_bary (s/s^2) =  N/A
# P_orb (s)        =  N/A
# asin(i)/c (s)    =  N/A
# eccentricity     =  N/A
# w (rad)          =  N/A
# T_peri           =  N/A
######################################################
   0  1202.85
   1  666.3786
   2  694.3557
   3  278.7499
   4  -7.954314
   5  -561.1774
   6  -737.8608
   7  -453.7977
   8  -535.7205
   9  100.6764
  10  -301.9978
  11  -479.9574
  12  -287.6544
  13  -479.0906
  14  -351.5074
  15  -82.61237
  16  1.082574
  17  373.6271
  18  145.1789
  19  -190.4205
  20  -1123.597
  21  -1307.661
  22  -889.1858
  23  -509.5272
  24  -136.4457
  25  -387.9889
  26  -394.1284
  27  -448.2464
  28  -2.481837
  29  506.0908
  30  547.2824
  31  424.9355
  32  17.70026
  33  172.4766
  34  269.2914
  35  84.66767
  36  199.4495
  37  7.827673
  38  87.94559
  39  -189.3938
  40  567.302
  41  386.8123
  42  355.7432
  43  833.5068
  44  1106.441
  45  913.9249
  46  1067.156
  47  299.4453
  48  23.52347
  49  -28.86909
  50  -208.2884
  51  4.067551
  52  -604.7444
  53  -133.0851
  54  -104.4146
  55  -385.6551
  56  -845.1545
  57  -334.1274
  58  -45.08098
  59  201.7119
  60  432.24
  61  293.5198
  62  325.7643
  63  329.3616
  64  545.5544
  65  790.8365
  66  490.5152
  67  233.4702
  68  104.4084
  69  214.4591
  70  449.059
  71  1401.278
  72  1789.611
  73  1703.165
  74  763.4557
  75  702.4476
  76  1435.619
  77  1484.5
  78  1408.059
  79  1196.064
  80  1095.046
  81  777.4573
  82  883.1769
  83  965.3222
  84  1211.118
  85  979.1423
  86  1620.272
  87  1656.718
  88  1194.563
  89  558.1045
  90  113.1761
  91  201.8685
  92  25.29161
  93  112.0048
  94  355.6281
  95  -28.16724
  96  -221.5348
  97  -489.7056
  98  -635.6722
  99  -229.2881
 100  -70.31838
 101  455.8821
 102  844.7104
 103  934.2631
 104  363.4819
 105  679.5065
 106  702.2969
 107  280.3098
 108  391.9603
 109  -153.5271
 110  -383.2509
 111  -187.267
 112  -98.15875
 113  -323.0246
 114  -453.6766
 115  -492.769
 116  -615.1898
 117  -626.4584
 118  -284.7583
 119  -899.2465
 120  -680.9497
 121  -624.2971
 122  -722.7736
 123  -956.7435
 124  -219.9541
 125  395.1943
 126  466.6659
 127  72.80798
 128  233.6094
 129  -1.744309
 130  -265.3212
 131  -60.75768
 132  -99.28681
 133  -583.2795
 134  -869.9811
 135  -376.5786
 136  -124.0265
 137  -430.8652
 138  -32.17291
 139  -59.78627
 140  -154.8733
 141  -428.7949
 142  -43.86699
 143  -35.13873
 144  -119.429
 145  193.9193
 146  338.5561
 147  513.4219
 148  115.8875
 149  317.5584
 150  -234.6803
 151  -349.1601
 152  -369.2867
 153  -130.7673
 154  -11.4184
 155  -338.0889
 156  -578.2615
 157  -796.3812
 158  -448.1468
 159  -271.0732
 160  103.9769
 161  51.39642
 162  24.94223
 163  -329.3292
 164  -257.6299
 165  -507.9958
 166  -529.1661
 167  -532.2351
 168  -140.4118
 169  189.7934
 170  -87.59308
 171  -849.6931
 172  -762.3031
 173  -763.5939
 174  -905.1127
 175  -105.9159
 176  -71.3457
 177  286.8154
 178  323.1911
 179  451.9604
 180  858.3007
 181  465.7737
 182  -120.2858
 183  -96.71894
 184  -457.3464
 185  -138.1687
 186  -456.4408
 187  -539.0521
 188  -482.5832
 189  -811.7094
 190  -1002.32
 191  -882.0388
 192  -964.006
 193  -688.5574
 194  -241.2104
 195  -346.2291
 196  -131.9178
 197  -236.158
 198  -827.2852
 199  -665.6464
 200  -349.8887
 201  169.5466
 202  193.1366
 203  56.51794
 204  62.12561
 205  185.3155
 206  301.1936
 207  654.6124
 208  806.1664
 209  1271.33
 210  1348.458
 211  632.932
 212  504.5787
 213  1090.037
 214  1587.468
 215  1443.018
 216  1137.204
 217  774.6464
 218  411.5916
 219  467.1631
 220  380.0947
 221  392.6354
 222  -147.7648
 223  78.23612
 224  -569.9406
 225  -653.2489
 226  -436.3232
 227  395.2739
 228  888.9072
 229  423.0586
 230  15.27277
 231  -401.8474
 232  -967.6063
 233  -718.8212
 234  94.96164
 235  -83.97906
 236  74.10051
 237  -18.11711
 238  -746.3467
 239  -192.2522
 240  18.42107
 241  85.92382
 242  42.94763
 243  662.4678
 244  1516.714
 245  1179.11
 246  1229.591
 247  1354.602
 248  624.5171
 249  491.2118
 250  528.5301
 251  -54.16792
 252  41.71062
 253  347.1378
 254  -68.44321
 255  -150.1169
 256  -236.9132
 257  -155.1346
 258  -669.6438
 259  -702.9221
 260  -276.3675
 261  -396.4472
 262  -509.0215
 263  -266.6365
 264  -91.48193
 265  -241.7391
 266  -302.9046
 267  -194.1144
 268  8.61028
 269  101.6366
 270  -5.807274
 271  132.7905
 272  -35.48526
 273  -651.3048
 274  15.01908
 275  -257.1906
 276  -100.6083
 277  -364.8036
 278  -954.5652
 279  -645.8065
 280  -425.0361
 281  -318.6307
 282  -211.835
 283  -228.1497
 284  -719.4885
 285  -654.6793
 286  -257.3563
 287  38.56121
 288  -450.6216
 289  -516.9803
 290  -420.6544
 291  -427.9895
 292  -340.231
 293  -403.1131
 294  49.29292
 295  400.6581
 296  212.6592
 297  578.7592
 298  587.4992
 299  163.2244
 300  -145.6883
 301  -189.1964
 302  -310.5297
 303  -7.06735
 304  -17.31595
 305  -102.4304
 306  -474.9748
 307  -263.4122
 308  -411.1722
 309  -603.6716
 310  -704.8318
 311  -686.652
 312  -86.67513
 313  238.0277
 314  75.72211
 315  17.77199
 316  -343.0226
 317  -213.1871
 318  -346.7277
 319  -106.677
 320  -319.5725
 321  -400.4338
 322  -246.1538
 323  -291.3334
 324  -921.1442
 325  -885.0888
 326  -1361.887
 327  -934.179
 328  -1059.584
 329  -1208.539
 330  -1165.848
 331  -731.6662
 332  -447.0187
 333  -873.2661
 334  -499.0841
 335  -485.985
 336  -172.4504
 337  -303.1053
 338  2.645689
 339  506.9182
 340  243.1519
 341  395.9942
 342  453.9465
 343  -3.805673
 344  -48.67348
 345  29.22482
 346  -316.1836
 347  -613.5555
 348  -24.66573
 349  338.9864
 350  -123.7538
 351  -592.1201
 352  -268.1198
 353  -292.1421
 354  -346.4202
 355  -567.3506
 356  -173.3823
 357  -89.0617
 358  97.15608
 359  33.61556
 360  -112.1937
 361  7.403596
 362  -105.0799
 363  315.4809
 364  -10.33934
 365  -595.7782
 366  -425.02
 367  -637.1741
 368  -704.4879
 369  -744.3654
 370  -543.1136
 371  -322.4779
 372  -432.0109
 373  -485.2426
 374  -300.6526
 375  170.9067
 376  315.9985
 377  229.0806
 378  777.5054
 379  506.0164
 380  48.69046
 381  -163.1313
 382  -161.4631
 383  -227.4725
 384  -118.5281
 385  36.6838
 386  64.98161
 387  239.1029
 388  -73.87252
 389  110.7958
 390  200.9755
 391  -297.057
 392  168.1492
 393  281.2643
 394  -173.6546
 395  658.3928
 396  483.723
 397  767.8188
 398  247.6961
 399  468.4208
 400  199.6046
 401  -832.0638
 402  -424.2545
 403  145.6786
 404  -78.81061
 405  188.8475
 406  281.6085
 407  -202.8843
 408  527.6085
 409  121.759
 410  -186.6366
 411  45.36862
 412  -194.1737
 413  -109.8576
 414  -255.366
 415  52.0556
 416  386.3439
 417  -323.607
 418  -398.6497
 419  -953.7647
 420  -1021.443
 421  -632.5515
 422  -847.6015
 423  -734.4844
 424  -338.9559
 425  -216.6806
 426  -421.8368
 427  -312.6692
 428  -218.8591
 429  -338.886
 430  -64.69761
 431  235.2012
 432  340.6548
 433  66.56055
 434  44.62739
 435  -401.9158
 436  -407.5137
 437  -416.553
 438  42.28825
 439  181.1231
 440  218.151
 441  338.1993
 442  -314.9454
 443  -234.2346
 444  -477.7147
 445  -132.9653
 446  -226.3146
 447  221.8273
 448  371.9532
 449  265.3975
 450  -107.3956
 451  77.20625
 452  -301.7571
 453  -909.6981
 454  -377.2511
 455  -264.2161
 456  -48.12793
 457  216.0026
 458  239.5929
 459  200.0312
 460  70.85521
 461  -372.3587
 462  -454.8051
 463  248.3675
 464  327.6438
 465  -279.0038
 466  -547.8779
 467  -114.9134
 468  -343.3223
 469  -288.6872
 470  -592.4509
 471  -247.7976
 472  -296.7398
 473  -150.7625
 474  -186.1915
 475  -459.7008
 476  -446.8051
 477  -296.984
 478  -88.75455
 479  -361.1969
 480  -758.8807
 481  -345.1653
 482  136.9332
 483  17.74741
 484  420.6716
 485  159.7845
 486  343.0418
 487  560.1636
 488  -87.78465
 489  53.094
 490  369.8073
 491  1085.655
 492  941.6871
 493  1231.16
 494  1160.744
 495  536.5966
 496  119.588
 497  290.7607
 498  331.7295
 499  348.2637
 500  436.1028
 501  1038.327
 502  935.1315
 503  1038.631
 504  773.7567
 505  703.1397
 506  880.1573
 507  1135.804
 508  1410.227
 509  1157.355
 510  1175.712
 511  1304.419
