# Input file       =  1186454626.109951_cleaned.dat
# Candidate        =  PSR_0332+5434
# Telescope        =  AR
# Epoch_topo       =  57976.113948031838
# Epoch_bary       =  N/A
# T_sample         =  0.002
# Data Folded      =  7340032
# Data Avg         =  0.0243026686927935
# Data StdDev      =  2.45112293139954 
# Profile Bins     =  512
# Profile Avg      =  348.317189661506 
# Profile StdDev   =  293.480391109187 
# Reduced chi-sqr  =  1.332
# Prob(Noise)      <  6.81e-07   (~4.8 sigma)
# P_topo (ms)      =  714.465869239895  +/- 0.000193
# P'_topo (s/s)    =  -0                +/- 1.02e-10
# P''_topo (s/s^2) =  0                 +/- 4.5e-14
# P_bary (ms)      =  N/A
# P'_bary (s/s)    =  N/A
# P''_bary (s/s^2) =  N/A
# P_orb (s)        =  N/A
# asin(i)/c (s)    =  N/A
# eccentricity     =  N/A
# w (rad)          =  N/A
# T_peri           =  N/A
######################################################
   0  536.4572
   1  577.2653
   2  67.12336
   3  -41.51244
   4  121.5146
   5  502.9928
   6  453.1512
   7  320.6929
   8  431.2766
   9  491.8681
  10  420.4137
  11  461.2195
  12  492.5459
  13  367.5214
  14  343.3402
  15  134.1544
  16  35.97086
  17  202.1094
  18  220.316
  19  329.9968
  20  520.9883
  21  259.976
  22  195.015
  23  384.7969
  24  449.4851
  25  445.5465
  26  536.5068
  27  418.8168
  28  163.6234
  29  305.9481
  30  489.5135
  31  354.3837
  32  569.1665
  33  200.4933
  34  427.6098
  35  477.927
  36  333.0042
  37  242.863
  38  285.6473
  39  485.2878
  40  254.2916
  41  501.994
  42  420.04
  43  442.4551
  44  280.2437
  45  150.6843
  46  -2.936004
  47  337.6425
  48  755.6858
  49  323.717
  50  152.2613
  51  147.3337
  52  84.38184
  53  361.3546
  54  444.2972
  55  464.6345
  56  635.5849
  57  590.1901
  58  380.0048
  59  541.381
  60  261.3246
  61  123.8946
  62  62.65594
  63  317.6341
  64  361.4277
  65  249.5997
  66  531.3349
  67  686.5919
  68  609.8088
  69  372.7153
  70  371.8185
  71  344.173
  72  294.6059
  73  423.4785
  74  194.839
  75  511.6725
  76  366.4767
  77  612.9733
  78  307.5242
  79  267.4131
  80  507.4584
  81  588.317
  82  333.8008
  83  371.7708
  84  622.7723
  85  655.735
  86  434.0757
  87  254.0111
  88  262.6288
  89  613.5164
  90  828.9782
  91  393.7888
  92  317.8208
  93  492.1214
  94  503.6576
  95  360.5288
  96  408.2346
  97  318.1498
  98  458.8274
  99  340.5659
 100  326.6291
 101  317.0725
 102  72.34679
 103  354.5772
 104  213.7066
 105  211.9951
 106  534.2595
 107  506.7501
 108  277.44
 109  229.0741
 110  305.4734
 111  172.2243
 112  -79.97235
 113  295.425
 114  74.10813
 115  332.0131
 116  197.2989
 117  432.9039
 118  468.1261
 119  354.7482
 120  241.2864
 121  312.6949
 122  684.5545
 123  726.7021
 124  651.7214
 125  284.8044
 126  196.562
 127  37.38759
 128  135.5646
 129  6.472641
 130  137.1056
 131  728.5801
 132  599.4313
 133  350.8626
 134  378.5031
 135  413.8582
 136  480.5639
 137  678.9195
 138  716.5596
 139  370.7268
 140  537.2281
 141  583.9297
 142  214.4966
 143  141.6418
 144  263.0255
 145  76.93008
 146  74.02445
 147  424.1612
 148  419.4503
 149  562.9061
 150  505.9911
 151  477.8551
 152  301.4751
 153  267.7837
 154  500.81
 155  585.8348
 156  363.5094
 157  431.2769
 158  162.2094
 159  91.43226
 160  371.1865
 161  415.7086
 162  503.9392
 163  316.9929
 164  226.4874
 165  529.6552
 166  349.3896
 167  220.3646
 168  553.8692
 169  289.2369
 170  24.92769
 171  120.0127
 172  318.8226
 173  784.9416
 174  659.814
 175  655.6285
 176  576.3768
 177  473.9913
 178  342.5633
 179  375.5363
 180  488.0683
 181  647.2903
 182  58.05318
 183  114.8348
 184  467.1519
 185  474.4359
 186  214.597
 187  108.9554
 188  237.789
 189  129.1621
 190  5.195432
 191  195.8948
 192  242.2657
 193  39.90638
 194  235.3921
 195  133.4117
 196  392.8351
 197  512.8535
 198  74.59829
 199  218.2789
 200  436.6342
 201  405.5849
 202  457.0202
 203  230.4075
 204  474.7478
 205  583.2096
 206  302.5344
 207  188.4602
 208  77.28529
 209  252.0011
 210  346.5246
 211  378.1236
 212  210.0527
 213  44.81942
 214  486.8175
 215  432.3702
 216  369.2254
 217  81.41642
 218  662.9788
 219  605.4031
 220  579.816
 221  574.3286
 222  612.5256
 223  350.7135
 224  366.6978
 225  510.112
 226  623.5983
 227  419.3372
 228  552.6578
 229  3.879519
 230  -111.8801
 231  -4.702296
 232  271.3468
 233  497.8688
 234  438.655
 235  458.8133
 236  275.2968
 237  -0.6128308
 238  -20.97252
 239  64.96616
 240  352.0853
 241  279.6106
 242  316.6422
 243  140.3014
 244  -76.71814
 245  320.5857
 246  514.103
 247  843.9044
 248  804.5207
 249  558.4287
 250  435.2103
 251  582.5296
 252  152.5737
 253  91.44762
 254  391.1477
 255  391.7311
 256  414.2063
 257  230.8169
 258  429.3344
 259  631.3203
 260  289.7076
 261  357.5337
 262  537.2047
 263  614.212
 264  656.64
 265  514.1951
 266  616.2408
 267  517.8143
 268  274.7541
 269  501.9103
 270  385.3195
 271  87.77048
 272  154.3944
 273  175.0433
 274  379.792
 275  510.2088
 276  200.9929
 277  23.78368
 278  -82.53127
 279  168.4849
 280  340.407
 281  233.6132
 282  201.6827
 283  19.39549
 284  -64.71493
 285  -109.2284
 286  238.0989
 287  263.7501
 288  255.5418
 289  223.9091
 290  275.6351
 291  209.1523
 292  403.5112
 293  158.8194
 294  424.1633
 295  250.6236
 296  19.22131
 297  158.169
 298  -68.28053
 299  -81.84171
 300  279.061
 301  327.682
 302  324.6365
 303  152.2933
 304  44.25653
 305  208.3555
 306  -51.9865
 307  302.8943
 308  124.9592
 309  20.27112
 310  289.9978
 311  476.2812
 312  478.0979
 313  495.7126
 314  527.5216
 315  697.1609
 316  395.5845
 317  376.9786
 318  307.1447
 319  358.2386
 320  367.9839
 321  475.1471
 322  404.442
 323  389.9718
 324  108.3403
 325  62.74319
 326  -20.43798
 327  -14.8462
 328  67.26714
 329  -93.34789
 330  209.4344
 331  24.90841
 332  138.232
 333  240.6454
 334  365.6918
 335  399.9025
 336  243.8106
 337  135.7816
 338  187.1979
 339  244.7211
 340  214.5261
 341  -51.32835
 342  74.19273
 343  394.2994
 344  320.4038
 345  322.9855
 346  170.5157
 347  450.9344
 348  720.3935
 349  554.4288
 350  111.6529
 351  151.794
 352  398.0735
 353  273.3948
 354  132.9629
 355  -42.18969
 356  -57.71461
 357  331.0401
 358  -10.03156
 359  -160.8177
 360  -75.74302
 361  38.18969
 362  94.65104
 363  244.4723
 364  421.7364
 365  287.8951
 366  481.0334
 367  145.8728
 368  257.909
 369  449.229
 370  201.5
 371  126.334
 372  534.3913
 373  390.5424
 374  510.9334
 375  717.0988
 376  219.2812
 377  324.8122
 378  416.7349
 379  98.0778
 380  78.95276
 381  350.1462
 382  401.9483
 383  267.1504
 384  301.4203
 385  555.0292
 386  69.88566
 387  102.0569
 388  -82.45921
 389  115.4121
 390  327.3781
 391  486.7615
 392  487.9047
 393  259.2057
 394  441.2529
 395  162.684
 396  26.41854
 397  447.056
 398  781.4429
 399  70.50115
 400  -162.8922
 401  345.7787
 402  367.3284
 403  156.9108
 404  386.7126
 405  594.7421
 406  353.2628
 407  19.23823
 408  49.46235
 409  282.5526
 410  225.8422
 411  615.262
 412  595.7419
 413  384.8245
 414  472.2948
 415  474.8503
 416  391.399
 417  405.6923
 418  265.2901
 419  705.8569
 420  735.0629
 421  591.6752
 422  990.1702
 423  1158.29
 424  1434.188
 425  1625.474
 426  2048.926
 427  1925.59
 428  1269.012
 429  693.0012
 430  271.7822
 431  150.9047
 432  166.0876
 433  382.8411
 434  195.1662
 435  400.1905
 436  234.5395
 437  378.3704
 438  -30.45597
 439  -34.2608
 440  290.481
 441  470.1548
 442  650.5714
 443  512.8718
 444  349.562
 445  563.6389
 446  490.4462
 447  246.8396
 448  219.0952
 449  218.3083
 450  225.0118
 451  548.7805
 452  815.9965
 453  677.2902
 454  446.1169
 455  107.0425
 456  474.9797
 457  273.7784
 458  414.0701
 459  479.7023
 460  305.0246
 461  196.3768
 462  155.2121
 463  143.3215
 464  -37.46693
 465  128.9866
 466  258.1693
 467  439.3286
 468  86.25703
 469  160.6016
 470  385.9286
 471  663.2913
 472  927.1093
 473  748.1049
 474  644.3221
 475  671.3235
 476  354.7366
 477  280.4373
 478  301.5391
 479  546.6342
 480  729.8914
 481  567.8384
 482  442.2367
 483  369.7296
 484  244.726
 485  289.8302
 486  390.9795
 487  402.4048
 488  555.3801
 489  209.7325
 490  401.9388
 491  797.0311
 492  631.209
 493  284.5579
 494  181.077
 495  512.1197
 496  263.385
 497  217.887
 498  365.965
 499  306.5916
 500  251.0703
 501  379.9828
 502  310.6597
 503  373.0018
 504  295.6043
 505  -62.4542
 506  144.9845
 507  656.1818
 508  595.1792
 509  498.749
 510  198.245
 511  313.2862
