# Input file       =  1186124839.104553-PSRB0329-2ms-sampling-dd.dat
# Candidate        =  PSR_0332+5434
# Telescope        =  AR
# Epoch_topo       =  57972.296968802693
# Epoch_bary       =  N/A
# T_sample         =  0.002
# Data Folded      =  7340032
# Data Avg         =  1.75449261125731e-10
# Data StdDev      =  6.94022421792113 
# Profile Bins     =  512
# Profile Avg      =  -0.138167249378422
# Profile StdDev   =  830.974118747263 
# Reduced chi-sqr  =  0.655
# Prob(Noise)      <  1   (~0.0 sigma)
# P_topo (ms)      =  714.467398236235  +/- 0.00128
# P'_topo (s/s)    =  -0                +/- 6.78e-10
# P''_topo (s/s^2) =  0                 +/- 2.99e-13
# P_bary (ms)      =  N/A
# P'_bary (s/s)    =  N/A
# P''_bary (s/s^2) =  N/A
# P_orb (s)        =  N/A
# asin(i)/c (s)    =  N/A
# eccentricity     =  N/A
# w (rad)          =  N/A
# T_peri           =  N/A
######################################################
   0  182.0163
   1  391.9106
   2  -511.4526
   3  -384.3961
   4  -575.992
   5  48.96121
   6  523.1785
   7  101.5837
   8  765.8597
   9  -70.14732
  10  304.8783
  11  -237.3507
  12  434.7065
  13  529.0407
  14  231.4068
  15  -236.2103
  16  -420.1818
  17  -216.3895
  18  -752.6187
  19  -835.3467
  20  -290.9439
  21  -68.80882
  22  -51.59611
  23  -106.6993
  24  -333.5914
  25  -351.2722
  26  -119.4296
  27  -373.7197
  28  -768.1628
  29  -915.4394
  30  -581.2694
  31  -951.8257
  32  -975.0136
  33  -714.8682
  34  -901.5304
  35  -423.1303
  36  -824.8372
  37  -563.3238
  38  -504.4129
  39  -437.9414
  40  -260.3874
  41  -303.2742
  42  -88.98541
  43  218.4576
  44  -135.762
  45  -196.7182
  46  -424.8514
  47  -78.32668
  48  -24.95574
  49  -325.7601
  50  132.53
  51  185.5719
  52  -185.564
  53  -530.924
  54  -895.1932
  55  -805.5097
  56  -109.2477
  57  543.2529
  58  749.629
  59  794.4736
  60  173.1436
  61  -570.8219
  62  -349.222
  63  -343.0343
  64  -27.10915
  65  36.63572
  66  -49.09435
  67  -528.6708
  68  -568.3517
  69  -129.8933
  70  535.6709
  71  177.4496
  72  -244.0701
  73  -158.3602
  74  14.07907
  75  -40.15308
  76  199.8329
  77  -51.78496
  78  -433.9309
  79  -163.9737
  80  -107.6311
  81  84.71941
  82  194.9547
  83  63.73975
  84  -33.87363
  85  -308.2155
  86  27.68849
  87  28.4436
  88  -102.6749
  89  -335.5367
  90  -505.7386
  91  -209.6541
  92  51.01118
  93  -78.5644
  94  -537.9036
  95  -493.7883
  96  -344.7565
  97  -679.6042
  98  -349.8188
  99  -425.0709
 100  -614.1603
 101  -276.6773
 102  -275.8628
 103  -46.87465
 104  195.4397
 105  -150.5519
 106  -19.99545
 107  -12.26699
 108  443.4904
 109  303.857
 110  154.6183
 111  141.9228
 112  336.669
 113  451.8713
 114  464.4795
 115  322.6606
 116  -488.9635
 117  -845.9124
 118  -925.5881
 119  -192.7476
 120  -30.3032
 121  -16.5605
 122  -234.2636
 123  -477.4235
 124  -891.12
 125  -842.1448
 126  -582.3017
 127  -697.7522
 128  -297.9959
 129  -599.0587
 130  -828.7985
 131  -841.5899
 132  -751.6327
 133  -177.215
 134  -380.0572
 135  -116.3839
 136  45.35273
 137  34.98631
 138  -193.6653
 139  120.24
 140  136.04
 141  188.122
 142  -56.02985
 143  -247.1664
 144  -103.0281
 145  22.5166
 146  101.613
 147  -281.2527
 148  125.0307
 149  -570.627
 150  -513.2441
 151  13.73833
 152  -73.80788
 153  -19.42424
 154  -394.0373
 155  -461.486
 156  -531.9711
 157  -503.0854
 158  -329.6572
 159  -1002.383
 160  -714.2283
 161  -648.6519
 162  -564.9915
 163  -594.415
 164  -763.8905
 165  -620.4903
 166  -525.9479
 167  -422.5427
 168  -627.5796
 169  -90.40213
 170  -384.8219
 171  -409.8661
 172  -258.7841
 173  -114.5103
 174  -241.3396
 175  -318.8381
 176  34.81487
 177  -84.20724
 178  -248.8093
 179  -311.4015
 180  -330.2546
 181  -339.1486
 182  -212.8053
 183  -97.94131
 184  -677.2043
 185  -843.462
 186  -282.5843
 187  -305.8567
 188  -333.3806
 189  -104.167
 190  112.4253
 191  512.4431
 192  275.5713
 193  168.461
 194  220.7744
 195  578.2452
 196  791.943
 197  862.4202
 198  172.7721
 199  541.3264
 200  -63.2687
 201  -606.0099
 202  -623.3969
 203  -352.6249
 204  363.9266
 205  442.9673
 206  414.0014
 207  63.69638
 208  350.8277
 209  -254.0507
 210  86.82656
 211  440.4198
 212  478.7216
 213  53.08002
 214  121.689
 215  -160.7041
 216  -330.7394
 217  -470.5213
 218  -152.6861
 219  298.0075
 220  -50.19843
 221  -323.2298
 222  -424.2793
 223  -724.1142
 224  -203.4066
 225  -99.9666
 226  -26.87821
 227  216.9369
 228  -79.37703
 229  -241.6228
 230  -450.6245
 231  -700.5309
 232  -742.8759
 233  -124.4735
 234  85.01751
 235  245.2671
 236  -73.80119
 237  -207.6682
 238  -959.2234
 239  -506.2692
 240  -241.6106
 241  -283.9559
 242  -149.7419
 243  229.736
 244  378.4119
 245  -3.022046
 246  -173.4414
 247  -145.246
 248  194.1788
 249  73.75976
 250  -303.936
 251  39.20545
 252  -235.4721
 253  234.0012
 254  228.0382
 255  821.4322
 256  600.0875
 257  352.2354
 258  478.3117
 259  511.8794
 260  758.4263
 261  735.1317
 262  1170.537
 263  1061.173
 264  942.705
 265  133.0866
 266  -186.5838
 267  -211.0471
 268  -311.3615
 269  378.8136
 270  -94.72481
 271  19.64762
 272  -82.47447
 273  710.9631
 274  379.809
 275  429.9684
 276  797.7573
 277  1032.472
 278  795.3226
 279  -77.12479
 280  -169.3609
 281  200.9766
 282  186.9054
 283  -273.6107
 284  174.9883
 285  809.4673
 286  696.7096
 287  532.8829
 288  -11.58746
 289  -101.6562
 290  -38.03428
 291  230.4932
 292  209.4501
 293  446.1897
 294  308.5925
 295  416.7632
 296  414.444
 297  -50.06855
 298  650.7743
 299  135.9805
 300  287.3329
 301  825.9342
 302  571.5707
 303  370.3841
 304  165.6507
 305  167.444
 306  223.6191
 307  431.1299
 308  246.5209
 309  201.2595
 310  89.73825
 311  23.6061
 312  -184.3023
 313  -193.1591
 314  321.8262
 315  194.7614
 316  141.5714
 317  32.33392
 318  144.0855
 319  202.2549
 320  727.8228
 321  513.2092
 322  138.2345
 323  965.0644
 324  603.0407
 325  672.9285
 326  625.8189
 327  521.2381
 328  936.3873
 329  1040.286
 330  1969.579
 331  1529.437
 332  1390.221
 333  885.9832
 334  569.001
 335  -66.36689
 336  477.1772
 337  856.0527
 338  497.6562
 339  87.34875
 340  -20.41865
 341  -43.47376
 342  125.5221
 343  616.585
 344  559.6086
 345  561.7758
 346  368.4654
 347  165.1665
 348  731.4038
 349  234.3783
 350  223.6333
 351  -2.982935
 352  182.9175
 353  29.88219
 354  -6.134614
 355  480.6217
 356  350.7774
 357  -373.9633
 358  -424.3959
 359  198.8925
 360  145.9664
 361  16.06386
 362  435.0055
 363  513.9691
 364  340.6407
 365  386.3989
 366  -197.7633
 367  -586.0508
 368  -351.5586
 369  112.4718
 370  -110.4943
 371  -505.5611
 372  -141.474
 373  -276.9283
 374  -707.9489
 375  -761.8903
 376  -382.1514
 377  -410.9149
 378  -625.8469
 379  -642.155
 380  -261.448
 381  -202.207
 382  -294.6631
 383  -84.7941
 384  225.0607
 385  190.943
 386  -75.44775
 387  -50.31656
 388  124.8203
 389  413.8064
 390  572.7537
 391  528.8168
 392  116.0503
 393  67.2696
 394  -162.7719
 395  261.2336
 396  471.7484
 397  320.521
 398  66.68328
 399  -369.1533
 400  -538.6444
 401  -913.706
 402  -860.8043
 403  -704.7714
 404  -554.3212
 405  104.4773
 406  -211.6645
 407  -218.7691
 408  -470.808
 409  -103.2458
 410  -201.0391
 411  -293.997
 412  -346.8515
 413  26.89933
 414  -108.6681
 415  -109.4221
 416  469.112
 417  -18.18468
 418  -474.1672
 419  123.8408
 420  122.077
 421  126.9258
 422  307.584
 423  302.9082
 424  -204.6772
 425  -341.3585
 426  -298.1947
 427  -213.3349
 428  -615.0407
 429  -436.3967
 430  -477.0459
 431  -442.1956
 432  -313.6122
 433  -259.9903
 434  -325.684
 435  -700.3643
 436  -595.0295
 437  -215.8256
 438  -148.62
 439  -223.0291
 440  -366.5687
 441  -200.0742
 442  -565.1567
 443  -383.5067
 444  -134.3815
 445  34.13961
 446  -142.1878
 447  20.76093
 448  489.3019
 449  369.4326
 450  221.0225
 451  306.3897
 452  160.2256
 453  182.9175
 454  188.7567
 455  -140.7681
 456  -61.62036
 457  11.82281
 458  -88.36973
 459  -70.10664
 460  -223.8253
 461  -302.2386
 462  428.954
 463  890.6988
 464  593.7417
 465  400.1744
 466  211.3272
 467  -18.71063
 468  125.1865
 469  371.1404
 470  647.2802
 471  205.4855
 472  24.80385
 473  -452.6748
 474  -821.808
 475  0.3234078
 476  80.01641
 477  110.7771
 478  -448.6004
 479  -153.3656
 480  149.4494
 481  -292.406
 482  -686.2181
 483  -486.4111
 484  -667.3007
 485  -887.8193
 486  -562.2742
 487  -222.3778
 488  286.8202
 489  331.5463
 490  399.2803
 491  704.7795
 492  716.4259
 493  697.1548
 494  307.8653
 495  1403.448
 496  1217.028
 497  1615.599
 498  1273.401
 499  917.5654
 500  1700.068
 501  1512.15
 502  1667.78
 503  1652.249
 504  1416.984
 505  1126.935
 506  755.4723
 507  431.0792
 508  -130.3678
 509  -15.63363
 510  45.69439
 511  472.6796
