# Input file       =  1186124839.104553_cleaned.dat
# Candidate        =  PSR_0332+5434
# Telescope        =  AR
# Epoch_topo       =  57972.296968802693
# Epoch_bary       =  N/A
# T_sample         =  0.002
# Data Folded      =  7340032
# Data Avg         =  0.00815703328560774
# Data StdDev      =  1.00002053838678 
# Profile Bins     =  512
# Profile Avg      =  116.881251851383 
# Profile StdDev   =  119.735495500178 
# Reduced chi-sqr  =  1.493
# Prob(Noise)      <  2.95e-12   (~6.9 sigma)
# P_topo (ms)      =  714.467397561913  +/- 0.000205
# P'_topo (s/s)    =  -0                +/- 1.08e-10
# P''_topo (s/s^2) =  0                 +/- 4.79e-14
# P_bary (ms)      =  N/A
# P'_bary (s/s)    =  N/A
# P''_bary (s/s^2) =  N/A
# P_orb (s)        =  N/A
# asin(i)/c (s)    =  N/A
# eccentricity     =  N/A
# w (rad)          =  N/A
# T_peri           =  N/A
######################################################
   0  823.1606
   1  742.0962
   2  510.3379
   3  345.5617
   4  89.58674
   5  103.6432
   6  254.1155
   7  206.0125
   8  114.5444
   9  17.81601
  10  30.31498
  11  95.12917
  12  238.6602
  13  205.6043
  14  162.6678
  15  235.1263
  16  116.7915
  17  135.376
  18  236.3487
  19  213.1825
  20  94.06734
  21  156.5129
  22  180.6729
  23  76.56963
  24  123.5518
  25  244.8546
  26  90.80433
  27  21.92645
  28  136.3112
  29  225.8918
  30  126.0922
  31  168.1759
  32  228.4729
  33  138.1334
  34  257.1504
  35  146.9054
  36  36.75343
  37  70.67741
  38  101.4216
  39  205.729
  40  40.71741
  41  139.1433
  42  210.2245
  43  108.3278
  44  -19.31786
  45  13.73045
  46  -4.645835
  47  -43.59143
  48  -37.15237
  49  -30.34832
  50  -45.75287
  51  32.51131
  52  169.5114
  53  277.0587
  54  303.8582
  55  308.095
  56  47.18923
  57  88.71976
  58  241.3643
  59  281.0509
  60  254.906
  61  186.1413
  62  187.1216
  63  218.4197
  64  238.2299
  65  238.3505
  66  189.2146
  67  113.3637
  68  58.67791
  69  110.4936
  70  44.59855
  71  52.365
  72  90.49731
  73  86.01416
  74  129.0787
  75  118.9288
  76  95.09307
  77  75.67361
  78  103.5419
  79  166.0431
  80  156.4283
  81  67.78636
  82  175.7018
  83  156.5002
  84  48.10973
  85  159.2462
  86  196.7619
  87  -30.58358
  88  83.5667
  89  175.0941
  90  138.9423
  91  229.9886
  92  166.3465
  93  173.9597
  94  49.61985
  95  90.61542
  96  156.92
  97  66.18652
  98  37.44551
  99  55.124
 100  14.74085
 101  42.41898
 102  130.4342
 103  130.0104
 104  18.84183
 105  31.80179
 106  156.1787
 107  129.368
 108  150.9834
 109  182.8969
 110  145.9082
 111  117.9687
 112  71.79706
 113  146.4915
 114  218.118
 115  101.9937
 116  -21.07038
 117  116.0948
 118  190.7145
 119  164.1398
 120  95.66195
 121  195.1008
 122  136.9633
 123  159.9687
 124  23.18669
 125  72.50631
 126  137.323
 127  2.596232
 128  8.53146
 129  7.378575
 130  -43.9328
 131  29.47851
 132  135.4006
 133  159.8536
 134  136.6422
 135  93.98453
 136  80.2664
 137  -26.13236
 138  2.478058
 139  73.66507
 140  40.57375
 141  58.99643
 142  -9.040322
 143  -74.73805
 144  115.4636
 145  200.0161
 146  255.2717
 147  46.02564
 148  25.93743
 149  169.0767
 150  136.9529
 151  11.29939
 152  45.04673
 153  55.76609
 154  -52.913
 155  -2.438379
 156  139.58
 157  171.3056
 158  166.7489
 159  188.3057
 160  141.7211
 161  95.36864
 162  58.10782
 163  -105.8414
 164  -23.61572
 165  23.25157
 166  30.87217
 167  3.318214
 168  -116.6549
 169  3.566136
 170  181.6002
 171  69.50032
 172  97.11474
 173  120.3975
 174  86.04555
 175  103.603
 176  81.242
 177  43.60756
 178  61.73682
 179  54.14202
 180  116.4755
 181  156.4558
 182  99.07475
 183  43.49971
 184  -24.10643
 185  -168.8579
 186  -171.7391
 187  90.68772
 188  0.01394851
 189  45.84251
 190  66.54778
 191  125.7139
 192  134.3256
 193  60.50661
 194  97.52626
 195  101.5357
 196  -51.0339
 197  -18.5937
 198  144.2888
 199  108.6895
 200  -5.365963
 201  82.26922
 202  176.0902
 203  106.2
 204  160.354
 205  190.1025
 206  159.1897
 207  171.982
 208  179.6706
 209  -9.645489
 210  -112.9958
 211  69.9246
 212  72.18245
 213  -49.09704
 214  -8.082028
 215  -2.928581
 216  61.69947
 217  -26.00708
 218  -122.0842
 219  94.17975
 220  143.1379
 221  179.5365
 222  57.16692
 223  53.78032
 224  213.9934
 225  95.74847
 226  149.186
 227  93.88618
 228  128.5511
 229  148.5427
 230  23.47545
 231  48.85655
 232  158.0017
 233  80.68346
 234  61.06943
 235  -83.1572
 236  -79.73665
 237  53.37669
 238  158.2166
 239  118.715
 240  261.9288
 241  143.8458
 242  20.6645
 243  -56.75095
 244  101.038
 245  180.0238
 246  189.2309
 247  129.8658
 248  15.07151
 249  -15.69012
 250  62.35881
 251  251.1499
 252  265.8085
 253  77.06224
 254  52.53771
 255  124.6892
 256  80.4762
 257  125.8437
 258  46.09336
 259  -7.539237
 260  34.45971
 261  64.84151
 262  113.8239
 263  228.3264
 264  178.7209
 265  150.4756
 266  120.8383
 267  161.6813
 268  131.4184
 269  204.9617
 270  178.4068
 271  89.95817
 272  59.8638
 273  216.7146
 274  229.42
 275  134.2488
 276  27.49122
 277  106.6249
 278  41.78887
 279  101.7289
 280  154.7948
 281  110.8601
 282  108.4581
 283  78.42075
 284  44.53955
 285  125.0083
 286  139.923
 287  190.7251
 288  145.8725
 289  166.964
 290  141.9356
 291  168.7574
 292  102.8917
 293  189.6615
 294  271.9901
 295  230.9682
 296  365.6631
 297  157.0615
 298  74.66253
 299  28.96755
 300  201.152
 301  300.2798
 302  277.3112
 303  199.7862
 304  138.5887
 305  118.7404
 306  110.5866
 307  182.9744
 308  134.2604
 309  132.8129
 310  114.6939
 311  99.47871
 312  112.3409
 313  44.11761
 314  61.26197
 315  41.32782
 316  9.369658
 317  110.7398
 318  146.313
 319  116.0623
 320  121.331
 321  122.6697
 322  135.7666
 323  75.6518
 324  -56.74664
 325  -25.76148
 326  30.03623
 327  95.16694
 328  98.09668
 329  196.8945
 330  74.68688
 331  -61.90371
 332  170.0654
 333  313.9937
 334  273.8398
 335  237.699
 336  67.5772
 337  105.8976
 338  59.43444
 339  127.4204
 340  72.55415
 341  9.619355
 342  63.54006
 343  -14.81483
 344  103.4884
 345  79.24414
 346  74.69485
 347  66.76919
 348  219.7664
 349  83.04325
 350  166.4288
 351  117.3768
 352  46.11076
 353  32.5109
 354  144.9386
 355  175.6663
 356  144.9976
 357  125.9579
 358  163.6379
 359  75.22492
 360  -11.2389
 361  134.0264
 362  263.3438
 363  135.4871
 364  192.9143
 365  171.109
 366  13.44532
 367  116.025
 368  165.2301
 369  109.3381
 370  82.15633
 371  12.14134
 372  176.7256
 373  205.0012
 374  182.7049
 375  142.1231
 376  301.1873
 377  222.2237
 378  175.1328
 379  99.09528
 380  234.9827
 381  243.2111
 382  -10.89682
 383  21.47928
 384  36.10032
 385  147.4118
 386  77.00831
 387  209.7435
 388  199.7231
 389  212.2991
 390  196.1597
 391  100.9241
 392  91.18704
 393  90.36586
 394  22.09613
 395  139.9505
 396  36.62944
 397  73.81537
 398  54.67154
 399  128.1656
 400  226.7968
 401  80.73313
 402  -35.03962
 403  -16.21118
 404  -49.70365
 405  83.6068
 406  189.7931
 407  146.1796
 408  149.8851
 409  125.2799
 410  103.6744
 411  167.5091
 412  87.146
 413  77.04575
 414  95.23537
 415  138.9345
 416  128.7551
 417  126.5501
 418  71.31473
 419  -22.44186
 420  -62.08572
 421  49.58578
 422  54.8975
 423  36.58048
 424  112.4298
 425  133.7562
 426  121.563
 427  262.9738
 428  150.7253
 429  148.1443
 430  84.63266
 431  48.7326
 432  127.2749
 433  109.1003
 434  91.62305
 435  112.8187
 436  51.93516
 437  87.40451
 438  -39.36825
 439  -22.20344
 440  201.5733
 441  182.1633
 442  201.6382
 443  176.0042
 444  226.1707
 445  215.395
 446  92.03985
 447  89.23896
 448  219.8125
 449  86.04966
 450  179.0158
 451  145.923
 452  69.21044
 453  102.1642
 454  296.2708
 455  333.8089
 456  193.3734
 457  164.997
 458  245.1113
 459  314.4672
 460  109.831
 461  -54.56351
 462  140.8659
 463  108.3336
 464  -70.75812
 465  -83.72382
 466  111.7112
 467  165.6577
 468  179.2521
 469  189.1721
 470  163.8421
 471  42.84468
 472  -34.93336
 473  38.36946
 474  85.62997
 475  11.93122
 476  83.21667
 477  176.3312
 478  -35.31068
 479  36.45557
 480  197.8109
 481  107.9999
 482  175.9744
 483  208.7245
 484  77.30376
 485  88.79408
 486  7.078015
 487  117.3994
 488  250.5073
 489  208.3371
 490  155.8096
 491  119.4106
 492  168.0137
 493  160.5033
 494  50.36272
 495  170.7494
 496  235.3676
 497  139.0157
 498  62.65024
 499  -1.276824
 500  19.4425
 501  204.9745
 502  247.2893
 503  68.65833
 504  203.017
 505  351.4835
 506  219.8031
 507  224.1324
 508  201.1414
 509  489.3846
 510  601.8832
 511  835.161
