# Input file       =  1186540742.11421_cleaned.dat
# Candidate        =  PSR_0332+5434
# Telescope        =  AR
# Epoch_topo       =  57977.110661044098
# Epoch_bary       =  N/A
# T_sample         =  0.002
# Data Folded      =  7340032
# Data Avg         =  0.0120218364050566
# Data StdDev      =  1.00003661440125 
# Profile Bins     =  512
# Profile Avg      =  172.40977126546  
# Profile StdDev   =  119.737420330202 
# Reduced chi-sqr  =  2.256
# Prob(Noise)      <  1.56e-51   (~15.1 sigma)
# P_topo (ms)      =  714.465590902232  +/- 0.000228
# P'_topo (s/s)    =  -0                +/- 1.21e-10
# P''_topo (s/s^2) =  0                 +/- 5.32e-14
# P_bary (ms)      =  N/A
# P'_bary (s/s)    =  N/A
# P''_bary (s/s^2) =  N/A
# P_orb (s)        =  N/A
# asin(i)/c (s)    =  N/A
# eccentricity     =  N/A
# w (rad)          =  N/A
# T_peri           =  N/A
######################################################
   0  199.8624
   1  190.767
   2  257.6232
   3  253.1897
   4  220.4468
   5  273.0163
   6  158.3653
   7  233.4307
   8  238.2046
   9  256.9255
  10  317.1182
  11  226.8938
  12  195.3853
  13  170.3012
  14  286.2398
  15  260.5577
  16  175.3783
  17  216.9076
  18  218.7475
  19  170.6344
  20  301.789
  21  352.3133
  22  238.8546
  23  322.0609
  24  440.9254
  25  331.9156
  26  223.9908
  27  211.5897
  28  266.488
  29  162.2917
  30  202.0587
  31  210.8333
  32  76.31568
  33  73.11245
  34  222.0321
  35  332.2809
  36  356.2035
  37  304.387
  38  308.8257
  39  352.6244
  40  324.615
  41  365.6826
  42  321.5165
  43  193.4096
  44  168.8201
  45  250.4039
  46  266.7889
  47  217.6325
  48  239.1865
  49  335.4409
  50  194.9766
  51  175.5316
  52  203.1168
  53  140.621
  54  108.6054
  55  -11.98617
  56  105.4317
  57  169.9394
  58  207.8605
  59  174.3557
  60  308.6474
  61  197.6798
  62  181.407
  63  145.4944
  64  250.9267
  65  171.7545
  66  114.3122
  67  185.2995
  68  174.2637
  69  97.41915
  70  234.1465
  71  222.2208
  72  61.15053
  73  86.36095
  74  185.4491
  75  241.5935
  76  172.6892
  77  191.9122
  78  63.38066
  79  74.31759
  80  132.0499
  81  99.14214
  82  93.24471
  83  98.7417
  84  -21.70715
  85  2.257617
  86  64.23109
  87  94.71725
  88  103.7655
  89  83.77595
  90  118.4234
  91  145.003
  92  122.2868
  93  141.7276
  94  35.35825
  95  40.33923
  96  138.9795
  97  120.05
  98  93.32246
  99  44.73765
 100  53.71316
 101  -3.030083
 102  109.9237
 103  200.4987
 104  98.28793
 105  -26.67234
 106  19.68866
 107  229.4028
 108  223.9366
 109  197.7085
 110  122.5598
 111  -3.820578
 112  -29.89614
 113  47.58007
 114  111.3129
 115  189.1096
 116  197.2923
 117  64.36117
 118  -6.398901
 119  -30.07359
 120  112.3739
 121  68.10658
 122  147.6085
 123  138.2899
 124  145.4969
 125  41.47867
 126  24.73165
 127  -30.01128
 128  -44.55678
 129  29.53202
 130  80.54533
 131  -36.14521
 132  73.86246
 133  -40.44697
 134  43.94352
 135  40.54247
 136  13.75058
 137  -12.00627
 138  34.0808
 139  128.0897
 140  -37.2197
 141  64.83598
 142  1.262767
 143  -134.7188
 144  75.94257
 145  106.0323
 146  -53.7906
 147  5.145293
 148  27.36917
 149  35.90014
 150  25.73676
 151  74.04353
 152  -39.29012
 153  -79.46779
 154  25.89465
 155  -129.0422
 156  -116.102
 157  203.8952
 158  150.4106
 159  84.90862
 160  50.71529
 161  122.6594
 162  -34.1027
 163  26.54314
 164  120.1394
 165  52.90638
 166  142.4997
 167  79.32107
 168  127.1666
 169  85.94331
 170  133.4577
 171  -58.12867
 172  66.114
 173  46.14022
 174  75.98008
 175  199.6978
 176  167.2582
 177  297.2214
 178  369.4259
 179  319.7993
 180  169.3288
 181  166.5127
 182  88.89305
 183  -50.34605
 184  126.5761
 185  190.7681
 186  100.4069
 187  83.67224
 188  125.3697
 189  179.3774
 190  134.1038
 191  162.9281
 192  212.118
 193  210.7867
 194  84.71913
 195  117.8193
 196  80.28107
 197  41.47788
 198  5.838014
 199  -59.38573
 200  43.42738
 201  82.13851
 202  101.1835
 203  194.1656
 204  134.4406
 205  117.3103
 206  159.7402
 207  67.06958
 208  134.7951
 209  92.64965
 210  20.13676
 211  23.67274
 212  75.48915
 213  146.2527
 214  108.5103
 215  12.80255
 216  47.37231
 217  250.4608
 218  189.9828
 219  143.2429
 220  104.3482
 221  56.11964
 222  74.27232
 223  153.2487
 224  0.4659654
 225  -53.19238
 226  89.3182
 227  129.1049
 228  233.7553
 229  85.44894
 230  118.5552
 231  143.9952
 232  17.16189
 233  38.0444
 234  186.709
 235  242.5819
 236  161.7542
 237  -12.55881
 238  106.223
 239  103.7539
 240  190.2621
 241  165.0129
 242  172.4701
 243  185.5382
 244  110.3258
 245  96.71247
 246  68.27726
 247  191.4492
 248  225.8561
 249  85.19942
 250  53.11578
 251  165.5526
 252  107.7577
 253  177.5329
 254  188.6723
 255  198.0278
 256  192.8488
 257  171.7934
 258  138.5894
 259  100.5589
 260  19.19414
 261  151.4723
 262  80.33195
 263  -47.28259
 264  -2.906327
 265  -19.89368
 266  141.0403
 267  207.5282
 268  235.1257
 269  204.697
 270  169.8732
 271  131.7035
 272  147.1711
 273  97.71519
 274  166.1168
 275  189.4737
 276  236.1606
 277  7.826173
 278  29.60637
 279  142.6008
 280  149.3951
 281  238.6808
 282  184.3678
 283  94.34023
 284  45.37472
 285  218.2976
 286  216.4795
 287  113.0997
 288  150.1851
 289  36.35696
 290  49.13607
 291  78.23231
 292  22.42395
 293  28.60354
 294  46.85101
 295  216.8765
 296  208.805
 297  119.8544
 298  45.18254
 299  46.4469
 300  35.06655
 301  74.62304
 302  65.24575
 303  182.6741
 304  245.4717
 305  233.8142
 306  194.6237
 307  159.1126
 308  88.42966
 309  78.0425
 310  56.68676
 311  148.9448
 312  301.9749
 313  352.727
 314  278.6345
 315  170.7682
 316  77.08404
 317  199.7803
 318  258.5343
 319  211.9044
 320  278.5624
 321  197.9101
 322  264.2717
 323  362.5446
 324  323.7984
 325  137.7633
 326  247.4986
 327  404.3405
 328  277.5431
 329  139.3047
 330  102.6046
 331  205.4025
 332  33.67031
 333  236.3151
 334  139.4331
 335  177.6748
 336  362.7534
 337  268.4309
 338  190.2813
 339  167.3045
 340  232.0959
 341  323.192
 342  262.2857
 343  206.2176
 344  163.5246
 345  271.3871
 346  251.8958
 347  172.634
 348  256.6304
 349  270.486
 350  148.9442
 351  171.9351
 352  168.0375
 353  157.8932
 354  194.5388
 355  266.7957
 356  362.6547
 357  208.7812
 358  112.0296
 359  140.2812
 360  180.701
 361  211.9467
 362  222.068
 363  204.2548
 364  122.0925
 365  158.7377
 366  297.4139
 367  222.9132
 368  45.85943
 369  55.96587
 370  55.10627
 371  15.69005
 372  45.53745
 373  149.6157
 374  204.9637
 375  57.16422
 376  301.2568
 377  243.5495
 378  52.90141
 379  107.5041
 380  82.24989
 381  58.45721
 382  102.401
 383  98.51569
 384  91.74644
 385  203.31
 386  84.08003
 387  67.23258
 388  98.89126
 389  210.3558
 390  147.5829
 391  189.1581
 392  147.3381
 393  130.3763
 394  265.8909
 395  286.0088
 396  132.2728
 397  2.983698
 398  165.3321
 399  129.3386
 400  33.0275
 401  287.7808
 402  245.04
 403  221.2481
 404  102.9557
 405  71.27496
 406  221.2706
 407  180.4445
 408  230.4108
 409  250.8166
 410  272.3816
 411  177.4113
 412  258.0042
 413  259.6002
 414  271.2192
 415  297.387
 416  347.2149
 417  238.9204
 418  340.7971
 419  322.262
 420  355.13
 421  318.6653
 422  227.5307
 423  320.6729
 424  307.8289
 425  134.315
 426  317.0568
 427  391.5875
 428  419.9866
 429  227.1816
 430  345.3221
 431  458.5423
 432  477.7722
 433  479.1829
 434  696.8535
 435  846.2319
 436  917.0237
 437  974.7045
 438  965.2036
 439  612.6767
 440  411.8799
 441  214.2957
 442  389.0699
 443  327.9044
 444  207.0629
 445  69.72421
 446  61.80436
 447  139.6088
 448  231.5896
 449  331.5037
 450  293.7239
 451  232.6918
 452  255.4246
 453  324.9996
 454  311.448
 455  247.9409
 456  334.278
 457  385.5114
 458  165.742
 459  72.87329
 460  108.5682
 461  226.2625
 462  180.5596
 463  407.0437
 464  354.129
 465  271.9315
 466  185.6566
 467  193.6799
 468  273.753
 469  409.4188
 470  312.8416
 471  156.355
 472  230.6214
 473  331.1552
 474  366.2414
 475  270.04
 476  246.6993
 477  290.7799
 478  189.2152
 479  182.5756
 480  169.1017
 481  289.2746
 482  317.6379
 483  429.9035
 484  241.6545
 485  133.7977
 486  91.0739
 487  123.9935
 488  175.5882
 489  352.1329
 490  331.3041
 491  208.719
 492  178.6025
 493  276.6555
 494  216.899
 495  125.0853
 496  312.7856
 497  334.5279
 498  281.8193
 499  207.8975
 500  230.2052
 501  145.53
 502  258.0877
 503  273.7947
 504  180.8703
 505  219.9519
 506  311.7024
 507  283.2027
 508  277.8175
 509  140.8132
 510  90.89449
 511  162.1235
