# Input file       =  1186469541.113911_cleaned.dat
# Candidate        =  PSR_0332+5434
# Telescope        =  AR
# Epoch_topo       =  57976.286575392485
# Epoch_bary       =  N/A
# T_sample         =  0.002
# Data Folded      =  7340032
# Data Avg         =  0.00369245206235101
# Data StdDev      =  1.0000231747502  
# Profile Bins     =  512
# Profile Avg      =  52.8454972113404 
# Profile StdDev   =  119.735811159975 
# Reduced chi-sqr  =  1.224
# Prob(Noise)      <  0.000377   (~3.4 sigma)
# P_topo (ms)      =  714.466154623941  +/- 0.00016
# P'_topo (s/s)    =  -0                +/- 8.45e-11
# P''_topo (s/s^2) =  0                 +/- 3.73e-14
# P_bary (ms)      =  N/A
# P'_bary (s/s)    =  N/A
# P''_bary (s/s^2) =  N/A
# P_orb (s)        =  N/A
# asin(i)/c (s)    =  N/A
# eccentricity     =  N/A
# w (rad)          =  N/A
# T_peri           =  N/A
######################################################
   0  519.5567
   1  508.3475
   2  373.4366
   3  293.4119
   4  90.96178
   5  104.3924
   6  106.4445
   7  153.148
   8  129.5228
   9  128.2149
  10  153.0509
  11  -3.288793
  12  104.3137
  13  170.878
  14  101.4923
  15  129.7116
  16  -43.71024
  17  -192.7739
  18  15.7335
  19  -46.14826
  20  -20.16827
  21  50.92901
  22  -64.94566
  23  -85.96876
  24  99.44707
  25  85.11845
  26  -63.26087
  27  -11.04088
  28  55.33451
  29  109.771
  30  4.123394
  31  101.4389
  32  -110.0634
  33  -108.5395
  34  -103.3996
  35  -91.23661
  36  -141.6616
  37  -85.81818
  38  123.7039
  39  30.318
  40  130.4145
  41  66.09877
  42  -9.37557
  43  -45.45662
  44  -134.179
  45  64.22768
  46  45.59551
  47  -26.18052
  48  34.07238
  49  89.13738
  50  196.2554
  51  -2.257391
  52  5.742715
  53  25.5268
  54  -24.05278
  55  -44.82637
  56  -76.94228
  57  -38.67522
  58  64.38353
  59  232.0081
  60  200.0266
  61  138.0167
  62  19.65483
  63  84.23112
  64  76.80826
  65  18.75754
  66  174.2148
  67  124.4783
  68  89.20068
  69  -6.37308
  70  -49.84784
  71  -10.3164
  72  -26.1082
  73  -28.69249
  74  208.6797
  75  196.255
  76  185.1292
  77  69.83372
  78  44.12939
  79  135.8659
  80  52.7842
  81  59.06399
  82  26.22923
  83  -9.650282
  84  56.87645
  85  178.1186
  86  111.1073
  87  114.3386
  88  66.58015
  89  146.6028
  90  211.4928
  91  174.6435
  92  180.4306
  93  118.2125
  94  107.7634
  95  -41.58395
  96  76.4292
  97  68.50185
  98  -8.837852
  99  -61.26926
 100  -10.7251
 101  -14.00613
 102  -15.8838
 103  -69.41023
 104  -74.17323
 105  -49.86213
 106  -84.70562
 107  23.02612
 108  20.82517
 109  58.16608
 110  53.25482
 111  27.3845
 112  82.76355
 113  6.566597
 114  -5.130354
 115  120.5859
 116  57.43649
 117  91.56595
 118  60.64859
 119  145.3304
 120  125.3183
 121  81.34869
 122  -41.3264
 123  46.4778
 124  39.76578
 125  -13.89626
 126  -14.20423
 127  -14.79791
 128  19.46829
 129  -97.26318
 130  -34.76064
 131  -18.29655
 132  88.22009
 133  156.8452
 134  147.4661
 135  191.4312
 136  105.6179
 137  37.1541
 138  67.67239
 139  84.30846
 140  31.14462
 141  14.42645
 142  87.64964
 143  123.0657
 144  141.4826
 145  94.81195
 146  114.606
 147  117.6332
 148  6.319508
 149  35.22643
 150  46.38545
 151  151.8646
 152  215.4571
 153  84.75721
 154  106.6102
 155  177.3273
 156  96.54807
 157  173.9657
 158  92.86253
 159  49.86386
 160  -8.273869
 161  -14.74077
 162  86.48119
 163  169.0486
 164  165.3176
 165  11.55576
 166  -65.01574
 167  89.31381
 168  81.93349
 169  -0.7019206
 170  80.84429
 171  69.87932
 172  -10.66925
 173  -13.47169
 174  161.4043
 175  143.5505
 176  56.06165
 177  76.46614
 178  56.49223
 179  45.83801
 180  161.3286
 181  13.49512
 182  -6.644875
 183  -40.27248
 184  11.54528
 185  52.58619
 186  87.98905
 187  39.76347
 188  4.858588
 189  -76.86031
 190  -78.47578
 191  128.9704
 192  86.72565
 193  -51.39647
 194  -4.918192
 195  86.04409
 196  72.07054
 197  -91.97791
 198  25.47322
 199  154.4464
 200  178.6642
 201  166.2256
 202  115.2831
 203  62.60722
 204  72.39238
 205  76.01479
 206  -24.20546
 207  62.33818
 208  29.79896
 209  100.0124
 210  150.2147
 211  179.2585
 212  298.6405
 213  189.914
 214  142.3135
 215  59.15305
 216  58.70511
 217  -76.30389
 218  -40.3635
 219  -28.98644
 220  176.0013
 221  275.4317
 222  198.4038
 223  109.3275
 224  -2.647526
 225  56.73735
 226  68.14497
 227  166.8276
 228  174.8884
 229  102.8465
 230  89.0812
 231  168.1944
 232  156.6341
 233  26.99077
 234  59.30833
 235  167.5575
 236  24.31485
 237  64.77399
 238  67.99589
 239  -11.17047
 240  61.14643
 241  43.35324
 242  170.7319
 243  77.72312
 244  -15.68456
 245  -14.96591
 246  50.4631
 247  109.7612
 248  91.59029
 249  -5.59496
 250  -9.13108
 251  -46.83035
 252  84.3643
 253  78.32756
 254  32.61655
 255  -30.28626
 256  152.1202
 257  128.8806
 258  88.50336
 259  52.19848
 260  -10.14245
 261  -83.05468
 262  -53.93936
 263  80.96886
 264  37.08886
 265  140.1439
 266  105.7587
 267  -13.07446
 268  99.60957
 269  159.8422
 270  2.891454
 271  14.89681
 272  45.22776
 273  -1.101803
 274  111.0529
 275  212.3334
 276  216.4804
 277  53.58559
 278  146.6767
 279  98.70747
 280  -1.357439
 281  134.5719
 282  223.9546
 283  38.59828
 284  -17.59648
 285  225.2028
 286  185.4212
 287  86.67037
 288  15.02263
 289  112.2438
 290  136.7205
 291  -104.5883
 292  -18.44499
 293  136.394
 294  190.806
 295  118.2055
 296  143.0203
 297  258.7669
 298  148.4736
 299  188.7162
 300  142.9518
 301  -8.723778
 302  65.69848
 303  68.12305
 304  -8.622823
 305  27.3415
 306  77.14276
 307  155.1739
 308  41.97766
 309  -27.86712
 310  56.84251
 311  51.7804
 312  -14.42229
 313  41.47912
 314  60.12141
 315  20.99531
 316  -11.22247
 317  -101.6372
 318  -20.72051
 319  69.57745
 320  97.9226
 321  79.3332
 322  144.3394
 323  41.26458
 324  -17.82044
 325  -1.109891
 326  -1.58019
 327  40.59868
 328  -38.64167
 329  41.36505
 330  72.63832
 331  21.98938
 332  -33.71683
 333  39.35916
 334  37.08389
 335  128.1819
 336  165.7775
 337  67.67087
 338  -83.76923
 339  -31.91878
 340  25.3435
 341  27.27458
 342  -4.175587
 343  49.25974
 344  -50.12198
 345  65.68931
 346  223.5128
 347  174.7848
 348  47.89801
 349  97.81526
 350  149.3186
 351  81.63115
 352  109.674
 353  -2.557553
 354  -49.52161
 355  18.90918
 356  67.83147
 357  67.38362
 358  19.77082
 359  -48.0737
 360  -76.63287
 361  146.7944
 362  60.18653
 363  -12.86256
 364  58.99787
 365  92.70139
 366  55.16964
 367  107.7142
 368  142.3528
 369  22.70183
 370  141.9461
 371  18.31818
 372  -149.1549
 373  -155.3722
 374  -44.63301
 375  22.11551
 376  55.91808
 377  -86.13251
 378  -127.1282
 379  -98.98833
 380  -21.22358
 381  111.8857
 382  14.92859
 383  -5.995811
 384  16.16552
 385  -3.549692
 386  -33.61716
 387  -54.3852
 388  54.69308
 389  2.196242
 390  -38.70427
 391  -103.4604
 392  2.692524
 393  -112.8736
 394  -95.17956
 395  -61.20784
 396  -44.01277
 397  -11.86255
 398  41.07773
 399  -39.4344
 400  -109.8047
 401  -133.3117
 402  -1.067958
 403  5.343477
 404  -39.8103
 405  -61.62069
 406  -115.1877
 407  31.81203
 408  -44.69968
 409  9.967174
 410  58.66722
 411  20.59278
 412  -7.451941
 413  -81.20329
 414  16.42073
 415  15.67853
 416  79.923
 417  109.3303
 418  41.07036
 419  81.6412
 420  72.12778
 421  -51.32877
 422  -29.18339
 423  16.00506
 424  -6.685174
 425  2.126227
 426  22.098
 427  94.06301
 428  -2.219699
 429  84.8172
 430  104.8486
 431  123.7763
 432  58.91275
 433  78.39058
 434  -18.30709
 435  32.06351
 436  69.9898
 437  28.75978
 438  -1.37749
 439  -66.88161
 440  -99.51736
 441  21.61426
 442  11.11118
 443  -71.4232
 444  -41.48603
 445  27.99595
 446  21.94998
 447  110.4268
 448  90.63953
 449  94.99594
 450  -6.08007
 451  -21.88205
 452  78.46962
 453  148.6775
 454  215.2023
 455  215.915
 456  255.9405
 457  112.1627
 458  -69.77818
 459  -247.1215
 460  -20.28309
 461  107.3895
 462  102.7065
 463  21.57307
 464  -1.386868
 465  120.5253
 466  37.72535
 467  69.75978
 468  93.91586
 469  -114.3306
 470  16.50874
 471  170.9523
 472  149.2951
 473  89.25121
 474  74.34283
 475  117.0358
 476  58.37292
 477  -1.607081
 478  -55.12036
 479  -146.1424
 480  8.356438
 481  52.22126
 482  -38.04809
 483  -93.90012
 484  -122.4587
 485  24.15053
 486  54.72609
 487  63.995
 488  44.95569
 489  20.62883
 490  12.06276
 491  81.02709
 492  103.539
 493  70.13383
 494  -90.49991
 495  -52.0336
 496  -35.41702
 497  48.43647
 498  9.15626
 499  46.84715
 500  -8.616023
 501  10.29721
 502  16.76201
 503  72.72948
 504  189.8757
 505  101.4858
 506  -26.25876
 507  214.1091
 508  305.903
 509  294.1766
 510  493.6063
 511  571.9071
