# Input file       =  1186095281.118897_cleaned.dat
# Candidate        =  PSR_0332+5434
# Telescope        =  AR
# Epoch_topo       =  57971.954862487233
# Epoch_bary       =  N/A
# T_sample         =  0.002
# Data Folded      =  7208960
# Data Avg         =  0.196637840734117
# Data StdDev      =  5.46498876426775 
# Profile Bins     =  256
# Profile Avg      =  5537.2483449302  
# Profile StdDev   =  917.076571378316 
# Reduced chi-sqr  =  0.530
# Prob(Noise)      <  1   (~0.0 sigma)
# P_topo (ms)      =  714.467167258917  +/- 8.97e-05
# P'_topo (s/s)    =  -0                +/- 4.82e-11
# P''_topo (s/s^2) =  0                 +/- 2.17e-14
# P_bary (ms)      =  N/A
# P'_bary (s/s)    =  N/A
# P''_bary (s/s^2) =  N/A
# P_orb (s)        =  N/A
# asin(i)/c (s)    =  N/A
# eccentricity     =  N/A
# w (rad)          =  N/A
# T_peri           =  N/A
######################################################
   0  5042.307
   1  5585.31
   2  6306.795
   3  5063.142
   4  4983.107
   5  4947.319
   6  6229.56
   7  5981.464
   8  5208.542
   9  5666.192
  10  5097.744
  11  5645.951
  12  5110.625
  13  4708.161
  14  5497.58
  15  5494.297
  16  5291.597
  17  5763.48
  18  6443.099
  19  5697.251
  20  5358.197
  21  5322.997
  22  5929.331
  23  6007.199
  24  4449.782
  25  4927.975
  26  5972.108
  27  5729.938
  28  6053.269
  29  5492.875
  30  5735.836
  31  5536.312
  32  5644.091
  33  5736.548
  34  5421.298
  35  5576.664
  36  4844.909
  37  5495.445
  38  6059.517
  39  5693.341
  40  5448.592
  41  5017.811
  42  5378.747
  43  6481.922
  44  6105.853
  45  5092.74
  46  5075.89
  47  5859.362
  48  6275.676
  49  5878.806
  50  5650.213
  51  5691.211
  52  5400.418
  53  4868.055
  54  5318.116
  55  6782.979
  56  6492.682
  57  4715.659
  58  5497.458
  59  5302.33
  60  6042.38
  61  5409.387
  62  5090.858
  63  5466.197
  64  5894.471
  65  5822.589
  66  5068.298
  67  5175.1
  68  5661.387
  69  5777.591
  70  5469.392
  71  5863.779
  72  6016.39
  73  5083.785
  74  4892.161
  75  5219.843
  76  5196.11
  77  5907.764
  78  5832.958
  79  5243.187
  80  5736.909
  81  5445.789
  82  5690.246
  83  5021.543
  84  4819.061
  85  4577.244
  86  6070.576
  87  5586.403
  88  5327.499
  89  5380.513
  90  4951.315
  91  5045.506
  92  5327.972
  93  6339.225
  94  5462.448
  95  4835.301
  96  4871.95
  97  5762.569
  98  5572.687
  99  5331.712
 100  4350.74
 101  5585.218
 102  5169.229
 103  4938.501
 104  5482.88
 105  5506.595
 106  5627.388
 107  5131.752
 108  5491.238
 109  6751.396
 110  5757.759
 111  4863.375
 112  4563.771
 113  5490.88
 114  6022.974
 115  5036.799
 116  5375.639
 117  5365.825
 118  5339.46
 119  6295.337
 120  5755.09
 121  5015.124
 122  4644.298
 123  5236.169
 124  6121.601
 125  5833.438
 126  5678.403
 127  4556.658
 128  4857.624
 129  5362.665
 130  5909.592
 131  5452.396
 132  4737.72
 133  4878.194
 134  5710.736
 135  5755.933
 136  5527.578
 137  5421.051
 138  4774.083
 139  5209.315
 140  5927.69
 141  6257.583
 142  5269.268
 143  5506.114
 144  4774.109
 145  5756.164
 146  6029.172
 147  4818.551
 148  4726.703
 149  5538.771
 150  6095.426
 151  5740.51
 152  6316.351
 153  5820.642
 154  5725.107
 155  6546.745
 156  6492.501
 157  6182.365
 158  5783.658
 159  6382.803
 160  5688.538
 161  7801.918
 162  8867.549
 163  7734.746
 164  5673.888
 165  5018.465
 166  5612.793
 167  6218.316
 168  5356.685
 169  5188.549
 170  5200.809
 171  5963.64
 172  5680.395
 173  5978.077
 174  5003.858
 175  4573.919
 176  5112.3
 177  5853.368
 178  6118.034
 179  6037.724
 180  4218.619
 181  4573.352
 182  5877.798
 183  6851.364
 184  5362.574
 185  5178.04
 186  5747.259
 187  6010.026
 188  5819.057
 189  5443.766
 190  5476.482
 191  5606.46
 192  5611.63
 193  5341.068
 194  5958.486
 195  5537.749
 196  6122.187
 197  6107.435
 198  5518.343
 199  6483.177
 200  6405.64
 201  5442.072
 202  4459.756
 203  5331.118
 204  6026.48
 205  5549.886
 206  5168.504
 207  4850.839
 208  5309.041
 209  6104.32
 210  5302.225
 211  5244.433
 212  5735.379
 213  5417.829
 214  5314.506
 215  5855.397
 216  5834.255
 217  5919.771
 218  4879.988
 219  4800.447
 220  5462.034
 221  5549.12
 222  5724.932
 223  4957.881
 224  5771.879
 225  5608.011
 226  4989.866
 227  5258.744
 228  4924.626
 229  4945.37
 230  5636.956
 231  5655.48
 232  5570.696
 233  5418.877
 234  4905.133
 235  5823.869
 236  5668.919
 237  6065.014
 238  5089.842
 239  4386.318
 240  4957.669
 241  6505.445
 242  6359.001
 243  5323.97
 244  4962.341
 245  5666.496
 246  6074.214
 247  5474.329
 248  5247.948
 249  6124.472
 250  5748.689
 251  4760.294
 252  5877.285
 253  6348.252
 254  5173.172
 255  4387.677
