# Input file       =  1186282239.11017_cleaned.dat
# Candidate        =  PSR_0332+5434
# Telescope        =  AR
# Epoch_topo       =  57974.118728126967
# Epoch_bary       =  N/A
# T_sample         =  0.002
# Data Folded      =  7340032
# Data Avg         =  0.00700439577308419
# Data StdDev      =  1.00005884516351 
# Profile Bins     =  512
# Profile Avg      =  100.484126624482 
# Profile StdDev   =  119.740082086869 
# Reduced chi-sqr  =  1.671
# Prob(Noise)      <  1.17e-19   (~9.0 sigma)
# P_topo (ms)      =  714.466466055494  +/- 0.000216
# P'_topo (s/s)    =  -0                +/- 1.14e-10
# P''_topo (s/s^2) =  0                 +/- 5.02e-14
# P_bary (ms)      =  N/A
# P'_bary (s/s)    =  N/A
# P''_bary (s/s^2) =  N/A
# P_orb (s)        =  N/A
# asin(i)/c (s)    =  N/A
# eccentricity     =  N/A
# w (rad)          =  N/A
# T_peri           =  N/A
######################################################
   0  914.0741
   1  882.5753
   2  741.3727
   3  454.2343
   4  234.6257
   5  263.8793
   6  186.9536
   7  111.8982
   8  129.7763
   9  124.338
  10  122.6999
  11  151.1563
  12  192.7335
  13  307.5182
  14  120.8252
  15  -61.75036
  16  -203.5494
  17  -162.1404
  18  29.65128
  19  122.204
  20  -42.47728
  21  -20.21365
  22  -36.916
  23  -4.741782
  24  -81.92793
  25  -95.18665
  26  -31.10939
  27  -71.92471
  28  -4.862894
  29  22.41832
  30  35.54516
  31  152.6096
  32  37.7068
  33  -61.79562
  34  25.42353
  35  144.7357
  36  82.57968
  37  70.8931
  38  32.31747
  39  114.7861
  40  136.5403
  41  173.2681
  42  74.50584
  43  111.8147
  44  196.3401
  45  202.6712
  46  203.6283
  47  131.2921
  48  183.8342
  49  -37.17302
  50  -35.26857
  51  90.87457
  52  218.298
  53  189.1133
  54  -12.83547
  55  9.09317
  56  34.28175
  57  73.4002
  58  2.984089
  59  102.3591
  60  95.40928
  61  164.1408
  62  192.7208
  63  -0.9161687
  64  -110.5694
  65  19.3135
  66  65.08017
  67  80.80217
  68  -23.47101
  69  85.87605
  70  82.31326
  71  48.33197
  72  8.956773
  73  -21.34807
  74  142.3525
  75  48.69296
  76  166.4359
  77  174.1266
  78  102.4102
  79  3.874421
  80  102.2222
  81  10.43937
  82  85.29052
  83  84.84777
  84  55.97442
  85  77.36572
  86  97.60485
  87  118.8959
  88  42.42249
  89  71.82378
  90  189.8292
  91  177.7939
  92  208.6184
  93  173.64
  94  55.17379
  95  -10.55851
  96  180.0741
  97  120.2178
  98  -23.451
  99  104.6245
 100  171.8698
 101  96.66959
 102  181.8395
 103  220.6727
 104  63.63476
 105  80.29918
 106  74.79084
 107  30.71992
 108  145.3267
 109  8.517405
 110  51.6488
 111  144.1317
 112  160.6744
 113  264.5728
 114  173.4015
 115  165.2706
 116  113.6574
 117  87.32198
 118  273.9837
 119  133.6866
 120  131.7912
 121  -44.80098
 122  -65.96494
 123  165.1254
 124  272.6059
 125  210.1412
 126  93.69237
 127  96.10307
 128  88.89394
 129  127.1996
 130  187.9044
 131  197.2907
 132  33.19685
 133  69.21982
 134  52.20581
 135  89.42514
 136  157.0243
 137  197.1486
 138  178.6293
 139  248.3823
 140  192.3037
 141  266.6229
 142  40.26208
 143  59.48256
 144  153.3185
 145  155.9856
 146  154.4341
 147  85.90858
 148  82.49544
 149  117.862
 150  103.6711
 151  207.3321
 152  208.6506
 153  301.069
 154  159.0527
 155  132.7543
 156  104.242
 157  110.6801
 158  65.04672
 159  88.17172
 160  129.5489
 161  34.50708
 162  47.597
 163  156.5166
 164  188.9936
 165  270.5006
 166  137.1141
 167  7.340442
 168  -49.09181
 169  87.67075
 170  246.8753
 171  206.5886
 172  228.1856
 173  152.263
 174  -19.56587
 175  -22.20623
 176  151.0036
 177  103.2329
 178  106.2826
 179  99.24213
 180  -70.41598
 181  -31.71089
 182  23.16854
 183  82.0898
 184  -0.5060197
 185  -19.02409
 186  34.25558
 187  72.02104
 188  79.36729
 189  68.57317
 190  36.24857
 191  50.50706
 192  -129.8348
 193  -57.173
 194  74.09956
 195  66.89475
 196  127.0153
 197  139.6258
 198  145.7009
 199  178.6589
 200  166.7795
 201  177.2194
 202  103.0652
 203  110.1522
 204  130.8626
 205  120.1393
 206  114.3424
 207  123.3068
 208  147.3783
 209  66.74094
 210  38.76175
 211  38.23085
 212  57.51653
 213  121.5405
 214  68.79762
 215  108.2058
 216  132.653
 217  84.14409
 218  80.03609
 219  67.43818
 220  174.2859
 221  163.0742
 222  200.8242
 223  192.6972
 224  103.4602
 225  33.27457
 226  96.056
 227  227.9479
 228  196.5634
 229  35.1994
 230  115.004
 231  89.14305
 232  26.27863
 233  92.31923
 234  182.5397
 235  42.33321
 236  46.6998
 237  20.83129
 238  179.8685
 239  271.3221
 240  265.6704
 241  132.1464
 242  147.1965
 243  181.3014
 244  122.2535
 245  240.835
 246  158.655
 247  43.33736
 248  86.47623
 249  206.392
 250  52.89988
 251  88.67413
 252  55.48169
 253  8.888683
 254  -3.46394
 255  37.394
 256  45.54571
 257  89.88003
 258  144.8424
 259  148.2388
 260  5.073743
 261  -59.55005
 262  -85.23583
 263  8.213647
 264  -36.38579
 265  -22.1817
 266  -101.7094
 267  -14.3711
 268  -11.12638
 269  -72.53973
 270  87.74639
 271  144.36
 272  138.8092
 273  98.9493
 274  -4.324459
 275  -22.34178
 276  25.96752
 277  120.3003
 278  126.3759
 279  97.16518
 280  64.04491
 281  33.50323
 282  125.5778
 283  142.7847
 284  169.6983
 285  103.9988
 286  47.90191
 287  144.1096
 288  124.9532
 289  169.9583
 290  104.4934
 291  138.6908
 292  57.87197
 293  -50.73515
 294  25.18677
 295  151.3363
 296  59.89391
 297  52.31891
 298  -47.36936
 299  -0.0851128
 300  -34.41388
 301  12.92268
 302  -10.74189
 303  74.4678
 304  48.18628
 305  110.7117
 306  92.38612
 307  11.35241
 308  43.60318
 309  119.4057
 310  205.214
 311  302.5925
 312  148.8659
 313  -5.439091
 314  60.58717
 315  209.5978
 316  199.643
 317  54.36459
 318  121.4552
 319  29.53528
 320  103.3321
 321  168.3238
 322  162.1717
 323  118.5889
 324  -10.44109
 325  -77.21516
 326  -28.30058
 327  104.133
 328  152.6949
 329  52.61544
 330  123.0576
 331  118.5107
 332  -3.331576
 333  -50.85582
 334  42.62608
 335  230.051
 336  309.8339
 337  179.5715
 338  5.386879
 339  116.9103
 340  171.5766
 341  155.4818
 342  165.7169
 343  12.62523
 344  -15.00897
 345  -33.53638
 346  73.23592
 347  157.3624
 348  94.38261
 349  -46.75229
 350  -84.39215
 351  106.6368
 352  174.0965
 353  198.1669
 354  215.706
 355  -5.890452
 356  9.780532
 357  66.99557
 358  220.6927
 359  113.6356
 360  -85.31848
 361  52.31426
 362  98.29527
 363  198.8728
 364  259.8253
 365  201.8674
 366  107.1958
 367  174.2547
 368  128.5526
 369  3.09651
 370  152.2705
 371  226.2486
 372  167.2273
 373  117.4059
 374  173.6917
 375  98.87605
 376  202.4312
 377  179.053
 378  116.774
 379  22.86679
 380  46.44611
 381  148.0191
 382  117.7842
 383  192.6358
 384  181.7007
 385  4.831052
 386  54.14631
 387  103.72
 388  159.2626
 389  138.295
 390  118.1752
 391  147.8954
 392  280.7731
 393  191.9825
 394  47.94721
 395  51.84028
 396  -20.63969
 397  135.6504
 398  134.8112
 399  185.2716
 400  64.13273
 401  65.45558
 402  74.29269
 403  114.2805
 404  179.895
 405  60.30603
 406  89.72129
 407  103.1397
 408  162.7619
 409  162.5394
 410  94.9511
 411  59.94394
 412  27.06583
 413  160.6064
 414  152.5175
 415  141.5613
 416  109.8043
 417  163.1012
 418  219.1368
 419  167.1563
 420  192.4606
 421  114.5277
 422  38.82689
 423  83.40112
 424  63.25774
 425  286.6207
 426  203.136
 427  100.3981
 428  43.91086
 429  159.6935
 430  208.9166
 431  149.1887
 432  29.82979
 433  87.10187
 434  1.050259
 435  -6.839432
 436  74.05582
 437  54.97938
 438  25.38089
 439  16.84401
 440  -17.47587
 441  125.2182
 442  56.8254
 443  -11.20074
 444  -6.98823
 445  -38.33385
 446  31.5979
 447  48.51366
 448  111.3172
 449  5.384434
 450  -19.4937
 451  150.568
 452  86.73905
 453  -50.70755
 454  62.77615
 455  70.95975
 456  -39.85503
 457  -4.223811
 458  -72.62329
 459  67.87551
 460  51.25842
 461  79.32487
 462  154.3822
 463  176.8529
 464  129.9146
 465  58.11296
 466  104.6645
 467  191.9663
 468  140.0463
 469  88.41667
 470  113.9413
 471  47.11163
 472  88.33563
 473  45.24315
 474  134.3301
 475  38.42416
 476  -11.47162
 477  -47.49831
 478  -71.30969
 479  97.68891
 480  104.4549
 481  88.72091
 482  139.6062
 483  49.19611
 484  113.1714
 485  -25.43979
 486  21.79713
 487  -25.93784
 488  23.63178
 489  83.5661
 490  72.70286
 491  -16.34396
 492  -22.65073
 493  36.48062
 494  85.33136
 495  19.69252
 496  162.42
 497  45.16504
 498  34.80563
 499  75.7664
 500  110.5639
 501  -15.96694
 502  96.79304
 503  99.66988
 504  135.0442
 505  108.9326
 506  288.7798
 507  245.9307
 508  379.8203
 509  620.3448
 510  593.5966
 511  755.931
