# Input file       =  1186799925.14863_cleaned.dat
# Candidate        =  PSR_0332+5434
# Telescope        =  AR
# Epoch_topo       =  57980.110464683217
# Epoch_bary       =  N/A
# T_sample         =  0.002
# Data Folded      =  7340032
# Data Avg         =  0.0171041834868707
# Data StdDev      =  2.26159340377964 
# Profile Bins     =  512
# Profile Avg      =  245.195571858241 
# Profile StdDev   =  270.787445284202 
# Reduced chi-sqr  =  1.544
# Prob(Noise)      <  3.18e-14   (~7.5 sigma)
# P_topo (ms)      =  714.464855199676  +/- 0.000111
# P'_topo (s/s)    =  -0                +/- 5.85e-11
# P''_topo (s/s^2) =  0                 +/- 2.58e-14
# P_bary (ms)      =  N/A
# P'_bary (s/s)    =  N/A
# P''_bary (s/s^2) =  N/A
# P_orb (s)        =  N/A
# asin(i)/c (s)    =  N/A
# eccentricity     =  N/A
# w (rad)          =  N/A
# T_peri           =  N/A
######################################################
   0  96.60915
   1  71.26985
   2  234.9412
   3  -32.964
   4  1.42369
   5  246.5844
   6  375.8
   7  467.8079
   8  118.7389
   9  6.707482
  10  -136.7978
  11  -5.34152
  12  210.7727
  13  286.7048
  14  90.48438
  15  150.0307
  16  -160.6231
  17  -300.736
  18  -18.28871
  19  115.7646
  20  141.3696
  21  34.68661
  22  4.09285
  23  416.7244
  24  75.0498
  25  287.8142
  26  108.7664
  27  -126.3017
  28  122.9271
  29  13.14097
  30  228.8032
  31  467.1469
  32  299.9545
  33  325.949
  34  259.047
  35  375.4883
  36  276.9705
  37  301.4279
  38  402.4327
  39  159.5705
  40  280.589
  41  392.9992
  42  368.2434
  43  120.0481
  44  -51.27217
  45  35.40789
  46  267.9759
  47  364.6729
  48  -38.2578
  49  -47.0483
  50  266.107
  51  124.0664
  52  151.9341
  53  -198.8163
  54  118.6052
  55  114.6145
  56  291.9189
  57  315.2567
  58  157.3596
  59  255.713
  60  400.6325
  61  311.1052
  62  122.9972
  63  -35.29444
  64  -50.98555
  65  319.2386
  66  191.4784
  67  -303.0243
  68  -117.4529
  69  95.02972
  70  4.275752
  71  221.9147
  72  358.54
  73  265.8351
  74  -153.5142
  75  182.2348
  76  262.3497
  77  141.0447
  78  177.5588
  79  112.339
  80  252.5056
  81  437.4162
  82  361.597
  83  318.9849
  84  385.9431
  85  471.3984
  86  224.8457
  87  -60.79376
  88  244.2972
  89  591.7402
  90  517.071
  91  225.1207
  92  142.9063
  93  369.9769
  94  57.30488
  95  40.13718
  96  357.5655
  97  347.9678
  98  266.2414
  99  268.8499
 100  576.3671
 101  400.2569
 102  128.8497
 103  306.6212
 104  116.0902
 105  -96.00496
 106  -49.19753
 107  80.32571
 108  166.1641
 109  -5.076035
 110  129.3383
 111  101.631
 112  198.0421
 113  211.9842
 114  589.2516
 115  463.5989
 116  629.3211
 117  528.0634
 118  329.17
 119  363.2443
 120  207.6689
 121  100.6672
 122  -13.87082
 123  212.8797
 124  432.5507
 125  60.49874
 126  145.865
 127  257.6187
 128  161.9095
 129  6.55942
 130  -40.94526
 131  128.5605
 132  53.51166
 133  47.65468
 134  310.051
 135  261.021
 136  682.6047
 137  389.537
 138  162.2925
 139  152.6809
 140  183.1587
 141  -21.62586
 142  60.88717
 143  110.3909
 144  -3.857463
 145  -191.5348
 146  51.37275
 147  30.85804
 148  1.704559
 149  -337.7144
 150  -90.10959
 151  130.375
 152  -323.3343
 153  68.1404
 154  -44.76785
 155  366.4673
 156  465.1711
 157  396.4431
 158  85.5836
 159  300.5255
 160  501.5604
 161  -161.3868
 162  40.85446
 163  345.8569
 164  722.7218
 165  215.3075
 166  -181.0117
 167  24.90685
 168  148.7034
 169  161.0733
 170  278.1939
 171  305.0712
 172  413.5301
 173  436.2852
 174  357.2299
 175  457.5565
 176  556.9946
 177  464.6611
 178  358.6185
 179  586.9749
 180  347.6176
 181  371.5183
 182  349.4149
 183  558.2676
 184  499.6411
 185  184.8329
 186  87.24722
 187  31.30134
 188  36.24388
 189  284.7191
 190  227.5678
 191  85.94595
 192  176.4251
 193  433.2552
 194  527.1046
 195  212.6911
 196  179.1803
 197  109.971
 198  280.6239
 199  644.8492
 200  555.2756
 201  114.5208
 202  190.4691
 203  685.7953
 204  599.7818
 205  449.3907
 206  614.973
 207  441.7861
 208  140.4318
 209  90.14393
 210  278.3734
 211  492.6506
 212  300.3847
 213  176.8313
 214  397.1681
 215  301.2139
 216  61.95864
 217  170.3563
 218  261.1533
 219  203.2717
 220  194.627
 221  147.0255
 222  168.6841
 223  -64.77174
 224  118.3582
 225  142.3815
 226  450.1311
 227  258.0794
 228  190.8847
 229  62.24776
 230  79.49926
 231  214.3049
 232  41.5653
 233  369.642
 234  460.5906
 235  188.9929
 236  97.40926
 237  372.2029
 238  398.1768
 239  -85.21078
 240  -50.86829
 241  257.9268
 242  366.2878
 243  324.5603
 244  400.3265
 245  502.2694
 246  514.3391
 247  448.1157
 248  162.8159
 249  340.8567
 250  348.9492
 251  303.2191
 252  21.25017
 253  118.191
 254  345.004
 255  120.9066
 256  212.816
 257  306.0443
 258  294.0007
 259  -129.6142
 260  -126.6093
 261  361.7126
 262  483.1177
 263  248.8996
 264  -35.59716
 265  330.8328
 266  456.6853
 267  207.0783
 268  391.4608
 269  348.9961
 270  228.0858
 271  465.1055
 272  667.9847
 273  531.0447
 274  216.0264
 275  183.0729
 276  271.3623
 277  133.7849
 278  8.743151
 279  321.0045
 280  557.8632
 281  560.399
 282  384.5017
 283  544.8615
 284  580.0695
 285  480.3834
 286  180.9152
 287  580.0769
 288  398.6655
 289  -137.9975
 290  -49.38998
 291  197.2527
 292  587.8888
 293  244.4332
 294  71.87189
 295  397.5931
 296  585.5181
 297  532.444
 298  243.7654
 299  184.5386
 300  405.9405
 301  246.1927
 302  290.2937
 303  656.9743
 304  350.1473
 305  614.6536
 306  450.3368
 307  300.5826
 308  246.7063
 309  415.1936
 310  266.6784
 311  233.7921
 312  562.0375
 313  425.099
 314  79.4985
 315  319.0988
 316  318.0598
 317  371.1531
 318  101.4261
 319  71.12938
 320  152.8156
 321  359.726
 322  770.1731
 323  244.8359
 324  316.8094
 325  361.3255
 326  215.7762
 327  245.8534
 328  353.8879
 329  297.0422
 330  166.4274
 331  331.347
 332  669.3251
 333  202.3764
 334  150.9568
 335  508.3879
 336  502.9048
 337  335.8715
 338  469.422
 339  447.5115
 340  397.1849
 341  407.1527
 342  466.1397
 343  315.8408
 344  -32.42356
 345  50.23969
 346  156.5677
 347  513.8206
 348  464.8182
 349  342.1568
 350  342.3989
 351  353.7838
 352  81.68568
 353  211.733
 354  304.3591
 355  141.5711
 356  384.3167
 357  264.061
 358  280.9722
 359  422.4276
 360  381.7269
 361  32.92347
 362  240.5683
 363  346.9312
 364  243.3669
 365  253.4723
 366  269.6284
 367  23.50276
 368  34.34481
 369  -52.69356
 370  191.4618
 371  221.8654
 372  333.8146
 373  136.8073
 374  -32.68984
 375  -65.46227
 376  121.1707
 377  278.5044
 378  420.0658
 379  173.9348
 380  268.17
 381  361.9353
 382  271.0435
 383  338.3718
 384  126.9118
 385  -31.20722
 386  95.43669
 387  -27.13305
 388  -280.9494
 389  -2.693904
 390  404.8512
 391  317.7521
 392  -56.39157
 393  349.1907
 394  582.3218
 395  461.6768
 396  238.4377
 397  -96.28731
 398  242.9402
 399  355.4758
 400  172.4319
 401  122.9512
 402  68.05447
 403  301.9968
 404  248.7315
 405  397.0299
 406  392.4525
 407  709.0811
 408  319.2817
 409  171.4483
 410  175.4283
 411  13.04975
 412  87.57096
 413  -23.50939
 414  78.32706
 415  14.55985
 416  -52.5664
 417  -63.12379
 418  216.5015
 419  78.9602
 420  129.8419
 421  -51.73118
 422  301.5753
 423  387.165
 424  199.3125
 425  4.352203
 426  -30.32436
 427  -70.73785
 428  47.20683
 429  631.8073
 430  301.3413
 431  78.64622
 432  343.4874
 433  674.6275
 434  496.7086
 435  199.7517
 436  254.6568
 437  -45.88486
 438  62.33747
 439  169.0084
 440  167.0343
 441  -305.2482
 442  -109.6426
 443  113.2611
 444  100.7423
 445  -216.0149
 446  -215.708
 447  -111.1352
 448  -51.2727
 449  141.4997
 450  396.4323
 451  541.9555
 452  620.7437
 453  228.3646
 454  -15.94219
 455  247.22
 456  115.2907
 457  225.2676
 458  95.73705
 459  502.7208
 460  342.7731
 461  325.6896
 462  231.4565
 463  288.2301
 464  531.4728
 465  343.8006
 466  419.1557
 467  1108.545
 468  1662.155
 469  1983.234
 470  1848.024
 471  1440.87
 472  831.0118
 473  535.243
 474  523.9803
 475  251.1418
 476  90.80272
 477  145.0378
 478  320.2766
 479  284.8097
 480  236.3217
 481  64.71936
 482  222.3291
 483  3.182838
 484  192.968
 485  567.0254
 486  284.8973
 487  -113.7526
 488  -24.28881
 489  115.9522
 490  99.33216
 491  405.5518
 492  497.9002
 493  265.9825
 494  227.8839
 495  470.4153
 496  287.764
 497  234.1516
 498  295.4707
 499  301.3024
 500  422.9304
 501  372.5131
 502  182.5403
 503  53.03396
 504  349.028
 505  259.6966
 506  19.26432
 507  144.593
 508  70.15546
 509  -172.8021
 510  348.3752
 511  439.5501
