# Input file       =  1186267588.110569_cleaned.dat
# Candidate        =  PSR_0332+5434
# Telescope        =  AR
# Epoch_topo       =  57973.949156372328
# Epoch_bary       =  N/A
# T_sample         =  0.002
# Data Folded      =  7208960
# Data Avg         =  0.0236932417843492
# Data StdDev      =  2.98872554099233 
# Profile Bins     =  512
# Profile Avg      =  333.468337672633 
# Profile StdDev   =  354.639709367224 
# Reduced chi-sqr  =  1.000
# Prob(Noise)      <  0.489   (~0.0 sigma)
# P_topo (ms)      =  714.466507236455  +/- 0.000143
# P'_topo (s/s)    =  -0                +/- 7.68e-11
# P''_topo (s/s^2) =  0                 +/- 3.45e-14
# P_bary (ms)      =  N/A
# P'_bary (s/s)    =  N/A
# P''_bary (s/s^2) =  N/A
# P_orb (s)        =  N/A
# asin(i)/c (s)    =  N/A
# eccentricity     =  N/A
# w (rad)          =  N/A
# T_peri           =  N/A
######################################################
   0  460.652
   1  933.631
   2  808.2058
   3  435.4482
   4  171.6304
   5  96.88921
   6  333.6731
   7  459.1191
   8  284.9185
   9  167.3993
  10  275.7965
  11  346.197
  12  110.9602
  13  167.9466
  14  655.2437
  15  350.9339
  16  399.2219
  17  478.8002
  18  588.7659
  19  543.7068
  20  331.6876
  21  354.8529
  22  510.8607
  23  483.9901
  24  633.4097
  25  348.2284
  26  285.6865
  27  271.7544
  28  367.9354
  29  416.9158
  30  625.8418
  31  613.2971
  32  643.658
  33  294.7609
  34  71.21955
  35  56.52335
  36  106.1873
  37  330.8669
  38  437.6764
  39  327.5681
  40  -10.03938
  41  70.11665
  42  415.1805
  43  114.2826
  44  -107.6087
  45  -246.6545
  46  307.2017
  47  147.1114
  48  263.5218
  49  15.83038
  50  175.6208
  51  228.8899
  52  97.97283
  53  289.8947
  54  429.3419
  55  417.7807
  56  196.9508
  57  180.2974
  58  128.3378
  59  332.6772
  60  509.519
  61  444.7548
  62  324.0722
  63  260.0029
  64  452.1898
  65  447.9156
  66  591.2462
  67  485.1353
  68  328.8665
  69  76.89375
  70  -223.4711
  71  73.56525
  72  457.0001
  73  483.7968
  74  591.8146
  75  389.4837
  76  -207.8412
  77  -166.2843
  78  175.8237
  79  223.0401
  80  438.0251
  81  509.487
  82  148.1096
  83  173.4059
  84  333.5256
  85  288.029
  86  224.7945
  87  258.5734
  88  371.0819
  89  229.3423
  90  61.82557
  91  406.1498
  92  318.5853
  93  379.5433
  94  178.8496
  95  197.5824
  96  46.5633
  97  -176.4392
  98  157.0233
  99  506.4767
 100  88.97999
 101  68.43856
 102  405.2384
 103  201.5109
 104  27.44608
 105  98.09502
 106  509.8487
 107  414.3016
 108  489.5616
 109  343.5741
 110  250.2075
 111  263.3274
 112  463.606
 113  645.2006
 114  697.4664
 115  358.6573
 116  403.6638
 117  234.5634
 118  198.8565
 119  234.7894
 120  465.5618
 121  369.0384
 122  181.7483
 123  -42.59242
 124  388.835
 125  318.7831
 126  -4.275966
 127  -27.11568
 128  50.85649
 129  210.5288
 130  402.246
 131  610.6077
 132  733.7126
 133  421.9466
 134  162.3255
 135  184.9943
 136  353.0204
 137  44.48411
 138  70.16687
 139  28.99512
 140  425.6113
 141  391.9075
 142  163.8221
 143  72.81245
 144  39.03459
 145  226.7632
 146  343.1147
 147  349.4984
 148  314.4056
 149  329.886
 150  274.4331
 151  283.6187
 152  116.4111
 153  332.0316
 154  254.0486
 155  64.91432
 156  24.05694
 157  163.5896
 158  611.7554
 159  425.0929
 160  469.657
 161  411.2619
 162  97.23788
 163  261.6863
 164  211.1365
 165  414.0752
 166  568.8053
 167  395.806
 168  445.8698
 169  311.1552
 170  463.6842
 171  143.1962
 172  256.4907
 173  534.4932
 174  381.4483
 175  247.7572
 176  -61.07253
 177  54.81834
 178  347.8457
 179  322.2307
 180  368.6271
 181  556.3841
 182  904.7852
 183  681.2646
 184  463.164
 185  476.919
 186  482.6157
 187  353.0637
 188  448.7943
 189  659.9005
 190  246.0906
 191  429.6802
 192  161.8779
 193  344.2927
 194  360.4782
 195  118.4316
 196  104.2433
 197  121.9679
 198  588.1683
 199  479.8391
 200  360.3595
 201  278.0207
 202  443.3906
 203  -14.47415
 204  10.55771
 205  85.35762
 206  119.2602
 207  364.6136
 208  163.3696
 209  321.462
 210  411.4776
 211  165.4087
 212  114.5725
 213  145.7873
 214  69.78409
 215  410.4886
 216  285.9006
 217  223.0195
 218  284.9268
 219  316.5186
 220  187.9383
 221  143.8651
 222  146.5545
 223  341.3517
 224  292.6915
 225  404.1649
 226  38.75903
 227  19.14994
 228  377.0824
 229  435.6346
 230  547.1348
 231  244.1707
 232  72.40938
 233  354.9102
 234  711.5187
 235  364.7859
 236  -107.3581
 237  -133.6137
 238  256.2243
 239  738.8884
 240  630.6862
 241  640.2913
 242  337.2866
 243  -217.8051
 244  -127.1744
 245  -5.718644
 246  418.6618
 247  167.0018
 248  197.1147
 249  458.352
 250  324.5893
 251  120.0192
 252  -41.18974
 253  154.2242
 254  265.1447
 255  232.2997
 256  542.7955
 257  513.9135
 258  339.7856
 259  331.8764
 260  77.22012
 261  66.12971
 262  -120.1256
 263  302.6166
 264  572.5103
 265  438.298
 266  190.2119
 267  279.6738
 268  535.7609
 269  388.8618
 270  258.5555
 271  123.0466
 272  275.7455
 273  284.129
 274  490.2866
 275  735.5254
 276  598.4978
 277  322.4075
 278  245.2581
 279  100.843
 280  213.1274
 281  191.5903
 282  536.0698
 283  505.9439
 284  490.0196
 285  514.2448
 286  318.1662
 287  453.4638
 288  561.1912
 289  393.2464
 290  348.6536
 291  218.7877
 292  464.911
 293  392.9651
 294  598.1515
 295  223.2361
 296  22.43258
 297  381.2546
 298  646.9462
 299  686.4351
 300  750.8638
 301  359.0036
 302  511.5836
 303  359.9627
 304  692.7687
 305  491.1704
 306  83.07978
 307  543.0652
 308  553.1816
 309  565.1234
 310  271.7691
 311  366.4506
 312  347.3962
 313  364.1834
 314  406.086
 315  372.582
 316  544.6699
 317  132.1723
 318  495.61
 319  477.7785
 320  801.1258
 321  1395.532
 322  1683.982
 323  1782.47
 324  1843.291
 325  1816.636
 326  1556.223
 327  1334.224
 328  696.8767
 329  570.3511
 330  589.8926
 331  461.7528
 332  490.5141
 333  425.8155
 334  29.25701
 335  150.2856
 336  407.7892
 337  596.4321
 338  819.7595
 339  693.8164
 340  790.386
 341  623.8389
 342  247.3227
 343  256.8703
 344  259.4045
 345  283.0281
 346  475.0405
 347  210.3249
 348  47.40075
 349  298.2266
 350  480.473
 351  510.8115
 352  356.8242
 353  -84.71651
 354  -77.17769
 355  134.236
 356  266.5134
 357  834.6862
 358  667.7071
 359  743.6283
 360  317.1511
 361  191.5166
 362  453.6021
 363  274.5502
 364  686.7118
 365  728.9994
 366  422.3885
 367  323.8819
 368  305.4003
 369  259.5553
 370  413.1884
 371  266.3564
 372  228.3395
 373  424.9041
 374  580.3605
 375  259.9647
 376  246.0029
 377  428.1027
 378  491.8636
 379  49.65073
 380  -166.7393
 381  277.1335
 382  727.3679
 383  555.0535
 384  328.394
 385  125.958
 386  174.5214
 387  486.248
 388  211.0595
 389  276.9051
 390  199.9882
 391  356.8018
 392  125.7442
 393  183.9371
 394  379.3014
 395  102.3566
 396  285.9879
 397  376.363
 398  487.6123
 399  461.6693
 400  366.7271
 401  348.4727
 402  112.708
 403  54.15931
 404  282.3641
 405  473.0552
 406  267.2219
 407  343.5612
 408  641.5862
 409  497.0444
 410  287.6126
 411  582.1298
 412  492.5164
 413  274.9707
 414  470.6669
 415  405.3217
 416  39.9627
 417  -99.44477
 418  438.9983
 419  318.8923
 420  126.2232
 421  284.7768
 422  704.8665
 423  570.9786
 424  524.4321
 425  127.4048
 426  235.7562
 427  21.87726
 428  117.1564
 429  437.9926
 430  252.0295
 431  170.6413
 432  197.9862
 433  365.1109
 434  224.9925
 435  28.07835
 436  11.33543
 437  265.394
 438  436.2352
 439  591.3064
 440  174.909
 441  39.73002
 442  365.2243
 443  348.5376
 444  190.2024
 445  184.9001
 446  191.4341
 447  457.0861
 448  486.5271
 449  249.7258
 450  -36.3392
 451  210.7227
 452  584.9949
 453  359.4274
 454  494.5781
 455  365.9701
 456  455.6625
 457  20.51293
 458  237.4323
 459  251.4014
 460  171.8812
 461  -12.63241
 462  -239.762
 463  36.57634
 464  35.98478
 465  -29.38449
 466  166.2052
 467  384.0033
 468  469.6668
 469  280.7157
 470  278.1183
 471  454.801
 472  406.2352
 473  271.4343
 474  378.3112
 475  539.9034
 476  281.0554
 477  69.1642
 478  235.6396
 479  495.6964
 480  144.4921
 481  126.2174
 482  409.1927
 483  274.2991
 484  -39.0888
 485  378.7191
 486  574.0138
 487  427.6832
 488  413.3336
 489  543.9398
 490  495.6267
 491  107.5429
 492  117.0124
 493  245.9051
 494  586.907
 495  543.3578
 496  740.4021
 497  281.6414
 498  -13.06476
 499  -8.047117
 500  19.47806
 501  202.3203
 502  466.7457
 503  345.8926
 504  466.7929
 505  670.8348
 506  588.1644
 507  248.535
 508  27.53961
 509  67.17305
 510  247.4822
 511  410.3707
