# Input file       =  1186799925.14863_cleaned.dat
# Candidate        =  PSR_0332+5434
# Telescope        =  AR
# Epoch_topo       =  57980.110464683217
# Epoch_bary       =  N/A
# T_sample         =  0.002
# Data Folded      =  7340032
# Data Avg         =  0.00741621497492868
# Data StdDev      =  1.00007937360534 
# Profile Bins     =  512
# Profile Avg      =  106.314500914946 
# Profile StdDev   =  119.742540019542 
# Reduced chi-sqr  =  1.581
# Prob(Noise)      <  9.6e-16   (~7.9 sigma)
# P_topo (ms)      =  714.464855199676  +/- 0.000112
# P'_topo (s/s)    =  -0                +/- 5.93e-11
# P''_topo (s/s^2) =  0                 +/- 2.62e-14
# P_bary (ms)      =  N/A
# P'_bary (s/s)    =  N/A
# P''_bary (s/s^2) =  N/A
# P_orb (s)        =  N/A
# asin(i)/c (s)    =  N/A
# eccentricity     =  N/A
# w (rad)          =  N/A
# T_peri           =  N/A
######################################################
   0  45.30012
   1  41.40191
   2  110.07
   3  -9.719226
   4  7.299088
   5  109.8191
   6  158.7118
   7  206.2558
   8  50.27217
   9  5.982401
  10  -64.76863
  11  -10.90282
  12  94.88038
  13  124.7622
  14  33.85765
  15  65.96352
  16  -63.70408
  17  -127.1325
  18  -23.1251
  19  38.79486
  20  84.51471
  21  26.14205
  22  -13.52817
  23  166.0245
  24  10.53664
  25  115.49
  26  50.88375
  27  -46.46462
  28  71.12304
  29  10.47112
  30  105.1238
  31  217.2357
  32  127.5047
  33  151.0976
  34  124.5125
  35  173.5415
  36  130.5339
  37  144.2655
  38  185.4691
  39  66.93778
  40  91.28628
  41  166.7827
  42  175.0402
  43  62.8015
  44  -39.32362
  45  -3.60774
  46  115.5167
  47  144.0656
  48  -31.87366
  49  -35.4972
  50  122.1095
  51  48.06564
  52  77.10541
  53  -77.45078
  54  43.40973
  55  50.47815
  56  111.1531
  57  133.0961
  58  74.13349
  59  104.5774
  60  154.9729
  61  130.6391
  62  42.2416
  63  -42.76149
  64  -42.90649
  65  131.1124
  66  71.3372
  67  -138.495
  68  -32.69628
  69  65.32797
  70  -8.871735
  71  116.2442
  72  172.7217
  73  120.4998
  74  -65.67156
  75  80.13708
  76  127.7792
  77  50.06438
  78  62.19873
  79  52.78685
  80  114.3781
  81  195.7933
  82  149.6681
  83  141.4522
  84  189.5476
  85  231.8083
  86  119.6357
  87  -21.65402
  88  92.01821
  89  239.0591
  90  221.4523
  91  97.35798
  92  59.08781
  93  161.5059
  94  60.55162
  95  62.09726
  96  140.4072
  97  125.0997
  98  114.8456
  99  129.9307
 100  275.7419
 101  182.0067
 102  54.61739
 103  141.4823
 104  54.53235
 105  -33.5858
 106  -9.832117
 107  24.13814
 108  57.43238
 109  1.157988
 110  66.85654
 111  47.18286
 112  52.76935
 113  72.40709
 114  255.3952
 115  211.7167
 116  277.8964
 117  212.8418
 118  138.9623
 119  144.0368
 120  61.12011
 121  -0.4285141
 122  -28.36509
 123  95.02243
 124  192.8792
 125  35.47119
 126  72.54979
 127  106.5428
 128  58.5039
 129  12.57375
 130  -12.87317
 131  53.12953
 132  25.87175
 133  9.879606
 134  102.3062
 135  98.29961
 136  306.5523
 137  187.786
 138  68.9791
 139  67.85516
 140  79.47919
 141  -13.1453
 142  7.032291
 143  52.85114
 144  17.92793
 145  -66.09081
 146  33.19161
 147  24.61501
 148  20.27332
 149  -155.7765
 150  -42.40493
 151  54.35258
 152  -142.8789
 153  12.64629
 154  -22.37902
 155  176.2795
 156  201.0709
 157  172.4422
 158  42.6671
 159  130.0584
 160  237.3816
 161  -51.05792
 162  33.7128
 163  141.9792
 164  316.5092
 165  88.81296
 166  -78.75449
 167  30.30506
 168  77.99424
 169  80.72498
 170  147.1647
 171  136.1037
 172  174.3025
 173  178.7315
 174  161.5643
 175  207.494
 176  248.8714
 177  221.0451
 178  166.9828
 179  253.8083
 180  165.9834
 181  176.946
 182  168.5449
 183  277.3371
 184  232.9393
 185  60.06929
 186  31.77991
 187  17.75655
 188  27.66537
 189  158.8303
 190  127.942
 191  43.0965
 192  58.59821
 193  210.7566
 194  248.7746
 195  107.4318
 196  112.4939
 197  72.69424
 198  121.6031
 199  289.3085
 200  253.6973
 201  38.58973
 202  63.08852
 203  281.7262
 204  272.4466
 205  201.4306
 206  263.4185
 207  179.4962
 208  34.63079
 209  42.68098
 210  130.3472
 211  208.495
 212  128.9988
 213  78.0766
 214  166.1004
 215  111.2877
 216  17.78652
 217  87.17418
 218  106.0274
 219  83.64931
 220  83.79475
 221  60.29636
 222  83.01957
 223  -26.05882
 224  34.59329
 225  54.94285
 226  173.6565
 227  100.9374
 228  74.23727
 229  10.49789
 230  13.94867
 231  99.79292
 232  28.01087
 233  172.3014
 234  206.6232
 235  83.29855
 236  37.21391
 237  183.9543
 238  186.142
 239  -57.07551
 240  -41.95491
 241  116.1679
 242  159.7347
 243  144.1436
 244  167.8526
 245  222.9153
 246  231.8236
 247  209.7639
 248  62.98591
 249  131.7213
 250  116.0505
 251  110.8153
 252  -9.932299
 253  35.19823
 254  145.4212
 255  30.87647
 256  75.15385
 257  144.3505
 258  137.26
 259  -76.59971
 260  -53.60701
 261  163.3979
 262  213.2467
 263  106.0834
 264  -22.76814
 265  127.1081
 266  190.6244
 267  77.41333
 268  160.9534
 269  168.3649
 270  121.7084
 271  237.6588
 272  286.7354
 273  218.3508
 274  95.96046
 275  64.04819
 276  93.98196
 277  56.11526
 278  -11.87757
 279  128.503
 280  260.9305
 281  265.3315
 282  172.0887
 283  221.5044
 284  270.1666
 285  212.1865
 286  77.9668
 287  255.2088
 288  185.8681
 289  -69.12955
 290  -41.32083
 291  65.45953
 292  253.5898
 293  87.108
 294  20.4583
 295  173.9841
 296  227.3011
 297  212.1996
 298  90.8325
 299  81.0702
 300  170.055
 301  113.98
 302  142.0128
 303  294.9888
 304  170.5387
 305  280.9965
 306  213.595
 307  122.6451
 308  74.6842
 309  168.6589
 310  117.2827
 311  80.71897
 312  226.2858
 313  177.9189
 314  31.9223
 315  140.7561
 316  123.3556
 317  137.7137
 318  39.68945
 319  35.66171
 320  71.11991
 321  162.8219
 322  346.5602
 323  109.3309
 324  129.1665
 325  161.2264
 326  107.5533
 327  103.9327
 328  143.4388
 329  122.0238
 330  66.64582
 331  131.9177
 332  279.3471
 333  90.05993
 334  79.23393
 335  226.5719
 336  216.0962
 337  151.2135
 338  198.1853
 339  178.931
 340  162.8344
 341  173.1508
 342  188.5031
 343  145.8461
 344  -11.87585
 345  26.56977
 346  64.93552
 347  204.7829
 348  172.5408
 349  125.2028
 350  136.9952
 351  153.0335
 352  29.36085
 353  84.04724
 354  130.0114
 355  42.96938
 356  166.1149
 357  112.8371
 358  126.3452
 359  215.4255
 360  186.1088
 361  28.20019
 362  105.7437
 363  148.9862
 364  106.0183
 365  118.0373
 366  133.2876
 367  36.41262
 368  46.27254
 369  -4.524726
 370  111.0728
 371  116.8817
 372  152.3384
 373  73.12537
 374  1.648714
 375  -9.96104
 376  63.60415
 377  128.2481
 378  182.1014
 379  79.45295
 380  103.2874
 381  157.1107
 382  115.3424
 383  121.888
 384  41.80005
 385  -17.89882
 386  54.62486
 387  -15.03075
 388  -121.0097
 389  -10.83934
 390  169.9109
 391  129.7159
 392  -0.6000382
 393  167.5917
 394  272.1013
 395  219.1115
 396  123.7454
 397  -28.36481
 398  119.8892
 399  149.1947
 400  68.29644
 401  45.77929
 402  23.06635
 403  140.6767
 404  109.3932
 405  168.8637
 406  172.5099
 407  302.4987
 408  132.4867
 409  59.23596
 410  50.89093
 411  -18.83659
 412  26.00796
 413  -13.25237
 414  34.26982
 415  -12.25752
 416  -49.98985
 417  -54.28051
 418  73.1216
 419  17.20337
 420  62.58861
 421  -9.121471
 422  113.1698
 423  131.1779
 424  53.43749
 425  -22.59088
 426  -20.3659
 427  -20.8257
 428  5.109368
 429  261.3001
 430  140.306
 431  39.94144
 432  135.2583
 433  283.5445
 434  214.202
 435  70.53587
 436  84.82563
 437  -6.2896
 438  35.71309
 439  77.40932
 440  71.45476
 441  -134.3876
 442  -53.06649
 443  62.31341
 444  55.7365
 445  -102.7426
 446  -96.30067
 447  -19.69011
 448  -1.661477
 449  35.68413
 450  142.6249
 451  232.5985
 452  283.9739
 453  98.83069
 454  -7.851729
 455  91.43964
 456  56.46448
 457  111.3252
 458  42.87762
 459  224.7032
 460  150.5163
 461  168.1921
 462  102.4863
 463  119.7104
 464  227.7814
 465  151.9351
 466  186.4133
 467  494.9344
 468  754.4635
 469  899.4241
 470  832.7811
 471  652.314
 472  388.0449
 473  246.7148
 474  229.9403
 475  115.4546
 476  37.03392
 477  56.52002
 478  112.0442
 479  90.58846
 480  77.7902
 481  21.18266
 482  97.30003
 483  5.016411
 484  76.46645
 485  231.2092
 486  100.7501
 487  -49.53648
 488  5.881082
 489  48.78145
 490  32.97992
 491  165.787
 492  199.2595
 493  81.37976
 494  75.15623
 495  200.0205
 496  121.4398
 497  112.55
 498  143.4339
 499  137.1815
 500  194.1555
 501  178.1102
 502  96.02712
 503  35.37008
 504  157.7297
 505  127.6437
 506  27.28728
 507  68.90467
 508  19.72136
 509  -93.57401
 510  147.6023
 511  212.6092
