# Input file       =  1186612281.106419-PSRB0329-2ms-sampling-dd.dat
# Candidate        =  PSR_0332+5434
# Telescope        =  AR
# Epoch_topo       =  57977.938658639112
# Epoch_bary       =  N/A
# T_sample         =  0.002
# Data Folded      =  7208960
# Data Avg         =  -4.47485857805421e-10
# Data StdDev      =  6.4649542847779  
# Profile Bins     =  512
# Profile Avg      =  -0.0137769171900818
# Profile StdDev   =  767.1261469746   
# Reduced chi-sqr  =  0.751
# Prob(Noise)      <  1   (~0.0 sigma)
# P_topo (ms)      =  714.465357659245  +/- 0.000208
# P'_topo (s/s)    =  -0                +/- 1.12e-10
# P''_topo (s/s^2) =  0                 +/- 5.03e-14
# P_bary (ms)      =  N/A
# P'_bary (s/s)    =  N/A
# P''_bary (s/s^2) =  N/A
# P_orb (s)        =  N/A
# asin(i)/c (s)    =  N/A
# eccentricity     =  N/A
# w (rad)          =  N/A
# T_peri           =  N/A
######################################################
   0  -374.7043
   1  -27.00477
   2  74.75008
   3  -208.5491
   4  -453.869
   5  -103.0196
   6  -42.78283
   7  -276.9648
   8  -222.8211
   9  -207.6556
  10  -210.0055
  11  -622.0179
  12  -380.0921
  13  -4.80467
  14  -190.7791
  15  -352.9404
  16  -597.4787
  17  -108.1552
  18  -296.5704
  19  18.98984
  20  188.3156
  21  175.298
  22  -469.9554
  23  -504.1255
  24  11.04569
  25  -234.2586
  26  -347.8659
  27  -499.4513
  28  -495.4365
  29  -309.0402
  30  -597.169
  31  -811.5873
  32  -372.519
  33  125.5174
  34  -85.62659
  35  -216.7438
  36  -504.9791
  37  -358.3436
  38  -231.1495
  39  -318.0904
  40  -347.9705
  41  -202.1677
  42  311.3538
  43  516.6733
  44  327.4819
  45  -139.9056
  46  -232.6195
  47  -388.3507
  48  -345.8348
  49  -185.9733
  50  -367.2243
  51  -451.0413
  52  -484.6629
  53  -230.9577
  54  -228.7799
  55  -1000.945
  56  -496.2455
  57  -781.4232
  58  -445.7881
  59  -828.1505
  60  -691.7767
  61  -280.925
  62  15.47122
  63  -172.6709
  64  -472.7346
  65  -767.1716
  66  -325.7282
  67  -321.9703
  68  -487.818
  69  -600.3705
  70  -697.2702
  71  -804.9125
  72  -684.3976
  73  -105.5508
  74  -226.4918
  75  239.3392
  76  92.71079
  77  -204.0443
  78  -123.8369
  79  -297.0685
  80  -272.2366
  81  21.3615
  82  109.6475
  83  -259.8188
  84  -590.5102
  85  -338.1552
  86  -104.3127
  87  -155.5651
  88  -277.1119
  89  -781.3604
  90  -561.6439
  91  -333.8044
  92  -411.1227
  93  -196.869
  94  -118.0422
  95  -38.4049
  96  -454.8474
  97  -810.8326
  98  -203.7474
  99  -287.2749
 100  -556.0145
 101  -569.1507
 102  -67.36674
 103  47.79189
 104  70.2171
 105  279.4626
 106  114.8414
 107  -208.1328
 108  -386.5712
 109  316.3435
 110  232.4122
 111  70.42111
 112  235.3602
 113  20.37977
 114  24.0948
 115  -224.6421
 116  -150.8915
 117  23.45093
 118  -230.5276
 119  -232.3183
 120  -215.8974
 121  -190.7082
 122  -676.4269
 123  -918.1236
 124  -652.8661
 125  -737.4049
 126  -620.3179
 127  114.1266
 128  503.3392
 129  -99.66192
 130  -43.73439
 131  -258.5983
 132  -426.421
 133  -654.5063
 134  -813.0249
 135  11.76927
 136  173.9324
 137  -155.4801
 138  -214.3311
 139  -316.5776
 140  -384.7946
 141  -600.7595
 142  -321.1617
 143  -62.86643
 144  -330.5642
 145  235.744
 146  710.9382
 147  594.3159
 148  489.7457
 149  -152.2562
 150  -95.58956
 151  -214.5148
 152  -46.82756
 153  -50.29947
 154  -138.6763
 155  -414.3301
 156  -350.7341
 157  -51.04847
 158  -476.8279
 159  -505.8064
 160  -35.92509
 161  178.962
 162  232.5286
 163  -108.3249
 164  -587.8384
 165  -519.4671
 166  -446.9453
 167  -547.4
 168  -291.3018
 169  -200.7809
 170  -313.4079
 171  -677.2659
 172  -541.5839
 173  -805.671
 174  -484.1746
 175  -558.1807
 176  -580.0013
 177  -363.415
 178  308.9021
 179  -96.23445
 180  -188.828
 181  106.5501
 182  46.46616
 183  255.9839
 184  -265.2442
 185  5.354126
 186  271.223
 187  240.9917
 188  -297.0056
 189  -540.254
 190  -485.2674
 191  -574.2996
 192  -659.2755
 193  -118.5945
 194  -114.9859
 195  -497.7474
 196  -679.8386
 197  -744.0085
 198  -676.7917
 199  -703.1408
 200  -581.7264
 201  -255.5377
 202  -481.8282
 203  -789.8393
 204  -470.3298
 205  -76.82462
 206  -313.0856
 207  -117.6821
 208  -134.8044
 209  -263.3694
 210  15.03246
 211  229.137
 212  482.058
 213  416.0776
 214  305.6551
 215  106.9694
 216  -288.2544
 217  -226.2754
 218  -82.59425
 219  246.962
 220  441.1292
 221  -178.1784
 222  -215.3981
 223  -257.5844
 224  -758.4941
 225  -926.2493
 226  -904.5781
 227  -701.464
 228  -283.8494
 229  -56.61147
 230  7.112984
 231  -57.35848
 232  -443.2897
 233  -1022.575
 234  -1091.092
 235  -481.5083
 236  -19.64574
 237  -82.81228
 238  -88.21954
 239  -251.0707
 240  -332.6552
 241  151.3095
 242  81.80649
 243  56.42721
 244  -207.326
 245  256.3769
 246  143.8916
 247  177.2236
 248  266.2166
 249  397.4066
 250  489.7713
 251  244.1198
 252  206.2592
 253  646.5534
 254  403.9603
 255  367.2029
 256  676.2623
 257  405.7863
 258  456.0342
 259  101.3112
 260  151.9898
 261  396.7994
 262  636.1624
 263  1492.934
 264  1519.716
 265  903.1873
 266  670.9643
 267  722.6898
 268  570.8066
 269  -53.56845
 270  -238.8842
 271  -419.3068
 272  -439.8762
 273  -41.96091
 274  -58.29469
 275  77.16711
 276  -544.6688
 277  134.9032
 278  383.6336
 279  346.7964
 280  112.6654
 281  -496.573
 282  -118.9212
 283  58.29683
 284  169.0388
 285  313.8061
 286  395.9824
 287  191.3931
 288  133.6329
 289  474.4202
 290  -228.6366
 291  -467.6604
 292  -184.8357
 293  -3.589322
 294  36.2118
 295  -366.5319
 296  23.03084
 297  -4.133272
 298  -70.60578
 299  -254.0686
 300  -557.3488
 301  -421.5868
 302  -194.3468
 303  -313.0461
 304  72.97873
 305  -108.2367
 306  -367.6734
 307  -564.6371
 308  -557.913
 309  -334.1888
 310  -15.58019
 311  254.0384
 312  242.2958
 313  150.8366
 314  142.674
 315  225.2454
 316  200.5908
 317  541.7816
 318  253.7971
 319  107.6915
 320  252.6818
 321  315.4594
 322  419.0388
 323  360.2928
 324  -154.366
 325  170.4762
 326  260.1193
 327  464.4099
 328  1172.646
 329  1665.833
 330  2066.019
 331  1924.231
 332  902.424
 333  451.9349
 334  650.0692
 335  2257.877
 336  2377.034
 337  2372.293
 338  2267.247
 339  474.6187
 340  -82.84004
 341  -305.916
 342  201.8107
 343  380.4785
 344  400.1935
 345  210.9432
 346  270.8092
 347  242.8711
 348  -232.5767
 349  334.9787
 350  343.8588
 351  642.5777
 352  649.4111
 353  214.7443
 354  283.6516
 355  73.10427
 356  351.9098
 357  270.5561
 358  -97.98812
 359  -13.15577
 360  272.6417
 361  419.0832
 362  475.8405
 363  358.7733
 364  301.9041
 365  301.7183
 366  209.2664
 367  258.2885
 368  541.7831
 369  168.5049
 370  -233.4229
 371  322.1169
 372  140.4372
 373  -119.9149
 374  -193.9344
 375  455.0331
 376  498.2537
 377  610.4662
 378  880.0174
 379  734.7999
 380  267.273
 381  292.3446
 382  374.5819
 383  521.776
 384  36.84805
 385  719.3867
 386  725.5449
 387  511.0302
 388  624.3123
 389  614.1419
 390  357.3774
 391  199.4247
 392  404.8082
 393  388.1634
 394  535.5322
 395  958.205
 396  724.0364
 397  538.4949
 398  240.3681
 399  436.8558
 400  709.6958
 401  404.9204
 402  261.8199
 403  473.873
 404  711.9301
 405  408.8872
 406  84.6228
 407  379.8465
 408  602.4064
 409  896.7911
 410  1127.412
 411  680.5203
 412  501.6586
 413  246.9967
 414  662.9013
 415  522.4796
 416  662.0054
 417  395.953
 418  928.4709
 419  568.8834
 420  205.713
 421  304.7924
 422  576.1597
 423  377.9149
 424  -4.549781
 425  428.9306
 426  766.1909
 427  319.7201
 428  29.85885
 429  538.4786
 430  661.7431
 431  260.7599
 432  -248.4258
 433  109.2267
 434  299.5253
 435  -4.763615
 436  77.43639
 437  40.95451
 438  -49.30321
 439  -372.1663
 440  41.82333
 441  393.349
 442  81.97171
 443  384.7719
 444  263.0662
 445  626.8763
 446  590.6582
 447  285.0449
 448  357.8957
 449  365.5984
 450  47.74713
 451  -10.68247
 452  -14.27489
 453  -66.2607
 454  -101.1208
 455  351.511
 456  143.8541
 457  12.88767
 458  221.7646
 459  16.88795
 460  -211.7154
 461  17.76505
 462  333.1481
 463  -137.0023
 464  14.87408
 465  -134.0794
 466  -241.7436
 467  -149.2032
 468  -290.6319
 469  -378.9397
 470  168.7262
 471  123.871
 472  -159.034
 473  -456.1791
 474  -14.21574
 475  -293.5048
 476  -456.8199
 477  -231.7946
 478  345.011
 479  279.8759
 480  37.685
 481  232.0175
 482  134.2653
 483  -209.817
 484  263.7928
 485  -200.795
 486  72.8073
 487  -238.7284
 488  -225.1754
 489  73.12329
 490  -35.55687
 491  8.582359
 492  -84.73701
 493  -489.3556
 494  -444.59
 495  -184.8146
 496  93.50058
 497  31.77268
 498  -271.5604
 499  -454.8112
 500  -621.7967
 501  -543.2913
 502  -861.0057
 503  -560.553
 504  -184.1893
 505  -155.3395
 506  -266.0846
 507  -398.3216
 508  -398.5017
 509  -783.619
 510  -453.8015
 511  -228.2062
