# Input file       =  1186095281.118897-PSRB0329-2ms-sampling-dd.dat
# Candidate        =  PSR_0332+5434
# Telescope        =  AR
# Epoch_topo       =  57971.954862487233
# Epoch_bary       =  N/A
# T_sample         =  0.002
# Data Folded      =  7208960
# Data Avg         =  -1.02148556094727e-09
# Data StdDev      =  6.89874320004992 
# Profile Bins     =  512
# Profile Avg      =  -0.0441419158402858
# Profile StdDev   =  818.599182129147 
# Reduced chi-sqr  =  0.569
# Prob(Noise)      <  1   (~0.0 sigma)
# P_topo (ms)      =  714.467167244483  +/- 0.000113
# P'_topo (s/s)    =  -0                +/- 6.06e-11
# P''_topo (s/s^2) =  0                 +/- 2.73e-14
# P_bary (ms)      =  N/A
# P'_bary (s/s)    =  N/A
# P''_bary (s/s^2) =  N/A
# P_orb (s)        =  N/A
# asin(i)/c (s)    =  N/A
# eccentricity     =  N/A
# w (rad)          =  N/A
# T_peri           =  N/A
######################################################
   0  -668.0857
   1  -389.0804
   2  -184.3425
   3  -667.5693
   4  -654.5411
   5  -639.2427
   6  -656.8977
   7  -1100.703
   8  -735.9619
   9  2.615222
  10  -158.039
  11  -165.7324
  12  301.7872
  13  222.0008
  14  54.19502
  15  110.818
  16  -178.817
  17  -639.9766
  18  -373.9117
  19  -492.7457
  20  -652.1792
  21  -678.6827
  22  -200.2571
  23  4.866401
  24  128.0228
  25  -659.2148
  26  -649.5075
  27  -871.3846
  28  -1145.099
  29  -785.0078
  30  -326.6747
  31  -154.4492
  32  -618.075
  33  -424.4245
  34  -333.4827
  35  -592.7935
  36  -691.965
  37  -1389.991
  38  -749.8402
  39  -196.4981
  40  -467.0013
  41  -326.1508
  42  -464.7687
  43  -339.0123
  44  -832.3951
  45  -199.9868
  46  -120.3665
  47  -242.2211
  48  241.9577
  49  76.67376
  50  153.0688
  51  -378.3167
  52  -267.8117
  53  -513.6558
  54  -146.8416
  55  682.5917
  56  515.7429
  57  512.976
  58  -205.9401
  59  -199.8086
  60  -234.0007
  61  -412.7679
  62  -329.364
  63  -194.1501
  64  306.7968
  65  -133.4666
  66  -199.2209
  67  -688.1942
  68  -568.425
  69  -322.5837
  70  -295.1052
  71  -79.26875
  72  -431.1407
  73  -561.1802
  74  -30.10604
  75  563.1684
  76  530.1039
  77  180.9739
  78  -36.0331
  79  -52.55633
  80  -469.5686
  81  -601.1987
  82  -345.4813
  83  -354.795
  84  173.8881
  85  391.511
  86  449.7288
  87  -23.5145
  88  -300.9822
  89  -7.177923
  90  -264.4609
  91  -490.3659
  92  -410.0016
  93  -363.5447
  94  -180.9837
  95  -337.0133
  96  138.4923
  97  273.6877
  98  72.37521
  99  3.743244
 100  -278.3596
 101  -221.335
 102  -766.1233
 103  -532.2982
 104  -65.57021
 105  19.80958
 106  294.157
 107  -16.07622
 108  400.948
 109  181.954
 110  -57.82136
 111  142.4207
 112  147.3615
 113  -153.4298
 114  -19.53471
 115  240.3237
 116  106.3761
 117  266.0242
 118  488.7971
 119  824.9349
 120  157.7024
 121  -45.75237
 122  450.2647
 123  386.4008
 124  109.6434
 125  -286.8443
 126  -185.0146
 127  207.5015
 128  538.0811
 129  536.8251
 130  558.426
 131  -79.88184
 132  -666.2673
 133  -322.2867
 134  -346.2784
 135  -95.50333
 136  253.3006
 137  478.4235
 138  653.3962
 139  370.656
 140  580.1815
 141  885.6088
 142  732.4594
 143  456.8186
 144  235.7208
 145  512.3776
 146  868.3875
 147  746.2497
 148  1039.091
 149  1067.59
 150  578.4269
 151  855.8915
 152  564.9562
 153  378.4996
 154  363.845
 155  657.3195
 156  821.4014
 157  538.0721
 158  877.9416
 159  1899.531
 160  1859.55
 161  1972.381
 162  1933.462
 163  1764.236
 164  1042.625
 165  415.1552
 166  226.2621
 167  62.09608
 168  183.2213
 169  126.3087
 170  233.4498
 171  752.5356
 172  450.5717
 173  328.7903
 174  154.155
 175  346.0962
 176  -18.55091
 177  -172.3303
 178  488.7188
 179  552.0684
 180  597.6646
 181  254.4507
 182  738.6181
 183  871.3979
 184  659.9372
 185  269.1076
 186  272.9144
 187  167.4758
 188  -454.3051
 189  232.9786
 190  385.4424
 191  231.0143
 192  586.2177
 193  844.2836
 194  675.2281
 195  684.2858
 196  306.9722
 197  -137.7468
 198  -795.9803
 199  -313.1333
 200  -161.7576
 201  230.858
 202  442.5118
 203  545.3844
 204  793.7606
 205  254.5685
 206  -254.09
 207  -286.2209
 208  -89.35824
 209  -30.13865
 210  308.222
 211  417.431
 212  318.7546
 213  267.7925
 214  413.0254
 215  70.91844
 216  290.9901
 217  489.9133
 218  684.7585
 219  449.5282
 220  328.7727
 221  251.1476
 222  27.14429
 223  -177.7707
 224  126.4669
 225  398.7814
 226  502.9581
 227  84.6103
 228  224.5277
 229  308.9795
 230  187.5884
 231  257.9548
 232  85.60136
 233  366.4222
 234  390.7687
 235  493.8752
 236  438.5653
 237  219.2119
 238  -115.4755
 239  -510.2231
 240  -563.2365
 241  -518.0632
 242  -893.5187
 243  -151.8343
 244  -90.24857
 245  276.4402
 246  524.0271
 247  51.74924
 248  -423.3438
 249  -398.8107
 250  -247.7119
 251  -222.0492
 252  -124.8901
 253  22.62409
 254  -226.4433
 255  269.2607
 256  -99.02105
 257  -158.8765
 258  -296.9193
 259  -226.3388
 260  -203.343
 261  -169.1561
 262  -203.327
 263  -619.3449
 264  -416.4794
 265  -473.1688
 266  -304.7114
 267  119.8759
 268  166.3903
 269  -125.9531
 270  -25.58514
 271  132.2553
 272  -239.6589
 273  -788.6395
 274  -531.2966
 275  -361.6432
 276  -670.0457
 277  -298.347
 278  80.33301
 279  89.6618
 280  -88.34083
 281  -198.3648
 282  -335.1721
 283  -304.3376
 284  125.3326
 285  149.1207
 286  144.0419
 287  -321.3204
 288  211.2422
 289  -550.8199
 290  -580.6536
 291  -100.8519
 292  -307.7373
 293  -257.0173
 294  -603.626
 295  -701.3272
 296  -317.6663
 297  -195.3049
 298  -66.97018
 299  345.0646
 300  222.9766
 301  -203.6305
 302  -200.236
 303  -374.2882
 304  -504.9772
 305  -703.3058
 306  -821.5021
 307  -109.3834
 308  -10.62605
 309  -77.80238
 310  -17.94931
 311  21.08583
 312  372.4843
 313  -343.4389
 314  -703.8413
 315  -937.9753
 316  -699.9677
 317  -135.3969
 318  84.49841
 319  410.334
 320  684.3457
 321  82.50464
 322  110.702
 323  -458.9532
 324  -454.6549
 325  -285.8428
 326  -461.8274
 327  -183.0395
 328  52.95154
 329  244.0628
 330  -662.2451
 331  -291.8052
 332  -58.33276
 333  -202.3598
 334  370.8196
 335  11.59479
 336  171.552
 337  16.64937
 338  -472.6819
 339  -818.7838
 340  -163.7914
 341  389.9143
 342  96.8578
 343  350.4757
 344  632.2748
 345  -140.731
 346  -368.0063
 347  -609.5655
 348  -657.8188
 349  82.64263
 350  -187.0621
 351  93.16598
 352  243.5116
 353  840.406
 354  260.4218
 355  -90.68765
 356  -330.5581
 357  -464.6898
 358  -242.4171
 359  -508.7751
 360  14.19424
 361  661.6907
 362  570.584
 363  361.754
 364  349.4799
 365  252.045
 366  260.0045
 367  470.1946
 368  -35.60784
 369  -396.1325
 370  432.762
 371  284.4519
 372  61.79618
 373  123.7501
 374  121.633
 375  -77.32156
 376  -69.69228
 377  358.6671
 378  -8.599161
 379  265.065
 380  192.9825
 381  119.0422
 382  524.1281
 383  308.797
 384  507.7461
 385  473.9114
 386  333.1132
 387  561.2889
 388  391.1626
 389  585.3582
 390  151.1326
 391  649.4902
 392  359.5739
 393  13.08202
 394  770.7927
 395  389.701
 396  90.9389
 397  -570.954
 398  -442.6946
 399  -222.5046
 400  121.3219
 401  471.006
 402  221.5763
 403  320.2904
 404  93.09843
 405  176.3787
 406  527.1818
 407  245.4873
 408  -45.33917
 409  37.31049
 410  73.59655
 411  66.04851
 412  -577.1024
 413  -343.4466
 414  157.279
 415  88.12157
 416  -62.09782
 417  -198.4728
 418  -22.66034
 419  -205.9907
 420  -271.6346
 421  -229.311
 422  -720.9308
 423  198.2764
 424  527.4388
 425  533.4349
 426  57.02138
 427  -132.8429
 428  133.7365
 429  -141.1032
 430  -74.96726
 431  -156.222
 432  -244.1112
 433  -127.6959
 434  5.127788
 435  432.0179
 436  350.6136
 437  228.0689
 438  60.72334
 439  -264.9619
 440  -632.2205
 441  -512.9966
 442  -294.7051
 443  -303.3747
 444  209.6098
 445  377.6184
 446  136.5192
 447  362.19
 448  -83.54679
 449  -25.29378
 450  -52.03164
 451  120.6102
 452  -383.2361
 453  -296.1294
 454  75.80764
 455  -601.2656
 456  -557.3069
 457  -531.7585
 458  71.1468
 459  630.7145
 460  690.1405
 461  686.8354
 462  58.75257
 463  -490.4903
 464  -487.7731
 465  -144.7567
 466  -280.8325
 467  -242.5086
 468  8.003096
 469  190.1026
 470  -173.4935
 471  -67.45274
 472  -369.283
 473  -443.71
 474  -313.6068
 475  -366.0427
 476  -5.136348
 477  -348.5209
 478  -461.6966
 479  -427.1138
 480  -400.1485
 481  -519.8262
 482  -684.6111
 483  -375.2012
 484  -327.6364
 485  -241.3671
 486  -9.643508
 487  254.6431
 488  46.24977
 489  -118.1042
 490  52.45333
 491  -140.1642
 492  351.262
 493  157.426
 494  219.4658
 495  -129.4695
 496  -437.6844
 497  -300.5622
 498  -322.1135
 499  -310.0767
 500  -134.7939
 501  -367.2171
 502  111.4074
 503  114.9277
 504  112.3219
 505  382.2056
 506  -110.4824
 507  -400.9288
 508  -207.5822
 509  -145.3285
 510  -489.1446
 511  -466.693
