# Input file       =  1186555642.111134_cleaned.dat
# Candidate        =  PSR_0332+5434
# Telescope        =  AR
# Epoch_topo       =  57977.283114712198
# Epoch_bary       =  N/A
# T_sample         =  0.002
# Data Folded      =  7340032
# Data Avg         =  0.0204139170642261
# Data StdDev      =  2.72824960750184 
# Profile Bins     =  512
# Profile Avg      =  292.656867397406 
# Profile StdDev   =  326.661609499915 
# Reduced chi-sqr  =  1.308
# Prob(Noise)      <  3.17e-06   (~4.5 sigma)
# P_topo (ms)      =  714.465878841521  +/- 0.000249
# P'_topo (s/s)    =  -0                +/- 1.32e-10
# P''_topo (s/s^2) =  0                 +/- 5.81e-14
# P_bary (ms)      =  N/A
# P'_bary (s/s)    =  N/A
# P''_bary (s/s^2) =  N/A
# P_orb (s)        =  N/A
# asin(i)/c (s)    =  N/A
# eccentricity     =  N/A
# w (rad)          =  N/A
# T_peri           =  N/A
######################################################
   0  446.1413
   1  381.6939
   2  255.0511
   3  394.0733
   4  420.8277
   5  -75.69759
   6  -23.94826
   7  217.1115
   8  137.9752
   9  299.1373
  10  422.2322
  11  311.8796
  12  381.7799
  13  379.887
  14  405.0062
  15  652.9191
  16  504.1303
  17  312.3712
  18  151.0978
  19  115.1983
  20  333.7711
  21  256.0791
  22  368.6725
  23  479.973
  24  575.2243
  25  575.4312
  26  161.9164
  27  384.0343
  28  679.8693
  29  623.2877
  30  477.8488
  31  118.1487
  32  93.65006
  33  421.4043
  34  503.3047
  35  590.3853
  36  322.2202
  37  434.7664
  38  459.2612
  39  657.7126
  40  701.0637
  41  107.027
  42  -17.01953
  43  -24.91624
  44  221.8714
  45  337.1859
  46  254.9492
  47  264.8457
  48  316.4924
  49  512.2651
  50  450.8362
  51  340.8063
  52  316.4081
  53  132.7889
  54  340.7621
  55  529.2178
  56  271.4067
  57  466.0814
  58  695.2956
  59  481.9926
  60  276.8141
  61  49.01855
  62  -129.1724
  63  41.12482
  64  299.6012
  65  311.8807
  66  -28.26904
  67  173.3758
  68  74.94711
  69  143.1917
  70  428.4055
  71  308.9726
  72  138.7105
  73  443.1236
  74  234.4426
  75  186.4599
  76  246.1825
  77  206.3635
  78  506.3426
  79  -46.41539
  80  59.54321
  81  377.363
  82  172.8767
  83  -30.59723
  84  236.0054
  85  448.9851
  86  272.7592
  87  29.05268
  88  149.7048
  89  219.1671
  90  110.9669
  91  -101.7576
  92  -72.53387
  93  454.3124
  94  311.9038
  95  -64.4278
  96  -189.5813
  97  90.23167
  98  84.7159
  99  59.00235
 100  230.8502
 101  -4.132806
 102  72.01167
 103  -7.202224
 104  201.5771
 105  266.6973
 106  185.4689
 107  323.0585
 108  50.28941
 109  10.10406
 110  178.3992
 111  328.292
 112  546.062
 113  282.6357
 114  -178.2636
 115  -156.7489
 116  229.7676
 117  509.3615
 118  -2.786012
 119  -30.65758
 120  152.618
 121  181.3767
 122  -35.55117
 123  335.5872
 124  293.498
 125  420.5427
 126  607.0319
 127  325.2452
 128  88.9667
 129  66.74714
 130  360.6655
 131  399.9698
 132  -193.8275
 133  -28.55311
 134  503.0887
 135  392.5356
 136  587.8337
 137  -13.60016
 138  -268.0238
 139  -76.1563
 140  513.642
 141  139.7648
 142  -153.4996
 143  -213.9158
 144  -121.389
 145  -204.9686
 146  130.0462
 147  304.2661
 148  102.1423
 149  -50.71569
 150  -1.424029
 151  127.4368
 152  88.80407
 153  161.3078
 154  261.96
 155  113.8002
 156  9.022451
 157  -81.80916
 158  -119.5765
 159  298.999
 160  387.5548
 161  356.4377
 162  333.4339
 163  233.955
 164  126.6846
 165  197.347
 166  512.0908
 167  374.487
 168  191.1633
 169  572.8375
 170  480.9223
 171  535.5625
 172  534.2341
 173  387.7195
 174  196.4424
 175  389.1652
 176  323.3678
 177  234.0929
 178  267.9309
 179  324.5706
 180  468.3809
 181  761.0663
 182  732.3057
 183  641.4655
 184  198.1987
 185  157.9101
 186  -42.3811
 187  67.11459
 188  304.1772
 189  157.0403
 190  185.0143
 191  247.4983
 192  464.2645
 193  159.4825
 194  34.26131
 195  127.6698
 196  -217.3381
 197  -117.4572
 198  180.1444
 199  199.4787
 200  223.3524
 201  -257.2552
 202  186.492
 203  62.01714
 204  143.9115
 205  92.49455
 206  182.2042
 207  413.4286
 208  -229.4308
 209  186.2559
 210  137.3267
 211  11.15812
 212  218.9165
 213  188.4942
 214  -120.5098
 215  131.3563
 216  318.5255
 217  209.5782
 218  57.39881
 219  162.9318
 220  347.7034
 221  213.5081
 222  -40.84819
 223  -144.3381
 224  68.02306
 225  109.7759
 226  -96.5267
 227  -22.3702
 228  45.06371
 229  -122.108
 230  135.0856
 231  402.5804
 232  124.7801
 233  116.0008
 234  104.9997
 235  334.5561
 236  412.1357
 237  384.1855
 238  670.1232
 239  379.8023
 240  778.2634
 241  479.3205
 242  233.6938
 243  194.7522
 244  354.4188
 245  233.3236
 246  397.0048
 247  418.6111
 248  465.4064
 249  793.2034
 250  649.5724
 251  379.5345
 252  61.87435
 253  55.01715
 254  344.2305
 255  157.4626
 256  212.8133
 257  291.7766
 258  224.5233
 259  132.6372
 260  365.1113
 261  195.7638
 262  580.7261
 263  800.665
 264  802.7143
 265  439.8957
 266  290.9692
 267  155.7393
 268  76.49091
 269  -143.3943
 270  -99.45294
 271  -137.6101
 272  277.8857
 273  231.7148
 274  -75.97728
 275  -12.27721
 276  -199.3414
 277  -72.96568
 278  127.3187
 279  266.1161
 280  -133.4642
 281  321.1553
 282  685.879
 283  390.4743
 284  247.9581
 285  242.9878
 286  453.5336
 287  451.0397
 288  287.9916
 289  121.9137
 290  -112.1495
 291  42.63107
 292  380.3777
 293  439.7721
 294  168.6638
 295  302.0869
 296  212.7947
 297  318.2613
 298  388.6468
 299  430.1605
 300  352.2228
 301  36.58481
 302  110.5253
 303  244.2787
 304  346.17
 305  520.9787
 306  656.2444
 307  518.4376
 308  295.7085
 309  546.0583
 310  625.504
 311  489.9463
 312  249.6455
 313  564.7172
 314  340.6477
 315  398.3799
 316  406.749
 317  330.9546
 318  348.2061
 319  476.9642
 320  779.4812
 321  810.5107
 322  1109.201
 323  1631.436
 324  2070.469
 325  1830.423
 326  1605.09
 327  1046.474
 328  625.4282
 329  594.5547
 330  692.615
 331  352.9148
 332  382.0302
 333  413.6016
 334  386.2152
 335  499.4653
 336  694.2142
 337  627.4752
 338  850.9783
 339  709.9779
 340  804.4544
 341  647.2864
 342  424.4999
 343  554.3838
 344  178.2286
 345  371.7798
 346  400.6974
 347  462.8296
 348  405.3831
 349  438.1161
 350  600.2453
 351  294.3521
 352  -417.892
 353  -49.46663
 354  514.7274
 355  447.1746
 356  25.96924
 357  -4.494845
 358  354.1734
 359  770.9699
 360  700.0303
 361  510.1694
 362  213.0262
 363  -262.0528
 364  -57.86519
 365  2.778721
 366  55.10223
 367  -46.15562
 368  54.22979
 369  200.4678
 370  617.2531
 371  398.9682
 372  555.1483
 373  441.4776
 374  471.5735
 375  453.6183
 376  488.0881
 377  400.0033
 378  538.6536
 379  418.2078
 380  595.3466
 381  911.5713
 382  479.162
 383  293.0217
 384  236.2017
 385  236.5605
 386  76.31925
 387  25.71475
 388  155.418
 389  116.4691
 390  181.0959
 391  61.39302
 392  197.9512
 393  645.2627
 394  114.7279
 395  265.9479
 396  590.705
 397  644.3538
 398  446.8804
 399  489.7257
 400  548.2816
 401  455.5388
 402  228.4894
 403  316.8958
 404  -69.40657
 405  121.8589
 406  405.7512
 407  464.6314
 408  556.1265
 409  311.8389
 410  759.4778
 411  783.5289
 412  354.0275
 413  294.0341
 414  609.1527
 415  446.9814
 416  531.4259
 417  605.4495
 418  508.9864
 419  162.7148
 420  159.4931
 421  418.5531
 422  705.4066
 423  295.4254
 424  463.4713
 425  595.6089
 426  339.8384
 427  372.3022
 428  152.9056
 429  247.0559
 430  145.7464
 431  -99.60691
 432  70.39372
 433  119.2244
 434  46.92516
 435  161.637
 436  -52.71889
 437  -189.4806
 438  66.17115
 439  -26.14607
 440  261.0587
 441  235.4126
 442  136.6245
 443  89.39822
 444  40.89369
 445  34.23333
 446  197.9139
 447  271.9306
 448  132.6317
 449  -95.11848
 450  -99.76035
 451  56.59307
 452  392.199
 453  327.9912
 454  232.1478
 455  71.44874
 456  398.9975
 457  720.4223
 458  583.5598
 459  496.7635
 460  200.065
 461  193.0374
 462  554.2367
 463  276.8489
 464  123.1222
 465  116.5873
 466  306.6931
 467  553.5769
 468  491.551
 469  209.0536
 470  193.5361
 471  303.9991
 472  429.1
 473  178.5415
 474  221.2115
 475  298.4783
 476  380.3799
 477  530.8542
 478  447.2334
 479  142.9151
 480  146.7735
 481  305.7605
 482  665.3348
 483  608.7396
 484  649.7299
 485  619.3832
 486  538.7432
 487  436.6157
 488  385.9554
 489  334.9234
 490  427.0761
 491  527.3299
 492  487.1774
 493  248.7018
 494  351.4079
 495  226.5751
 496  228.4972
 497  104.746
 498  242.6096
 499  103.7871
 500  294.3453
 501  413.505
 502  81.93406
 503  482.0814
 504  381.8085
 505  185.0212
 506  107.775
 507  302.5278
 508  460.784
 509  196.777
 510  60.47198
 511  493.641
