# Input file       =  1186196071.123010-PSRB0329-2ms-sampling-dd.dat
# Candidate        =  PSR_0332+5434
# Telescope        =  AR
# Epoch_topo       =  57973.121413460765
# Epoch_bary       =  N/A
# T_sample         =  0.002
# Data Folded      =  7340032
# Data Avg         =  1.07499024018838e-10
# Data StdDev      =  3.10495950338965 
# Profile Bins     =  512
# Profile Avg      =  -1.11273068601061
# Profile StdDev   =  371.766229167739 
# Reduced chi-sqr  =  1.232
# Prob(Noise)      <  0.000252   (~3.5 sigma)
# P_topo (ms)      =  714.466787389146  +/- 0.000302
# P'_topo (s/s)    =  -0                +/- 1.59e-10
# P''_topo (s/s^2) =  0                 +/- 7.03e-14
# P_bary (ms)      =  N/A
# P'_bary (s/s)    =  N/A
# P''_bary (s/s^2) =  N/A
# P_orb (s)        =  N/A
# asin(i)/c (s)    =  N/A
# eccentricity     =  N/A
# w (rad)          =  N/A
# T_peri           =  N/A
######################################################
   0  -269.8577
   1  -280.6247
   2  -710.0818
   3  -642.8419
   4  -207.3204
   5  26.54317
   6  11.73831
   7  -566.6179
   8  -558.6852
   9  -387.5302
  10  31.83411
  11  -88.96451
  12  -439.2697
  13  -506.9254
  14  -172.9773
  15  -439.3107
  16  -346.7554
  17  -590.0164
  18  -416.7789
  19  -415.2134
  20  3.444806
  21  -280.0456
  22  -251.5467
  23  -432.4497
  24  -367.3949
  25  -288.68
  26  -276.9435
  27  -429.4794
  28  -229.0441
  29  108.1304
  30  105.6398
  31  -37.31068
  32  -92.10686
  33  -120.8842
  34  -295.2129
  35  -565.8448
  36  -599.5021
  37  -223.2449
  38  -77.5554
  39  -350.8814
  40  -357.4613
  41  -237.0453
  42  -154.9316
  43  -288.1102
  44  -246.6647
  45  -517.9589
  46  -427.8175
  47  -170.6018
  48  -263.7339
  49  -127.0265
  50  -243.6218
  51  -379.3992
  52  -432.3819
  53  -391.7527
  54  31.11234
  55  -113.6719
  56  -185.3911
  57  -132.1555
  58  -117.4524
  59  -241.4046
  60  -484.0599
  61  -79.74283
  62  36.92274
  63  502.7155
  64  380.7288
  65  -172.8559
  66  -298.6657
  67  -177.2662
  68  -243.4243
  69  -371.9575
  70  -391.8365
  71  -477.7665
  72  -188.49
  73  -8.361207
  74  -260.0617
  75  -355.9173
  76  -164.6606
  77  221.4525
  78  681.0253
  79  905.738
  80  1062.533
  81  1311.773
  82  1814.114
  83  1767.231
  84  907.0958
  85  414.2169
  86  -300.983
  87  -214.8207
  88  -142.984
  89  3.972402
  90  -17.80347
  91  31.34541
  92  267.9854
  93  -3.924389
  94  111.7223
  95  -110.7335
  96  -21.57445
  97  338.5941
  98  194.2143
  99  225.9476
 100  -197.2648
 101  -258.6632
 102  75.86783
 103  439.2083
 104  49.78339
 105  34.55985
 106  -58.64544
 107  -8.706472
 108  -135.5115
 109  -63.18133
 110  -60.37442
 111  86.34142
 112  415.8337
 113  425.806
 114  300.4119
 115  -73.67389
 116  49.22912
 117  151.7112
 118  176.1701
 119  176.9407
 120  219.1487
 121  506.4893
 122  632.9811
 123  679.3026
 124  549.3188
 125  220.0265
 126  130.0668
 127  367.8032
 128  296.5461
 129  114.7345
 130  287.8042
 131  280.325
 132  24.67303
 133  85.48013
 134  143.5739
 135  -109.1549
 136  -40.33624
 137  120.7962
 138  153.9434
 139  69.61129
 140  5.211611
 141  98.47736
 142  -42.37513
 143  -109.5746
 144  321.5438
 145  426.9427
 146  215.5272
 147  85.25963
 148  -289.6526
 149  64.45867
 150  204.1163
 151  575.8138
 152  677.3292
 153  145.8139
 154  202.02
 155  291.6431
 156  148.6395
 157  32.46127
 158  110.7559
 159  -226.4808
 160  -96.39645
 161  107.6978
 162  -324.2445
 163  -223.1945
 164  12.49364
 165  -4.461474
 166  -206.5755
 167  -268.3794
 168  68.62966
 169  -161.6501
 170  -217.7534
 171  -292.5074
 172  -427.9413
 173  -189.3266
 174  14.86699
 175  -379.774
 176  -12.65935
 177  383.7842
 178  21.33803
 179  -38.70625
 180  54.77715
 181  82.85609
 182  79.6329
 183  194.4209
 184  639.6588
 185  675.5699
 186  594.1047
 187  516.6493
 188  423.2941
 189  504.489
 190  526.1173
 191  976.7569
 192  818.0671
 193  526.2597
 194  352.7714
 195  354.644
 196  153.9873
 197  63.2026
 198  291.8848
 199  235.7837
 200  -225.1759
 201  92.06374
 202  163.0975
 203  86.75838
 204  160.058
 205  142.9859
 206  -153.2425
 207  -104.8142
 208  258.3022
 209  -35.26955
 210  98.15586
 211  172.3572
 212  304.8277
 213  96.54398
 214  87.11756
 215  65.2731
 216  27.24443
 217  303.9829
 218  503.5439
 219  393.0627
 220  180.53
 221  184.3557
 222  298.3153
 223  96.98839
 224  118.7225
 225  556.8398
 226  278.6989
 227  113.8332
 228  156.2521
 229  -45.98002
 230  60.05335
 231  138.8211
 232  -167.263
 233  27.41914
 234  214.5433
 235  263.5018
 236  336.0233
 237  431.8347
 238  307.6519
 239  -15.19457
 240  -1.095232
 241  53.71258
 242  -54.58965
 243  19.26798
 244  209.0265
 245  310.5941
 246  244.1884
 247  311.1511
 248  314.4436
 249  -25.09131
 250  -27.3993
 251  -50.20084
 252  335.1159
 253  158.9268
 254  31.18835
 255  44.86198
 256  -16.26867
 257  -23.5557
 258  225.3986
 259  -88.89287
 260  -116.3421
 261  -202.3608
 262  -245.6425
 263  -314.9689
 264  -83.32224
 265  74.70391
 266  0.06364721
 267  146.8673
 268  74.01382
 269  -118.8434
 270  -147.6368
 271  -179.6262
 272  -310.2037
 273  -219.9278
 274  -378.3614
 275  -362.2708
 276  -272.6051
 277  -679.629
 278  -586.1676
 279  -36.61633
 280  114.8474
 281  -23.31232
 282  48.25232
 283  -166.3062
 284  -35.34285
 285  -153.635
 286  -40.84624
 287  250.1584
 288  -112.9422
 289  -292.6812
 290  199.8668
 291  323.3884
 292  -96.91529
 293  -143.6459
 294  130.0046
 295  335.2664
 296  -34.01472
 297  -88.03203
 298  181.7106
 299  116.8825
 300  -30.08873
 301  201.0702
 302  184.256
 303  139.2701
 304  99.27456
 305  71.08318
 306  386.7038
 307  187.1906
 308  122.4598
 309  158.5001
 310  12.18436
 311  -21.93674
 312  88.0351
 313  38.70059
 314  99.39606
 315  83.96819
 316  291.2415
 317  -98.73435
 318  -240.9824
 319  -100.2491
 320  360.8629
 321  40.52161
 322  204.9154
 323  518.0683
 324  570.9692
 325  176.0949
 326  160.0812
 327  448.1417
 328  391.184
 329  144.6042
 330  60.07251
 331  37.78198
 332  67.54536
 333  121.684
 334  153.2124
 335  -29.39655
 336  -163.9997
 337  -28.80676
 338  -63.10822
 339  20.75671
 340  87.07417
 341  -91.69402
 342  -19.58359
 343  104.4861
 344  -10.40609
 345  106.9112
 346  271.3977
 347  -71.51048
 348  58.18319
 349  -56.06792
 350  -199.0605
 351  -84.87397
 352  8.237986
 353  -211.6134
 354  -64.84258
 355  12.50842
 356  -333.3369
 357  31.67705
 358  53.51165
 359  -243.767
 360  -96.93262
 361  158.6975
 362  138.5807
 363  -52.54311
 364  -117.4063
 365  -145.9389
 366  -311.6461
 367  252.9085
 368  126.8953
 369  280.9814
 370  -45.43197
 371  -210.493
 372  -433.0432
 373  -170.8035
 374  -6.627789
 375  -26.2256
 376  208.5256
 377  -215.1748
 378  -428.8965
 379  -307.3933
 380  20.4454
 381  -173.2714
 382  -28.6317
 383  116.5083
 384  -305.7804
 385  -78.43652
 386  -212.0447
 387  -130.647
 388  -242.6024
 389  -465.3048
 390  22.10152
 391  185.8299
 392  -348.0302
 393  -39.80064
 394  184.0194
 395  200.0511
 396  80.67924
 397  66.17812
 398  39.19317
 399  45.93429
 400  -381.6324
 401  -396.2766
 402  32.45624
 403  -109.1431
 404  -206.2366
 405  28.61744
 406  81.49897
 407  193.526
 408  -163.2635
 409  -76.89935
 410  -9.124963
 411  -120.0216
 412  -274.4597
 413  -347.0057
 414  -304.5934
 415  -235.3688
 416  -232.8121
 417  -204.3542
 418  -247.7627
 419  53.81263
 420  94.8559
 421  99.45648
 422  -111.9505
 423  120.6805
 424  425.3569
 425  329.4646
 426  276.5029
 427  393.5234
 428  286.0771
 429  213.0732
 430  173.7778
 431  215.076
 432  54.93779
 433  -94.4099
 434  -178.723
 435  61.17152
 436  157.8168
 437  220.1832
 438  131.0068
 439  82.75095
 440  177.8602
 441  344.9565
 442  -44.89988
 443  -224.3247
 444  -98.61996
 445  -400.4286
 446  -74.71191
 447  -112.6954
 448  -315.4982
 449  -262.3894
 450  -169.8489
 451  -390.6183
 452  -646.478
 453  -536.983
 454  -207.3806
 455  -405.0722
 456  -409.4672
 457  -56.74369
 458  0.7596489
 459  105.031
 460  -44.47939
 461  -159.1098
 462  -100.8829
 463  -5.752262
 464  108.9399
 465  -155.2139
 466  -256.3239
 467  -198.6265
 468  -136.8826
 469  -134.223
 470  -300.099
 471  -362.3521
 472  -143.5676
 473  -491.8912
 474  -378.0906
 475  -352.3788
 476  -535.5648
 477  -349.3853
 478  129.6175
 479  -54.25392
 480  -245.2166
 481  -105.6157
 482  -69.76212
 483  -455.4734
 484  -312.2835
 485  -256.9265
 486  -522.1013
 487  -515.8923
 488  -352.919
 489  -388.8503
 490  -210.7237
 491  -22.03176
 492  -183.8865
 493  -187.6259
 494  -240.5736
 495  -0.1332965
 496  29.17236
 497  103.0599
 498  78.96077
 499  88.9212
 500  160.7768
 501  -309.1826
 502  -346.8958
 503  78.07681
 504  84.37826
 505  -60.91303
 506  -46.74854
 507  80.20341
 508  195.4611
 509  38.46575
 510  -145.7043
 511  -203.3329
