# Input file       =  1186297159.116241_cleaned.dat
# Candidate        =  PSR_0332+5434
# Telescope        =  AR
# Epoch_topo       =  57974.291413382416
# Epoch_bary       =  N/A
# T_sample         =  0.002
# Data Folded      =  7340032
# Data Avg         =  0.0336349993969115
# Data StdDev      =  2.93227442034074 
# Profile Bins     =  256
# Profile Avg      =  964.459422355062 
# Profile StdDev   =  496.516409089131 
# Reduced chi-sqr  =  1.354
# Prob(Noise)      <  0.00014   (~3.6 sigma)
# P_topo (ms)      =  714.46674762877   +/- 0.000163
# P'_topo (s/s)    =  -0                +/- 8.62e-11
# P''_topo (s/s^2) =  0                 +/- 3.8e-14
# P_bary (ms)      =  N/A
# P'_bary (s/s)    =  N/A
# P''_bary (s/s^2) =  N/A
# P_orb (s)        =  N/A
# asin(i)/c (s)    =  N/A
# eccentricity     =  N/A
# w (rad)          =  N/A
# T_peri           =  N/A
######################################################
   0  736.0946
   1  768.8536
   2  772.5906
   3  1176.53
   4  1558.92
   5  323.65
   6  541.4284
   7  453.5943
   8  972.7524
   9  1584.087
  10  1475.79
  11  984.6609
  12  1058.73
  13  1446.218
  14  1076.216
  15  1188.59
  16  654.3931
  17  1108.835
  18  1598.086
  19  697.2634
  20  932.5418
  21  684.8585
  22  1079.942
  23  1292.586
  24  908.7798
  25  985.4727
  26  1118.594
  27  1023.396
  28  750.7589
  29  1049.052
  30  1073.128
  31  1390.899
  32  1765.785
  33  1879.594
  34  1515.766
  35  739.2717
  36  1255.658
  37  1863.246
  38  1217.454
  39  782.0763
  40  1150.198
  41  827.8212
  42  676.8622
  43  1409.106
  44  344.8647
  45  1650.505
  46  1339.347
  47  271.0262
  48  926.0991
  49  1465.478
  50  653.4678
  51  752.2407
  52  1533.685
  53  1654.919
  54  355.4652
  55  1129.606
  56  1000.283
  57  883.58
  58  1727.671
  59  1678.875
  60  1435.136
  61  1579.273
  62  1257.447
  63  1257.184
  64  1768.442
  65  773.1636
  66  1273.893
  67  1073.636
  68  714.7108
  69  1594.068
  70  1600.858
  71  927.243
  72  765.0385
  73  1324.673
  74  1023.097
  75  1161.931
  76  959.8906
  77  973.4199
  78  1365.311
  79  1103.99
  80  1523.281
  81  897.8531
  82  893.9026
  83  622.7314
  84  978.0261
  85  859.5427
  86  752.4579
  87  1435.84
  88  1453.298
  89  882.2383
  90  1061.991
  91  1243.796
  92  1419.353
  93  1469.835
  94  547.2636
  95  805.9236
  96  1370.159
  97  1785.607
  98  419.5931
  99  1142.397
 100  478.4496
 101  673.0187
 102  1687.189
 103  1089.85
 104  1011.659
 105  668.9181
 106  1725.602
 107  460.2232
 108  310.65
 109  643.1777
 110  1601.825
 111  822.986
 112  419.9057
 113  850.1561
 114  1513.313
 115  397.4897
 116  119.4556
 117  668.0448
 118  648.0953
 119  380.8969
 120  317.8731
 121  83.87358
 122  127.6924
 123  715.1874
 124  1215.653
 125  1794.903
 126  1213.462
 127  1356.812
 128  1176.429
 129  1091.55
 130  509.1671
 131  717.8808
 132  609.1028
 133  925.8
 134  347.7988
 135  334.3905
 136  968.3951
 137  1210.353
 138  1025.809
 139  239.3525
 140  -494.0966
 141  189.6366
 142  1502.784
 143  915.2314
 144  529.6903
 145  40.86003
 146  588.0181
 147  496.3785
 148  784.9297
 149  787.5768
 150  1211.924
 151  1263.174
 152  1384.506
 153  1720.004
 154  381.8055
 155  550.0308
 156  580.6621
 157  885.9374
 158  681.6838
 159  855.3049
 160  2063.766
 161  3067.626
 162  3505.407
 163  2404.352
 164  636.9223
 165  1005.355
 166  666.887
 167  1574.457
 168  937.3429
 169  1206.212
 170  1394.219
 171  1201.754
 172  1100.194
 173  1185.251
 174  1368.132
 175  1546.465
 176  1101.308
 177  588.3445
 178  597.5422
 179  1338.664
 180  884.8021
 181  840.3489
 182  1231.408
 183  920.9836
 184  776.0648
 185  902.8136
 186  586.28
 187  667.9165
 188  695.2474
 189  1111.701
 190  112.7391
 191  1055.58
 192  1042.81
 193  780.9587
 194  1213.948
 195  499.0896
 196  979.3034
 197  815.3829
 198  619.943
 199  1579.559
 200  1293.015
 201  426.0126
 202  647.3488
 203  849.8524
 204  169.5856
 205  418.7143
 206  806.2686
 207  989.231
 208  1135.872
 209  1083.775
 210  1398.985
 211  1474.519
 212  714.0438
 213  693.3783
 214  439.762
 215  519.1092
 216  554.5112
 217  300.0774
 218  672.4964
 219  368.7753
 220  411.5576
 221  403.9669
 222  668.7373
 223  826.4214
 224  627.3549
 225  426.2778
 226  1043.874
 227  90.22779
 228  342.3534
 229  531.8278
 230  416.5494
 231  946.3581
 232  1276.105
 233  1183.288
 234  904.9727
 235  1737.602
 236  1329.49
 237  915.5317
 238  908.8046
 239  456.2883
 240  709.3188
 241  -47.93593
 242  837.6071
 243  1628.417
 244  569.2648
 245  -593.4293
 246  115.8953
 247  870.2173
 248  556.2155
 249  870.2568
 250  741.9744
 251  1531.491
 252  1064.578
 253  1457.611
 254  1749.21
 255  1207.755
