# Input file       =  1186038713.111496_cleaned.dat
# Candidate        =  PSR_0332+5434
# Telescope        =  AR
# Epoch_topo       =  57971.300140179352
# Epoch_bary       =  N/A
# T_sample         =  0.002
# Data Folded      =  7340032
# Data Avg         =  0.0143653273678085
# Data StdDev      =  2.56965470746754 
# Profile Bins     =  1024
# Profile Avg      =  102.928215960714 
# Profile StdDev   =  217.557353960497 
# Reduced chi-sqr  =  1.107
# Prob(Noise)      <  0.00922   (~2.4 sigma)
# P_topo (ms)      =  714.46774583558   +/- 0.000157
# P'_topo (s/s)    =  -0                +/- 8.28e-11
# P''_topo (s/s^2) =  0                 +/- 3.66e-14
# P_bary (ms)      =  N/A
# P'_bary (s/s)    =  N/A
# P''_bary (s/s^2) =  N/A
# P_orb (s)        =  N/A
# asin(i)/c (s)    =  N/A
# eccentricity     =  N/A
# w (rad)          =  N/A
# T_peri           =  N/A
######################################################
   0  14.96597
   1  56.50867
   2  44.9074
   3  86.47653
   4  201.4856
   5  148.14
   6  107.9507
   7  116.5871
   8  134.2003
   9  -9.201477
  10  -72.68492
  11  -18.77369
  12  17.48887
  13  96.41712
  14  13.75382
  15  34.90547
  16  -97.41254
  17  -59.52619
  18  25.25398
  19  72.18391
  20  -9.273575
  21  -46.56056
  22  99.66348
  23  322.6444
  24  297.8838
  25  285.8296
  26  122.8801
  27  150.0465
  28  196.5615
  29  216.7789
  30  106.7637
  31  13.9025
  32  10.58375
  33  17.50446
  34  48.26084
  35  101.776
  36  133.1747
  37  57.70858
  38  -19.2526
  39  -21.91416
  40  55.56442
  41  46.37394
  42  117.0985
  43  199.6933
  44  166.1205
  45  18.29929
  46  -80.99193
  47  -93.78284
  48  -73.04749
  49  -46.27397
  50  -39.87395
  51  86.7793
  52  172.5415
  53  215.1328
  54  155.0292
  55  135.142
  56  157.5559
  57  58.98465
  58  35.85643
  59  -69.20709
  60  -49.7202
  61  -21.74989
  62  104.9506
  63  185.0458
  64  231.174
  65  264.2724
  66  195.0271
  67  78.38042
  68  5.19754
  69  23.39198
  70  -13.276
  71  -5.600873
  72  -82.84467
  73  -112.3934
  74  -138.386
  75  -65.56922
  76  31.09685
  77  48.43751
  78  121.8523
  79  176.1454
  80  68.04813
  81  6.962726
  82  3.325822
  83  209.7589
  84  203.1181
  85  198.8788
  86  99.25267
  87  151.6754
  88  52.44733
  89  80.26027
  90  107.0679
  91  143.2873
  92  34.09819
  93  -26.84947
  94  61.40081
  95  141.1761
  96  177.0187
  97  215.9733
  98  190.3842
  99  79.53552
 100  -4.135337
 101  5.760922
 102  63.41802
 103  100.5168
 104  84.54349
 105  22.71579
 106  121.7482
 107  205.4287
 108  313.526
 109  236.9132
 110  202.5689
 111  220.9714
 112  260.3097
 113  229.8185
 114  126.4307
 115  42.32215
 116  8.914359
 117  55.14967
 118  41.68932
 119  76.1859
 120  168.3884
 121  114.0446
 122  74.40055
 123  -38.56155
 124  71.33821
 125  35.52349
 126  -0.2862728
 127  113.8733
 128  36.09703
 129  106.9804
 130  92.66258
 131  260.9032
 132  148.6881
 133  60.37913
 134  53.14259
 135  80.49018
 136  2.124892
 137  125.4296
 138  155.357
 139  194.6524
 140  70.64063
 141  116.3495
 142  -0.7372226
 143  -92.02839
 144  -93.56194
 145  -27.69572
 146  23.04456
 147  -20.9275
 148  96.27338
 149  45.00641
 150  78.9412
 151  41.28394
 152  89.13587
 153  11.72908
 154  -120.2303
 155  -56.04497
 156  53.46178
 157  101.7236
 158  8.306489
 159  39.30155
 160  108.1729
 161  221.0839
 162  168.87
 163  162.6118
 164  79.07809
 165  82.3252
 166  86.76736
 167  126.0975
 168  69.24825
 169  58.49421
 170  145.1044
 171  172.1966
 172  201.1329
 173  4.042918
 174  167.2031
 175  130.8838
 176  165.2941
 177  86.99624
 178  49.06078
 179  130.2924
 180  53.45761
 181  71.55788
 182  -58.92236
 183  19.87825
 184  9.09229
 185  58.22558
 186  9.658569
 187  62.76789
 188  111.1794
 189  129.6361
 190  49.3223
 191  36.30791
 192  103.0128
 193  156.6765
 194  191.7549
 195  159.1614
 196  171.3471
 197  160.1199
 198  103.5191
 199  30.98593
 200  -3.549066
 201  52.81257
 202  80.06403
 203  114.4275
 204  232.9733
 205  225.5237
 206  217.2742
 207  148.6747
 208  178.2691
 209  61.51614
 210  124.4202
 211  240.8941
 212  323.7342
 213  303.6468
 214  262.5485
 215  130.1109
 216  19.29819
 217  -2.938768
 218  79.35165
 219  109.4009
 220  129.2046
 221  129.3813
 222  27.59858
 223  48.61911
 224  60.67881
 225  157.5148
 226  155.6929
 227  231.1924
 228  187.0634
 229  211.1548
 230  117.626
 231  169.6377
 232  117.8182
 233  64.71387
 234  -22.15278
 235  -2.221086
 236  37.15293
 237  57.23089
 238  97.84619
 239  219.9867
 240  236.0223
 241  215.4729
 242  241.5658
 243  157.2223
 244  41.33139
 245  31.68029
 246  201.2881
 247  232.2212
 248  136.9744
 249  87.04374
 250  165.3737
 251  208.7493
 252  252.6238
 253  227.5618
 254  217.1745
 255  190.0506
 256  136.3214
 257  99.19386
 258  91.82027
 259  136.2365
 260  150.2309
 261  133.5931
 262  87.92113
 263  49.09609
 264  -24.97939
 265  -40.88148
 266  -59.02629
 267  56.70519
 268  121.6951
 269  106.8202
 270  4.415531
 271  46.31104
 272  135.2958
 273  180.0823
 274  78.15263
 275  33.24584
 276  67.11228
 277  107.2622
 278  87.259
 279  114.2047
 280  124.0534
 281  208.5354
 282  131.2493
 283  121.5715
 284  14.14916
 285  89.2342
 286  93.84629
 287  180.8419
 288  242.2931
 289  216.7105
 290  189.4813
 291  73.82261
 292  94.17645
 293  -32.90386
 294  -46.87158
 295  -101.3887
 296  11.10808
 297  78.3434
 298  109.0486
 299  79.81171
 300  88.7215
 301  95.34391
 302  117.461
 303  13.73887
 304  13.33396
 305  93.35934
 306  287.7758
 307  333.0503
 308  173.1919
 309  65.80553
 310  23.30841
 311  143.8899
 312  74.9407
 313  98.74589
 314  31.99716
 315  33.38551
 316  64.15418
 317  82.21983
 318  236.4373
 319  313.8609
 320  404.5335
 321  303.1183
 322  291.8549
 323  186.0926
 324  165.1508
 325  56.55552
 326  126.7785
 327  175.5306
 328  299.9295
 329  330.1159
 330  191.0662
 331  8.236433
 332  -66.49242
 333  -59.00691
 334  -99.25678
 335  -45.83401
 336  31.41671
 337  183.0495
 338  263.8196
 339  341.4641
 340  190.2399
 341  219.0533
 342  154.4315
 343  249.2965
 344  106.708
 345  156.9745
 346  177.0826
 347  257.3256
 348  320.4283
 349  327.4394
 350  199.8786
 351  95.57752
 352  125.1334
 353  360.187
 354  310.7309
 355  260.4236
 356  177.3874
 357  212.4611
 358  142.204
 359  92.95317
 360  103.8823
 361  177.4557
 362  211.6957
 363  268.9717
 364  180.3229
 365  181.2771
 366  177.3852
 367  243.6543
 368  168.3432
 369  168.9416
 370  176.2951
 371  202.0276
 372  175.1884
 373  154.9354
 374  154.3163
 375  147.7879
 376  113.8423
 377  56.24192
 378  105.821
 379  192.8848
 380  334.3018
 381  305.406
 382  300.4133
 383  312.3646
 384  286.0544
 385  288.486
 386  325.8877
 387  356.8461
 388  313.9212
 389  171.2607
 390  62.59581
 391  98.80743
 392  178.8992
 393  105.6216
 394  8.320077
 395  -97.95021
 396  23.76219
 397  43.40708
 398  238.6095
 399  184.3302
 400  174.0397
 401  86.28482
 402  103.8953
 403  84.04922
 404  104.0181
 405  131.6325
 406  225.8906
 407  114.8066
 408  -66.61337
 409  -239.7258
 410  -68.79013
 411  154.5475
 412  266.6922
 413  158.3587
 414  182.9327
 415  166.0169
 416  223.6724
 417  175.963
 418  125.3931
 419  52.44218
 420  35.57367
 421  92.84866
 422  69.65244
 423  48.87838
 424  124.9781
 425  215.6853
 426  204.0314
 427  174.4097
 428  157.4961
 429  175.8342
 430  196.6747
 431  194.6948
 432  226.5275
 433  173.718
 434  182.1867
 435  126.6595
 436  96.31107
 437  38.86617
 438  131.8316
 439  219.3726
 440  212.5077
 441  135.6569
 442  96.5247
 443  210.6521
 444  187.156
 445  289.8992
 446  218.9234
 447  272.3846
 448  259.6955
 449  160.5577
 450  17.03601
 451  -92.34203
 452  -58.35024
 453  -23.42459
 454  115.8936
 455  256.9945
 456  330.0395
 457  273.1215
 458  225.0204
 459  191.9354
 460  132.3624
 461  193.1882
 462  -26.80394
 463  -81.66441
 464  -59.68539
 465  158.495
 466  214.6693
 467  114.4903
 468  115.435
 469  112.7312
 470  133.3927
 471  160.6414
 472  99.08471
 473  88.16503
 474  51.99421
 475  149.2607
 476  138.7669
 477  116.7579
 478  45.29912
 479  79.21286
 480  75.48187
 481  51.75589
 482  41.08886
 483  -30.17458
 484  11.0053
 485  -3.779099
 486  93.54783
 487  97.11617
 488  164.283
 489  216.0986
 490  325.5496
 491  315.8464
 492  254.4804
 493  180.7619
 494  81.97871
 495  13.10953
 496  79.75385
 497  79.95778
 498  169.9931
 499  111.028
 500  227.837
 501  158.9095
 502  245.1744
 503  121.5663
 504  129.349
 505  -13.05499
 506  43.19162
 507  56.2112
 508  138.5046
 509  152.8275
 510  172.667
 511  214.2281
 512  139.6227
 513  82.65367
 514  120.7007
 515  260.0769
 516  265.3942
 517  137.7533
 518  72.10609
 519  184.705
 520  185.9915
 521  191.3334
 522  99.63328
 523  44.71042
 524  -53.5735
 525  -168.326
 526  -37.16801
 527  -59.55899
 528  -49.7249
 529  -168.8598
 530  -83.3354
 531  1.823705
 532  101.2849
 533  154.8241
 534  104.4711
 535  105.7062
 536  19.19098
 537  -90.35392
 538  -94.18414
 539  32.06673
 540  154.3738
 541  83.20382
 542  -22.41543
 543  -47.14382
 544  19.59163
 545  38.87883
 546  49.66119
 547  143.5523
 548  181.2105
 549  176.0713
 550  142.5298
 551  188.6835
 552  79.748
 553  -23.68935
 554  -13.15837
 555  4.160107
 556  -35.72774
 557  -70.2172
 558  -26.73766
 559  84.37667
 560  120.0203
 561  121.3093
 562  62.89102
 563  -32.22596
 564  -22.56103
 565  -29.95016
 566  57.32024
 567  -23.99716
 568  -61.83613
 569  -98.05473
 570  21.8764
 571  0.3187825
 572  19.18295
 573  -134.3662
 574  -117.545
 575  -109.2185
 576  18.17949
 577  37.72092
 578  68.79335
 579  92.97118
 580  230.6043
 581  206.7024
 582  199.8962
 583  115.8951
 584  207.979
 585  301.1755
 586  289.0733
 587  159.2415
 588  10.86009
 589  59.93106
 590  152.234
 591  296.5412
 592  239.3588
 593  223.2368
 594  219.3536
 595  258.7653
 596  287.3845
 597  246.1069
 598  161.349
 599  166.1647
 600  73.75211
 601  -37.68589
 602  -40.15692
 603  -37.83551
 604  168.6806
 605  237.0351
 606  352.7366
 607  250.4683
 608  164.9602
 609  95.26277
 610  48.51614
 611  17.54449
 612  51.29724
 613  124.7551
 614  172.1859
 615  265.3136
 616  247.4704
 617  220.9124
 618  106.204
 619  104.0228
 620  120.1045
 621  236.1079
 622  190.0416
 623  65.78528
 624  -24.58028
 625  44.26714
 626  112.0248
 627  88.41307
 628  53.77168
 629  0.820222
 630  -23.1558
 631  -4.90302
 632  85.17613
 633  227.1438
 634  272.2122
 635  294.4319
 636  220.2539
 637  116.4474
 638  -22.20582
 639  -127.6473
 640  -84.58999
 641  166.549
 642  437.9705
 643  626.3612
 644  678.8002
 645  741.0099
 646  801.297
 647  868.5298
 648  971.0673
 649  925.0984
 650  888.301
 651  700.5413
 652  552.6752
 653  335.5223
 654  332.1021
 655  287.1813
 656  400.9712
 657  220.9967
 658  162.0402
 659  8.03252
 660  80.33095
 661  27.46486
 662  125.9319
 663  142.8423
 664  248.0655
 665  214.9313
 666  271.7532
 667  260.8752
 668  186.5933
 669  8.320961
 670  -77.93441
 671  -84.16972
 672  -11.43208
 673  60.65864
 674  242.4193
 675  240.2397
 676  196.1909
 677  78.40162
 678  202.3131
 679  196.8835
 680  247.9496
 681  186.3112
 682  190.1031
 683  173.9778
 684  117.5163
 685  200.1535
 686  251.7693
 687  214.2049
 688  151.3048
 689  65.57908
 690  65.72612
 691  31.91989
 692  55.68302
 693  95.28944
 694  81.8684
 695  113.1723
 696  91.05843
 697  195.3215
 698  226.5425
 699  94.51522
 700  -46.99973
 701  -78.20416
 702  99.3251
 703  77.73882
 704  113.8938
 705  159.2691
 706  189.2357
 707  -49.00482
 708  -139.3625
 709  -124.3283
 710  34.38888
 711  56.3443
 712  83.08504
 713  62.22322
 714  94.74661
 715  92.20758
 716  57.82563
 717  -9.409772
 718  -18.1211
 719  -57.4206
 720  5.349188
 721  72.08537
 722  79.52551
 723  -129.6098
 724  -179.6933
 725  -74.52393
 726  135.2281
 727  178.903
 728  183.4943
 729  222.4854
 730  202.2865
 731  147.1946
 732  -7.243527
 733  -100.6432
 734  -106.9898
 735  -21.3954
 736  102.179
 737  23.19723
 738  97.0422
 739  114.1272
 740  249.0555
 741  185.7032
 742  137.2197
 743  62.58664
 744  18.20849
 745  -71.33017
 746  -103.7604
 747  -162.3793
 748  -98.26379
 749  -153.95
 750  -90.74172
 751  -87.23335
 752  58.29765
 753  58.55489
 754  -4.364718
 755  -6.544475
 756  -48.4251
 757  21.488
 758  109.8315
 759  184.4574
 760  130.1322
 761  -45.99691
 762  -89.65289
 763  -122.4691
 764  -74.21037
 765  -117.9285
 766  -22.85559
 767  -82.71275
 768  -2.905921
 769  26.71719
 770  -22.85118
 771  -116.7657
 772  -211.1758
 773  -71.91133
 774  18.08808
 775  144.1838
 776  -21.54556
 777  -12.46846
 778  -136.5051
 779  -47.13483
 780  -93.83615
 781  -139.6598
 782  -124.0955
 783  -147.6943
 784  -43.82834
 785  36.16578
 786  94.71655
 787  222.274
 788  61.20631
 789  105.8905
 790  14.68811
 791  136.1426
 792  116.344
 793  150.8653
 794  191.2653
 795  113.7455
 796  119.7974
 797  74.95026
 798  103.9527
 799  28.82782
 800  -67.27772
 801  82.50298
 802  58.51632
 803  90.84691
 804  -6.420161
 805  -2.313748
 806  18.30624
 807  -37.72961
 808  142.0017
 809  259.5306
 810  311.8449
 811  218.9109
 812  99.57684
 813  122.2045
 814  185.9021
 815  114.6369
 816  159.3066
 817  178.3945
 818  250.2486
 819  126.4119
 820  30.36546
 821  63.44724
 822  80.11552
 823  159.9736
 824  150.1902
 825  254.5147
 826  144.4482
 827  111.3613
 828  17.43148
 829  60.98162
 830  63.47629
 831  78.39718
 832  144.2625
 833  53.43176
 834  78.98751
 835  64.298
 836  106.1219
 837  -12.81255
 838  13.53481
 839  75.56196
 840  176.9858
 841  153.0478
 842  155.1319
 843  138.5195
 844  70.35364
 845  59.91518
 846  31.71987
 847  19.51371
 848  -132.2023
 849  -121.4478
 850  -4.379529
 851  43.13309
 852  -4.624238
 853  -56.51188
 854  8.369936
 855  57.21568
 856  109.0451
 857  83.10036
 858  203.9167
 859  146.514
 860  175.0944
 861  182.7527
 862  230.246
 863  280.6852
 864  121.8475
 865  148.029
 866  151.6845
 867  145.4242
 868  43.75656
 869  80.56535
 870  157.6118
 871  206.5853
 872  39.44798
 873  -40.17997
 874  -139.9346
 875  -89.25348
 876  -33.54562
 877  118.1873
 878  173.1351
 879  194.1903
 880  133.0742
 881  116.001
 882  95.78985
 883  98.6955
 884  134.4641
 885  54.53878
 886  117.2608
 887  206.7776
 888  185.7696
 889  185.9659
 890  66.99621
 891  39.50483
 892  2.673601
 893  -29.64993
 894  15.69239
 895  52.8685
 896  37.65297
 897  43.95245
 898  -67.99012
 899  38.87247
 900  129.9421
 901  251.163
 902  245.5822
 903  52.58559
 904  -28.95857
 905  -32.54482
 906  31.34175
 907  97.62727
 908  108.5346
 909  105.8746
 910  31.49073
 911  43.24664
 912  21.95284
 913  79.00335
 914  47.17254
 915  60.62263
 916  131.6493
 917  249.0802
 918  357.084
 919  249.8935
 920  176.0978
 921  84.68301
 922  145.4086
 923  190.047
 924  192.2095
 925  155.5489
 926  4.782184
 927  64.33289
 928  139.1591
 929  301.342
 930  221.8526
 931  56.6496
 932  -109.131
 933  -101.0164
 934  32.49056
 935  126.5215
 936  135.4373
 937  135.0433
 938  149.015
 939  224.32
 940  249.8113
 941  176.624
 942  78.02139
 943  57.31034
 944  78.81384
 945  153.1523
 946  80.3335
 947  99.05933
 948  104.9695
 949  159.7087
 950  144.9247
 951  146.8183
 952  68.48666
 953  -35.13796
 954  -38.54159
 955  23.29724
 956  57.68006
 957  -4.734793
 958  28.7069
 959  38.12016
 960  31.57349
 961  24.55798
 962  -43.88189
 963  -34.03557
 964  -78.04209
 965  -39.62713
 966  67.84212
 967  167.7648
 968  146.2692
 969  106.8235
 970  184.5453
 971  166.2392
 972  121.2616
 973  81.26852
 974  36.39296
 975  83.73439
 976  222.5244
 977  179.2287
 978  68.6964
 979  -45.19145
 980  63.86173
 981  38.88643
 982  -34.57338
 983  -2.724423
 984  208.7575
 985  335.3928
 986  239.4947
 987  95.4627
 988  -28.90253
 989  -134.8436
 990  -192.2272
 991  -194.1294
 992  -85.35696
 993  -27.56594
 994  117.8445
 995  226.6166
 996  90.91803
 997  97.18741
 998  -13.79007
 999  63.24827
1000  -74.5219
1001  16.92114
1002  14.48095
1003  -46.99142
1004  -4.094083
1005  70.30634
1006  33.73708
1007  -27.27236
1008  39.35184
1009  101.3523
1010  64.48938
1011  21.68514
1012  42.66431
1013  93.1361
1014  41.66061
1015  49.66775
1016  37.80673
1017  50.248
1018  22.05178
1019  14.50599
1020  95.02523
1021  74.56858
1022  -18.08578
1023  -89.309
