# Input file       =  1186900367.104086_cleaned.dat
# Candidate        =  PSR_0332+5434
# Telescope        =  AR
# Epoch_topo       =  57981.272987315810
# Epoch_bary       =  N/A
# T_sample         =  0.002
# Data Folded      =  7340032
# Data Avg         =  0.0217387163346367
# Data StdDev      =  2.65785292925797 
# Profile Bins     =  512
# Profile Avg      =  311.568688063783 
# Profile StdDev   =  318.232801462939 
# Reduced chi-sqr  =  1.214
# Prob(Noise)      <  0.000633   (~3.2 sigma)
# P_topo (ms)      =  714.464929232071  +/- 0.00023
# P'_topo (s/s)    =  -0                +/- 1.21e-10
# P''_topo (s/s^2) =  0                 +/- 5.35e-14
# P_bary (ms)      =  N/A
# P'_bary (s/s)    =  N/A
# P''_bary (s/s^2) =  N/A
# P_orb (s)        =  N/A
# asin(i)/c (s)    =  N/A
# eccentricity     =  N/A
# w (rad)          =  N/A
# T_peri           =  N/A
######################################################
   0  142.9426
   1  286.665
   2  319.5841
   3  401.1826
   4  453.0502
   5  512.9466
   6  734.6567
   7  319.5753
   8  106.5385
   9  498.1447
  10  468.9651
  11  469.5655
  12  522.3644
  13  409.2701
  14  363.5352
  15  152.8076
  16  577.3408
  17  498.8474
  18  60.15954
  19  44.8728
  20  231.2524
  21  213.8356
  22  447.2179
  23  375.5036
  24  266.4887
  25  -132.3871
  26  90.25159
  27  98.65751
  28  155.2761
  29  143.0545
  30  355.9676
  31  409.4238
  32  451.95
  33  63.20539
  34  30.88822
  35  394.9288
  36  545.0861
  37  27.09315
  38  350.6996
  39  385.7088
  40  360.1137
  41  328.2691
  42  327.4437
  43  306.9882
  44  176.0888
  45  360.0443
  46  282.2852
  47  204.379
  48  137.0759
  49  -119.2374
  50  56.80968
  51  -74.57561
  52  311.9524
  53  584.7739
  54  743.1112
  55  215.7043
  56  32.38236
  57  190.8726
  58  4.543237
  59  69.77438
  60  375.8466
  61  559.3846
  62  189.3039
  63  230.4815
  64  498.4016
  65  332.3809
  66  255.5126
  67  186.5653
  68  653.0358
  69  379.0189
  70  362.6713
  71  233.5608
  72  165.5212
  73  55.64048
  74  118.5485
  75  79.89354
  76  274.1139
  77  265.5593
  78  392.0924
  79  486.8629
  80  528.1361
  81  512.9314
  82  621.7141
  83  687.4718
  84  625.0857
  85  336.1263
  86  175.4978
  87  745.517
  88  668.4647
  89  304.2483
  90  201.1228
  91  468.2514
  92  515.2674
  93  -126.616
  94  -99.44582
  95  152.4291
  96  363.8625
  97  568.8273
  98  459.1046
  99  374.1423
 100  440.2169
 101  499.2279
 102  602.8997
 103  468.6367
 104  579.4379
 105  165.2039
 106  -18.60576
 107  127.6293
 108  419.5383
 109  474.368
 110  366.1135
 111  123.2429
 112  160.62
 113  237.4138
 114  178.3775
 115  161.4445
 116  -170.5983
 117  208.2847
 118  181.7136
 119  170.6163
 120  672.0773
 121  641.9805
 122  508.6263
 123  343.3134
 124  605.9689
 125  457.4267
 126  58.68311
 127  13.37701
 128  121.5972
 129  387.1027
 130  149.0308
 131  45.98129
 132  -14.7089
 133  87.73155
 134  246.936
 135  391.358
 136  241.6487
 137  136.87
 138  89.22034
 139  -7.614827
 140  155.2555
 141  410.4022
 142  56.18335
 143  307.6969
 144  442.7747
 145  265.107
 146  238.1051
 147  347.9013
 148  24.96212
 149  -117.9193
 150  116.152
 151  147.8125
 152  -3.372802
 153  -6.003966
 154  366.1202
 155  222.7454
 156  -199.4273
 157  -156.5262
 158  86.60641
 159  581.1196
 160  725.3057
 161  416.7661
 162  713.2435
 163  461.7154
 164  78.42072
 165  202.3033
 166  459.4679
 167  196.3303
 168  11.77367
 169  342.6573
 170  396.4355
 171  114.5076
 172  36.12953
 173  189.6903
 174  92.36007
 175  415.0876
 176  324.8596
 177  327.9185
 178  524.2963
 179  184.3357
 180  354.3702
 181  363.6669
 182  229.4295
 183  -154.9439
 184  39.23475
 185  497.6888
 186  137.446
 187  118.8036
 188  238.0555
 189  72.26025
 190  306.2172
 191  361.8135
 192  -73.75543
 193  53.76094
 194  17.93756
 195  171.133
 196  298.206
 197  241.428
 198  385.3192
 199  289.8509
 200  69.97505
 201  272.2156
 202  123.4857
 203  -57.21436
 204  0.123555
 205  458.8025
 206  227.811
 207  67.9358
 208  408.1311
 209  127.4954
 210  137.5522
 211  643.1819
 212  448.067
 213  149.999
 214  620.5585
 215  174.8433
 216  116.2389
 217  229.5366
 218  -88.769
 219  -84.82899
 220  176.7246
 221  199.9776
 222  158.0123
 223  794.5344
 224  639.2593
 225  481.7995
 226  406.4095
 227  743.8501
 228  347.1524
 229  335.1861
 230  555.0461
 231  629.001
 232  499.4924
 233  14.22545
 234  41.12598
 235  -54.50323
 236  354.9115
 237  470.2075
 238  693.2984
 239  670.4797
 240  161.6169
 241  -14.69784
 242  17.75672
 243  320.3914
 244  263.8602
 245  426.9965
 246  453.5197
 247  316.5604
 248  314.9885
 249  549.8827
 250  468.1975
 251  200.3838
 252  385.8943
 253  723.8521
 254  645.3312
 255  395.6831
 256  646.9948
 257  143.521
 258  349.7456
 259  197.7611
 260  292.7827
 261  312.1711
 262  346.6493
 263  262.9392
 264  375.8446
 265  706.1042
 266  454.2646
 267  475.7904
 268  429.4356
 269  428.0877
 270  302.2768
 271  414.4854
 272  431.6654
 273  349.9841
 274  381.8075
 275  19.62646
 276  -87.89723
 277  433.9678
 278  260.6812
 279  -107.6321
 280  115.8069
 281  364.3534
 282  287.989
 283  207.4939
 284  328.2766
 285  310.1151
 286  316.0342
 287  198.1187
 288  281.8582
 289  226.2311
 290  195.4265
 291  384.9491
 292  352.0445
 293  78.61822
 294  136.8942
 295  110.0511
 296  267.2352
 297  193.6104
 298  173.8057
 299  183.651
 300  388.4337
 301  559.939
 302  421.249
 303  479.3047
 304  635.7822
 305  460.348
 306  115.3551
 307  126.2003
 308  211.8871
 309  268.0114
 310  86.59927
 311  -0.909637
 312  136.7713
 313  675.746
 314  614.2421
 315  101.5743
 316  386.5599
 317  561.0046
 318  601.6523
 319  644.4801
 320  1065.015
 321  1073.935
 322  1108.778
 323  1553.773
 324  1718.576
 325  1656.168
 326  1059.173
 327  774.9275
 328  690.0637
 329  199.8307
 330  348.6123
 331  416.1912
 332  607.5333
 333  418.5577
 334  -35.62561
 335  330.036
 336  389.3312
 337  232.7922
 338  488.963
 339  585.22
 340  420.5626
 341  587.2834
 342  -47.19521
 343  39.60211
 344  -47.44387
 345  211.9239
 346  311.1078
 347  666.6556
 348  799.8807
 349  853.4902
 350  249.0267
 351  268.4333
 352  379.0825
 353  233.3959
 354  234.091
 355  292.3347
 356  203.508
 357  389.4551
 358  447.8749
 359  348.5201
 360  206.0373
 361  166.4309
 362  349.2661
 363  205.7277
 364  654.5198
 365  533.7961
 366  291.1916
 367  366.1884
 368  185.0899
 369  81.22224
 370  -305.2832
 371  56.43541
 372  554.5585
 373  594.3613
 374  620.7287
 375  504.0733
 376  909.5669
 377  745.2629
 378  576.173
 379  380.946
 380  265.9535
 381  371.2836
 382  748.47
 383  817.9835
 384  446.9477
 385  165.3016
 386  120.233
 387  232.2437
 388  234.2036
 389  192.3879
 390  444.0495
 391  365.1198
 392  125.3564
 393  146.7746
 394  1.567575
 395  533.7169
 396  584.2184
 397  329.5995
 398  495.5913
 399  13.89161
 400  -321.9571
 401  241.5127
 402  376.643
 403  410.1234
 404  142.1815
 405  91.71497
 406  315.0891
 407  53.23442
 408  251.1122
 409  476.6082
 410  356.8347
 411  376.473
 412  426.3428
 413  227.7682
 414  135.3474
 415  512.0366
 416  401.6678
 417  486.7115
 418  258.879
 419  128.6259
 420  496.709
 421  275.6187
 422  127.7037
 423  391.1153
 424  276.9152
 425  294.5089
 426  568.8587
 427  493.4355
 428  698.4369
 429  374.6959
 430  256.5087
 431  248.326
 432  265.8828
 433  177.8395
 434  272.2174
 435  405.6888
 436  557.9525
 437  311.2549
 438  436.3403
 439  410.043
 440  247.4882
 441  435.0818
 442  201.1018
 443  323.4327
 444  233.6769
 445  0.2940918
 446  141.4759
 447  555.5976
 448  477.0128
 449  -194.7705
 450  -203.6326
 451  79.3532
 452  -38.65386
 453  194.4772
 454  539.9117
 455  706.4141
 456  764.4333
 457  75.46747
 458  -121.5569
 459  78.06668
 460  550.0018
 461  679.7222
 462  795.3383
 463  444.5494
 464  399.6733
 465  -19.96788
 466  430.7297
 467  398.9448
 468  553.0583
 469  83.56379
 470  -556.6467
 471  -72.68964
 472  632.6083
 473  776.714
 474  454.6759
 475  420.2303
 476  358.39
 477  190.9667
 478  140.0884
 479  -89.78249
 480  -291.4693
 481  69.25225
 482  249.517
 483  269.8293
 484  345.5678
 485  461.0859
 486  126.1027
 487  85.24355
 488  330.6936
 489  278.6638
 490  67.70168
 491  221.7384
 492  374.3163
 493  375.1065
 494  471.0232
 495  330.7099
 496  150.7573
 497  158.7646
 498  209.3629
 499  226.1301
 500  -27.17539
 501  171.1515
 502  450.0807
 503  556.9746
 504  580.5297
 505  308.9985
 506  -175.0597
 507  -76.67041
 508  419.1996
 509  641.3223
 510  19.12525
 511  -203.3347
