# Input file       =  1186814826.088579_cleaned.dat
# Candidate        =  PSR_0332+5434
# Telescope        =  AR
# Epoch_topo       =  57980.282929265959
# Epoch_bary       =  N/A
# T_sample         =  0.002
# Data Folded      =  7340032
# Data Avg         =  0.00931326319736966
# Data StdDev      =  1.00006559406392 
# Profile Bins     =  512
# Profile Avg      =  133.376547637695 
# Profile StdDev   =  119.740890153208 
# Reduced chi-sqr  =  1.078
# Prob(Noise)      <  0.108   (~1.2 sigma)
# P_topo (ms)      =  714.465158672914  +/- 0.00026
# P'_topo (s/s)    =  -0                +/- 1.37e-10
# P''_topo (s/s^2) =  0                 +/- 6.06e-14
# P_bary (ms)      =  N/A
# P'_bary (s/s)    =  N/A
# P''_bary (s/s^2) =  N/A
# P_orb (s)        =  N/A
# asin(i)/c (s)    =  N/A
# eccentricity     =  N/A
# w (rad)          =  N/A
# T_peri           =  N/A
######################################################
   0  110.2237
   1  115.6891
   2  121.7274
   3  240.049
   4  168.3489
   5  160.3256
   6  161.5331
   7  130.0257
   8  52.23761
   9  94.58406
  10  112.1425
  11  175.8558
  12  74.26911
  13  80.93298
  14  46.71672
  15  88.82471
  16  149.1918
  17  141.755
  18  224.1756
  19  213.9155
  20  184.4369
  21  140.2279
  22  136.7805
  23  90.02152
  24  69.13537
  25  100.5855
  26  127.9076
  27  233.7071
  28  167.4871
  29  22.85823
  30  -47.61194
  31  88.53963
  32  124.5057
  33  119.5448
  34  224.1284
  35  112.1766
  36  106.435
  37  103.4464
  38  163.1395
  39  92.84245
  40  136.4909
  41  115.6778
  42  -20.26255
  43  48.09301
  44  105.6055
  45  161.2096
  46  188.4319
  47  102.8675
  48  79.48155
  49  142.8089
  50  138.3154
  51  45.83085
  52  179.41
  53  147.0928
  54  238.4078
  55  187.2123
  56  118.7884
  57  231.4532
  58  303.1889
  59  329.2865
  60  158.5721
  61  133.4454
  62  203.4515
  63  231.5211
  64  56.46799
  65  142.9824
  66  96.61261
  67  200.2798
  68  286.4349
  69  139.6047
  70  27.12655
  71  50.82987
  72  211.9543
  73  76.51626
  74  148.8793
  75  121.9269
  76  -5.780287
  77  -61.64544
  78  41.61112
  79  -6.9871
  80  147.1881
  81  155.4365
  82  99.45839
  83  140.2205
  84  64.34361
  85  -14.4783
  86  80.45394
  87  194.8868
  88  151.3014
  89  49.63177
  90  64.11913
  91  4.210027
  92  8.617545
  93  77.28468
  94  96.26392
  95  198.1916
  96  86.99483
  97  32.57089
  98  103.7557
  99  8.797703
 100  68.70374
 101  193.0421
 102  301.3475
 103  164.4519
 104  219.4249
 105  209.1854
 106  119.9101
 107  78.10546
 108  85.36726
 109  77.12522
 110  86.73937
 111  117.2581
 112  133.039
 113  161.2097
 114  50.9926
 115  143.9598
 116  131.5919
 117  124.5218
 118  200.4828
 119  243.3824
 120  279.0856
 121  210.407
 122  94.83005
 123  187.5664
 124  213.6831
 125  251.8737
 126  35.39044
 127  70.50729
 128  152.9578
 129  132.8954
 130  83.03476
 131  100.9622
 132  28.68238
 133  124.4353
 134  66.50627
 135  -25.2382
 136  71.89716
 137  164.7013
 138  134.7024
 139  202.7593
 140  183.1427
 141  145.0893
 142  107.7241
 143  51.85977
 144  145.3001
 145  178.9599
 146  216.1475
 147  167.9921
 148  109.2264
 149  34.24593
 150  41.53323
 151  75.8803
 152  161.7899
 153  199.7621
 154  150.7441
 155  164.4372
 156  148.6203
 157  30.43616
 158  14.9915
 159  145.3928
 160  107.5941
 161  114.4299
 162  225.4997
 163  86.33434
 164  55.96867
 165  115.6558
 166  77.85923
 167  98.43273
 168  131.9379
 169  78.56696
 170  99.08508
 171  131.4901
 172  130.1532
 173  141.3988
 174  80.78511
 175  132.4435
 176  38.48729
 177  -64.80792
 178  7.702587
 179  83.23502
 180  125.9651
 181  154.0685
 182  157.1069
 183  156.1649
 184  161.4286
 185  -10.39963
 186  122.8084
 187  45.10472
 188  1.473438
 189  108.3775
 190  131.9172
 191  141.6865
 192  120.3351
 193  28.74141
 194  39.25067
 195  77.45072
 196  83.43864
 197  117.3137
 198  122.2584
 199  65.55161
 200  122.3495
 201  176.7567
 202  166.7132
 203  145.2533
 204  97.19469
 205  -25.10467
 206  93.38957
 207  201.4021
 208  187.1919
 209  114.5753
 210  8.837993
 211  211.3594
 212  176.2722
 213  156.2331
 214  59.65822
 215  22.22781
 216  150.3056
 217  135.4563
 218  149.882
 219  74.03543
 220  133.5682
 221  179.5487
 222  270.8569
 223  237.1825
 224  132.6208
 225  279.1123
 226  149.9107
 227  136.2377
 228  53.16623
 229  184.9959
 230  193.2351
 231  47.42299
 232  145.1227
 233  110.8768
 234  45.83308
 235  73.88624
 236  98.61212
 237  164.8203
 238  285.5988
 239  258.9154
 240  179.0134
 241  183.5552
 242  135.2996
 243  113.7706
 244  155.124
 245  137.8641
 246  154.7007
 247  77.14687
 248  57.4971
 249  120.8571
 250  134.3547
 251  197.9898
 252  137.79
 253  219.0434
 254  281.137
 255  99.83816
 256  110.4706
 257  52.36614
 258  64.08486
 259  62.63847
 260  94.94183
 261  166.3617
 262  87.07729
 263  73.2062
 264  64.3622
 265  130.3763
 266  235.0154
 267  278.4155
 268  163.799
 269  105.3642
 270  162.8156
 271  121.1612
 272  95.25752
 273  68.6899
 274  -8.769381
 275  80.26769
 276  36.13287
 277  93.06798
 278  77.0364
 279  90.48262
 280  225.5468
 281  176.9299
 282  196.6998
 283  256.2152
 284  83.67531
 285  20.85938
 286  164.1131
 287  93.04607
 288  90.82307
 289  -9.346049
 290  102.3272
 291  183.9412
 292  133.3764
 293  64.88029
 294  69.94993
 295  137.3763
 296  156.5569
 297  98.99617
 298  72.01822
 299  112.7632
 300  64.11958
 301  166.905
 302  246.1641
 303  149.3913
 304  117.1475
 305  130.3997
 306  183.7001
 307  111.0226
 308  156.5257
 309  129.8037
 310  142.8367
 311  173.8665
 312  157.6913
 313  133.4712
 314  250.1488
 315  223.6353
 316  124.7252
 317  43.27699
 318  40.29
 319  113.0613
 320  46.01924
 321  87.80862
 322  134.1995
 323  133.4755
 324  56.12243
 325  29.77583
 326  -7.846304
 327  97.84743
 328  164.604
 329  184.9047
 330  150.7462
 331  138.4286
 332  170.6803
 333  140.4198
 334  251.1531
 335  246.2164
 336  131.248
 337  81.97676
 338  83.75149
 339  77.41467
 340  24.6957
 341  1.809277
 342  56.43287
 343  67.83047
 344  92.32808
 345  141.3803
 346  153.3193
 347  84.50735
 348  103.6781
 349  211.1543
 350  184.2028
 351  166.2845
 352  134.7636
 353  112.4459
 354  168.5381
 355  190.6803
 356  160.365
 357  163.8228
 358  296.3674
 359  311.4404
 360  214.9074
 361  113.5046
 362  124.3943
 363  138.4501
 364  -77.11742
 365  169.0247
 366  280.4843
 367  199.7339
 368  142.9306
 369  174.4286
 370  196.6203
 371  64.5496
 372  -5.556683
 373  82.58783
 374  127.3804
 375  206.3718
 376  180.1227
 377  133.9907
 378  185.0698
 379  107.7471
 380  21.88596
 381  100.3234
 382  -51.35749
 383  108.8942
 384  188.5783
 385  194.9813
 386  43.80225
 387  123.7412
 388  125.21
 389  -11.34967
 390  196.9822
 391  154.7107
 392  58.67011
 393  154.5005
 394  56.57572
 395  118.0532
 396  97.1712
 397  123.4678
 398  133.0393
 399  210.9143
 400  124.5781
 401  132.7029
 402  141.2241
 403  266.5528
 404  274.0231
 405  228.9072
 406  155.543
 407  208.4246
 408  298.1936
 409  368.2544
 410  316.4745
 411  289.2111
 412  183.1678
 413  257.9497
 414  290.2206
 415  173.6018
 416  186.9553
 417  169.2088
 418  171.8832
 419  110.1437
 420  134.6621
 421  158.0898
 422  87.32993
 423  105.0156
 424  162.5809
 425  440.5574
 426  581.3462
 427  515.4731
 428  661.235
 429  761.0106
 430  560.4702
 431  362.9385
 432  204.8577
 433  152.2809
 434  64.13303
 435  58.34367
 436  -12.62866
 437  177.0791
 438  160.4614
 439  85.07472
 440  119.0814
 441  286.66
 442  224.2427
 443  152.4388
 444  249.0263
 445  278.6993
 446  147.6374
 447  135.4075
 448  173.3283
 449  214.4047
 450  198.7222
 451  249.8797
 452  222.1579
 453  32.30573
 454  209.6745
 455  158.8758
 456  116.2535
 457  109.6765
 458  39.05835
 459  168.1442
 460  32.19455
 461  58.84515
 462  156.5837
 463  170.9036
 464  74.1739
 465  -101.696
 466  65.04989
 467  187.9796
 468  239.7357
 469  93.72971
 470  76.79349
 471  134.3964
 472  195.3149
 473  69.96411
 474  -26.21852
 475  -28.81444
 476  48.81859
 477  223.35
 478  285.7991
 479  107.061
 480  82.88793
 481  125.0392
 482  133.9086
 483  161.0501
 484  79.01249
 485  -28.65568
 486  -32.60161
 487  28.02286
 488  43.56353
 489  121.871
 490  204.2111
 491  98.8493
 492  33.18031
 493  92.32623
 494  11.49841
 495  188.8918
 496  220.2173
 497  100.1657
 498  66.98521
 499  244.9345
 500  115.6703
 501  -118.7758
 502  115.7118
 503  238.5375
 504  89.6305
 505  26.36059
 506  71.36177
 507  77.23189
 508  242.4764
 509  169.0734
 510  172.5782
 511  86.63512
