# Input file       =  1186181463.107759-PSRB0329-2ms-sampling-dd.dat
# Candidate        =  PSR_0332+5434
# Telescope        =  AR
# Epoch_topo       =  57972.952339210176
# Epoch_bary       =  N/A
# T_sample         =  0.002
# Data Folded      =  7208960
# Data Avg         =  9.2351231201415e-10
# Data StdDev      =  12.558988628408  
# Profile Bins     =  512
# Profile Avg      =  -0.0425684318153185
# Profile StdDev   =  1490.23923944721 
# Reduced chi-sqr  =  0.964
# Prob(Noise)      <  0.713   (~0.0 sigma)
# P_topo (ms)      =  714.466829603523  +/- 0.00263
# P'_topo (s/s)    =  -0                +/- 1.41e-09
# P''_topo (s/s^2) =  0                 +/- 6.35e-13
# P_bary (ms)      =  N/A
# P'_bary (s/s)    =  N/A
# P''_bary (s/s^2) =  N/A
# P_orb (s)        =  N/A
# asin(i)/c (s)    =  N/A
# eccentricity     =  N/A
# w (rad)          =  N/A
# T_peri           =  N/A
######################################################
   0  -517.4612
   1  -32.81149
   2  -199.9483
   3  -755.2256
   4  -773.7903
   5  -662.5724
   6  -628.1404
   7  -611.6516
   8  -882.402
   9  -654.3001
  10  -1006.052
  11  -692.9081
  12  -667.1866
  13  -733.6919
  14  -270.251
  15  -725.0834
  16  -423.3164
  17  -496.1168
  18  -43.23594
  19  18.01053
  20  295.5902
  21  858.988
  22  -198.1078
  23  -664.5035
  24  -529.0107
  25  -289.6481
  26  -348.9633
  27  -675.4046
  28  -411.4991
  29  -674.675
  30  -785.5057
  31  -629.7477
  32  -692.3007
  33  -490.9046
  34  -802.2447
  35  -632.8331
  36  -470.0648
  37  -442.1739
  38  -508.6625
  39  -835.199
  40  -465.9055
  41  -426.0458
  42  -320.5653
  43  -393.918
  44  -375.4373
  45  196.9858
  46  -264.1388
  47  115.1746
  48  -125.2119
  49  -404.9863
  50  90.69978
  51  -220.5099
  52  -126.5303
  53  -703.7935
  54  -347.5496
  55  -427.6793
  56  -373.5862
  57  514.1006
  58  377.9543
  59  450.9484
  60  -28.08563
  61  4.834676
  62  156.1246
  63  -159.0335
  64  197.1112
  65  514.2988
  66  14835.32
  67  16523.72
  68  526.0201
  69  -6.786134
  70  -248.7295
  71  -143.4717
  72  -378.0557
  73  -47.45688
  74  251.8764
  75  -361.1972
  76  78.79263
  77  200.8045
  78  40.09943
  79  230.0359
  80  -87.48397
  81  284.3019
  82  113.6944
  83  626.4908
  84  645.6519
  85  874.5324
  86  717.2483
  87  229.8342
  88  263.3819
  89  316.7892
  90  614.799
  91  817.6695
  92  783.9423
  93  782.8692
  94  462.0869
  95  445.8697
  96  723.0729
  97  596.5774
  98  848.7476
  99  1154.552
 100  1720.084
 101  1812.694
 102  1675.67
 103  1377.842
 104  356.3139
 105  249.8796
 106  -178.0882
 107  -102.525
 108  -30.63378
 109  209.091
 110  308.2631
 111  -173.647
 112  -330.8739
 113  -570.5986
 114  328.2648
 115  413.7349
 116  56.90916
 117  343.7466
 118  323.2194
 119  141.089
 120  170.0759
 121  499.0318
 122  5.360422
 123  -14.23395
 124  345.5361
 125  253.2393
 126  147.1042
 127  121.9558
 128  -24.48423
 129  -176.2851
 130  -462.3857
 131  -297.3788
 132  170.6358
 133  309.4128
 134  223.8734
 135  146.282
 136  157.4392
 137  -666.5626
 138  -791.8664
 139  -373.4568
 140  234.8451
 141  96.40057
 142  255.6824
 143  440.9968
 144  35.35926
 145  -323.115
 146  -711.7492
 147  -558.2531
 148  117.2807
 149  116.6239
 150  246.0451
 151  625.8522
 152  237.407
 153  18.21896
 154  -390.7954
 155  -617.067
 156  -260.8585
 157  -38.23636
 158  248.0043
 159  59.05623
 160  173.0307
 161  331.7941
 162  -73.9655
 163  -235.1542
 164  -454.796
 165  319.1919
 166  -3.888755
 167  474.1151
 168  650.8297
 169  179.9165
 170  296.2313
 171  45.21227
 172  402.2551
 173  -164.7001
 174  45.97278
 175  235.5744
 176  225.2074
 177  79.31142
 178  -454.2507
 179  -169.2769
 180  169.6274
 181  165.6894
 182  -68.62408
 183  -48.47926
 184  344.8538
 185  442.9875
 186  485.2482
 187  294.4069
 188  38.78681
 189  442.8074
 190  608.1014
 191  99.92236
 192  -46.63296
 193  66.72743
 194  439.7051
 195  299.2098
 196  167.0955
 197  282.2432
 198  762.911
 199  405.6466
 200  144.0006
 201  429.4172
 202  -51.74539
 203  -299.7091
 204  -558.6725
 205  -391.6781
 206  104.7649
 207  -123.0795
 208  140.15
 209  432.6814
 210  872.7552
 211  382.0455
 212  -15.94707
 213  -179.384
 214  103.1376
 215  271.2977
 216  652.074
 217  821.1977
 218  540.5758
 219  21.71661
 220  -269.7028
 221  -55.7631
 222  -5.377674
 223  373.3477
 224  117.7642
 225  -94.64808
 226  -123.7805
 227  406.5945
 228  90.44818
 229  -333.9045
 230  433.9893
 231  172.0752
 232  -161.1216
 233  -596.7004
 234  -78.34653
 235  -31.18589
 236  -493.3768
 237  -548.9539
 238  -283.8672
 239  -23.97878
 240  -746.5137
 241  -219.0093
 242  318.8372
 243  -87.69023
 244  -560.9161
 245  -419.9917
 246  -91.14383
 247  -397.7593
 248  -83.81885
 249  28.25519
 250  -330.8878
 251  18.03043
 252  149.2041
 253  -138.4071
 254  -304.4998
 255  -374.3763
 256  -165.435
 257  25.78348
 258  -126.4987
 259  347.4744
 260  305.3271
 261  296.077
 262  -309.5053
 263  -184.591
 264  -376.703
 265  -555.7203
 266  -58.632
 267  -86.58187
 268  -310.8322
 269  -107.5918
 270  -12.2741
 271  -328.3656
 272  -42.95195
 273  -277.3914
 274  -131.6407
 275  -35.69613
 276  -39.76553
 277  16.92731
 278  141.6084
 279  415.3272
 280  260.7896
 281  53.68009
 282  -152.9706
 283  362.5745
 284  221.189
 285  526.9689
 286  530.3166
 287  119.9979
 288  -258.8373
 289  -241.1001
 290  287.1619
 291  125.4108
 292  152.6158
 293  397.2958
 294  330.468
 295  61.0046
 296  -28.61555
 297  -2.455373
 298  -323.2462
 299  -183.3781
 300  7.951684
 301  -95.52895
 302  24.05587
 303  -430.2279
 304  -415.3224
 305  -301.001
 306  -461.6512
 307  -515.8123
 308  -152.3072
 309  -225.8751
 310  10.19335
 311  5.071898
 312  67.37824
 313  -18.58108
 314  -61.40065
 315  -312.4387
 316  -301.7752
 317  -115.6412
 318  -641.0295
 319  -338.7557
 320  -647.5413
 321  -330.7494
 322  -91.39776
 323  -483.8079
 324  -741.4169
 325  -500.2177
 326  -20.79002
 327  -420.093
 328  -831.6975
 329  -622.8071
 330  -579.0303
 331  -289.3338
 332  117.7482
 333  -194.2103
 334  -101.5452
 335  -337.3344
 336  -921.2048
 337  -468.4716
 338  191.3028
 339  -161.2213
 340  -852.9164
 341  -265.981
 342  -368.3065
 343  30.26509
 344  -30.93926
 345  -403.9232
 346  63.11666
 347  -216.2902
 348  -506.9961
 349  -485.0097
 350  -198.5939
 351  -205.34
 352  -273.0977
 353  -175.1622
 354  -175.4642
 355  202.1153
 356  289.0245
 357  -108.1952
 358  -184.5069
 359  54.07638
 360  -37.57383
 361  260.5691
 362  -88.755
 363  74.63027
 364  147.8554
 365  337.5654
 366  38.18306
 367  492.1101
 368  353.5341
 369  -285.0646
 370  -402.6214
 371  -675.1014
 372  -255.7617
 373  -205.2304
 374  642.347
 375  545.8092
 376  -114.0403
 377  -16.69511
 378  -276.3413
 379  63.05272
 380  148.269
 381  186.7461
 382  -59.56822
 383  175.6154
 384  306.9832
 385  -1.117532
 386  -411.4846
 387  -533.8787
 388  -354.1871
 389  40.47733
 390  -222.7556
 391  -168.5254
 392  35.08137
 393  16.32711
 394  150.4759
 395  -75.31705
 396  -254.8679
 397  -202.7326
 398  -198.5065
 399  67.01059
 400  0.5655248
 401  111.8265
 402  -475.1176
 403  -456.5993
 404  108.8861
 405  -92.81445
 406  -58.97741
 407  -69.71664
 408  437.9713
 409  131.5724
 410  35.29217
 411  305.5151
 412  -35.29535
 413  43.00783
 414  -445.5016
 415  -166.8995
 416  33.01367
 417  180.3161
 418  289.2223
 419  -13.17273
 420  -458.9962
 421  -381.6575
 422  30.73444
 423  57.96205
 424  -113.9413
 425  433.2053
 426  43.93661
 427  1.62093
 428  144.1021
 429  12.59239
 430  153.1382
 431  -118.0005
 432  484.9534
 433  617.7129
 434  769.3604
 435  632.3946
 436  236.0692
 437  42.80965
 438  -334.1279
 439  23.08939
 440  324.6956
 441  666.3387
 442  506.4204
 443  -323.1365
 444  -573.7357
 445  -984.4955
 446  -73.88136
 447  -315.6215
 448  152.2363
 449  81.21191
 450  -240.1333
 451  134.6969
 452  -554.7874
 453  -528.3984
 454  -575.1904
 455  -666.2532
 456  -207.5559
 457  -692.0669
 458  -35.98139
 459  212.4212
 460  -501.7502
 461  -394.2482
 462  -465.7578
 463  -126.8872
 464  -429.1924
 465  -376.6856
 466  85.43106
 467  -408.6847
 468  -232.1399
 469  -819.4703
 470  -573.196
 471  -79.03323
 472  91.6828
 473  197.6285
 474  -323.2125
 475  -113.5933
 476  -336.0287
 477  -736.7974
 478  -732.5903
 479  -965.0105
 480  -751.6505
 481  -968.2249
 482  -481.727
 483  276.0655
 484  -117.2345
 485  -173.748
 486  -304.8953
 487  -281.8352
 488  -389.344
 489  -740.9707
 490  -426.6611
 491  -210.1073
 492  351.5338
 493  -34.05617
 494  -246.0057
 495  54.59871
 496  -195.8252
 497  -393.8468
 498  -849.996
 499  -463.4036
 500  -457.2023
 501  -374.2699
 502  -346.2038
 503  -33.20362
 504  555.0736
 505  -183.0507
 506  -35.08998
 507  -177.9706
 508  -471.7987
 509  -399.7722
 510  -633.213
 511  -480.6922
