# Input file       =  1186454626.109951_cleaned.dat
# Candidate        =  PSR_0332+5434
# Telescope        =  AR
# Epoch_topo       =  57976.113948031838
# Epoch_bary       =  N/A
# T_sample         =  0.002
# Data Folded      =  7340032
# Data Avg         =  0.00998788751164123
# Data StdDev      =  0.999995534366051
# Profile Bins     =  512
# Profile Avg      =  143.154690880909 
# Profile StdDev   =  119.732501692854 
# Reduced chi-sqr  =  1.423
# Prob(Noise)      <  9.31e-10   (~6.0 sigma)
# P_topo (ms)      =  714.465869239895  +/- 0.000193
# P'_topo (s/s)    =  -0                +/- 1.02e-10
# P''_topo (s/s^2) =  0                 +/- 4.48e-14
# P_bary (ms)      =  N/A
# P'_bary (s/s)    =  N/A
# P''_bary (s/s^2) =  N/A
# P_orb (s)        =  N/A
# asin(i)/c (s)    =  N/A
# eccentricity     =  N/A
# w (rad)          =  N/A
# T_peri           =  N/A
######################################################
   0  224.5708
   1  245.2915
   2  20.46251
   3  -27.07907
   4  70.71974
   5  214.7764
   6  207.0638
   7  145.7664
   8  190.0255
   9  231.9763
  10  188.2937
  11  201.1362
  12  224.8567
  13  153.7388
  14  131.4973
  15  42.59363
  16  20.3027
  17  116.8869
  18  99.90218
  19  123.3004
  20  192.8492
  21  89.02697
  22  67.89053
  23  159.1798
  24  194.6434
  25  174.8355
  26  210.1509
  27  172.4079
  28  55.93914
  29  124.1327
  30  201.5082
  31  165.6771
  32  252.6107
  33  59.10797
  34  161.2425
  35  198.2868
  36  152.2562
  37  124.766
  38  121.8098
  39  186.3266
  40  94.48265
  41  203.6727
  42  189.0029
  43  211.7424
  44  127.7821
  45  44.06517
  46  -26.76143
  47  99.59293
  48  286.1365
  49  123.9888
  50  64.0863
  51  73.19722
  52  29.30107
  53  159.0579
  54  217.8131
  55  226.5493
  56  281.8792
  57  262.9505
  58  164.8035
  59  219.2629
  60  112.2448
  61  64.96893
  62  40.74942
  63  149.3803
  64  178.7341
  65  125.2278
  66  208.8097
  67  262.2481
  68  248.4931
  69  129.727
  70  159.3094
  71  172.5576
  72  114.6526
  73  155.7421
  74  76.47324
  75  202.1552
  76  152.0108
  77  251.5487
  78  139.8332
  79  106.8108
  80  193.0836
  81  244.2039
  82  144.4845
  83  155.3144
  84  255.1892
  85  263.175
  86  179.4816
  87  106.4479
  88  120.8914
  89  263.4485
  90  325.5351
  91  150.1367
  92  119.3829
  93  192.1894
  94  195.5934
  95  128.3286
  96  144.6012
  97  109.2611
  98  182.1043
  99  141.0045
 100  164.6604
 101  126.8982
 102  25.64746
 103  149.2826
 104  79.66119
 105  88.53453
 106  224.9043
 107  217.3193
 108  128.0725
 109  107.7746
 110  121.1625
 111  69.12524
 112  -34.70598
 113  104.1118
 114  22.22313
 115  144.5294
 116  53.16973
 117  157.1027
 118  195.0876
 119  185.4484
 120  126.5402
 121  152.9993
 122  285.8357
 123  290.5334
 124  274.8048
 125  128.4153
 126  77.32304
 127  5.614052
 128  34.49173
 129  -3.431273
 130  53.82542
 131  304.0034
 132  242.55
 133  167.5228
 134  177.2835
 135  165.5341
 136  190.2028
 137  294.8712
 138  282.7678
 139  161.0555
 140  240.9857
 141  241.8829
 142  116.1256
 143  79.0774
 144  106.6006
 145  16.54374
 146  20.09752
 147  168.1841
 148  139.5875
 149  210.7709
 150  178.3975
 151  156.2085
 152  118.6856
 153  123.6389
 154  225.482
 155  232.2908
 156  141.2098
 157  169.1524
 158  56.25445
 159  23.5409
 160  150.1003
 161  159.5813
 162  185.5615
 163  115.2556
 164  79.61816
 165  182.5591
 166  116.8354
 167  93.71068
 168  216.3952
 169  125.9809
 170  16.74806
 171  33.43518
 172  115.6998
 173  297.0435
 174  264.6146
 175  267.607
 176  237.4333
 177  191.4827
 178  122.683
 179  146.8089
 180  168.875
 181  249.1258
 182  20.41484
 183  29.95476
 184  163.3975
 185  201.4986
 186  85.42683
 187  33.04972
 188  90.0105
 189  45.4689
 190  -7.617444
 191  70.6193
 192  82.41851
 193  26.2315
 194  91.30836
 195  63.6569
 196  143.8631
 197  184.1606
 198  22.3868
 199  99.99586
 200  193.7855
 201  171.1179
 202  211.0302
 203  104.83
 204  182.7148
 205  227.0432
 206  108.7364
 207  60.25331
 208  28.33
 209  117.0448
 210  141.3961
 211  145.8486
 212  72.70498
 213  1.063998
 214  196.6982
 215  199.5718
 216  156.8707
 217  50.67632
 218  276.9633
 219  229.2268
 220  231.9983
 221  224.3158
 222  239.2269
 223  132.4403
 224  144.2148
 225  217.5065
 226  245.2456
 227  180.6996
 228  225.1713
 229  -15.20479
 230  -22.90443
 231  -3.233928
 232  121.3376
 233  207.2588
 234  172.4738
 235  189.1089
 236  136.1832
 237  16.49618
 238  -3.736978
 239  40.82491
 240  165.4059
 241  108.0451
 242  145.1802
 243  72.30387
 244  -24.84815
 245  138.5183
 246  225.6321
 247  342.9118
 248  309.4067
 249  229.2675
 250  166.7536
 251  222.3837
 252  47.12083
 253  51.64232
 254  150.8456
 255  145.0799
 256  169.0365
 257  83.63663
 258  151.272
 259  235.801
 260  103.5568
 261  137.9402
 262  238.3605
 263  262.4644
 264  279.0874
 265  198.3314
 266  255.1411
 267  204.7335
 268  108.1775
 269  207.8595
 270  164.7401
 271  60.67266
 272  85.03403
 273  69.47583
 274  174.5889
 275  234.9993
 276  73.60541
 277  20.7265
 278  -25.03286
 279  54.29736
 280  128.8899
 281  84.3256
 282  77.47961
 283  14.7533
 284  -33.37281
 285  -64.15509
 286  101.026
 287  121.2086
 288  100.6292
 289  69.78828
 290  97.63978
 291  86.56278
 292  152.0453
 293  34.28859
 294  160.6207
 295  119.0865
 296  8.995707
 297  82.4859
 298  -23.17946
 299  -24.66167
 300  123.8223
 301  126.5142
 302  124.6694
 303  73.18491
 304  31.74167
 305  95.4595
 306  -44.08921
 307  114.3123
 308  61.94556
 309  10.46441
 310  112.0418
 311  219.334
 312  193.6438
 313  185.41
 314  208.0683
 315  282.3033
 316  193.4652
 317  175.6067
 318  141.0452
 319  147.1773
 320  121.4629
 321  199.3685
 322  175.4868
 323  163.7461
 324  35.12851
 325  6.413592
 326  -0.2001584
 327  -19.13451
 328  3.837651
 329  -50.78892
 330  87.6181
 331  20.28136
 332  80.15724
 333  94.70675
 334  135.6377
 335  136.6454
 336  85.79405
 337  60.12448
 338  96.12904
 339  97.68683
 340  90.37823
 341  -25.40504
 342  18.18642
 343  143.8546
 344  93.13102
 345  105.348
 346  76.41541
 347  215.1616
 348  298.7314
 349  220.2697
 350  57.32259
 351  72.52062
 352  171.9181
 353  120.5399
 354  75.47814
 355  6.894152
 356  -28.90438
 357  114.4296
 358  -4.005825
 359  -57.89074
 360  -13.84721
 361  39.14205
 362  37.24536
 363  90.13103
 364  181.4878
 365  147.6027
 366  232.8908
 367  83.11793
 368  122.9099
 369  200.2511
 370  101.3381
 371  54.98557
 372  235.442
 373  160.3395
 374  189.6873
 375  276.073
 376  81.92226
 377  141.6727
 378  168.5462
 379  29.62774
 380  29.98308
 381  170.3324
 382  186.8331
 383  122.0282
 384  126.7081
 385  223.8784
 386  24.61947
 387  46.8791
 388  -25.83009
 389  21.17502
 390  100.1735
 391  201.1012
 392  200.1189
 393  116.1444
 394  175.2416
 395  67.63531
 396  34.76252
 397  176.4283
 398  293.8246
 399  34.04082
 400  -44.23542
 401  171.1558
 402  156.1859
 403  61.95132
 404  162.7451
 405  248.5936
 406  173.1238
 407  38.86842
 408  17.12887
 409  94.00893
 410  81.45692
 411  274.1985
 412  253.3844
 413  157.6685
 414  194.532
 415  190.277
 416  150.3953
 417  168.4312
 418  108.0749
 419  307.293
 420  324.1976
 421  292.5067
 422  427.7814
 423  499.9696
 424  621.3979
 425  721.6553
 426  893.5162
 427  830.5221
 428  563.7683
 429  325.0735
 430  131.8031
 431  62.00859
 432  55.19069
 433  150.4807
 434  93.56924
 435  173.4211
 436  125.4395
 437  172.0256
 438  -3.477959
 439  -6.598732
 440  121.87
 441  180.3188
 442  250.3899
 443  200.7708
 444  127.5567
 445  217.9085
 446  206.1882
 447  106.7753
 448  111.9843
 449  90.65586
 450  78.00391
 451  219.5017
 452  337.0732
 453  264.5488
 454  132.8982
 455  31.7343
 456  215.6771
 457  113.3303
 458  160.4565
 459  202.1107
 460  152.773
 461  98.07118
 462  62.41146
 463  34.98461
 464  -24.87101
 465  29.39734
 466  102.2845
 467  192.9896
 468  44.88795
 469  57.56105
 470  163.7958
 471  289.6421
 472  371.9012
 473  287.9106
 474  268.1287
 475  274.9164
 476  131.3807
 477  90.22463
 478  111.82
 479  216.8708
 480  287.0818
 481  213.4051
 482  167.3377
 483  142.9363
 484  100.7236
 485  99.84069
 486  133.6824
 487  160.5373
 488  218.4543
 489  61.11557
 490  125.6524
 491  292.9775
 492  245.2985
 493  111.991
 494  78.36125
 495  210.3871
 496  122.9292
 497  101.0535
 498  160.0853
 499  156.2122
 500  123.6697
 501  156.5368
 502  121.2383
 503  149.7181
 504  97.25844
 505  -19.32356
 506  77.99245
 507  250.7115
 508  241.5565
 509  221.1174
 510  74.24812
 511  113.1732
