# Input file       =  1186526186.116844_cleaned.dat
# Candidate        =  PSR_0332+5434
# Telescope        =  AR
# Epoch_topo       =  57976.942188852358
# Epoch_bary       =  N/A
# T_sample         =  0.002
# Data Folded      =  7143424
# Data Avg         =  0.0127445885399629
# Data StdDev      =  1.00002427237558 
# Profile Bins     =  512
# Profile Avg      =  177.787873111871 
# Profile StdDev   =  118.121451500513 
# Reduced chi-sqr  =  1.456
# Prob(Noise)      <  6.28e-11   (~6.4 sigma)
# P_topo (ms)      =  714.465622374705  +/- 0.000207
# P'_topo (s/s)    =  -0                +/- 1.12e-10
# P''_topo (s/s^2) =  0                 +/- 5.08e-14
# P_bary (ms)      =  N/A
# P'_bary (s/s)    =  N/A
# P''_bary (s/s^2) =  N/A
# P_orb (s)        =  N/A
# asin(i)/c (s)    =  N/A
# eccentricity     =  N/A
# w (rad)          =  N/A
# T_peri           =  N/A
######################################################
   0  179.9104
   1  180.6201
   2  132.056
   3  153.2236
   4  205.1421
   5  189.4507
   6  183.4931
   7  158.5742
   8  160.2459
   9  298.5585
  10  265.5996
  11  194.3438
  12  131.6137
  13  142.1257
  14  236.778
  15  278.8472
  16  242.4562
  17  211.6172
  18  208.1823
  19  -21.62563
  20  136.7601
  21  249.3487
  22  274.8036
  23  220.8274
  24  161.9625
  25  53.45321
  26  53.36915
  27  285.8326
  28  334.7778
  29  293.1436
  30  254.597
  31  160.4623
  32  68.00273
  33  54.77541
  34  220.2328
  35  208.3377
  36  83.01187
  37  217.3084
  38  346.0985
  39  327.8719
  40  244.254
  41  240.4083
  42  143.2495
  43  9.611653
  44  48.37321
  45  104.9569
  46  183.0256
  47  286.0775
  48  381.2033
  49  178.3451
  50  104.6494
  51  44.45061
  52  85.95471
  53  175.8016
  54  207.6988
  55  331.1965
  56  287.9197
  57  267.1461
  58  363.3207
  59  668.058
  60  869.8404
  61  918.208
  62  858.0748
  63  784.0781
  64  541.9719
  65  316.6345
  66  215.7482
  67  147.3729
  68  185.271
  69  187.4115
  70  35.92661
  71  87.63581
  72  182.7242
  73  247.7397
  74  157.2985
  75  101.7787
  76  193.9372
  77  196.6326
  78  236.5341
  79  182.597
  80  143.1402
  81  125.1185
  82  111.649
  83  150.6288
  84  191.785
  85  201.5231
  86  161.6087
  87  134.3861
  88  185.0038
  89  19.15369
  90  123.6278
  91  90.75715
  92  174.0858
  93  104.3503
  94  120.3537
  95  84.48053
  96  102.3155
  97  125.4245
  98  131.4528
  99  120.6661
 100  68.56138
 101  110.2678
 102  152.8526
 103  194.2291
 104  228.5612
 105  266.6863
 106  150.5818
 107  117.0372
 108  78.81681
 109  176.1331
 110  236.6835
 111  101.9427
 112  140.3808
 113  245.1256
 114  189.1694
 115  122.7318
 116  183.6591
 117  181.5541
 118  135.5444
 119  69.64494
 120  40.20374
 121  166.3823
 122  124.7858
 123  186.0405
 124  237.9601
 125  221.004
 126  154.8383
 127  68.57703
 128  149.2027
 129  62.20978
 130  70.90563
 131  107.5586
 132  109.8258
 133  97.66335
 134  17.82663
 135  20.38773
 136  93.9006
 137  194.2031
 138  201.0355
 139  198.7091
 140  204.6805
 141  134.4504
 142  73.55771
 143  262.137
 144  229.2623
 145  62.08628
 146  53.95971
 147  10.37376
 148  182.6338
 149  146.0572
 150  77.63477
 151  141.4965
 152  165.8851
 153  109.7183
 154  125.5419
 155  265.3564
 156  225.292
 157  136.7007
 158  255.8333
 159  194.9814
 160  52.87062
 161  40.47934
 162  45.49269
 163  63.01155
 164  167.3866
 165  192.4982
 166  183.2925
 167  151.7026
 168  191.6094
 169  177.5048
 170  166.0507
 171  221.1197
 172  225.4422
 173  218.4015
 174  272.6494
 175  209.6598
 176  99.33872
 177  103.9575
 178  183.4075
 179  187.82
 180  243.2383
 181  121.1621
 182  108.5523
 183  90.58149
 184  159.1594
 185  251.0481
 186  252.8902
 187  251.529
 188  70.98904
 189  193.8252
 190  130.1786
 191  61.21986
 192  105.5096
 193  75.54691
 194  124.0044
 195  153.9936
 196  50.6881
 197  25.80148
 198  243.4828
 199  221.7207
 200  187.3907
 201  87.75869
 202  67.09165
 203  176.199
 204  145.2189
 205  98.41405
 206  120.6884
 207  210.9859
 208  292.7474
 209  275.8279
 210  228.0137
 211  163.3567
 212  163.9367
 213  178.1339
 214  277.9707
 215  216.6899
 216  171.2782
 217  128.0757
 218  2.26103
 219  157.8952
 220  233.6379
 221  175.3816
 222  198.5041
 223  214.6603
 224  255.1633
 225  308.1498
 226  179.7954
 227  230.9125
 228  124.6286
 229  137.7519
 230  256.6965
 231  188.9839
 232  308.8366
 233  340.8953
 234  188.6912
 235  266.0923
 236  290.4153
 237  204.3086
 238  69.46011
 239  132.1649
 240  203.3403
 241  163.9189
 242  224.9471
 243  294.5243
 244  195.0078
 245  161.2632
 246  66.29615
 247  -42.15206
 248  110.1307
 249  120.0476
 250  49.60985
 251  147.4431
 252  192.5746
 253  55.69224
 254  39.4514
 255  152.7763
 256  33.97937
 257  128.6966
 258  300.7141
 259  256.9598
 260  109.8841
 261  107.8982
 262  15.78696
 263  49.79309
 264  88.84884
 265  144.1265
 266  165.1572
 267  172.7903
 268  263.3159
 269  214.8636
 270  91.57054
 271  82.82843
 272  172.7476
 273  177.2616
 274  212.4558
 275  153.6103
 276  278.9435
 277  249.9943
 278  116.5891
 279  127.4084
 280  189.6084
 281  297.2778
 282  208.5774
 283  199.9914
 284  209.4764
 285  168.8411
 286  264.6071
 287  247.3281
 288  219.6642
 289  260.4359
 290  230.295
 291  150.6006
 292  189.2059
 293  292.261
 294  340.4624
 295  225.7398
 296  201.689
 297  177.8346
 298  191.2787
 299  197.8669
 300  159.2582
 301  231.7152
 302  224.9298
 303  147.4488
 304  92.80132
 305  191.2596
 306  236.4802
 307  252.9137
 308  236.0278
 309  226.7957
 310  257.1283
 311  249.4858
 312  290.1071
 313  205.5334
 314  180.9473
 315  154.0624
 316  133.107
 317  224.5197
 318  198.7573
 319  204.4249
 320  147.5658
 321  -41.48239
 322  109.7936
 323  200.9691
 324  259.0179
 325  269.597
 326  71.09801
 327  142.8358
 328  129.2135
 329  115.3807
 330  38.70184
 331  113.0368
 332  165.6807
 333  227.6154
 334  192.402
 335  112.9145
 336  19.18811
 337  -136.6842
 338  22.09886
 339  138.2663
 340  331.6785
 341  332.8364
 342  98.02847
 343  206.4671
 344  210.4433
 345  102.3559
 346  210.5654
 347  147.4149
 348  113.7319
 349  96.15472
 350  233.6377
 351  209.9489
 352  229.3854
 353  215.6876
 354  52.85963
 355  82.18877
 356  244.0047
 357  172.7363
 358  67.16946
 359  210.998
 360  236.642
 361  135.7205
 362  65.92533
 363  124.9736
 364  219.5639
 365  278.546
 366  193.5815
 367  179.8678
 368  186.1305
 369  229.5865
 370  317.746
 371  280.6501
 372  285.5283
 373  73.11575
 374  145.4592
 375  99.43906
 376  128.8564
 377  164.4795
 378  211.5551
 379  139.2937
 380  237.7791
 381  257.6549
 382  120.6581
 383  185.0916
 384  206.0244
 385  163.633
 386  273.7539
 387  186.259
 388  173.5072
 389  189.9684
 390  165.0765
 391  -14.70916
 392  11.63601
 393  -0.2188306
 394  118.2146
 395  165.6684
 396  141.3714
 397  216.8563
 398  183.6629
 399  206.997
 400  190.6888
 401  194.7843
 402  91.77806
 403  130.1573
 404  149.4934
 405  216.7396
 406  141.1973
 407  125.199
 408  87.88136
 409  45.09311
 410  75.50288
 411  116.7091
 412  189.1466
 413  207.8435
 414  207.488
 415  277.9698
 416  222.9997
 417  112.104
 418  177.4641
 419  190.3459
 420  198.4596
 421  222.5233
 422  101.5396
 423  224.7857
 424  376.7185
 425  265.7545
 426  107.1462
 427  69.94353
 428  80.78278
 429  185.4211
 430  146.2732
 431  72.13729
 432  136.9215
 433  124.1371
 434  198.4356
 435  98.95089
 436  77.22787
 437  180.3516
 438  265.0771
 439  181.1889
 440  193.6947
 441  254.9775
 442  359.2611
 443  239.1949
 444  202.4822
 445  249.3356
 446  254.4306
 447  151.6082
 448  135.6555
 449  144.5521
 450  157.4276
 451  171.6164
 452  185.6582
 453  261.2024
 454  210.7801
 455  231.5069
 456  333.5194
 457  253.2844
 458  164.7399
 459  87.14781
 460  206.3686
 461  292.2567
 462  296.6198
 463  322.0888
 464  387.9198
 465  331.2896
 466  305.0847
 467  220.1486
 468  93.98255
 469  106.2975
 470  124.7464
 471  115.1726
 472  77.49223
 473  -36.96814
 474  -8.61486
 475  87.7052
 476  184.3416
 477  150.4489
 478  214.3805
 479  133.3492
 480  120.2814
 481  212.222
 482  118.1991
 483  120.9299
 484  156.8131
 485  187.578
 486  299.8139
 487  238.6016
 488  240.9909
 489  100.8008
 490  87.39971
 491  229.1821
 492  281.3535
 493  122.7998
 494  188.2559
 495  202.4666
 496  338.4639
 497  300.282
 498  181.8528
 499  95.16319
 500  82.31707
 501  92.39169
 502  165.9594
 503  125.6558
 504  114.6645
 505  200.5792
 506  236.3051
 507  385.8993
 508  242.095
 509  6.498632
 510  82.29355
 511  180.1235
