# Input file       =  1186540742.11421_cleaned.dat
# Candidate        =  PSR_0332+5434
# Telescope        =  AR
# Epoch_topo       =  57977.110661044098
# Epoch_bary       =  N/A
# T_sample         =  0.002
# Data Folded      =  7340032
# Data Avg         =  0.0282398727587341
# Data StdDev      =  2.33428474920699 
# Profile Bins     =  256
# Profile Avg      =  810.007849997521 
# Profile StdDev   =  395.259963879199 
# Reduced chi-sqr  =  2.792
# Prob(Noise)      <  8.44e-45   (~14.0 sigma)
# P_topo (ms)      =  714.465590907952  +/- 0.000322
# P'_topo (s/s)    =  -0                +/- 1.7e-10
# P''_topo (s/s^2) =  0                 +/- 7.5e-14
# P_bary (ms)      =  N/A
# P'_bary (s/s)    =  N/A
# P''_bary (s/s^2) =  N/A
# P_orb (s)        =  N/A
# asin(i)/c (s)    =  N/A
# eccentricity     =  N/A
# w (rad)          =  N/A
# T_peri           =  N/A
######################################################
   0  313.403
   1  900.4167
   2  491.0327
   3  71.72106
   4  468.7095
   5  826.0943
   6  246.5105
   7  -179.432
   8  283.8678
   9  63.09482
  10  -7.54179
  11  239.8513
  12  76.99339
  13  386.9861
  14  305.6573
  15  -193.6945
  16  359.4034
  17  19.0275
  18  173.5894
  19  195.279
  20  -143.5866
  21  -598.1592
  22  642.455
  23  360.6513
  24  294.3271
  25  224.4518
  26  393.4319
  27  443.9255
  28  581.0956
  29  -52.95319
  30  180.3699
  31  692.8612
  32  1416.166
  33  1285.903
  34  716.8839
  35  102.6859
  36  755.0189
  37  442.9248
  38  603.1382
  39  798.9959
  40  882.1558
  41  394.1958
  42  137.5793
  43  -84.0114
  44  396.8634
  45  783.5193
  46  596.9602
  47  385.4658
  48  373.6605
  49  135.0093
  50  539.0518
  51  66.64423
  52  939.006
  53  614.8835
  54  303.2621
  55  544.8923
  56  -0.7418762
  57  925.3066
  58  530.4537
  59  476.1546
  60  352.279
  61  1088.491
  62  154.1559
  63  558.439
  64  813.8605
  65  729.5794
  66  316.9341
  67  793.0651
  68  526.4494
  69  710.8737
  70  788.166
  71  950.2888
  72  828.5472
  73  414.0169
  74  630.7025
  75  -121.1351
  76  178.0658
  77  1041.183
  78  997.4485
  79  773.4984
  80  659.0696
  81  944.0003
  82  209.7234
  83  564.8726
  84  963.7667
  85  319.8148
  86  960.0305
  87  612.4637
  88  259.9963
  89  226.7513
  90  72.28349
  91  934.0387
  92  499.911
  93  97.96496
  94  275.0558
  95  779.6685
  96  1072.036
  97  699.2618
  98  337.347
  99  713.2681
 100  1416.625
 101  721.3568
 102  934.0165
 103  1128.396
 104  1024.549
 105  1507.579
 106  796.0817
 107  1699.298
 108  552.8374
 109  656.4323
 110  869.3216
 111  1040.515
 112  1285.542
 113  889.761
 114  1335.541
 115  930.6199
 116  1160.9
 117  935.0847
 118  1143.996
 119  777.2722
 120  804.2206
 121  1306.761
 122  953.4865
 123  630.0602
 124  956.8661
 125  917.7388
 126  785.2597
 127  907.4031
 128  252.3943
 129  120.1069
 130  726.9136
 131  784.9484
 132  1032.393
 133  407.0515
 134  272.7529
 135  430.7982
 136  716.2402
 137  353.8515
 138  931.7533
 139  777.6275
 140  669.6878
 141  1270.81
 142  242.8801
 143  525.5767
 144  1299.613
 145  899.8352
 146  439.3435
 147  935.2903
 148  1280.601
 149  942.7139
 150  1200.756
 151  1489.518
 152  1358.072
 153  1653.034
 154  1420.076
 155  1369.796
 156  893.4247
 157  1802.373
 158  1363.589
 159  2166.476
 160  2474.701
 161  3920.374
 162  4464.731
 163  2797.2
 164  1276.341
 165  1497.358
 166  415.273
 167  608.749
 168  1400.333
 169  1173.938
 170  1428.892
 171  1252.925
 172  1590.031
 173  319.0899
 174  920.6494
 175  1603.016
 176  1104.918
 177  1009.739
 178  1789.79
 179  908.9909
 180  1386.79
 181  1205.798
 182  1252.398
 183  789.8568
 184  1137.02
 185  1643.598
 186  589.3027
 187  585.2764
 188  1452.115
 189  926.0085
 190  1120.372
 191  804.0993
 192  1632.888
 193  1083.226
 194  830.2237
 195  1213.769
 196  1202.037
 197  1297.123
 198  660.4518
 199  765.2368
 200  906.0475
 201  1159.033
 202  1139.141
 203  1021.08
 204  1209.972
 205  1100.615
 206  1013.853
 207  1225.188
 208  953.5379
 209  972.6336
 210  1508.539
 211  1628.145
 212  1515.873
 213  1078.62
 214  837.1288
 215  926.4923
 216  617.9822
 217  1624.943
 218  1498.792
 219  1668.296
 220  1736.869
 221  955.4042
 222  1145.838
 223  981.3326
 224  1391.26
 225  853.7056
 226  631.0317
 227  219.5886
 228  876.895
 229  1091.647
 230  1067.444
 231  882.257
 232  949.9525
 233  894.4619
 234  659.0358
 235  986.9069
 236  525.7418
 237  1078.562
 238  761.3459
 239  416.2668
 240  515.912
 241  308.8229
 242  51.91122
 243  505.4213
 244  473.3428
 245  659.4807
 246  631.6232
 247  345.062
 248  589.0097
 249  255.8321
 250  168.5381
 251  788.363
 252  -3.793869
 253  974.7347
 254  849.9461
 255  55.79582
