# Input file       =  1187746985.105509_cleaned.dat
# Candidate        =  PSR_0332+5434
# Telescope        =  AR
# Epoch_topo       =  57991.071806776723
# Epoch_bary       =  N/A
# T_sample         =  0.002
# Data Folded      =  7340032
# Data Avg         =  0.0118960256844747
# Data StdDev      =  1.00001569146874 
# Profile Bins     =  512
# Profile Avg      =  170.553695918248 
# Profile StdDev   =  119.734915163963 
# Reduced chi-sqr  =  1.570
# Prob(Noise)      <  2.69e-15   (~7.8 sigma)
# P_topo (ms)      =  714.463385016569  +/- 0.00025
# P'_topo (s/s)    =  -0                +/- 1.32e-10
# P''_topo (s/s^2) =  0                 +/- 5.82e-14
# P_bary (ms)      =  N/A
# P'_bary (s/s)    =  N/A
# P''_bary (s/s^2) =  N/A
# P_orb (s)        =  N/A
# asin(i)/c (s)    =  N/A
# eccentricity     =  N/A
# w (rad)          =  N/A
# T_peri           =  N/A
######################################################
   0  12.53325
   1  67.16527
   2  193.7386
   3  278.0295
   4  147.7671
   5  72.93682
   6  142.788
   7  138.7591
   8  99.20278
   9  144.4978
  10  83.31622
  11  97.04124
  12  200.4026
  13  233.967
  14  227.6065
  15  226.6441
  16  133.1789
  17  162.3535
  18  248.6243
  19  226.4225
  20  217.8593
  21  292.631
  22  278.7719
  23  194.1007
  24  206.9474
  25  114.0846
  26  81.53713
  27  173.3681
  28  305.3714
  29  367.8352
  30  362.5701
  31  89.36084
  32  -65.62009
  33  118.8068
  34  173.2652
  35  176.8461
  36  72.1916
  37  -7.213015
  38  73.7607
  39  51.38476
  40  155.6767
  41  164.9213
  42  215.669
  43  219.4081
  44  191.2765
  45  35.1206
  46  201.1664
  47  252.0576
  48  209.6302
  49  280.6966
  50  250.3181
  51  106.1194
  52  183.463
  53  139.8947
  54  199.368
  55  360.3094
  56  326.8521
  57  272.9744
  58  199.1696
  59  137.31
  60  59.88084
  61  98.42345
  62  90.03258
  63  212.1546
  64  290.8835
  65  142.6574
  66  182.5445
  67  180.8783
  68  244.6876
  69  168.6323
  70  108.797
  71  230.8098
  72  220.9843
  73  152.0354
  74  176.0407
  75  76.33282
  76  137.2774
  77  364.198
  78  280.2737
  79  243.3971
  80  210.3607
  81  85.28214
  82  170.8139
  83  191.3076
  84  250.3962
  85  289.9455
  86  198.4484
  87  58.43992
  88  58.91634
  89  50.0436
  90  140.3683
  91  188.3041
  92  206.9857
  93  125.6127
  94  111.289
  95  178.802
  96  233.6027
  97  110.919
  98  175.4256
  99  203.582
 100  155.8637
 101  69.60054
 102  110.9851
 103  184.8837
 104  130.3503
 105  269.6603
 106  224.8141
 107  206.3125
 108  204.1201
 109  206.9499
 110  307.929
 111  330.3058
 112  402.012
 113  328.6224
 114  325.6634
 115  194.116
 116  169.7703
 117  86.78856
 118  73.29112
 119  165.3817
 120  137.6003
 121  231.4962
 122  294.974
 123  275.9716
 124  197.3402
 125  188.6918
 126  138.4347
 127  209.7552
 128  334.4704
 129  354.4015
 130  335.6474
 131  289.8818
 132  131.4681
 133  122.9765
 134  24.57823
 135  143.7998
 136  231.5381
 137  157.9651
 138  8.681173
 139  194.6681
 140  214.8487
 141  214.2476
 142  183.0556
 143  363.624
 144  515.8326
 145  710.1193
 146  924.7868
 147  819.0294
 148  847.0449
 149  712.8988
 150  642.2356
 151  364.5422
 152  181.541
 153  209.2283
 154  344.2318
 155  273.1202
 156  208.6355
 157  202.124
 158  336.2613
 159  268.156
 160  175.2763
 161  135.6155
 162  182.2482
 163  283.3538
 164  300.526
 165  252.9937
 166  154.5303
 167  50.22021
 168  305.2829
 169  329.7444
 170  298.0667
 171  253.8791
 172  139.15
 173  166.2256
 174  165.3275
 175  149.081
 176  44.87556
 177  161.5793
 178  272.7357
 179  185.8716
 180  91.82801
 181  61.91428
 182  65.16766
 183  143.3909
 184  241.1617
 185  282.4014
 186  194.6749
 187  106.3634
 188  142.2976
 189  267.324
 190  243.374
 191  247.5489
 192  132.1626
 193  152.2192
 194  181.5559
 195  159.8128
 196  -5.482485
 197  -14.29097
 198  75.21414
 199  -77.23266
 200  92.5815
 201  185.0332
 202  157.4879
 203  229.7195
 204  291.5583
 205  105.4576
 206  34.36272
 207  125.5314
 208  210.9686
 209  236.0858
 210  195.7722
 211  207.0082
 212  127.0261
 213  177.6946
 214  130.4876
 215  164.6439
 216  126.9053
 217  165.5478
 218  243.3569
 219  195.0574
 220  169.0951
 221  217.1295
 222  200.5557
 223  107.582
 224  98.01291
 225  140.9885
 226  173.0532
 227  112.9178
 228  118.9492
 229  150.6597
 230  166.8116
 231  165.164
 232  82.2253
 233  148.9873
 234  238.5079
 235  230.5388
 236  160.058
 237  235.7028
 238  87.12083
 239  213.5849
 240  227.0184
 241  162.6968
 242  198.8027
 243  161.0456
 244  305.8559
 245  358.8503
 246  323.9651
 247  204.9319
 248  189.8558
 249  177.4077
 250  240.1623
 251  278.5688
 252  242.6133
 253  321.9963
 254  222.4505
 255  32.08344
 256  32.90075
 257  85.77859
 258  135.2995
 259  148.0287
 260  116.8722
 261  213.2179
 262  309.6241
 263  186.191
 264  138.2189
 265  119.8394
 266  273.4305
 267  278.6911
 268  176.3352
 269  134.2521
 270  225.2468
 271  221.9408
 272  206.1197
 273  131.8889
 274  -11.82529
 275  -48.94083
 276  41.33368
 277  -45.7928
 278  39.75385
 279  23.096
 280  170.0137
 281  100.0483
 282  67.33458
 283  136.2129
 284  227.6422
 285  191.4975
 286  157.7737
 287  159.9201
 288  204.7218
 289  229.899
 290  134.2836
 291  145.0464
 292  134.6628
 293  100.908
 294  220.7431
 295  275.9549
 296  309.5614
 297  233.5822
 298  109.8718
 299  88.31083
 300  233.1653
 301  294.8667
 302  199.75
 303  24.22932
 304  37.45478
 305  87.87123
 306  282.0903
 307  294.2968
 308  129.5261
 309  196.9378
 310  245.0617
 311  278.9286
 312  235.2626
 313  286.9253
 314  241.0805
 315  158.9641
 316  75.48827
 317  90.72113
 318  195.513
 319  279.2604
 320  207.1386
 321  160.6192
 322  77.70766
 323  175.9146
 324  308.4841
 325  132.2128
 326  95.82632
 327  176.9746
 328  130.4908
 329  211.8521
 330  146.1881
 331  109.1188
 332  92.94303
 333  189.6133
 334  136.1275
 335  173.6292
 336  194.1974
 337  85.29721
 338  135.9537
 339  220.0313
 340  230.4093
 341  112.3621
 342  97.90841
 343  213.9111
 344  165.7289
 345  121.2284
 346  40.82626
 347  158.2679
 348  198.4427
 349  212.684
 350  225.8669
 351  66.18524
 352  50.87859
 353  -56.89812
 354  15.82806
 355  52.22691
 356  56.74138
 357  172.7382
 358  282.8544
 359  148.2787
 360  107.1178
 361  128.5692
 362  172.0335
 363  215.3479
 364  217.9886
 365  286.6554
 366  254.0892
 367  144.0354
 368  127.7344
 369  213.6237
 370  222.8573
 371  157.7279
 372  143.7691
 373  1.799488
 374  132.604
 375  194.3407
 376  215.6287
 377  50.58202
 378  11.9657
 379  152.5123
 380  199.7209
 381  119.4931
 382  60.74672
 383  212.3159
 384  198.6219
 385  188.7636
 386  150.8393
 387  204.9256
 388  224.2865
 389  147.6091
 390  95.4594
 391  207.0985
 392  128.4035
 393  54.47143
 394  127.8391
 395  159.7707
 396  136.0613
 397  201.1485
 398  235.012
 399  242.4279
 400  215.5047
 401  220.681
 402  131.5637
 403  88.86322
 404  116.9196
 405  116.2449
 406  61.64716
 407  121.9107
 408  151.2218
 409  69.38505
 410  125.6417
 411  58.82928
 412  82.02832
 413  106.9555
 414  29.07273
 415  124.3391
 416  121.3162
 417  190.7769
 418  167.0859
 419  14.35533
 420  83.96698
 421  -0.2901914
 422  93.86967
 423  45.63601
 424  73.03873
 425  91.6571
 426  55.74749
 427  -9.929598
 428  60.17425
 429  -19.45512
 430  -15.25172
 431  71.10876
 432  199.669
 433  210.6328
 434  205.3725
 435  101.3679
 436  127.1609
 437  202.7847
 438  71.53432
 439  36.89976
 440  170.3487
 441  236.1058
 442  148.5995
 443  144.5633
 444  111.1896
 445  109.1084
 446  34.62094
 447  85.28886
 448  214.4325
 449  315.9458
 450  225.2489
 451  271.2783
 452  142.703
 453  81.24949
 454  125.4711
 455  89.38667
 456  44.73957
 457  125.5759
 458  91.58789
 459  70.24332
 460  76.56013
 461  63.71275
 462  201.2778
 463  195.9968
 464  139.4386
 465  160.4121
 466  47.15101
 467  68.08373
 468  225.5752
 469  256.0031
 470  222.3117
 471  63.99739
 472  150.0076
 473  384.0226
 474  162.6183
 475  61.13387
 476  141.7926
 477  66.77407
 478  106.4856
 479  6.117831
 480  48.98697
 481  279.5744
 482  312.3999
 483  178.1664
 484  180.3667
 485  158.2847
 486  37.87709
 487  54.91739
 488  237.0347
 489  235.2252
 490  178.0295
 491  175.7082
 492  140.4544
 493  33.83462
 494  81.10304
 495  184.9819
 496  167.9982
 497  75.16608
 498  42.11559
 499  76.16382
 500  90.10577
 501  109.7923
 502  180.9485
 503  164.8631
 504  8.962977
 505  20.49287
 506  119.6583
 507  151.426
 508  60.72509
 509  58.5251
 510  151.634
 511  51.54807
