# Input file       =  1187143878.108323_cleaned.dat
# Candidate        =  PSR_0332+5434
# Telescope        =  AR
# Epoch_topo       =  57984.091401716702
# Epoch_bary       =  N/A
# T_sample         =  0.002
# Data Folded      =  7340032
# Data Avg         =  0.0214284976536874
# Data StdDev      =  2.33345481341643 
# Profile Bins     =  512
# Profile Avg      =  306.904225038765 
# Profile StdDev   =  279.391630058329 
# Reduced chi-sqr  =  1.442
# Prob(Noise)      <  2.02e-10   (~6.3 sigma)
# P_topo (ms)      =  714.46407383493   +/- 0.000154
# P'_topo (s/s)    =  -0                +/- 8.12e-11
# P''_topo (s/s^2) =  0                 +/- 3.58e-14
# P_bary (ms)      =  N/A
# P'_bary (s/s)    =  N/A
# P''_bary (s/s^2) =  N/A
# P_orb (s)        =  N/A
# asin(i)/c (s)    =  N/A
# eccentricity     =  N/A
# w (rad)          =  N/A
# T_peri           =  N/A
######################################################
   0  350.0354
   1  228.6884
   2  68.48932
   3  90.02389
   4  -75.29134
   5  55.50431
   6  425.0021
   7  543.0357
   8  359.6487
   9  249.8303
  10  191.2379
  11  228.4338
  12  164.6655
  13  175.9303
  14  -86.88058
  15  -328.3232
  16  136.8664
  17  505.7604
  18  337.0725
  19  60.68076
  20  11.45559
  21  607.3112
  22  153.5612
  23  215.9715
  24  333.4939
  25  338.5647
  26  511.7605
  27  269.5793
  28  243.8145
  29  232.1609
  30  237.8311
  31  427.4794
  32  524.4426
  33  532.6119
  34  121.3903
  35  -48.05682
  36  -40.30905
  37  -89.92952
  38  171.6098
  39  304.5674
  40  400.3065
  41  109.6653
  42  -161.6611
  43  -182.881
  44  1.545113
  45  2.813409
  46  195.5751
  47  184.6634
  48  189.3819
  49  351.8783
  50  92.06371
  51  335.4749
  52  134.3603
  53  213.094
  54  348.5927
  55  36.9455
  56  124.9581
  57  95.90566
  58  384.2502
  59  213.1797
  60  143.0152
  61  405.9102
  62  320.081
  63  388.7964
  64  574.7816
  65  189.5843
  66  235.9351
  67  187.1418
  68  248.2887
  69  356.4556
  70  318.8351
  71  644.2764
  72  555.5516
  73  318.8118
  74  352.0262
  75  465.6268
  76  346.7474
  77  358.1341
  78  434.4756
  79  541.7202
  80  360.5129
  81  176.2582
  82  62.39864
  83  106.2427
  84  142.2777
  85  352.1072
  86  326.7264
  87  156.579
  88  292.1403
  89  234.8792
  90  325.9022
  91  259.6002
  92  102.3953
  93  128.8878
  94  131.9652
  95  110.165
  96  180.4461
  97  234.4518
  98  414.0803
  99  375.5199
 100  433.432
 101  243.1251
 102  -63.32402
 103  450.3477
 104  467.8019
 105  278.5903
 106  370.1993
 107  424.3592
 108  385.2341
 109  325.5173
 110  405.6565
 111  132.3803
 112  151.5427
 113  245.0224
 114  337.6487
 115  448.7841
 116  492.4635
 117  157.0141
 118  -36.19863
 119  -151.9857
 120  125.8622
 121  233.6026
 122  175.3221
 123  66.59486
 124  516.2988
 125  561.4308
 126  460.2408
 127  121.6823
 128  141.8877
 129  510.0248
 130  420.4106
 131  433.5115
 132  447.7098
 133  89.72061
 134  481.9059
 135  179.5074
 136  123.9187
 137  -19.2529
 138  165.64
 139  476.1778
 140  532.2153
 141  490.0619
 142  152.0198
 143  -52.29312
 144  59.31981
 145  119.9096
 146  292.4985
 147  648.0978
 148  487.2547
 149  339.1071
 150  424.39
 151  310.0277
 152  500.8939
 153  699.4371
 154  843.4681
 155  603.6345
 156  -27.66556
 157  184.0996
 158  236.2607
 159  42.10691
 160  253.958
 161  223.7814
 162  455.1121
 163  170.2029
 164  -152.6067
 165  158.2804
 166  480.2545
 167  303.2014
 168  257.2985
 169  184.8457
 170  118.5137
 171  99.45522
 172  -119.7912
 173  339.1227
 174  710.9553
 175  490.5621
 176  241.4256
 177  169.8307
 178  178.9611
 179  49.17001
 180  250.3417
 181  437.4066
 182  -149.7346
 183  38.02528
 184  206.6526
 185  477.6663
 186  570.7566
 187  428.1982
 188  128.4648
 189  -68.21905
 190  225.5797
 191  167.3224
 192  86.10271
 193  51.68467
 194  -1.964062
 195  295.7018
 196  288.8228
 197  373.8536
 198  384.1608
 199  260.3704
 200  159.4173
 201  184.7506
 202  70.96803
 203  9.516507
 204  411.6401
 205  217.075
 206  405.3781
 207  264.6941
 208  334.0845
 209  87.6298
 210  214.4568
 211  149.8796
 212  237.535
 213  380.9329
 214  264.5665
 215  394.91
 216  749.563
 217  617.5447
 218  126.1928
 219  482.2986
 220  215.1963
 221  109.2204
 222  29.39687
 223  202.7569
 224  510.0434
 225  502.242
 226  286.0204
 227  110.4574
 228  233.2499
 229  482.9351
 230  277.3893
 231  403.2898
 232  800.4863
 233  526.5743
 234  143.687
 235  118.6511
 236  239.4833
 237  369.9307
 238  377.3953
 239  531.3518
 240  498.2525
 241  278.0775
 242  269.44
 243  468.3241
 244  417.1521
 245  314.6241
 246  256.0391
 247  439.7185
 248  563.4478
 249  605.26
 250  432.1117
 251  285.3171
 252  390.9035
 253  261.1646
 254  244.4328
 255  140.5707
 256  421.6374
 257  423.7753
 258  552.3289
 259  297.317
 260  593.8749
 261  636.5468
 262  5.758179
 263  -10.65264
 264  66.8065
 265  -2.623018
 266  58.45121
 267  330.1273
 268  532.2191
 269  591.7091
 270  537.3837
 271  305.3809
 272  377.9897
 273  269.6568
 274  127.9738
 275  298.3425
 276  431.2135
 277  665.0104
 278  520.6147
 279  528.4828
 280  575.022
 281  434.5546
 282  432.1367
 283  323.0525
 284  353.7241
 285  65.99818
 286  354.7258
 287  -82.75661
 288  78.56624
 289  123.6532
 290  272.071
 291  246.2891
 292  408.6252
 293  602.3882
 294  453.1411
 295  514.6493
 296  183.9832
 297  233.5537
 298  423.1234
 299  408.1642
 300  361.0425
 301  440.1637
 302  119.2851
 303  222.9501
 304  81.32323
 305  182.2172
 306  -41.84475
 307  246.9736
 308  313.2365
 309  38.26083
 310  419.6049
 311  515.3807
 312  413.6996
 313  324.7638
 314  331.094
 315  203.8972
 316  267.6028
 317  499.2127
 318  467.7876
 319  729.9383
 320  922.951
 321  1546.942
 322  1701.811
 323  1826.36
 324  1793.977
 325  1335.604
 326  1039.688
 327  783.2628
 328  764.4517
 329  534.2894
 330  359.4012
 331  615.9979
 332  399.6415
 333  211.5747
 334  217.8105
 335  272.9771
 336  207.0665
 337  266.1773
 338  317.6334
 339  149.4723
 340  317.9729
 341  515.2236
 342  538.7758
 343  277.9738
 344  -120.897
 345  -171.617
 346  342.8077
 347  351.6519
 348  153.4448
 349  -104.8072
 350  -69.39948
 351  128.6778
 352  423.9365
 353  573.7048
 354  566.1119
 355  394.1628
 356  337.7273
 357  410.4584
 358  469.0527
 359  475.2279
 360  361.0367
 361  434.1052
 362  162.2424
 363  18.42328
 364  95.72968
 365  328.6273
 366  607.9642
 367  429.7769
 368  491.9568
 369  577.6887
 370  254.2348
 371  170.8715
 372  153.4244
 373  267.092
 374  187.5006
 375  216.7599
 376  8.861556
 377  377.8067
 378  307.4244
 379  540.9521
 380  192.526
 381  -123.2476
 382  143.4061
 383  376.2086
 384  629.207
 385  255.486
 386  319.2763
 387  576.7131
 388  354.218
 389  467.1186
 390  505.586
 391  585.1511
 392  570.1566
 393  24.97366
 394  31.76049
 395  120.6844
 396  269.1656
 397  98.86823
 398  306.2266
 399  585.2487
 400  482.1944
 401  428.8611
 402  473.7202
 403  501.7868
 404  446.4046
 405  499.8141
 406  168.7803
 407  -98.81655
 408  -134.4341
 409  236.1486
 410  441.7129
 411  371.855
 412  517.2422
 413  610.8911
 414  425.3138
 415  286.7397
 416  430.4948
 417  425.1098
 418  249.167
 419  148.6719
 420  257.5487
 421  680.7095
 422  728.7601
 423  535.7701
 424  610.3632
 425  342.0396
 426  144.2758
 427  183.8679
 428  126.6281
 429  153.6834
 430  65.03879
 431  122.0998
 432  395.0118
 433  568.9851
 434  548.7427
 435  257.2282
 436  246.6504
 437  40.45904
 438  228.8598
 439  355.822
 440  538.9427
 441  595.5948
 442  63.25965
 443  469.2809
 444  770.9092
 445  672.8953
 446  405.522
 447  234.2429
 448  399.5178
 449  355.6974
 450  130.069
 451  94.29285
 452  2.645196
 453  -127.0181
 454  230.9108
 455  256.4107
 456  253.5796
 457  228.3876
 458  364.0604
 459  260.7901
 460  -117.8816
 461  -292.5971
 462  -59.74285
 463  135.9404
 464  358.6634
 465  436.5533
 466  349.4456
 467  72.29996
 468  -92.68442
 469  220.3974
 470  233.4593
 471  120.5763
 472  397.3599
 473  505.9847
 474  128.5464
 475  193.9191
 476  347.9639
 477  382.6149
 478  139.3233
 479  95.45065
 480  242.432
 481  414.7028
 482  381.755
 483  200.2243
 484  181.8571
 485  510.0413
 486  549.9995
 487  339.179
 488  97.88338
 489  254.1633
 490  700.2156
 491  393.548
 492  460.6461
 493  713.6168
 494  737.3893
 495  504.6957
 496  66.14001
 497  116.6349
 498  313.5572
 499  418.9297
 500  440.2664
 501  529.6893
 502  -12.53806
 503  76.73126
 504  145.0122
 505  117.8276
 506  147.7309
 507  259.066
 508  250.6387
 509  289.7471
 510  406.137
 511  242.6175
