# Input file       =  1187331128.11481_cleaned.dat
# Candidate        =  PSR_0332+5434
# Telescope        =  AR
# Epoch_topo       =  57986.258647162154
# Epoch_bary       =  N/A
# T_sample         =  0.002
# Data Folded      =  7340032
# Data Avg         =  0.0135680475002288
# Data StdDev      =  1.00013348750351 
# Profile Bins     =  512
# Profile Avg      =  194.551511362877 
# Profile StdDev   =  119.74901924088  
# Reduced chi-sqr  =  1.752
# Prob(Noise)      <  1.93e-23   (~9.9 sigma)
# P_topo (ms)      =  714.464102442754  +/- 0.000248
# P'_topo (s/s)    =  -0                +/- 1.31e-10
# P''_topo (s/s^2) =  0                 +/- 5.78e-14
# P_bary (ms)      =  N/A
# P'_bary (s/s)    =  N/A
# P''_bary (s/s^2) =  N/A
# P_orb (s)        =  N/A
# asin(i)/c (s)    =  N/A
# eccentricity     =  N/A
# w (rad)          =  N/A
# T_peri           =  N/A
######################################################
   0  -5.063166
   1  13.52398
   2  214.508
   3  156.9494
   4  109.9294
   5  188.2334
   6  253.0788
   7  202.843
   8  77.02217
   9  70.96967
  10  51.03937
  11  63.45565
  12  202.1901
  13  118.7265
  14  71.62334
  15  96.17409
  16  98.93679
  17  262.7083
  18  101.8933
  19  60.44042
  20  49.79996
  21  103.9618
  22  151.8591
  23  250.6352
  24  155.2922
  25  25.01826
  26  -1.171893
  27  111.8635
  28  229.063
  29  202.5853
  30  256.7691
  31  29.69925
  32  -28.8516
  33  76.21817
  34  101.2992
  35  103.8517
  36  49.41694
  37  155.7184
  38  87.5582
  39  213.3041
  40  251.4494
  41  246.5138
  42  227.3434
  43  42.69832
  44  205.5488
  45  322.0477
  46  274.9979
  47  211.9692
  48  203.0959
  49  163.7433
  50  245.3945
  51  242.9506
  52  323.8094
  53  182.0938
  54  268.848
  55  399.0746
  56  423.8148
  57  326.1117
  58  191.511
  59  188.411
  60  163.9267
  61  197.0466
  62  115.8248
  63  64.26212
  64  77.88593
  65  258.8205
  66  313.616
  67  222.8437
  68  242.4601
  69  147.112
  70  214.0726
  71  54.27395
  72  -0.1989455
  73  89.13644
  74  366.3438
  75  277.2096
  76  125.6445
  77  24.56857
  78  125.1448
  79  200.2756
  80  159.4393
  81  144.5584
  82  251.4016
  83  203.5225
  84  0.05298646
  85  -64.48982
  86  77.73218
  87  62.70977
  88  112.4399
  89  81.21946
  90  96.84151
  91  171.0472
  92  38.21447
  93  73.08566
  94  157.3267
  95  205.7474
  96  185.5726
  97  268.5339
  98  236.1041
  99  283.3755
 100  260.2505
 101  209.0642
 102  86.33958
 103  64.32072
 104  56.47073
 105  216.2869
 106  163.4523
 107  66.72788
 108  105.135
 109  110.4166
 110  130.4546
 111  183.8464
 112  286.084
 113  367.9861
 114  334.0851
 115  279.2809
 116  299.273
 117  216.6383
 118  110.521
 119  234.9751
 120  195.1623
 121  97.20082
 122  131.6326
 123  181.0824
 124  174.0622
 125  102.387
 126  137.5304
 127  233.9245
 128  333.4542
 129  273.1345
 130  150.0233
 131  27.1419
 132  103.0192
 133  178.2152
 134  107.5137
 135  -12.86589
 136  87.69005
 137  191.7294
 138  130.912
 139  129.6995
 140  239.8241
 141  208.6014
 142  86.74155
 143  67.92204
 144  122.1248
 145  107.0617
 146  34.81598
 147  137.9764
 148  171.4413
 149  229.6446
 150  2.242603
 151  -61.48063
 152  107.5116
 153  101.1235
 154  139.6056
 155  194.0059
 156  237.6389
 157  123.7115
 158  76.65173
 159  25.32328
 160  13.23137
 161  -60.74562
 162  -38.68832
 163  125.3444
 164  171.1769
 165  194.7701
 166  202.6949
 167  210.8498
 168  213.3261
 169  169.2037
 170  194.7621
 171  298.9874
 172  255.9492
 173  268.7929
 174  291.1868
 175  127.7663
 176  -4.843097
 177  169.7984
 178  82.63284
 179  150.7083
 180  179.2433
 181  219.2262
 182  96.35656
 183  179.8823
 184  252.6055
 185  298.8394
 186  393.9399
 187  302.2483
 188  216.7802
 189  190.2852
 190  324.7826
 191  251.7425
 192  262.6802
 193  238.1782
 194  171.4629
 195  207.3907
 196  298.6392
 197  255.1853
 198  286.0759
 199  197.4697
 200  26.39112
 201  293.5245
 202  306.6946
 203  89.35007
 204  146.2364
 205  180.434
 206  232.9565
 207  284.6148
 208  254.1733
 209  209.0874
 210  168.4586
 211  232.3531
 212  131.837
 213  153.4946
 214  159.0748
 215  309.4363
 216  368.0935
 217  231.3483
 218  262.5155
 219  322.7462
 220  205.9343
 221  208.3425
 222  177.9206
 223  390.1774
 224  421.8434
 225  251.1989
 226  275.1841
 227  153.0629
 228  188.5198
 229  149.4903
 230  292.6353
 231  175.7484
 232  102.5517
 233  269.8834
 234  269.716
 235  224.3923
 236  180.0326
 237  146.2912
 238  234.3519
 239  366.211
 240  257.1095
 241  147.2142
 242  112.7112
 243  167.6577
 244  266.9378
 245  301.1442
 246  292.7357
 247  152.6674
 248  173.8235
 249  349.2447
 250  128.5748
 251  187.3872
 252  224.9772
 253  246.0398
 254  267.3232
 255  181.4019
 256  256.8929
 257  196.3099
 258  351.8278
 259  100.5529
 260  91.12046
 261  240.3565
 262  236.7292
 263  273.4847
 264  279.8109
 265  296.973
 266  292.8666
 267  387.992
 268  337.9973
 269  414.2609
 270  427.2905
 271  358.0368
 272  461.0568
 273  430.1092
 274  406.951
 275  440.2108
 276  471.645
 277  372.5394
 278  360.6584
 279  292.0916
 280  135.9423
 281  228.6812
 282  143.2521
 283  211.073
 284  278.2465
 285  185.7748
 286  189.7286
 287  106.2122
 288  148.5636
 289  119.4058
 290  208.3733
 291  281.764
 292  227.5613
 293  337.2893
 294  431.6164
 295  329.993
 296  192.6656
 297  132.3679
 298  234.2689
 299  213.3975
 300  142.8561
 301  26.56068
 302  132.5611
 303  212.7536
 304  268.8105
 305  198.9041
 306  4.45611
 307  33.50544
 308  183.6311
 309  203.0086
 310  124.5174
 311  117.4962
 312  181.6809
 313  207.9845
 314  82.19356
 315  20.02156
 316  10.11971
 317  166.3362
 318  250.6139
 319  188.4818
 320  105.9247
 321  179.1891
 322  232.9156
 323  102.1501
 324  82.55505
 325  -0.2901856
 326  119.4256
 327  159.4257
 328  205.6323
 329  140.7733
 330  222.7216
 331  273.4555
 332  226.7184
 333  184.981
 334  160.3728
 335  136.3727
 336  195.4862
 337  171.2585
 338  239.4712
 339  290.7751
 340  311.4716
 341  141.4371
 342  62.48963
 343  184.5383
 344  265.7697
 345  159.0197
 346  55.67311
 347  36.77816
 348  182.1415
 349  173.8311
 350  223.5241
 351  317.2395
 352  154.8708
 353  80.11399
 354  90.8019
 355  104.5839
 356  147.3754
 357  208.7626
 358  380.0202
 359  264.5555
 360  86.97424
 361  143.3487
 362  74.34236
 363  163.0305
 364  317.7484
 365  146.778
 366  167.4134
 367  97.71587
 368  72.85656
 369  118.6842
 370  133.7026
 371  158.5313
 372  71.62124
 373  85.75426
 374  100.699
 375  88.07932
 376  201.5068
 377  187.8658
 378  44.67785
 379  116.5822
 380  240.5353
 381  214.2503
 382  115.4764
 383  26.36164
 384  56.659
 385  186.9841
 386  155.7205
 387  91.66785
 388  60.17798
 389  213.9323
 390  210.8034
 391  174.524
 392  257.7948
 393  135.8955
 394  137.678
 395  106.2937
 396  190.7483
 397  208.4335
 398  220.8885
 399  282.8084
 400  244.4255
 401  162.6281
 402  155.1395
 403  282.4134
 404  132.4681
 405  204.8128
 406  222.1839
 407  28.90784
 408  72.79897
 409  134.4035
 410  103.5287
 411  138.2162
 412  172.6208
 413  175.681
 414  207.4486
 415  169.7481
 416  103.9514
 417  17.22095
 418  92.80681
 419  289.0611
 420  169.8404
 421  49.50569
 422  199.6694
 423  267.3236
 424  132.9192
 425  101.448
 426  159.6726
 427  141.8403
 428  79.6521
 429  73.14703
 430  264.4166
 431  332.4674
 432  323.8195
 433  168.5899
 434  261.8888
 435  246.7266
 436  175.5064
 437  85.10236
 438  76.59946
 439  140.8198
 440  162.6933
 441  180.4384
 442  222.2671
 443  105.672
 444  83.4938
 445  263.9642
 446  135.6476
 447  129.111
 448  250.1258
 449  384.1129
 450  266.8168
 451  197.9421
 452  255.6266
 453  281.4081
 454  290.1722
 455  215.3329
 456  321.0075
 457  305.7209
 458  279.2118
 459  279.5371
 460  96.5071
 461  196.0528
 462  314.1125
 463  347.3147
 464  414.4083
 465  471.4735
 466  494.6735
 467  770.5501
 468  918.9407
 469  789.4219
 470  783.5989
 471  650.0636
 472  486.6371
 473  315.4083
 474  125.8952
 475  165.6496
 476  256.2675
 477  190.1922
 478  217.9337
 479  315.9088
 480  372.7314
 481  279.5932
 482  341.0021
 483  409.8987
 484  392.921
 485  336.3922
 486  205.6918
 487  296.1872
 488  145.6547
 489  101.7414
 490  91.62793
 491  160.518
 492  174.1904
 493  211.8493
 494  229.3262
 495  216.3048
 496  243.6752
 497  208.051
 498  200.0531
 499  209.1812
 500  184.6708
 501  195.2663
 502  203.6002
 503  248.2149
 504  178.5164
 505  261.1
 506  256.8674
 507  295.9458
 508  164.59
 509  124.7682
 510  179.3195
 511  138.7701
