# Input file       =  1187473945.116488-PSRB0329-2ms-sampling-dd.dat
# Candidate        =  PSR_0332+5434
# Telescope        =  AR
# Epoch_topo       =  57987.911621718609
# Epoch_bary       =  N/A
# T_sample         =  0.002
# Data Folded      =  7471104
# Data Avg         =  8.50163134666262e-10
# Data StdDev      =  25.7873238702342 
# Profile Bins     =  512
# Profile Avg      =  0.527382608984861
# Profile StdDev   =  3115.04041198358 
# Reduced chi-sqr  =  1.396
# Prob(Noise)      <  7.29e-09   (~5.7 sigma)
# P_topo (ms)      =  714.463576539841  +/- 0.000592
# P'_topo (s/s)    =  -0                +/- 3.07e-10
# P''_topo (s/s^2) =  0                 +/- 1.33e-13
# P_bary (ms)      =  N/A
# P'_bary (s/s)    =  N/A
# P''_bary (s/s^2) =  N/A
# P_orb (s)        =  N/A
# asin(i)/c (s)    =  N/A
# eccentricity     =  N/A
# w (rad)          =  N/A
# T_peri           =  N/A
######################################################
   0  982.0798
   1  554.0273
   2  1327.515
   3  1860.567
   4  1479.52
   5  1415.967
   6  1638.48
   7  1755.286
   8  2402.703
   9  2517.717
  10  1726.057
  11  1292.373
  12  375.3647
  13  185.1024
  14  912.3596
  15  1351.713
  16  5300.673
  17  15851.51
  18  16885.41
  19  18020.57
  20  19798.15
  21  2829.897
  22  3825.081
  23  6789.933
  24  22729.39
  25  24395.7
  26  23272.36
  27  16985.79
  28  3426.164
  29  750.3893
  30  1908.365
  31  251.6272
  32  749.3864
  33  1617.529
  34  653.1333
  35  702.3398
  36  1088.57
  37  434.4391
  38  729.8177
  39  717.0614
  40  444.1106
  41  524.7607
  42  540.1398
  43  483.6709
  44  335.5867
  45  470.7383
  46  454.2605
  47  681.4078
  48  1400.499
  49  1009.647
  50  894.943
  51  151.4751
  52  1132.535
  53  1650.098
  54  1706.241
  55  1943.011
  56  1350.202
  57  1000.133
  58  1056.086
  59  836.7158
  60  649.2762
  61  817.2452
  62  753.5285
  63  218.6134
  64  27.32799
  65  331.4368
  66  383.492
  67  28.83259
  68  211.4529
  69  213.3643
  70  80.23279
  71  218.2778
  72  59.51914
  73  162.8355
  74  350.3152
  75  471.6455
  76  143.4358
  77  78.18386
  78  107.5866
  79  -21.66677
  80  -132.1178
  81  -393.8394
  82  -528.0439
  83  -137.7145
  84  -3.442284
  85  -258.3669
  86  -504.7445
  87  -583.0972
  88  -807.8448
  89  -708.3698
  90  -445.4104
  91  -400.8111
  92  -674.2294
  93  -837.4907
  94  -754.7045
  95  -533.8265
  96  31.94979
  97  274.2651
  98  340.7031
  99  -34.38298
 100  -589.1588
 101  -727.4445
 102  -291.2504
 103  -128.7272
 104  -388.1429
 105  -474.8524
 106  -496.8961
 107  -692.0078
 108  -889.4497
 109  -748.2392
 110  -507.5839
 111  -622.1642
 112  -879.1776
 113  -534.788
 114  -560.1433
 115  -615.4341
 116  -688.0922
 117  -898.4028
 118  -435.8804
 119  -465.54
 120  -1074.462
 121  -1160.354
 122  -1165.766
 123  -603.9184
 124  -721.4166
 125  -958.0825
 126  -1058.655
 127  -1269.795
 128  -1058.177
 129  -951.8693
 130  -878.5071
 131  -848.2211
 132  -836.1019
 133  -669.1743
 134  -748.1097
 135  -1337.562
 136  -1220.45
 137  -693.8807
 138  -941.6534
 139  -1066.627
 140  -835.2181
 141  -871.9192
 142  -960.1924
 143  -882.7783
 144  -970.9127
 145  -896.7808
 146  -1013.034
 147  -1054.689
 148  -997.5934
 149  -945.1503
 150  -627.3552
 151  -621.9749
 152  -708.7017
 153  -977.6072
 154  -788.9143
 155  -666.1384
 156  -815.927
 157  -723.7959
 158  -336.1342
 159  -462.3592
 160  -785.7095
 161  -725.2966
 162  -116.086
 163  -60.15563
 164  73.2612
 165  343.1991
 166  277.4963
 167  -42.42277
 168  54.68285
 169  151.2207
 170  367.2608
 171  770.1049
 172  815.024
 173  467.4782
 174  -79.25308
 175  -471.1826
 176  55.06897
 177  -54.36972
 178  -180.2281
 179  -486.4949
 180  -476.5504
 181  -755.4271
 182  -955.8667
 183  -1003.256
 184  -1073.418
 185  -1100.412
 186  -1156.395
 187  -1068.974
 188  -1073.128
 189  -974.2654
 190  -1006.164
 191  -664.0461
 192  -687.2318
 193  -635.0932
 194  -650.298
 195  -609.9266
 196  -970.3699
 197  -1030.522
 198  -956.2071
 199  -1152.842
 200  -1126.918
 201  -618.7968
 202  -468.1851
 203  -746.7654
 204  -704.7322
 205  -234.9706
 206  41.8187
 207  -317.5862
 208  -715.6481
 209  -679.2383
 210  -495.185
 211  -394.335
 212  -254.3098
 213  -202.7807
 214  -442.9096
 215  -242.7934
 216  103.7002
 217  272.9895
 218  371.0371
 219  289.0676
 220  356.3832
 221  152.2565
 222  -187.9752
 223  -432.0193
 224  -175.4549
 225  264.1781
 226  75.0282
 227  -612.1156
 228  -575.5035
 229  -741.9042
 230  -755.6476
 231  -587.43
 232  -816.9036
 233  -766.6765
 234  -993.9007
 235  -611.9651
 236  -866.0126
 237  -659.8476
 238  -849.3816
 239  -1274.662
 240  -1167.219
 241  -1015.827
 242  -1277.726
 243  -1451.011
 244  -1588.123
 245  -1542.525
 246  -1149.343
 247  -1098.166
 248  -1462.41
 249  -1286.623
 250  -1195.5
 251  -1235.366
 252  -1203.327
 253  -1021.548
 254  -998.2131
 255  -1271.39
 256  -1116.249
 257  -937.7945
 258  -944.8717
 259  -1333.042
 260  -1079.51
 261  -793.202
 262  -760.3292
 263  -730.4103
 264  -448.1153
 265  -404.9922
 266  -621.7895
 267  -363.6311
 268  178.5906
 269  501.6312
 270  554.4207
 271  572.7179
 272  567.2633
 273  -123.5408
 274  320.9926
 275  1392.043
 276  2351.148
 277  2095.993
 278  1656.207
 279  906.199
 280  358.7606
 281  45.19695
 282  1680.19
 283  2123.922
 284  2400.44
 285  1374.921
 286  -152.4229
 287  -621.3149
 288  -770.3337
 289  -628.6397
 290  -545.3867
 291  -555.4808
 292  -786.565
 293  -1020.229
 294  -667.8956
 295  -512.5427
 296  -364.2285
 297  -217.3987
 298  -85.5517
 299  -586.5037
 300  -735.8729
 301  -299.3357
 302  -152.2836
 303  -151.7511
 304  -359.5293
 305  -668.1879
 306  -398.301
 307  -82.7407
 308  214.5745
 309  184.6561
 310  225.0786
 311  369.7965
 312  -335.8146
 313  -135.7416
 314  83.93967
 315  648.6845
 316  1022.249
 317  886.9441
 318  776.488
 319  58.87541
 320  -328.7615
 321  -350.842
 322  -146.4917
 323  -2.48493
 324  168.6474
 325  -313.5906
 326  -393.0926
 327  -616.9979
 328  -696.428
 329  -915.17
 330  -693.1586
 331  -327.572
 332  -377.0135
 333  -400.162
 334  -452.1075
 335  -262.8766
 336  -757.0096
 337  -1033.395
 338  -899.8636
 339  -800.7028
 340  -725.0391
 341  -836.5961
 342  -783.0344
 343  -847.0682
 344  -445.0639
 345  -412.3814
 346  -777.6214
 347  -773.8326
 348  -840.3249
 349  -867.6714
 350  -920.1603
 351  -947.5993
 352  -580.4017
 353  -605.7294
 354  -520.0534
 355  -718.1832
 356  -661.4184
 357  -728.6973
 358  -1070.282
 359  -1085.029
 360  -1098.546
 361  -853.1057
 362  -1093.365
 363  -1188.781
 364  -1159.059
 365  -1192.069
 366  -1327.455
 367  -1418.708
 368  -1242.148
 369  -1276.828
 370  -1385.789
 371  -1444.487
 372  -1637.716
 373  -1568.566
 374  -1607.71
 375  -1354.878
 376  -1562.003
 377  -1679.087
 378  -1315.123
 379  -1290.093
 380  -1389.018
 381  -1653.482
 382  -1688.743
 383  -1052.728
 384  -814.1647
 385  -914.5894
 386  -901.7648
 387  -553.9581
 388  -764.032
 389  -712.7605
 390  -1029.465
 391  -1355.956
 392  -1100.773
 393  -834.185
 394  -951.3251
 395  -1159.247
 396  -1187.814
 397  -1335.728
 398  -1418.748
 399  -1402.744
 400  -1122.344
 401  -1258.911
 402  -1011.913
 403  -1801.14
 404  -1317.49
 405  -903.3385
 406  -1049.451
 407  -949.7974
 408  -1051.926
 409  -967.5317
 410  -890.4289
 411  -808.0593
 412  -853.8987
 413  -1202.172
 414  -1038.723
 415  -912.9895
 416  -1129.447
 417  -1128.207
 418  -1298.13
 419  -1461.326
 420  -1611.814
 421  -1239.588
 422  -1112.262
 423  -559.0323
 424  -549.8102
 425  -618.405
 426  -736.0515
 427  -696.6484
 428  -1023.609
 429  -934.3265
 430  -464.531
 431  -455.1023
 432  -497.1827
 433  -348.4376
 434  -297.1186
 435  -564.5519
 436  -953.6926
 437  -809.6177
 438  -936.1818
 439  -1058.988
 440  -780.7573
 441  -673.3574
 442  -412.056
 443  -676.6346
 444  -870.5336
 445  -787.4513
 446  -921.3542
 447  -1128.784
 448  -1172.928
 449  -803.5006
 450  -738.4207
 451  -708.0099
 452  -961.9653
 453  -753.8024
 454  -629.1359
 455  -945.865
 456  -647.9218
 457  -604.8865
 458  -464.7372
 459  -432.4364
 460  -611.9451
 461  -669.0404
 462  -731.0431
 463  -538.5538
 464  -593.9999
 465  -558.9009
 466  -324.6022
 467  -130.4996
 468  68.51866
 469  405.3436
 470  -429.2569
 471  -463.7164
 472  -574.9029
 473  -176.2857
 474  8.446916
 475  4.357687
 476  186.1614
 477  -248.585
 478  -292.6849
 479  -508.4762
 480  -596.6429
 481  -288.7085
 482  -215.4217
 483  -232.0488
 484  -857.3563
 485  -652.1052
 486  -513.7493
 487  -202.4617
 488  -301.5055
 489  -146.9733
 490  -29.1201
 491  -322.2947
 492  -198.8994
 493  101.3441
 494  375.7274
 495  178.3538
 496  92.6435
 497  268.7078
 498  255.8733
 499  298.5401
 500  400.9307
 501  435.4573
 502  446.4824
 503  474.3064
 504  154.534
 505  231.6316
 506  287.663
 507  5.800777
 508  861.0704
 509  1149.372
 510  982.1389
 511  867.4602
