# Input file       =  1187129238.101036_cleaned.dat
# Candidate        =  PSR_0332+5434
# Telescope        =  AR
# Epoch_topo       =  57983.921957187915
# Epoch_bary       =  N/A
# T_sample         =  0.002
# Data Folded      =  7208960
# Data Avg         =  0.274160013113975
# Data StdDev      =  5.94389177366789 
# Profile Bins     =  512
# Profile Avg      =  3860.18876339862 
# Profile StdDev   =  705.297298869379 
# Reduced chi-sqr  =  0.498
# Prob(Noise)      <  1   (~0.0 sigma)
# P_topo (ms)      =  714.464088155611  +/- 0.000111
# P'_topo (s/s)    =  -0                +/- 5.97e-11
# P''_topo (s/s^2) =  0                 +/- 2.68e-14
# P_bary (ms)      =  N/A
# P'_bary (s/s)    =  N/A
# P''_bary (s/s^2) =  N/A
# P_orb (s)        =  N/A
# asin(i)/c (s)    =  N/A
# eccentricity     =  N/A
# w (rad)          =  N/A
# T_peri           =  N/A
######################################################
   0  3632.455
   1  3910.424
   2  4299.001
   3  4207.705
   4  4294.508
   5  3736.725
   6  3879.051
   7  3085.238
   8  3587.051
   9  3941.14
  10  3915.718
  11  3955.989
  12  3642.339
  13  4255.541
  14  4115.112
  15  3720.453
  16  3696.735
  17  3844.009
  18  4202.239
  19  3990.423
  20  4006.923
  21  3548.87
  22  3376.679
  23  3725.134
  24  3949.389
  25  3802.225
  26  3747.112
  27  3679.478
  28  3971.783
  29  3433.507
  30  3244.37
  31  3547.669
  32  4008.081
  33  4207.816
  34  3895.655
  35  4239.348
  36  3967.181
  37  3667.25
  38  3790.855
  39  3908.84
  40  3911.19
  41  3618.196
  42  3876.56
  43  4292.212
  44  4339.884
  45  3874.276
  46  3969.002
  47  3488.816
  48  3800.144
  49  4107.69
  50  3926.749
  51  3799.542
  52  3925.001
  53  3716.936
  54  3437.251
  55  3162.857
  56  3659.816
  57  4267.692
  58  3827.636
  59  3630.536
  60  3760.878
  61  3721.995
  62  3745.139
  63  3699.719
  64  4445.651
  65  4413.414
  66  4206.314
  67  3917.192
  68  4237.597
  69  3737.389
  70  3542.443
  71  3271.929
  72  3191.293
  73  3834.182
  74  3671.638
  75  4101.325
  76  4196.704
  77  3797.31
  78  3574.241
  79  3499.093
  80  3760.02
  81  3626.967
  82  3766.039
  83  4251.473
  84  4209.456
  85  3998.507
  86  4119.653
  87  3507.449
  88  3729.466
  89  3760.668
  90  4128.041
  91  3693.201
  92  3571.909
  93  3811.145
  94  3835.841
  95  3940.484
  96  3223.238
  97  3538.651
  98  4119.555
  99  3817.951
 100  4016.631
 101  4035.543
 102  3859.835
 103  3407.468
 104  3665.368
 105  3728.846
 106  3777.151
 107  3843.274
 108  3590.699
 109  4299.379
 110  4632.965
 111  4089.24
 112  4212.073
 113  3851.282
 114  3350.225
 115  3524.045
 116  3557.666
 117  3947.27
 118  4100.23
 119  4121.301
 120  3890.552
 121  3338.864
 122  3241.328
 123  3171.126
 124  3607.564
 125  3511.585
 126  3723.792
 127  4077.967
 128  3877.442
 129  3819.43
 130  3576.081
 131  4094.497
 132  3854.204
 133  4064.437
 134  4150.797
 135  3908.531
 136  3666.034
 137  3141.561
 138  3251.621
 139  3736.428
 140  4091.501
 141  3277.153
 142  3507.454
 143  3910.738
 144  3437.105
 145  3718.41
 146  3969.57
 147  3861.924
 148  4217.57
 149  3802.89
 150  3969.687
 151  3899.26
 152  3550.103
 153  3560.488
 154  3544.614
 155  3591.839
 156  3420.234
 157  3809.048
 158  3899.75
 159  3584.076
 160  4005.971
 161  4023.168
 162  3863.351
 163  3738.581
 164  4102.984
 165  3751.807
 166  3588.526
 167  4005.707
 168  3660.645
 169  3655.953
 170  3922.339
 171  3856.311
 172  3932.666
 173  3653.018
 174  3774.665
 175  4099.508
 176  3906.414
 177  3535.375
 178  3442.12
 179  3326.218
 180  2950.135
 181  3074.055
 182  4310.308
 183  4208.355
 184  4386.43
 185  3819.389
 186  3280.403
 187  3284.967
 188  3270.631
 189  3335.315
 190  3361.203
 191  3832.478
 192  3750.027
 193  3876.049
 194  4187.639
 195  3656.585
 196  3481.277
 197  3446.963
 198  3460.512
 199  3447.279
 200  3747.475
 201  3616.473
 202  3452.366
 203  3496.087
 204  4137.924
 205  3912.455
 206  3687.826
 207  3527.75
 208  3769.134
 209  3966.887
 210  3478.166
 211  3525.35
 212  3610.735
 213  3810.55
 214  3592.42
 215  3866.804
 216  3881.547
 217  4116.396
 218  4093.451
 219  3609.514
 220  3558.708
 221  3362.329
 222  3791.201
 223  3606.586
 224  3864.892
 225  3769.545
 226  3975.938
 227  4115.318
 228  3639.042
 229  3720.415
 230  3984.93
 231  3893.317
 232  3530.26
 233  3617.601
 234  4012.313
 235  3770.54
 236  3723.949
 237  4094.019
 238  4314.999
 239  4197.806
 240  3683.125
 241  3537.79
 242  4283.993
 243  3786.305
 244  3770.124
 245  3804.43
 246  3848.32
 247  3829.457
 248  3994.703
 249  4086.363
 250  3766.15
 251  3854.201
 252  3411.244
 253  3086.078
 254  3174.981
 255  4035.495
 256  4132.421
 257  4394.783
 258  4165.418
 259  3756.244
 260  3548.277
 261  3346.728
 262  3105.735
 263  3253.965
 264  3716.434
 265  3660.299
 266  4375.845
 267  4189.016
 268  3483.819
 269  3179.371
 270  3175.267
 271  3621.539
 272  3446.847
 273  3290.956
 274  3920.194
 275  4367.064
 276  3792.469
 277  3476.403
 278  3732.692
 279  3891.261
 280  4137.777
 281  4094.668
 282  4287.095
 283  4245.442
 284  4165.489
 285  3675.266
 286  3270.856
 287  3623.017
 288  3639.839
 289  4219.392
 290  4445.158
 291  3824.975
 292  3442.525
 293  3718.442
 294  3929.34
 295  3681.307
 296  3829.533
 297  3969.196
 298  3456.588
 299  4076.088
 300  4785.233
 301  4093.843
 302  4242.66
 303  4112.307
 304  4222.101
 305  3838.089
 306  3896.721
 307  3852.103
 308  3747.141
 309  3591.894
 310  3759.434
 311  4134.118
 312  4167.318
 313  4108.035
 314  4105.832
 315  3918.245
 316  4371.245
 317  4100.07
 318  3717.695
 319  3860.402
 320  4635.063
 321  5599.102
 322  5718.94
 323  5540.771
 324  5860.056
 325  5127.834
 326  4345.215
 327  3693.638
 328  3873.944
 329  4036.276
 330  3850.796
 331  3989.232
 332  3931.024
 333  4637.775
 334  3923.446
 335  3637.689
 336  3273.036
 337  3324.657
 338  4178.933
 339  3934.784
 340  4199.789
 341  4516.663
 342  4229.734
 343  3835.225
 344  3973.607
 345  4448.154
 346  3949.72
 347  4021.873
 348  4131.584
 349  4087.868
 350  3919.65
 351  3719.028
 352  3847.042
 353  4112.127
 354  3605.735
 355  3487.382
 356  4014.175
 357  4087.056
 358  3973.219
 359  3388.058
 360  3508.31
 361  3269.22
 362  3663.651
 363  3580.798
 364  3952.218
 365  3445.543
 366  3746.953
 367  3727.868
 368  3670.586
 369  4026.278
 370  3786.697
 371  3775.459
 372  3495.713
 373  3663.629
 374  4112.434
 375  4324.053
 376  4468.831
 377  4093.522
 378  4326.622
 379  4382.321
 380  4430.946
 381  4429.681
 382  3958.976
 383  3777.616
 384  4089.8
 385  4118.357
 386  4526.618
 387  4413.556
 388  4057.846
 389  4015.106
 390  3987.152
 391  4127.957
 392  3672.118
 393  3987.6
 394  3920.292
 395  4675.542
 396  4521.658
 397  4096.083
 398  4482.711
 399  3751.83
 400  3980.817
 401  3435.671
 402  3363.68
 403  3618.744
 404  4100.768
 405  4449.7
 406  4385.822
 407  4217.538
 408  4290.737
 409  3429.066
 410  3425.11
 411  3929.86
 412  4038.189
 413  3849.426
 414  3932.228
 415  4011.766
 416  3782.432
 417  3605.604
 418  3524.35
 419  3781.788
 420  4000.017
 421  3578.002
 422  4131.851
 423  4129.165
 424  4051.953
 425  3817.245
 426  3648.686
 427  3800.903
 428  3369.959
 429  4037.156
 430  3589.074
 431  3769.373
 432  3876.131
 433  3636.489
 434  3912.047
 435  3242.121
 436  3719.725
 437  3625.928
 438  3839.926
 439  3722.672
 440  4125.418
 441  4115.143
 442  3626.717
 443  3894.332
 444  4038.765
 445  3661.337
 446  3213.658
 447  3424.103
 448  4188.67
 449  3827.311
 450  3745.214
 451  4106.758
 452  4067.124
 453  4207.007
 454  3556.305
 455  3692.052
 456  4331.361
 457  3905.316
 458  4346.062
 459  4195.486
 460  4363.242
 461  3987.967
 462  3877.644
 463  3693.41
 464  3793.897
 465  3470.633
 466  3374.402
 467  3802.5
 468  4092.7
 469  4046.874
 470  4580.135
 471  4507.225
 472  3967.05
 473  3981.79
 474  4012.683
 475  3278.297
 476  3341.749
 477  4178.874
 478  4284.336
 479  3434.464
 480  3689.358
 481  3756.66
 482  4174.066
 483  4092.765
 484  3941.165
 485  3917.733
 486  3430.628
 487  3957.664
 488  3887.068
 489  4313.527
 490  4080.093
 491  3825.595
 492  4139.036
 493  4079.197
 494  4074.441
 495  3669.004
 496  3778.285
 497  3791.348
 498  4001.43
 499  3677.886
 500  3571.709
 501  3850.056
 502  4274.931
 503  4426.391
 504  4272.313
 505  3881.958
 506  4117.366
 507  3851.087
 508  3394.231
 509  3536.144
 510  3471.246
 511  3564.955
