# Input file       =  1187934207.111591_cleaned.dat
# Candidate        =  PSR_0332+5434
# Telescope        =  AR
# Epoch_topo       =  57993.238728143413
# Epoch_bary       =  N/A
# T_sample         =  0.002
# Data Folded      =  7340032
# Data Avg         =  0.0116807796711296
# Data StdDev      =  1.00004382047578 
# Profile Bins     =  512
# Profile Avg      =  167.402448062722 
# Profile StdDev   =  119.738283135386 
# Reduced chi-sqr  =  1.275
# Prob(Noise)      <  2.4e-05   (~4.1 sigma)
# P_topo (ms)      =  714.463677988724  +/- 0.000158
# P'_topo (s/s)    =  -0                +/- 8.35e-11
# P''_topo (s/s^2) =  0                 +/- 3.69e-14
# P_bary (ms)      =  N/A
# P'_bary (s/s)    =  N/A
# P''_bary (s/s^2) =  N/A
# P_orb (s)        =  N/A
# asin(i)/c (s)    =  N/A
# eccentricity     =  N/A
# w (rad)          =  N/A
# T_peri           =  N/A
######################################################
   0  194.6966
   1  134.9415
   2  148.0895
   3  187.8129
   4  275.7024
   5  94.25244
   6  119.8639
   7  181.9037
   8  116.8286
   9  141.1039
  10  202.0804
  11  248.4028
  12  340.7668
  13  239.8115
  14  261.7904
  15  213.495
  16  24.13196
  17  78.54346
  18  223.7388
  19  179.8939
  20  280.5839
  21  241.9544
  22  268.9417
  23  105.0967
  24  232.3726
  25  232.8383
  26  216.0177
  27  180.2642
  28  255.2393
  29  257.575
  30  190.3434
  31  91.86975
  32  149.3285
  33  129.1202
  34  176.2186
  35  200.7952
  36  149.7933
  37  74.6815
  38  147.0093
  39  221.1732
  40  189.8935
  41  195.5314
  42  255.6397
  43  148.3287
  44  58.26276
  45  157.8872
  46  112.3195
  47  211.7334
  48  117.5754
  49  266.1909
  50  176.6402
  51  241.2218
  52  109.952
  53  74.05116
  54  96.76425
  55  62.08807
  56  151.4253
  57  235.7401
  58  65.22794
  59  204.7022
  60  354.1046
  61  372.7357
  62  284.8167
  63  304.0695
  64  160.9695
  65  114.3085
  66  171.1806
  67  146.5146
  68  99.13353
  69  238.9188
  70  256.3898
  71  172.1149
  72  111.5139
  73  240.6957
  74  154.1977
  75  152.542
  76  282.9807
  77  316.2777
  78  276.0437
  79  208.7737
  80  -49.44251
  81  11.89866
  82  299.9905
  83  182.7778
  84  151.7254
  85  107.3312
  86  127.5882
  87  132.8779
  88  151.6566
  89  215.6711
  90  171.2729
  91  123.502
  92  215.3656
  93  146.7773
  94  132.3166
  95  89.16125
  96  108.4069
  97  142.1489
  98  123.9029
  99  35.29027
 100  53.73227
 101  100.2472
 102  229.7562
 103  178.2907
 104  92.49861
 105  143.0498
 106  163.2586
 107  75.31678
 108  93.14909
 109  142.6012
 110  128.0376
 111  143.0177
 112  123.5046
 113  201.2592
 114  172.1513
 115  248.6152
 116  178.2993
 117  157.179
 118  223.1922
 119  195.9951
 120  156.0961
 121  176.9976
 122  -7.67503
 123  26.61137
 124  86.66917
 125  181.6794
 126  196.3198
 127  161.8174
 128  266.6393
 129  235.2442
 130  120.7028
 131  117.2698
 132  115.7137
 133  49.91205
 134  117.9265
 135  142.2951
 136  58.36406
 137  101.1964
 138  146.2064
 139  173.1298
 140  102.3089
 141  32.673
 142  177.0613
 143  148.78
 144  47.90784
 145  80.33038
 146  -36.61386
 147  36.27913
 148  53.14317
 149  112.0445
 150  31.60431
 151  93.39706
 152  133.9875
 153  62.35062
 154  70.50523
 155  83.87583
 156  111.689
 157  187.5534
 158  140.4116
 159  221.1925
 160  76.3334
 161  59.14314
 162  119.6456
 163  119.5238
 164  241.883
 165  131.5605
 166  69.36828
 167  88.28293
 168  201.0562
 169  76.70533
 170  101.6199
 171  187.9804
 172  123.387
 173  129.9934
 174  173.7587
 175  201.0663
 176  200.4464
 177  122.8162
 178  85.42352
 179  32.54224
 180  66.12984
 181  164.3611
 182  60.81059
 183  64.62029
 184  99.36871
 185  135.7675
 186  141.6739
 187  109.2422
 188  128.5709
 189  148.4136
 190  168.9212
 191  228.6095
 192  249.8354
 193  272.839
 194  195.9403
 195  155.7885
 196  220.2888
 197  176.0821
 198  123.583
 199  92.1213
 200  21.48332
 201  -6.268166
 202  26.56481
 203  -17.90398
 204  152.173
 205  137.4336
 206  177.7864
 207  40.12347
 208  113.3047
 209  165.166
 210  262.8502
 211  205.1164
 212  72.49998
 213  132.7709
 214  101.7853
 215  254.7336
 216  340.1347
 217  269.5526
 218  252.852
 219  255.1747
 220  213.3598
 221  202.0495
 222  174.443
 223  299.8894
 224  304.9801
 225  276.6819
 226  217.2472
 227  161.1073
 228  69.87785
 229  50.47253
 230  -2.550653
 231  206.9432
 232  282.7291
 233  240.8201
 234  207.4656
 235  78.37023
 236  256.7335
 237  192.4464
 238  153.0936
 239  242.5463
 240  306.9728
 241  311.7966
 242  112.7294
 243  93.71557
 244  101.7629
 245  89.14812
 246  269.1882
 247  187.5653
 248  115.3647
 249  187.0712
 250  264.2427
 251  269.7075
 252  285.4314
 253  27.24319
 254  99.55827
 255  132.7842
 256  61.66821
 257  126.698
 258  149.1332
 259  200.093
 260  162.4424
 261  160.6207
 262  341.2093
 263  233.6381
 264  143.1069
 265  225.2778
 266  289.9161
 267  112.0884
 268  85.13276
 269  131.7334
 270  141.7973
 271  136.7087
 272  139.2702
 273  30.13773
 274  39.36217
 275  186.2189
 276  246.9041
 277  129.7405
 278  230.3487
 279  213.8532
 280  172.3501
 281  127.253
 282  332.2251
 283  267.7209
 284  198.0974
 285  232.211
 286  216.2164
 287  252.0803
 288  307.1385
 289  58.58104
 290  136.7557
 291  265.3381
 292  279.4333
 293  96.72413
 294  124.9017
 295  153.4543
 296  152.5981
 297  189.6825
 298  109.296
 299  30.6398
 300  87.57542
 301  220.8423
 302  270.0465
 303  88.17661
 304  107.6375
 305  211.6916
 306  180.8455
 307  297.7359
 308  162.3304
 309  -103.581
 310  86.00038
 311  248.4719
 312  226.1931
 313  130.4657
 314  46.0697
 315  143.7746
 316  287.9046
 317  213.0919
 318  158.7003
 319  49.51431
 320  55.94743
 321  183.0119
 322  176.0565
 323  102.9727
 324  149.6991
 325  105.5527
 326  135.151
 327  104.6903
 328  100.6133
 329  154.518
 330  95.36927
 331  96.23611
 332  177.9941
 333  78.95868
 334  1.125624
 335  126.0903
 336  151.804
 337  206.1999
 338  307.7471
 339  164.6959
 340  179.3704
 341  196.5401
 342  87.14661
 343  40.90613
 344  281.3912
 345  163.4261
 346  146.6904
 347  -65.57369
 348  102.5
 349  91.67278
 350  128.2489
 351  40.71861
 352  151.3767
 353  237.4561
 354  198.3357
 355  114.4349
 356  90.75459
 357  111.7457
 358  175.573
 359  156.4519
 360  68.93903
 361  2.313015
 362  184.7089
 363  190.7022
 364  182.6779
 365  209.1135
 366  276.437
 367  122.3071
 368  199.7615
 369  273.1005
 370  265.84
 371  183.8468
 372  199.9179
 373  70.77977
 374  69.43955
 375  65.00349
 376  208.1327
 377  263.0884
 378  236.8621
 379  289.5863
 380  354.2094
 381  353.5937
 382  290.5666
 383  227.2572
 384  256.7072
 385  481.1223
 386  718.1938
 387  784.874
 388  761.2111
 389  632.6292
 390  448.6243
 391  315.6574
 392  169.45
 393  237.9921
 394  273.1173
 395  357.4715
 396  238.2581
 397  195.2328
 398  175.9738
 399  83.14562
 400  37.87022
 401  14.66856
 402  81.99818
 403  94.33194
 404  175.6836
 405  267.558
 406  47.27756
 407  221.1949
 408  271.3157
 409  184.021
 410  192.9454
 411  139.5882
 412  84.615
 413  89.44257
 414  60.72277
 415  136.1909
 416  53.83621
 417  64.02361
 418  52.70693
 419  -16.36992
 420  165.7388
 421  199.3996
 422  132.3445
 423  53.85383
 424  71.71004
 425  100.5361
 426  237.1494
 427  191.7684
 428  173.7195
 429  126.8211
 430  164.8453
 431  252.6435
 432  233.9663
 433  269.0594
 434  161.4115
 435  181.4312
 436  277.8828
 437  287.239
 438  186.4562
 439  211.6069
 440  262.2816
 441  199.8147
 442  123.9833
 443  52.39534
 444  217.7273
 445  103.4294
 446  159.2761
 447  277.7099
 448  144.3268
 449  195.5357
 450  294.0453
 451  175.9589
 452  24.11198
 453  64.03427
 454  143.3582
 455  172.5087
 456  61.3104
 457  12.51812
 458  -12.41766
 459  148.8217
 460  197.1174
 461  66.22186
 462  166.1559
 463  329.1091
 464  212.0947
 465  224.6812
 466  202.0187
 467  200.8236
 468  309.0735
 469  362.8349
 470  267.3753
 471  273.3683
 472  268.0613
 473  271.8232
 474  272.5035
 475  378.7877
 476  255.1935
 477  203.4126
 478  147.9771
 479  225.9719
 480  222.6183
 481  183.1833
 482  41.02888
 483  29.61617
 484  151.5157
 485  83.58035
 486  14.18419
 487  139.4464
 488  162.2757
 489  156.4821
 490  -37.47149
 491  53.22039
 492  6.450622
 493  145.5422
 494  233.8458
 495  118.998
 496  169.856
 497  305.1583
 498  164.8852
 499  249.8187
 500  271.6993
 501  103.0272
 502  78.47394
 503  174.3339
 504  176.3465
 505  88.70718
 506  274.2531
 507  259.3427
 508  197.7492
 509  169.2272
 510  209.7499
 511  248.3198
