# Input file       =  1187746985.105509-PSRB0329-2ms-sampling-dd.dat
# Candidate        =  PSR_0332+5434
# Telescope        =  AR
# Epoch_topo       =  57991.071806776723
# Epoch_bary       =  N/A
# T_sample         =  0.002
# Data Folded      =  7340032
# Data Avg         =  -3.44142236968611e-10
# Data StdDev      =  5.12287664917312 
# Profile Bins     =  512
# Profile Avg      =  0.63414820959872 
# Profile StdDev   =  613.377576189131 
# Reduced chi-sqr  =  1.260
# Prob(Noise)      <  5.64e-05   (~3.9 sigma)
# P_topo (ms)      =  714.463385016569  +/- 0.000462
# P'_topo (s/s)    =  -0                +/- 2.44e-10
# P''_topo (s/s^2) =  0                 +/- 1.08e-13
# P_bary (ms)      =  N/A
# P'_bary (s/s)    =  N/A
# P''_bary (s/s^2) =  N/A
# P_orb (s)        =  N/A
# asin(i)/c (s)    =  N/A
# eccentricity     =  N/A
# w (rad)          =  N/A
# T_peri           =  N/A
######################################################
   0  -412.1447
   1  -341.8229
   2  -105.8385
   3  65.87125
   4  -193.4634
   5  -279.3417
   6  -116.3844
   7  -177.5945
   8  -310.3161
   9  -147.2482
  10  -268.7928
  11  -283.0974
  12  -26.10249
  13  16.40522
  14  33.73237
  15  -29.36763
  16  -179.1786
  17  -127.2789
  18  8.710734
  19  -79.23822
  20  -102.6972
  21  111.5943
  22  80.00544
  23  -117.5987
  24  -99.18004
  25  -276.1835
  26  -299.0304
  27  -133.585
  28  103.4482
  29  295.0592
  30  262.6234
  31  -349.3186
  32  -655.9327
  33  -272.5644
  34  -220.4871
  35  -253.3874
  36  -499.9231
  37  -635.8854
  38  -473.8659
  39  -406.7553
  40  -159.9112
  41  -160.2258
  42  -45.39401
  43  -54.52582
  44  -181.4828
  45  -462.8306
  46  -73.54925
  47  49.91135
  48  -32.30474
  49  148.8941
  50  107.6141
  51  -193.3352
  52  -85.09715
  53  -130.6714
  54  46.25906
  55  371.0031
  56  249.5771
  57  71.77402
  58  -153.1922
  59  -185.8093
  60  -337.6399
  61  -186.0761
  62  -161.0087
  63  41.40253
  64  183.1443
  65  -54.71086
  66  68.81366
  67  64.37947
  68  212.9994
  69  49.27608
  70  -229.445
  71  48.01313
  72  150.2403
  73  69.31615
  74  73.82598
  75  -194.57
  76  -78.87931
  77  327.0154
  78  128.1729
  79  105.3221
  80  45.25043
  81  -226.1391
  82  -54.94739
  83  -11.0115
  84  141.6003
  85  201.8363
  86  1.137574
  87  -248.1277
  88  -285.3093
  89  -350.7214
  90  -163.5031
  91  17.92686
  92  71.00465
  93  -122.1101
  94  -167.5437
  95  -24.25601
  96  186.2609
  97  -24.08725
  98  86.19267
  99  149.19
 100  15.9732
 101  -218.8405
 102  -195.4095
 103  -12.99936
 104  -56.55749
 105  287.4513
 106  153.5765
 107  159.8693
 108  126.3421
 109  63.21014
 110  229.6961
 111  301.414
 112  514.2698
 113  373.4463
 114  414.0399
 115  93.80022
 116  -36.99614
 117  -302.8221
 118  -353.6628
 119  -122.0433
 120  -158.9368
 121  99.06821
 122  135.5264
 123  77.80267
 124  -62.03231
 125  -73.48158
 126  -176.2607
 127  -30.17693
 128  310.4502
 129  365.0301
 130  367.6201
 131  173.2162
 132  -145.748
 133  -105.6466
 134  -386.7069
 135  -91.38168
 136  102.0219
 137  -21.45489
 138  -362.1043
 139  42.76418
 140  22.00748
 141  53.51883
 142  -93.20368
 143  344.5302
 144  714.1494
 145  1097.011
 146  1612.628
 147  1366.71
 148  1387.678
 149  1076.645
 150  883.9909
 151  343.1614
 152  -49.92493
 153  96.35243
 154  362.2249
 155  206.0748
 156  33.86715
 157  15.14673
 158  319.8656
 159  123.3647
 160  -86.52494
 161  -76.65958
 162  45.85313
 163  176.4329
 164  164.6579
 165  184.1906
 166  -34.13678
 167  -375.5923
 168  140.0656
 169  215.8925
 170  164.6911
 171  105.2763
 172  -165.8395
 173  -110.169
 174  -87.87933
 175  -168.2644
 176  -362.1808
 177  -144.8528
 178  80.13776
 179  -27.47123
 180  -232.1355
 181  -270.0596
 182  -293.8442
 183  -192.6815
 184  30.56154
 185  44.30504
 186  -0.6260999
 187  -165.2892
 188  -94.2288
 189  77.29052
 190  51.19188
 191  97.46347
 192  -108.3376
 193  -56.32155
 194  30.97087
 195  -7.3643
 196  -358.4154
 197  -451.577
 198  -237.8561
 199  -599.1898
 200  -250.0491
 201  -102.16
 202  -122.0185
 203  37.28365
 204  227.7594
 205  -194.2203
 206  -389.4861
 207  -174.8585
 208  -11.7018
 209  43.48728
 210  -80.24886
 211  72.15906
 212  -69.15143
 213  26.32914
 214  -175.487
 215  -104.2636
 216  -177.6222
 217  -164.8524
 218  30.31578
 219  -87.3334
 220  -17.65369
 221  80.0387
 222  19.60888
 223  -256.6591
 224  -239.3934
 225  -169.597
 226  -136.213
 227  -183.9559
 228  -177.0802
 229  -112.9751
 230  -129.604
 231  -180.4326
 232  -292.4949
 233  -170.0912
 234  23.599
 235  45.01718
 236  -72.85452
 237  29.04635
 238  -286.3157
 239  44.67961
 240  -13.73099
 241  -165.5631
 242  -42.51297
 243  -79.72777
 244  243.2625
 245  383.4217
 246  306.4327
 247  20.17631
 248  -11.67002
 249  -60.2219
 250  -12.5727
 251  86.67997
 252  -29.22539
 253  225.8979
 254  95.47292
 255  -300.9993
 256  -329.1666
 257  -229.8133
 258  -130.3571
 259  -140.7031
 260  -196.9185
 261  15.76498
 262  349.2054
 263  69.55622
 264  -86.81881
 265  -222.2519
 266  51.05218
 267  98.01471
 268  -118.034
 269  -97.21127
 270  61.90617
 271  3.611398
 272  -28.90088
 273  -185.4366
 274  -450.6068
 275  -500.5083
 276  -272.497
 277  -485.0878
 278  -242.8009
 279  -311.8675
 280  36.07062
 281  -190.0666
 282  -309.1342
 283  -142.4721
 284  69.69514
 285  -7.36584
 286  -23.28709
 287  82.85827
 288  107.6149
 289  117.2627
 290  -31.61208
 291  -123.3149
 292  -114.9718
 293  -90.04777
 294  111.0472
 295  300.0437
 296  330.6566
 297  73.02402
 298  924.0322
 299  1556.775
 300  2438.863
 301  3289.693
 302  2404.532
 303  972.7521
 304  60.46893
 305  2372.913
 306  4570.321
 307  4917.431
 308  3512.564
 309  2567.347
 310  721.4026
 311  510.0314
 312  353.504
 313  368.9331
 314  182.5572
 315  -66.64223
 316  -284.7224
 317  -195.6105
 318  62.73353
 319  222.7209
 320  84.51949
 321  -111.5504
 322  -303.9042
 323  -25.79877
 324  235.9318
 325  -90.24557
 326  -217.6002
 327  24.88574
 328  -70.14664
 329  74.04864
 330  -126.8892
 331  -197.4262
 332  -269.8731
 333  -65.90449
 334  -129.8849
 335  -76.58566
 336  38.18929
 337  -169.9236
 338  -99.18776
 339  89.4137
 340  118.4058
 341  -170.4931
 342  -163.2897
 343  138.0035
 344  0.6412337
 345  -6.994051
 346  -193.3549
 347  -7.550156
 348  38.54752
 349  20.55806
 350  111.1226
 351  -272.1369
 352  -269.2498
 353  -457.8492
 354  -307.2232
 355  -351.4599
 356  -344.2544
 357  -130.0024
 358  88.7979
 359  -169.1728
 360  -129.9754
 361  -161.5512
 362  -78.60564
 363  -22.4448
 364  -27.05672
 365  131.5281
 366  21.93491
 367  -261.2927
 368  -288.0364
 369  -75.30153
 370  -49.22268
 371  -179.6906
 372  -235.6082
 373  -475.8705
 374  -160.0802
 375  -27.29
 376  29.32688
 377  -356.3207
 378  -423.651
 379  -112.1177
 380  -25.17589
 381  -126.6047
 382  -282.1097
 383  80.38511
 384  11.0462
 385  27.03966
 386  -89.45805
 387  -31.62596
 388  -3.220248
 389  -130.6231
 390  -269.9006
 391  -26.77923
 392  -183.4038
 393  -344.8763
 394  -153.256
 395  -93.10036
 396  -197.9888
 397  -69.72709
 398  -57.59153
 399  -49.72119
 400  -40.0759
 401  63.1829
 402  -171.9436
 403  -285.8803
 404  -222.7208
 405  -231.5966
 406  -372.5557
 407  -215.9202
 408  -46.54013
 409  -249.3593
 410  -154.5831
 411  -270.7788
 412  -208.6809
 413  -222.3567
 414  -398.622
 415  -95.31708
 416  -105.8736
 417  62.43615
 418  -52.67248
 419  -444.4158
 420  -304.3839
 421  -468.0727
 422  -164.2204
 423  -273.8518
 424  -198.3101
 425  -179.8328
 426  -272.2984
 427  -420.4925
 428  -347.2256
 429  -501.8598
 430  -441.7679
 431  -242.6603
 432  -50.5817
 433  -103.1141
 434  -87.6601
 435  -296.3109
 436  -191.8087
 437  75.96095
 438  -237.5973
 439  -406.5576
 440  -129.0923
 441  47.67965
 442  -114.4418
 443  -80.35632
 444  -73.03333
 445  -38.85104
 446  -289.4548
 447  -220.8945
 448  88.57864
 449  287.0412
 450  64.86683
 451  120.0299
 452  -67.99474
 453  -240.8075
 454  -142.2472
 455  -220.1359
 456  -406.3572
 457  -170.7051
 458  -219.7301
 459  -183.6528
 460  -203.3528
 461  -279.1418
 462  37.49849
 463  -41.28643
 464  -141.0757
 465  -104.2785
 466  -358.7549
 467  -254.1367
 468  76.94423
 469  98.17056
 470  101.1662
 471  -152.6723
 472  -0.8686813
 473  554.0326
 474  88.87574
 475  -230.8213
 476  -137.4781
 477  -261.2019
 478  -113.8464
 479  -404.7116
 480  -233.0889
 481  207.3402
 482  297.1226
 483  25.80005
 484  34.22073
 485  -5.807907
 486  -291.8183
 487  -256.2476
 488  90.15169
 489  94.4698
 490  -41.43629
 491  30.63064
 492  -34.26133
 493  -291.5023
 494  -231.2887
 495  -17.35707
 496  -36.79548
 497  -264.3609
 498  -359.4711
 499  -199.0211
 500  -160.9778
 501  -134.4511
 502  -8.839686
 503  -66.31077
 504  -455.8339
 505  -473.2661
 506  -214.6635
 507  -81.10554
 508  -214.5878
 509  -218.7491
 510  30.07353
 511  -185.3562
