# Input file       =  1187143878.108323-PSRB0329-2ms-sampling-dd.dat
# Candidate        =  PSR_0332+5434
# Telescope        =  AR
# Epoch_topo       =  57984.091401716702
# Epoch_bary       =  N/A
# T_sample         =  0.002
# Data Folded      =  7340032
# Data Avg         =  7.83202836311232e-10
# Data StdDev      =  4.48809289550283 
# Profile Bins     =  512
# Profile Avg      =  -0.312591251858499
# Profile StdDev   =  537.372989919547 
# Reduced chi-sqr  =  1.241
# Prob(Noise)      <  0.000157   (~3.6 sigma)
# P_topo (ms)      =  714.46407382627   +/- 0.000354
# P'_topo (s/s)    =  -0                +/- 1.87e-10
# P''_topo (s/s^2) =  0                 +/- 8.24e-14
# P_bary (ms)      =  N/A
# P'_bary (s/s)    =  N/A
# P''_bary (s/s^2) =  N/A
# P_orb (s)        =  N/A
# asin(i)/c (s)    =  N/A
# eccentricity     =  N/A
# w (rad)          =  N/A
# T_peri           =  N/A
######################################################
   0  -511.3035
   1  -224.5401
   2  102.2996
   3  -133.6419
   4  -9.931512
   5  14.99653
   6  48.72734
   7  -173.7423
   8  -54.9202
   9  -263.0378
  10  -371.3727
  11  -210.7085
  12  -118.2631
  13  189.2775
  14  199.8031
  15  -26.6658
  16  -349.5002
  17  -529.4324
  18  -500.4403
  19  -203.7373
  20  -24.85269
  21  -398.682
  22  -54.90152
  23  41.42665
  24  23.45988
  25  -356.8771
  26  -498.5306
  27  -87.777
  28  -17.21305
  29  -42.42976
  30  101.8439
  31  -289.9864
  32  -101.0752
  33  -241.67
  34  -446.7058
  35  -432.6752
  36  -356.6776
  37  -48.05074
  38  -13.4676
  39  25.10267
  40  -291.7656
  41  -522.9986
  42  -499.3836
  43  -250.6646
  44  -123.2833
  45  293.5094
  46  322.9647
  47  116.3854
  48  45.05135
  49  27.35281
  50  117.3352
  51  321.3221
  52  383.2654
  53  356.8499
  54  -54.96935
  55  -303.7183
  56  32.00622
  57  -309.7851
  58  -201.7379
  59  -116.8263
  60  7.830888
  61  31.24399
  62  -379.0732
  63  -401.0747
  64  124.0583
  65  -25.21998
  66  -124.8309
  67  -163.3772
  68  -123.9963
  69  -123.5156
  70  -376.9724
  71  -269.1451
  72  198.4062
  73  324.0714
  74  2.361526
  75  -129.0545
  76  -93.05522
  77  -202.6303
  78  -190.6616
  79  35.05049
  80  -327.4521
  81  -476.3701
  82  -129.7409
  83  72.82819
  84  234.5156
  85  108.1216
  86  8.645877
  87  -318.7327
  88  -106.4489
  89  27.00439
  90  -198.5645
  91  -238.3769
  92  -384.6814
  93  -286.887
  94  -48.49355
  95  16.00764
  96  301.7764
  97  32.05373
  98  -76.14259
  99  -260.3068
 100  -369.1424
 101  -469.5298
 102  -16.2646
 103  76.92307
 104  21.04054
 105  39.55405
 106  -38.37531
 107  -331.6949
 108  -297.2558
 109  -283.6073
 110  -35.06111
 111  153.9296
 112  95.90879
 113  -22.14629
 114  324.7538
 115  302.6915
 116  -150.7715
 117  -71.38033
 118  53.8329
 119  -301.3253
 120  -382.64
 121  -342.185
 122  -19.95954
 123  181.2953
 124  -93.3649
 125  -166.2983
 126  -77.49201
 127  224.7119
 128  162.3318
 129  -73.0937
 130  575.4268
 131  431.2199
 132  -140.4349
 133  -248.3364
 134  -105.3451
 135  -117.4573
 136  698.3852
 137  1500.333
 138  2485.177
 139  2359.556
 140  2131.393
 141  1750.154
 142  233.322
 143  1168.181
 144  2335.056
 145  3328.197
 146  3168.755
 147  2734.993
 148  1052.929
 149  115.3351
 150  -40.66749
 151  72.28959
 152  -66.91912
 153  -229.12
 154  -16.98836
 155  48.49355
 156  163.9415
 157  49.66872
 158  107.6235
 159  442.1354
 160  -184.6753
 161  -315.9245
 162  -249.9776
 163  -193.9985
 164  -225.9534
 165  -112.401
 166  116.2511
 167  33.89134
 168  181.4981
 169  -53.16544
 170  102.8024
 171  94.5519
 172  -36.18798
 173  -37.34204
 174  31.45341
 175  106.934
 176  119.6859
 177  234.201
 178  313.8464
 179  267.4769
 180  138.2555
 181  -70.69583
 182  80.93442
 183  -233.3309
 184  76.69617
 185  -140.1064
 186  -174.4739
 187  -53.3984
 188  59.41244
 189  21.63998
 190  -16.3187
 191  257.6568
 192  137.5511
 193  250.2139
 194  33.62205
 195  -137.1462
 196  62.75769
 197  114.7608
 198  54.15393
 199  84.7739
 200  -192.26
 201  -203.098
 202  -301.7813
 203  -295.4437
 204  -411.6077
 205  -298.6213
 206  61.28532
 207  -370.503
 208  -117.6618
 209  155.66
 210  100.5853
 211  51.02711
 212  62.14007
 213  45.09142
 214  -84.09891
 215  195.118
 216  149.4213
 217  395.2402
 218  522.4089
 219  1209.243
 220  1429.622
 221  1519.634
 222  1600.684
 223  1180.599
 224  831.4626
 225  681.8892
 226  646.6383
 227  558.1349
 228  164.067
 229  251.3106
 230  116.3727
 231  -45.77769
 232  -168.4075
 233  4.192036
 234  -170.3632
 235  -33.52723
 236  -111.4105
 237  -202.171
 238  -78.4147
 239  199.0287
 240  275.0969
 241  72.29165
 242  -331.2458
 243  -609.9284
 244  -209.6427
 245  -18.38899
 246  -78.27709
 247  -415.9624
 248  -462.7021
 249  -387.1929
 250  -34.94333
 251  150.4323
 252  246.2943
 253  393.854
 254  283.8273
 255  201.7786
 256  165.2237
 257  218.99
 258  11.39021
 259  45.42238
 260  -22.78829
 261  -216.4256
 262  -247.8519
 263  -63.69959
 264  197.1147
 265  100.031
 266  -18.41582
 267  284.9574
 268  21.56127
 269  -87.43689
 270  -259.5989
 271  -119.4188
 272  -189.5148
 273  -77.84991
 274  -340.9123
 275  -110.7471
 276  -154.6573
 277  -40.82156
 278  -6.816835
 279  -321.8162
 280  -163.619
 281  -18.15837
 282  277.4942
 283  -24.16546
 284  -122.892
 285  221.3787
 286  211.2777
 287  163.453
 288  377.9453
 289  303.637
 290  313.209
 291  -137.3524
 292  -321.5963
 293  -115.7769
 294  12.82547
 295  -91.79146
 296  -167.1082
 297  276.6174
 298  288.6243
 299  146.9729
 300  208.2213
 301  214.7355
 302  246.2332
 303  145.0591
 304  -125.608
 305  -396.1844
 306  -559.1816
 307  -159.2967
 308  152.9942
 309  77.3055
 310  10.95513
 311  129.5035
 312  127.8757
 313  -2.824609
 314  -147.7374
 315  73.71861
 316  -189.9769
 317  -173.2891
 318  -355.835
 319  210.9327
 320  508.6146
 321  317.0109
 322  284.1877
 323  154.1373
 324  -261.1738
 325  -225.2787
 326  -235.0105
 327  -191.5365
 328  -269.8195
 329  -352.7077
 330  -60.72954
 331  77.01517
 332  117.4781
 333  -148.5797
 334  -193.7069
 335  -226.0976
 336  -268.6495
 337  132.4693
 338  -10.04945
 339  206.4264
 340  -342.211
 341  -258.3849
 342  276.0821
 343  141.2735
 344  40.90162
 345  -179.0893
 346  53.58777
 347  -0.5281593
 348  -193.262
 349  -441.3589
 350  -372.9479
 351  -520.2508
 352  -239.0944
 353  -112.2489
 354  -139.3779
 355  -83.78451
 356  -100.6039
 357  -177.2684
 358  -389.7536
 359  -675.5594
 360  -446.2318
 361  -255.0807
 362  -23.18787
 363  -83.03045
 364  -133.7129
 365  -257.8021
 366  -609.4202
 367  -320.2243
 368  -189.5363
 369  -237.0212
 370  -163.0766
 371  51.03638
 372  -259.5417
 373  -384.4543
 374  -185.0905
 375  -94.23101
 376  -202.2118
 377  -379.7532
 378  -209.4423
 379  -48.11045
 380  -105.2773
 381  -285.0902
 382  -318.4388
 383  -39.99831
 384  86.16707
 385  -49.84986
 386  -213.9059
 387  -93.15069
 388  298.3839
 389  198.4117
 390  -32.37777
 391  259.012
 392  468.2618
 393  361.6739
 394  -179.8885
 395  -411.9028
 396  -148.7207
 397  -27.62176
 398  -145.4692
 399  114.3866
 400  -395.6142
 401  -426.7813
 402  -312.3818
 403  -354.8074
 404  -252.8864
 405  -180.6984
 406  -246.2942
 407  -283.7002
 408  -54.9101
 409  -311.9526
 410  -166.135
 411  -68.97012
 412  -397.4765
 413  -444.3626
 414  -555.9255
 415  -562.3126
 416  -192.8584
 417  89.4124
 418  -23.02232
 419  -212.9601
 420  -206.2072
 421  -110.2979
 422  -211.5197
 423  -228.9909
 424  -433.5966
 425  -615.1636
 426  -431.2939
 427  113.2272
 428  42.62036
 429  -130.1994
 430  -516.2158
 431  52.0628
 432  -36.91874
 433  -296.4095
 434  -76.29095
 435  -180.6223
 436  53.58564
 437  -92.34793
 438  -306.5056
 439  -166.6127
 440  -146.7112
 441  30.28234
 442  157.8453
 443  143.0288
 444  -91.86504
 445  -480.4373
 446  -424.1879
 447  -626.432
 448  -379.6129
 449  -192.6784
 450  92.85727
 451  -129.7738
 452  -484.929
 453  -575.8031
 454  -466.9352
 455  -301.3911
 456  -243.0476
 457  -125.9526
 458  -38.74223
 459  103.1275
 460  -167.9765
 461  -138.764
 462  -73.9432
 463  -200.0379
 464  37.52036
 465  -204.1838
 466  -83.92732
 467  -165.7192
 468  -31.79142
 469  -4.911837
 470  -218.5936
 471  24.8257
 472  74.46309
 473  14.00384
 474  366.0082
 475  128.6533
 476  -85.16675
 477  -147.2074
 478  -155.0555
 479  46.35938
 480  -71.7034
 481  257.9903
 482  344.2802
 483  152.2271
 484  92.18899
 485  267.4196
 486  80.83311
 487  100.8469
 488  128.3126
 489  240.2348
 490  245.3938
 491  63.84309
 492  -21.5507
 493  -99.21736
 494  -115.2175
 495  63.25112
 496  33.19601
 497  -29.77464
 498  -28.35157
 499  73.56531
 500  7.030731
 501  -6.359581
 502  12.87199
 503  -137.5067
 504  -49.91453
 505  -150.9122
 506  -48.08316
 507  -154.0823
 508  145.805
 509  53.92132
 510  74.47888
 511  -22.83881
