# Input file       =  1187331128.11481_cleaned.dat
# Candidate        =  PSR_0332+5434
# Telescope        =  AR
# Epoch_topo       =  57986.258647162154
# Epoch_bary       =  N/A
# T_sample         =  0.002
# Data Folded      =  7340032
# Data Avg         =  0.0135680475002288
# Data StdDev      =  1.00013348750351 
# Profile Bins     =  512
# Profile Avg      =  194.551518799209 
# Profile StdDev   =  119.74901924088  
# Reduced chi-sqr  =  1.755
# Prob(Noise)      <  1.34e-23   (~9.9 sigma)
# P_topo (ms)      =  714.464101715424  +/- 0.000247
# P'_topo (s/s)    =  -0                +/- 1.31e-10
# P''_topo (s/s^2) =  0                 +/- 5.76e-14
# P_bary (ms)      =  N/A
# P'_bary (s/s)    =  N/A
# P''_bary (s/s^2) =  N/A
# P_orb (s)        =  N/A
# asin(i)/c (s)    =  N/A
# eccentricity     =  N/A
# w (rad)          =  N/A
# T_peri           =  N/A
######################################################
   0  784.1678
   1  776.8499
   2  626.9244
   3  465.8011
   4  290.3305
   5  100.2883
   6  206.4128
   7  240.9911
   8  195.7029
   9  216.0945
  10  338.0076
  11  357.8738
  12  273.9016
  13  353.8927
  14  414.3518
  15  392.2625
  16  319.0514
  17  204.8253
  18  300.5155
  19  124.2677
  20  102.5324
  21  92.77982
  22  161.8814
  23  182.0535
  24  218.2202
  25  224.6066
  26  208.2771
  27  256.1401
  28  189.3364
  29  223.8497
  30  184.5441
  31  201.4751
  32  185.4194
  33  225.9312
  34  223.9591
  35  194.3971
  36  257.9067
  37  272.601
  38  285.6082
  39  139.3882
  40  137.545
  41  175.5602
  42  122.2815
  43  -18.90299
  44  41.72464
  45  227.797
  46  126.1476
  47  126.4078
  48  198.29
  49  258.7271
  50  190.679
  51  57.90093
  52  77.17556
  53  41.25479
  54  86.91322
  55  207.5898
  56  102.7478
  57  83.00973
  58  78.22212
  59  126.1404
  60  256.7806
  61  88.14188
  62  52.81332
  63  55.36974
  64  106.8298
  65  163.8264
  66  253.0382
  67  140.822
  68  6.337977
  69  7.127281
  70  135.3907
  71  227.8677
  72  216.3182
  73  235.0904
  74  -3.199058
  75  -8.407918
  76  78.54064
  77  107.5682
  78  93.87265
  79  58.56991
  80  153.1181
  81  91.58236
  82  237.708
  83  245.1169
  84  259.2484
  85  194.3285
  86  43.09922
  87  235.0885
  88  327.7707
  89  259.4318
  90  203.2901
  91  204.2402
  92  173.8357
  93  248.2062
  94  254.5233
  95  297.9807
  96  183.0257
  97  302.1339
  98  407.9718
  99  411.4636
 100  298.3658
 101  193.7859
 102  178.8822
 103  172.4975
 104  189.9475
 105  94.56178
 106  72.90728
 107  86.10181
 108  299.8481
 109  283.5734
 110  227.569
 111  228.9847
 112  148.512
 113  214.5324
 114  21.52983
 115  10.66393
 116  121.0975
 117  386.0523
 118  255.6399
 119  98.29081
 120  29.00109
 121  141.0022
 122  206.7184
 123  149.3249
 124  151.8989
 125  251.8361
 126  188.6222
 127  -19.92748
 128  -47.42469
 129  83.53563
 130  50.51541
 131  124.2462
 132  77.23779
 133  114.0595
 134  159.3377
 135  24.5745
 136  87.21981
 137  170.4284
 138  202.856
 139  193.6823
 140  270.0566
 141  231.9366
 142  286.9058
 143  257.072
 144  195.3425
 145  84.89856
 146  41.68671
 147  85.03356
 148  217.3786
 149  150.9381
 150  56.58658
 151  112.4948
 152  112.9894
 153  142.5835
 154  192.7428
 155  294.1575
 156  380.4844
 157  318.0266
 158  284.3908
 159  291.336
 160  197.2691
 161  120.1556
 162  240.5639
 163  185.8151
 164  85.6094
 165  148.2584
 166  186.8645
 167  162.5476
 168  93.29356
 169  150.5116
 170  249.7287
 171  340.1154
 172  256.7426
 173  121.6415
 174  27.83817
 175  117.7041
 176  182.2455
 177  88.1626
 178  -13.36197
 179  116.8957
 180  182.0281
 181  120.8391
 182  150.3887
 183  234.1676
 184  202.3973
 185  72.85606
 186  83.16074
 187  116.4155
 188  92.61197
 189  43.28213
 190  143.2955
 191  186.3008
 192  221.1377
 193  -34.07398
 194  -31.66298
 195  104.1036
 196  114.2189
 197  136.128
 198  209.656
 199  216.3318
 200  121.6129
 201  63.40684
 202  28.8633
 203  9.938385
 204  -69.28714
 205  -26.19022
 206  143.1589
 207  174.4219
 208  200.9138
 209  204.0334
 210  204.1217
 211  213.4254
 212  167.1668
 213  209.4276
 214  302.9003
 215  249.7058
 216  269.7471
 217  290.0864
 218  88.4686
 219  16.10657
 220  175.3601
 221  76.47474
 222  152.282
 223  198.6509
 224  197.0689
 225  99.02502
 226  193.2816
 227  255.885
 228  311.7296
 229  392.8596
 230  289.857
 231  207.4063
 232  204.6033
 233  336.1542
 234  229.2111
 235  280.8701
 236  216.3611
 237  176.7354
 238  204.5771
 239  312.1601
 240  247.8741
 241  295.0636
 242  155.009
 243  47.11719
 244  324.1314
 245  281.0052
 246  75.15297
 247  161.2643
 248  178.9073
 249  244.5422
 250  296.3692
 251  235.7679
 252  199.4347
 253  168.7635
 254  238.0118
 255  118.025
 256  164.6947
 257  166.0242
 258  335.794
 259  348.331
 260  228.7554
 261  279.019
 262  312.1737
 263  192.4457
 264  200.1645
 265  199.3083
 266  410.4009
 267  404.8667
 268  239.6954
 269  283.0915
 270  123.6755
 271  193.3289
 272  154.7614
 273  310.4894
 274  150.4353
 275  118.3405
 276  276.4917
 277  268.0403
 278  211.576
 279  187.0788
 280  135.515
 281  266.4323
 282  359.2544
 283  247.3016
 284  132.1609
 285  112.2551
 286  181.7312
 287  273.8881
 288  305.5089
 289  277.3174
 290  140.1203
 291  203.1238
 292  332.6145
 293  115.4585
 294  221.8157
 295  207.5967
 296  261.4671
 297  237.8334
 298  200.4896
 299  249.6521
 300  210.5955
 301  345.2608
 302  60.12098
 303  124.5128
 304  244.5527
 305  241.5721
 306  274.0079
 307  285.043
 308  286.5976
 309  302.5676
 310  393.968
 311  332.9565
 312  437.5033
 313  407.7466
 314  369.2822
 315  462.4637
 316  420.2562
 317  413.2856
 318  458.3397
 319  453.4722
 320  369.5737
 321  359.6319
 322  257.066
 323  147.9871
 324  217.6176
 325  148.2047
 326  227.5251
 327  271.0905
 328  179.1769
 329  174.228
 330  107.8683
 331  149.8277
 332  124.9468
 333  230.9238
 334  268.8819
 335  234.0774
 336  367.1107
 337  421.4362
 338  312.6114
 339  176.1958
 340  143.0088
 341  246.923
 342  206.1058
 343  107.132
 344  30.47252
 345  144.9258
 346  226.8791
 347  278.8341
 348  167.8295
 349  -19.39118
 350  70.04514
 351  180.6575
 352  210.9109
 353  105.6134
 354  127.3927
 355  197.1844
 356  186.3307
 357  73.42757
 358  8.397881
 359  32.79178
 360  192.1125
 361  244.5631
 362  169.4878
 363  108.0839
 364  202.7211
 365  211.5113
 366  94.13821
 367  70.82893
 368  9.987436
 369  127.6941
 370  166.73
 371  204.0465
 372  139.2047
 373  234.3381
 374  270.2331
 375  215.2712
 376  188.3904
 377  155.7257
 378  141.2963
 379  192.3777
 380  175.6703
 381  257.5811
 382  286.9044
 383  300.3911
 384  114.5194
 385  82.78165
 386  206.2055
 387  254.7325
 388  136.7077
 389  43.37061
 390  60.59881
 391  191.0369
 392  160.9066
 393  250.2649
 394  308.6284
 395  134.4356
 396  87.11487
 397  84.86124
 398  109.8465
 399  151.0179
 400  237.6856
 401  383.0141
 402  222.7595
 403  94.21202
 404  131.6718
 405  69.82254
 406  195.9215
 407  312.1927
 408  136.7667
 409  159.7059
 410  90.41013
 411  85.39219
 412  107.985
 413  147.3358
 414  143.3794
 415  74.95704
 416  79.94262
 417  109.7921
 418  91.63008
 419  213.2461
 420  167.1689
 421  31.52589
 422  149.4724
 423  248.1329
 424  201.6874
 425  98.30844
 426  16.75732
 427  77.93916
 428  198.7035
 429  135.7133
 430  86.27233
 431  67.80949
 432  229.2358
 433  199.3001
 434  193.7255
 435  255.2777
 436  115.3215
 437  144.9789
 438  98.60307
 439  214.2805
 440  196.185
 441  235.7589
 442  284.166
 443  233.5766
 444  153.5293
 445  174.8343
 446  278.3376
 447  111.9559
 448  228.0562
 449  193.7066
 450  26.39489
 451  74.25913
 452  141.3654
 453  102.1666
 454  146.3445
 455  174.2413
 456  180.0733
 457  210.4857
 458  156.1451
 459  94.11636
 460  11.97396
 461  123.357
 462  289.9992
 463  130.7111
 464  64.00306
 465  225.3636
 466  268.0705
 467  105.9324
 468  117.3411
 469  144.0161
 470  154.3103
 471  62.383
 472  99.14725
 473  276.7112
 474  337.1432
 475  313.3491
 476  155.265
 477  276.8719
 478  228.8117
 479  169.8482
 480  68.90895
 481  100.1073
 482  129.7496
 483  175.1245
 484  182.1246
 485  228.1282
 486  82.43105
 487  104.9899
 488  260.7397
 489  120.0122
 490  144.2794
 491  277.5076
 492  382.6942
 493  238.5843
 494  204.5232
 495  256.2932
 496  289.3948
 497  274.8064
 498  235.5596
 499  318.1797
 500  302.0724
 501  284.1881
 502  260.4309
 503  83.82135
 504  226.0671
 505  319.1006
 506  357.6518
 507  419.2141
 508  463.257
 509  528.4246
 510  810.6224
 511  903.8209
