# Input file       =  1187215416.107602_cleaned.dat
# Candidate        =  PSR_0332+5434
# Telescope        =  AR
# Epoch_topo       =  57984.919387819464
# Epoch_bary       =  N/A
# T_sample         =  0.002
# Data Folded      =  7208960
# Data Avg         =  0.0161395708033893
# Data StdDev      =  1.00039779179366 
# Profile Bins     =  512
# Profile Avg      =  227.245725654788 
# Profile StdDev   =  118.706377439904 
# Reduced chi-sqr  =  1.364
# Prob(Noise)      <  7.26e-08   (~5.3 sigma)
# P_topo (ms)      =  714.463932953026  +/- 0.000299
# P'_topo (s/s)    =  -0                +/- 1.61e-10
# P''_topo (s/s^2) =  0                 +/- 7.22e-14
# P_bary (ms)      =  N/A
# P'_bary (s/s)    =  N/A
# P''_bary (s/s^2) =  N/A
# P_orb (s)        =  N/A
# asin(i)/c (s)    =  N/A
# eccentricity     =  N/A
# w (rad)          =  N/A
# T_peri           =  N/A
######################################################
   0  1053.958
   1  839.9738
   2  654.8118
   3  385.9513
   4  253.3424
   5  256.9995
   6  333.5166
   7  327.0319
   8  219.6676
   9  212.4693
  10  239.5292
  11  313.1731
  12  290.658
  13  144.5336
  14  269.2222
  15  294.2252
  16  232.0095
  17  74.28235
  18  205.4282
  19  382.3894
  20  316.159
  21  272.372
  22  201.3718
  23  326.0458
  24  256.0127
  25  253.181
  26  254.1739
  27  329.0155
  28  381.1096
  29  313.5154
  30  309.4592
  31  179.3928
  32  283.3738
  33  240.3018
  34  139.7316
  35  215.3173
  36  254.8898
  37  281.2563
  38  120.8578
  39  205.7696
  40  332.6585
  41  171.6102
  42  248.609
  43  309.5809
  44  266.3724
  45  183.9984
  46  177.307
  47  210.1937
  48  132.6844
  49  190.6573
  50  161.269
  51  146.1
  52  152.2299
  53  206.4827
  54  348.592
  55  263.1562
  56  202.9098
  57  29.68143
  58  164.1541
  59  328.8645
  60  186.4558
  61  200.1416
  62  186.6211
  63  145.934
  64  163.12
  65  237.5363
  66  286.2547
  67  225.8161
  68  167.9745
  69  310.693
  70  234.5173
  71  249.8269
  72  158.8109
  73  198.8992
  74  134.8126
  75  27.95777
  76  99.93639
  77  183.845
  78  295.0198
  79  296.0221
  80  257.8223
  81  227.1183
  82  40.80166
  83  126.5001
  84  161.635
  85  152.3773
  86  282.527
  87  225.3394
  88  209.2135
  89  206.0209
  90  216.3943
  91  289.6038
  92  210.7762
  93  243.8179
  94  262.6981
  95  237.4719
  96  131.7838
  97  138.1015
  98  321.7726
  99  306.5146
 100  236.9291
 101  211.6543
 102  232.905
 103  187.5561
 104  245.3799
 105  301.0518
 106  174.2605
 107  324.5501
 108  222.1266
 109  132.4571
 110  119.8662
 111  202.6191
 112  296.4847
 113  210.5333
 114  166.5156
 115  360.713
 116  283.3022
 117  116.2957
 118  148.0612
 119  193.5213
 120  124.6261
 121  141.6203
 122  248.5993
 123  263.0557
 124  164.3588
 125  276.1044
 126  289.0609
 127  180.6838
 128  167.1916
 129  321.617
 130  295.7426
 131  203.992
 132  168.4696
 133  158.2927
 134  221.1496
 135  196.4619
 136  205.7349
 137  157.6081
 138  338.4658
 139  374.9231
 140  264.1475
 141  224.7874
 142  256.0035
 143  225.8184
 144  136.7104
 145  239.3763
 146  171.5191
 147  211.1407
 148  247.819
 149  261.8231
 150  248.6652
 151  231.5939
 152  185.2654
 153  194.8966
 154  152.1756
 155  115.5418
 156  93.23624
 157  29.20967
 158  208.2022
 159  174.4053
 160  220.3586
 161  190.6651
 162  4.321202
 163  69.68004
 164  36.19303
 165  184.7456
 166  188.9372
 167  315.7933
 168  252.7497
 169  86.97398
 170  134.3971
 171  231.1704
 172  243.4039
 173  186.853
 174  256.7483
 175  232.9398
 176  176.551
 177  403.1011
 178  316.9243
 179  167.0417
 180  286.0812
 181  212.775
 182  231.1103
 183  266.1905
 184  218.7654
 185  263.5252
 186  266.7595
 187  150.3412
 188  249.6045
 189  245.4497
 190  147.3722
 191  140.1813
 192  227.7252
 193  276.9745
 194  233.3477
 195  202.8651
 196  137.022
 197  241.8601
 198  284.0438
 199  144.8243
 200  225.5616
 201  301.4395
 202  151.217
 203  269.6142
 204  212.7387
 205  170.3932
 206  241.2404
 207  365.0747
 208  327.8949
 209  156.2682
 210  140.7915
 211  231.6761
 212  271.6418
 213  329.8994
 214  394.6955
 215  433.8671
 216  365.2868
 217  182.8785
 218  280.9343
 219  294.5872
 220  292.0947
 221  293.1981
 222  260.3255
 223  205.0829
 224  127.5469
 225  106.9925
 226  272.9892
 227  229.5985
 228  126.608
 229  144.4999
 230  122.1545
 231  82.16978
 232  241.5865
 233  229.7558
 234  176.5967
 235  159.1541
 236  275.8871
 237  233.9063
 238  249.2761
 239  297.5158
 240  219.2574
 241  207.4246
 242  322.3817
 243  242.1597
 244  286.3826
 245  188.3922
 246  271.2179
 247  203.8727
 248  158.0665
 249  193.9597
 250  170.3016
 251  268.1565
 252  246.6689
 253  171.8183
 254  246.9004
 255  373.2847
 256  384.8993
 257  220.6216
 258  259.4535
 259  170.9339
 260  154.0525
 261  168.8863
 262  287.2502
 263  355.7843
 264  217.3717
 265  191.3125
 266  240.9922
 267  214.6884
 268  294.627
 269  331.0991
 270  291.7523
 271  96.50004
 272  86.67503
 273  79.08883
 274  66.73318
 275  130.6514
 276  180.5224
 277  243.7586
 278  308.9054
 279  277.7215
 280  228.2708
 281  171.8898
 282  144.0194
 283  177.6245
 284  167.6024
 285  104.868
 286  217.0593
 287  196.8694
 288  125.2569
 289  107.709
 290  221.4329
 291  223.4818
 292  264.642
 293  121.3163
 294  245.0026
 295  372.4991
 296  357.2389
 297  186.3833
 298  120.4651
 299  281.111
 300  253.2954
 301  399.283
 302  330.5765
 303  276.1252
 304  104.5021
 305  21.31349
 306  100.0483
 307  195.2381
 308  347.2485
 309  127.6645
 310  307.5305
 311  306.6302
 312  199.5232
 313  189.7972
 314  309.1629
 315  274.7456
 316  100.8789
 317  146.7833
 318  261.2371
 319  166.7041
 320  167.5465
 321  243.958
 322  346.1892
 323  211.8835
 324  108.4677
 325  135.9722
 326  249.9819
 327  216.1163
 328  169.3642
 329  184.9569
 330  210.2737
 331  90.59133
 332  134.503
 333  202.7859
 334  177.5267
 335  225.7147
 336  305.8198
 337  177.317
 338  185.8677
 339  251.9422
 340  351.0828
 341  346.3877
 342  208.1588
 343  183.2692
 344  68.96239
 345  120.7027
 346  101.5853
 347  167.0379
 348  227.1032
 349  152.2157
 350  108.6384
 351  189.0513
 352  131.5526
 353  122.1769
 354  201.1621
 355  195.4552
 356  224.2567
 357  242.532
 358  262.0452
 359  311.3921
 360  222.7045
 361  270.6953
 362  276.301
 363  147.0945
 364  197.1602
 365  280.496
 366  154.6512
 367  91.974
 368  189.5062
 369  306.0255
 370  252.7985
 371  237.3087
 372  282.1351
 373  164.6508
 374  134.4996
 375  230.9978
 376  221.1178
 377  207.3822
 378  200.5017
 379  247.1917
 380  257.0287
 381  250.3597
 382  299.1309
 383  191.4542
 384  171.2992
 385  268.4279
 386  223.0818
 387  141.7003
 388  254.041
 389  263.4527
 390  265.5492
 391  193.8096
 392  363.3043
 393  348.4321
 394  238.7817
 395  229.2716
 396  319.6
 397  289.363
 398  320.9395
 399  145.2055
 400  43.22375
 401  110.4798
 402  272.568
 403  414.9921
 404  283.2431
 405  93.88682
 406  78.10152
 407  202.2382
 408  213.2527
 409  243.1202
 410  323.8463
 411  221.7317
 412  59.28516
 413  217.9084
 414  326.1328
 415  211.512
 416  144.8081
 417  165.8661
 418  135.081
 419  192.0251
 420  217.6878
 421  108.2234
 422  225.9205
 423  253.4332
 424  168.8144
 425  189.8552
 426  87.72206
 427  228.6768
 428  326.4893
 429  245.5836
 430  154.3355
 431  218.987
 432  243.2942
 433  290.4624
 434  255.9753
 435  184.6282
 436  180.8387
 437  224.5176
 438  251.1424
 439  254.9008
 440  195.6613
 441  119.9136
 442  168.4765
 443  133.1424
 444  160.6537
 445  120.3693
 446  200.2226
 447  269.1346
 448  220.7664
 449  224.9834
 450  331.3531
 451  216.3643
 452  222.6144
 453  359.9221
 454  232.8458
 455  243.8755
 456  144.9873
 457  142.8975
 458  137.8007
 459  52.09984
 460  180.2433
 461  298.4147
 462  185.7682
 463  136.4701
 464  160.0911
 465  244.0513
 466  257.1018
 467  197.1261
 468  183.8707
 469  251.6876
 470  174.6177
 471  109.4924
 472  75.2281
 473  84.90767
 474  267.955
 475  330.5948
 476  211.6824
 477  122.0929
 478  200.4909
 479  323.3943
 480  393.5133
 481  276.5191
 482  255.2717
 483  228.6755
 484  332.9816
 485  291.9825
 486  292.1161
 487  296.5944
 488  351.622
 489  231.2804
 490  282.9218
 491  319.5294
 492  367.5211
 493  235.1071
 494  208.3781
 495  156.2665
 496  143.3527
 497  62.31659
 498  232.3842
 499  283.1767
 500  144.3967
 501  204.5079
 502  241.0231
 503  357.3699
 504  423.7033
 505  305.6927
 506  388.7219
 507  421.3768
 508  436.4949
 509  532.6413
 510  643.9544
 511  991.7707
