# Input file       =  1187215416.107602_cleaned.dat
# Candidate        =  PSR_0332+5434
# Telescope        =  AR
# Epoch_topo       =  57984.919387819464
# Epoch_bary       =  N/A
# T_sample         =  0.002
# Data Folded      =  7208960
# Data Avg         =  0.0161395708033893
# Data StdDev      =  1.00039779179366 
# Profile Bins     =  512
# Profile Avg      =  227.245705413759 
# Profile StdDev   =  118.706377439904 
# Reduced chi-sqr  =  1.364
# Prob(Noise)      <  7.25e-08   (~5.3 sigma)
# P_topo (ms)      =  714.463933802778  +/- 0.000298
# P'_topo (s/s)    =  -0                +/- 1.6e-10
# P''_topo (s/s^2) =  0                 +/- 7.19e-14
# P_bary (ms)      =  N/A
# P'_bary (s/s)    =  N/A
# P''_bary (s/s^2) =  N/A
# P_orb (s)        =  N/A
# asin(i)/c (s)    =  N/A
# eccentricity     =  N/A
# w (rad)          =  N/A
# T_peri           =  N/A
######################################################
   0  236.8859
   1  289.3698
   2  253.0561
   3  241.6951
   4  267.3394
   5  134.3806
   6  161.2353
   7  259.782
   8  168.2751
   9  234.6209
  10  193.185
  11  293.6803
  12  222.6992
  13  274.7913
  14  287.3619
  15  148.4979
  16  221.1085
  17  271.0273
  18  176.2431
  19  181.1005
  20  242.6067
  21  286.2456
  22  210.9524
  23  247.0195
  24  394.1548
  25  308.1259
  26  224.2077
  27  264.7454
  28  299.2222
  29  307.9532
  30  284.0182
  31  98.79581
  32  51.81536
  33  153.921
  34  335.7975
  35  393.0712
  36  224.7123
  37  37.4123
  38  135.1119
  39  208.231
  40  211.4444
  41  274.6563
  42  319.2442
  43  164.322
  44  58.44947
  45  312.8007
  46  273.3914
  47  203.3466
  48  133.452
  49  149.4456
  50  149.0063
  51  206.7842
  52  193.296
  53  111.7324
  54  271.6265
  55  214.4786
  56  167.9906
  57  160.0232
  58  111.4595
  59  297.6117
  60  305.3157
  61  207.0564
  62  175.9804
  63  205.5431
  64  257.946
  65  296.683
  66  236.2065
  67  173.078
  68  184.8264
  69  238.0237
  70  257.063
  71  241.548
  72  160.0485
  73  139.1465
  74  168.2551
  75  130.0265
  76  168.3628
  77  118.6719
  78  242.4272
  79  256.8595
  80  205.8132
  81  275.6463
  82  305.5527
  83  178.1927
  84  295.0742
  85  314.5614
  86  251.9854
  87  200.4635
  88  134.2871
  89  151.1018
  90  118.5382
  91  53.02841
  92  252.9356
  93  259.4026
  94  167.5394
  95  122.9243
  96  199.2249
  97  245.7653
  98  251.121
  99  183.6628
 100  196.5628
 101  257.881
 102  120.8741
 103  122.8873
 104  37.96014
 105  153.35
 106  318.0758
 107  296.4991
 108  183.3788
 109  114.0767
 110  251.9777
 111  347.167
 112  365.6194
 113  265.6628
 114  238.1434
 115  249.5739
 116  337.1417
 117  293.8604
 118  282.7574
 119  321.6386
 120  335.6357
 121  208.6224
 122  316.6392
 123  323.3063
 124  355.0239
 125  211.922
 126  195.5305
 127  150.0685
 128  113.8162
 129  91.39418
 130  289.4299
 131  231.3868
 132  144.7249
 133  208.3521
 134  275.5284
 135  395.1028
 136  398.592
 137  310.6932
 138  421.2083
 139  413.7433
 140  460.2923
 141  555.6061
 142  731.7313
 143  1059.645
 144  993.4092
 145  788.097
 146  571.0668
 147  325.6379
 148  247.7526
 149  280.3155
 150  340.8927
 151  300.1812
 152  196.877
 153  225.2827
 154  256.96
 155  318.744
 156  258.7147
 157  146.2968
 158  327.8984
 159  251.8615
 160  197.9831
 161  48.78679
 162  293.2957
 163  378.3731
 164  299.7474
 165  240.0855
 166  245.3803
 167  310.9389
 168  262.1913
 169  231.7628
 170  283.1867
 171  349.0944
 172  370.4548
 173  301.9813
 174  283.2292
 175  173.5123
 176  323.8999
 177  175.9563
 178  160.661
 179  229.7637
 180  275.174
 181  237.5995
 182  111.8958
 183  271.6184
 184  273.2192
 185  188.391
 186  274.2806
 187  318.143
 188  228.2964
 189  171.2544
 190  204.9399
 191  174.6643
 192  144.9655
 193  196.2014
 194  160.05
 195  126.1973
 196  165.954
 197  246.8337
 198  347.0441
 199  251.7042
 200  143.2491
 201  33.11127
 202  253.4533
 203  288.9964
 204  170.3324
 205  201.0528
 206  182.4861
 207  128.6389
 208  185.3313
 209  257.5816
 210  277.0842
 211  199.8983
 212  208.872
 213  307.7567
 214  227.9212
 215  241.3981
 216  156.8431
 217  202.801
 218  77.71211
 219  49.86002
 220  101.0762
 221  261.9601
 222  265.3611
 223  314.0169
 224  225.7683
 225  206.6046
 226  17.8195
 227  171.9456
 228  134.3719
 229  178.9411
 230  297.9616
 231  181.5626
 232  231.4032
 233  189.3946
 234  254.5074
 235  276.4916
 236  215.3634
 237  241.2284
 238  276.0962
 239  193.5272
 240  134.2478
 241  175.1673
 242  351.4445
 243  259.9503
 244  231.0566
 245  214.9231
 246  220.3519
 247  192.1088
 248  283.1895
 249  277.0981
 250  193.5856
 251  326.3552
 252  170.8389
 253  123.6741
 254  138.8204
 255  249.7634
 256  275.3688
 257  178.8269
 258  205.9766
 259  405.466
 260  190.7364
 261  132.6504
 262  156.5979
 263  182.3847
 264  107.5988
 265  167.9832
 266  277.7015
 267  234.7575
 268  161.3807
 269  322.2948
 270  241.7483
 271  159.2846
 272  218.361
 273  336.9607
 274  275.1439
 275  172.3119
 276  172.6994
 277  173.6647
 278  224.2782
 279  204.9434
 280  156.0611
 281  220.5241
 282  346.0098
 283  376.1729
 284  218.6096
 285  244.1635
 286  268.0172
 287  173.3699
 288  178.1743
 289  215.3357
 290  185.9571
 291  218.9074
 292  253.184
 293  269.5723
 294  220.2821
 295  242.4297
 296  150.1306
 297  217.2655
 298  127.6726
 299  121.7298
 300  73.31252
 301  64.85532
 302  221.4501
 303  160.9346
 304  237.8121
 305  145.9744
 306  -17.41494
 307  78.17788
 308  57.49532
 309  214.1612
 310  207.861
 311  333.9312
 312  192.636
 313  70.93634
 314  176.7258
 315  224.7752
 316  237.3376
 317  189.2904
 318  279.5553
 319  185.1838
 320  247.2107
 321  424.3103
 322  248.8722
 323  186.8922
 324  290.5522
 325  183.8488
 326  267.7153
 327  245.9882
 328  217.3382
 329  300.8885
 330  194.2218
 331  182.7165
 332  261.6195
 333  210.534
 334  140.7909
 335  149.7776
 336  280.5435
 337  257.5836
 338  233.5429
 339  182.5771
 340  127.2085
 341  308.7513
 342  217.9696
 343  163.2253
 344  263.3551
 345  255.6112
 346  167.2646
 347  269.7804
 348  190.6879
 349  174.3486
 350  299.9823
 351  360.3208
 352  293.9224
 353  119.6733
 354  161.2872
 355  254.1171
 356  278.8592
 357  356.6091
 358  415.6848
 359  437.2095
 360  291.1942
 361  188.7015
 362  281.8026
 363  321.3638
 364  261.6792
 365  334.938
 366  203.6626
 367  205.3217
 368  86.20256
 369  155.7621
 370  305.393
 371  171.9645
 372  138.9096
 373  140.797
 374  91.16505
 375  116.4708
 376  267.4429
 377  220.7725
 378  145.9101
 379  219.3524
 380  262.576
 381  232.5089
 382  260.7101
 383  283.2845
 384  190.5044
 385  257.5533
 386  305.5703
 387  261.0531
 388  245.2171
 389  216.0409
 390  246.6802
 391  190.3249
 392  153.5618
 393  211.759
 394  184.1412
 395  278.8417
 396  210.3272
 397  166.0586
 398  306.8782
 399  387.6323
 400  332.1747
 401  222.3741
 402  245.8889
 403  158.814
 404  156.4575
 405  187.1949
 406  343.6301
 407  298.116
 408  214.3425
 409  207.1934
 410  239.7773
 411  234.9483
 412  295.9195
 413  337.631
 414  230.0345
 415  87.36908
 416  89.74179
 417  67.7205
 418  73.29137
 419  152.1036
 420  170.5272
 421  295.7145
 422  285.3133
 423  304.6594
 424  174.014
 425  189.0132
 426  119.5769
 427  216.895
 428  127.5121
 429  125.705
 430  235.8114
 431  166.0124
 432  105.8251
 433  137.4338
 434  237.1501
 435  239.302
 436  227.6531
 437  125.3428
 438  294.9506
 439  391.9242
 440  314.3825
 441  135.4394
 442  174.6636
 443  275.369
 444  287.9939
 445  404.9838
 446  309.4481
 447  232.0996
 448  51.49814
 449  52.51005
 450  107.19
 451  280.3084
 452  262.1492
 453  169.4753
 454  328.6285
 455  273.8917
 456  177.5326
 457  227.2653
 458  328.5376
 459  226.833
 460  64.45306
 461  212.9185
 462  230.119
 463  154.4179
 464  183.5934
 465  293.1846
 466  315.4293
 467  168.9797
 468  100.049
 469  180.7876
 470  261.1044
 471  189.6865
 472  175.1279
 473  187.1136
 474  192.8413
 475  74.06973
 476  172.4816
 477  206.3813
 478  174.1061
 479  260.2936
 480  270.7546
 481  151.8777
 482  207.9931
 483  291.362
 484  367.639
 485  294.0336
 486  210.4504
 487  131.4432
 488  100.8905
 489  101.901
 490  122.3384
 491  187.2581
 492  210.8214
 493  115.8721
 494  146.5762
 495  184.0848
 496  113.8533
 497  145.1623
 498  214.2191
 499  199.2299
 500  219.7973
 501  248.5346
 502  280.1222
 503  296.5699
 504  209.5494
 505  302.9476
 506  232.8466
 507  146.8149
 508  232.4997
 509  263.6183
 510  110.3687
 511  111.8265
