# Input file       =  1187559996.112759_cleaned.dat
# Candidate        =  PSR_0332+5434
# Telescope        =  AR
# Epoch_topo       =  57988.907582323598
# Epoch_bary       =  N/A
# T_sample         =  0.002
# Data Folded      =  7208960
# Data Avg         =  0.0608886222757231
# Data StdDev      =  3.23165269487907 
# Profile Bins     =  1024
# Profile Avg      =  428.660808908641 
# Profile StdDev   =  271.150875248166 
# Reduced chi-sqr  =  0.763
# Prob(Noise)      <  1   (~0.0 sigma)
# P_topo (ms)      =  714.46349452096   +/- 0.000209
# P'_topo (s/s)    =  -0                +/- 1.12e-10
# P''_topo (s/s^2) =  0                 +/- 5.04e-14
# P_bary (ms)      =  N/A
# P'_bary (s/s)    =  N/A
# P''_bary (s/s^2) =  N/A
# P_orb (s)        =  N/A
# asin(i)/c (s)    =  N/A
# eccentricity     =  N/A
# w (rad)          =  N/A
# T_peri           =  N/A
######################################################
   0  372.3612
   1  440.3269
   2  425.9046
   3  466.7625
   4  528.1599
   5  548.8475
   6  467.7164
   7  398.0198
   8  351.5938
   9  428.2498
  10  499.4206
  11  647.8501
  12  676.2841
  13  604.7617
  14  552.6799
  15  514.4816
  16  514.8929
  17  436.808
  18  462.5415
  19  566.525
  20  638.1058
  21  631.9528
  22  561.8966
  23  561.7545
  24  556.9554
  25  510.7674
  26  323.7895
  27  298.4748
  28  436.5487
  29  557.9284
  30  562.8472
  31  509.9893
  32  538.4705
  33  441.2766
  34  462.2734
  35  496.6584
  36  578.2488
  37  519.7292
  38  525.787
  39  614.2979
  40  482.4516
  41  274.5754
  42  245.6968
  43  393.6097
  44  484.6663
  45  481.6524
  46  535.1561
  47  559.2636
  48  547.441
  49  638.033
  50  708.0179
  51  667.4969
  52  537.0428
  53  515.9963
  54  540.7332
  55  636.8683
  56  648.0626
  57  576.5715
  58  433.6036
  59  486.6027
  60  391.1504
  61  477.1563
  62  330.6682
  63  407.0297
  64  330.6267
  65  447.287
  66  554.1617
  67  581.3056
  68  478.684
  69  545.4761
  70  575.2821
  71  525.4085
  72  423.999
  73  510.5349
  74  489.2069
  75  497.1201
  76  474.1729
  77  568.4993
  78  468.5322
  79  365.3518
  80  470.404
  81  453.5414
  82  504.9895
  83  461.0254
  84  540.976
  85  407.6829
  86  245.3792
  87  215.6196
  88  317.9467
  89  360.7203
  90  467.4871
  91  486.5697
  92  409.8221
  93  294.1694
  94  296.5843
  95  425.553
  96  602.8582
  97  558.7301
  98  257.231
  99  59.18084
 100  237.8197
 101  323.5523
 102  263.4941
 103  241.5349
 104  351.554
 105  417.9027
 106  457.9958
 107  513.2898
 108  431.7933
 109  334.9674
 110  380.4109
 111  431.9973
 112  416.022
 113  273.8409
 114  389.0985
 115  542.1604
 116  553.1362
 117  517.3719
 118  601.9283
 119  534.4276
 120  360.2189
 121  382.2986
 122  490.4077
 123  415.3034
 124  392.8632
 125  460.3014
 126  507.2026
 127  492.1806
 128  423.431
 129  441.1056
 130  400.4342
 131  419.289
 132  397.5531
 133  390.3744
 134  520.4484
 135  566.8575
 136  576.6555
 137  493.3988
 138  376.1016
 139  243.3379
 140  182.931
 141  247.574
 142  336.6651
 143  254.2306
 144  283.3887
 145  375.5367
 146  320.9576
 147  316.2783
 148  396.0403
 149  528.9609
 150  462.8441
 151  409.9789
 152  377.0632
 153  398.8344
 154  456.0237
 155  536.6969
 156  406.1645
 157  200.1843
 158  107.4546
 159  81.6773
 160  158.7959
 161  287.9397
 162  425.2902
 163  486.5363
 164  525.8798
 165  639.2634
 166  568.8899
 167  435.2122
 168  399.5688
 169  607.6425
 170  578.3462
 171  534.033
 172  521.8092
 173  504.9317
 174  431.3648
 175  359.7807
 176  351.6437
 177  355.714
 178  361.1312
 179  514.9412
 180  534.6538
 181  380.2148
 182  311.6167
 183  310.2903
 184  438.2029
 185  428.7424
 186  357.6397
 187  318.3236
 188  242.6394
 189  250.2636
 190  274.9052
 191  276.3585
 192  428.3043
 193  473.9934
 194  475.9722
 195  408.3112
 196  545.9944
 197  435.5645
 198  435.7051
 199  423.0474
 200  563.7165
 201  526.0636
 202  608.7725
 203  758.5408
 204  562.15
 205  407.0856
 206  354.7145
 207  414.7628
 208  387.7782
 209  392.3
 210  462.9492
 211  493.0831
 212  408.6118
 213  441.385
 214  423.1968
 215  467.4957
 216  393.7505
 217  397.8871
 218  317.8558
 219  239.4312
 220  266.6482
 221  258.3526
 222  242.2542
 223  259.5062
 224  215.7351
 225  389.7221
 226  429.4266
 227  489.8712
 228  299.8027
 229  330.7612
 230  467.4643
 231  433.4513
 232  399.5685
 233  507.6001
 234  544.675
 235  369.6718
 236  197.0523
 237  230.1081
 238  341.3755
 239  228.7527
 240  225.627
 241  276.8722
 242  278.5499
 243  310.7554
 244  394.8556
 245  585.8788
 246  554.6043
 247  451.1307
 248  517.5424
 249  514.2579
 250  530.0923
 251  398.9124
 252  422.6369
 253  407.5219
 254  471.2438
 255  442.9091
 256  471.0913
 257  508.8574
 258  452.472
 259  457.047
 260  422.7112
 261  502.543
 262  521.0036
 263  417.0371
 264  368.6446
 265  299.1465
 266  258.7245
 267  377.1957
 268  499.9709
 269  481.2807
 270  430.3682
 271  431.5063
 272  445.8887
 273  404.3118
 274  351.3488
 275  459.0905
 276  450.8831
 277  428.2841
 278  397.114
 279  433.2985
 280  401.8193
 281  391.9785
 282  455.6416
 283  392.1788
 284  428.1508
 285  413.3302
 286  416.9655
 287  365.0094
 288  449.2031
 289  347.7054
 290  231.1572
 291  144.606
 292  392.1884
 293  407.424
 294  340.1555
 295  342.41
 296  453.9359
 297  599.7195
 298  624.8601
 299  578.4821
 300  543.3901
 301  390.0432
 302  410.7744
 303  401.0724
 304  368.8468
 305  374.2739
 306  420.4604
 307  401.5984
 308  335.4686
 309  279.5705
 310  292.4496
 311  230.5903
 312  208.852
 313  349.1435
 314  463.2102
 315  581.7764
 316  496.0651
 317  455.5932
 318  384.5761
 319  455.3565
 320  417.3976
 321  403.5542
 322  442.8425
 323  442.4771
 324  385.1647
 325  309.6488
 326  373.6591
 327  435.902
 328  462.5501
 329  517.6784
 330  485.5242
 331  412.3417
 332  278.7809
 333  401.871
 334  423.6934
 335  450.1505
 336  400.143
 337  503.9576
 338  502.2818
 339  495.5678
 340  483.7653
 341  448.462
 342  422.3326
 343  434.3191
 344  390.3075
 345  342.2026
 346  263.9828
 347  446.7102
 348  616.687
 349  586.8189
 350  526.0704
 351  444.7448
 352  406.9609
 353  282.8865
 354  239.0217
 355  352.8336
 356  376.4091
 357  374.6727
 358  313.5283
 359  341.6911
 360  408.5129
 361  359.2649
 362  364.8931
 363  427.2907
 364  572.001
 365  503.8691
 366  454.8381
 367  487.2408
 368  540.6377
 369  461.6011
 370  424.4408
 371  391.7837
 372  382.7247
 373  309.7028
 374  180.2537
 375  183.8844
 376  217.4341
 377  394.1847
 378  445.8404
 379  534.8759
 380  454.1029
 381  471.6604
 382  327.6113
 383  336.1165
 384  278.9235
 385  326.1931
 386  320.8978
 387  369.5984
 388  364.5322
 389  309.2333
 390  227.8094
 391  365.2951
 392  396.4649
 393  478.1959
 394  482.2806
 395  654.9461
 396  498.0223
 397  395.6935
 398  308.9133
 399  409.7842
 400  434.0565
 401  434.6814
 402  433.0349
 403  285.5414
 404  278.8688
 405  354.5184
 406  434.9037
 407  412.4317
 408  458.5717
 409  523.0803
 410  436.959
 411  439.8239
 412  623.8602
 413  734.8602
 414  680.6978
 415  565.2168
 416  639.7834
 417  558.8597
 418  444.0886
 419  353.8947
 420  419.757
 421  416.2718
 422  391.6879
 423  403.7978
 424  314.7737
 425  322.8363
 426  289.3858
 427  380.356
 428  366.5568
 429  351.7846
 430  236.174
 431  259.905
 432  437.1647
 433  604.7915
 434  559.6721
 435  480.6501
 436  502.155
 437  573.5389
 438  517.916
 439  514.7377
 440  415.7141
 441  410.1879
 442  409.0652
 443  526.0142
 444  508.1024
 445  363.0747
 446  400.0412
 447  413.3763
 448  395.2108
 449  254.8414
 450  277.1771
 451  411.5052
 452  592.1984
 453  609.1686
 454  507.0526
 455  428.5383
 456  548.5019
 457  534.5891
 458  486.3829
 459  405.4907
 460  543.4495
 461  403.35
 462  409.3109
 463  408.8182
 464  504.4705
 465  402.9702
 466  374.395
 467  405.1069
 468  323.3496
 469  244.7082
 470  339.5544
 471  369.2976
 472  272.7563
 473  196.5805
 474  243.2001
 475  332.5148
 476  438.7287
 477  613.8831
 478  557.5227
 479  483.473
 480  469.8296
 481  575.4451
 482  405.0185
 483  241.4057
 484  205.5342
 485  347.4395
 486  317.6161
 487  250.6705
 488  282.5335
 489  330.5217
 490  293.1227
 491  208.7294
 492  188.3588
 493  354.8004
 494  371.7782
 495  325.81
 496  261.058
 497  382.9409
 498  367.2706
 499  349.2753
 500  292.7911
 501  431.5609
 502  405.4335
 503  380.6027
 504  350.5735
 505  435.4854
 506  440.4685
 507  368.3447
 508  395.7078
 509  415.4996
 510  469.085
 511  432.7427
 512  442.2142
 513  430.8966
 514  385.6393
 515  469.7842
 516  542.6658
 517  562.7466
 518  488.3504
 519  469.192
 520  445.7276
 521  362.0836
 522  193.3097
 523  232.865
 524  371.1611
 525  465.041
 526  480.8897
 527  529.1974
 528  603.9935
 529  544.3716
 530  453.5368
 531  472.1678
 532  579.6917
 533  516.5352
 534  391.073
 535  431.8641
 536  400.8019
 537  410.3109
 538  269.6653
 539  356.9861
 540  251.4934
 541  216.7973
 542  221.4305
 543  402.225
 544  327.3701
 545  315.4386
 546  335.7663
 547  488.7482
 548  466.1728
 549  409.5978
 550  281.6906
 551  178.9716
 552  168.5036
 553  349.2201
 554  402.8309
 555  479.3821
 556  414.1526
 557  357.2144
 558  293.5939
 559  129.7254
 560  44.26889
 561  26.44773
 562  392.1067
 563  506.6142
 564  473.67
 565  303.1663
 566  359.523
 567  319.5514
 568  393.5663
 569  340.0865
 570  424.9988
 571  380.6024
 572  422.7567
 573  515.4584
 574  519.3318
 575  465.2054
 576  464.3507
 577  438.1271
 578  458.898
 579  394.9754
 580  571.8338
 581  650.8324
 582  600.2141
 583  464.0314
 584  415.4792
 585  483.4152
 586  526.4129
 587  497.6194
 588  423.2905
 589  443.2716
 590  505.5703
 591  474.3162
 592  362.953
 593  271.2245
 594  144.8358
 595  208.1907
 596  397.9116
 597  546.1702
 598  501.1713
 599  514.7099
 600  562.1759
 601  648.6259
 602  463.1308
 603  494.3771
 604  401.5275
 605  311.4253
 606  276.0619
 607  279.6237
 608  454.1461
 609  459.7044
 610  518.9122
 611  600.7771
 612  603.9298
 613  553.9649
 614  528.3624
 615  547.1884
 616  481.7831
 617  405.9767
 618  440.9039
 619  472.1127
 620  507.7412
 621  424.679
 622  395.5431
 623  463.946
 624  526.0072
 625  572.9011
 626  577.4454
 627  714.4724
 628  703.4734
 629  495.8321
 630  382.8185
 631  381.2845
 632  418.2922
 633  435.2306
 634  507.7285
 635  620.0103
 636  585.2819
 637  634.4698
 638  756.6119
 639  796.8953
 640  780.4078
 641  917.2075
 642  1143.885
 643  1203.405
 644  1177.518
 645  1211.995
 646  1102.883
 647  1086.224
 648  1069.667
 649  1143.494
 650  1073.927
 651  912.501
 652  716.5911
 653  489.0756
 654  398.7747
 655  422.6936
 656  544.5746
 657  621.9067
 658  575.8588
 659  460.8125
 660  302.4443
 661  349.5085
 662  403.9351
 663  458.2359
 664  330.7827
 665  324.0138
 666  331.0524
 667  391.4547
 668  462.0266
 669  418.9927
 670  426.7577
 671  410.9824
 672  562.505
 673  591.2141
 674  514.0634
 675  445.7589
 676  486.4979
 677  491.7518
 678  450.8492
 679  355.8595
 680  467.5374
 681  426.008
 682  470.4796
 683  436.0989
 684  471.7031
 685  410.6526
 686  462.6381
 687  398.9712
 688  361.5185
 689  313.3444
 690  361.9655
 691  322.5453
 692  419.7621
 693  394.3425
 694  335.5901
 695  309.5883
 696  382.2379
 697  427.9266
 698  364.8561
 699  363.9277
 700  397.8683
 701  339.551
 702  235.3373
 703  424.1239
 704  536.5945
 705  569.0041
 706  455.1312
 707  366.7377
 708  232.3744
 709  209.5364
 710  430.03
 711  604.7602
 712  549.8094
 713  436.2404
 714  347.2317
 715  383.2826
 716  498.2707
 717  550.0031
 718  484.194
 719  340.7362
 720  279.5221
 721  263.6594
 722  331.266
 723  403.2253
 724  405.7398
 725  385.4471
 726  418.414
 727  436.4908
 728  424.0392
 729  482.9236
 730  597.1162
 731  570.5504
 732  424.0311
 733  357.2339
 734  422.5929
 735  371.3603
 736  417.2442
 737  566.3185
 738  643.6547
 739  570.5107
 740  500.2789
 741  496.9437
 742  416.0486
 743  388.0648
 744  488.3174
 745  505.5107
 746  380.6999
 747  295.0537
 748  263.2686
 749  232.867
 750  132.9514
 751  212.201
 752  193.3851
 753  331.3058
 754  321.8525
 755  384.3327
 756  205.9479
 757  281.0601
 758  395.1075
 759  441.1281
 760  406.8221
 761  470.6577
 762  442.8294
 763  400.5694
 764  362.5143
 765  444.7851
 766  391.0655
 767  359.6636
 768  442.2306
 769  472.6133
 770  473.3105
 771  500.3819
 772  486.6387
 773  412.1389
 774  394.3158
 775  495.7467
 776  555.7965
 777  479.6877
 778  333.542
 779  302.5548
 780  361.6074
 781  462.2579
 782  516.2724
 783  462.5984
 784  439.1002
 785  367.7986
 786  369.7239
 787  315.4959
 788  423.5048
 789  374.4891
 790  398.4259
 791  398.6961
 792  453.5048
 793  280.1207
 794  349.3196
 795  461.3498
 796  706.432
 797  613.367
 798  578.5503
 799  646.9057
 800  670.7034
 801  603.9689
 802  530.769
 803  590.8179
 804  603.574
 805  609.5981
 806  546.2334
 807  570.798
 808  499.4001
 809  498.5262
 810  454.5319
 811  363.8973
 812  350.8444
 813  446.3047
 814  473.8978
 815  492.0436
 816  424.7968
 817  412.606
 818  337.3731
 819  388.2232
 820  297.7461
 821  261.1551
 822  259.0522
 823  420.0672
 824  351.8885
 825  298.3735
 826  351.6651
 827  484.9652
 828  412.3233
 829  371.0978
 830  397.628
 831  342.2852
 832  315.7913
 833  289.8016
 834  397.6979
 835  482.4118
 836  551.7495
 837  499.795
 838  403.9111
 839  343.1694
 840  495.6835
 841  596.6234
 842  569.285
 843  570.2704
 844  602.4521
 845  669.6707
 846  700.6138
 847  662.641
 848  585.0576
 849  421.1199
 850  299.4753
 851  296.4325
 852  293.4472
 853  388.2916
 854  357.9831
 855  416.8989
 856  480.094
 857  631.6218
 858  524.8924
 859  418.7181
 860  347.1181
 861  405.7555
 862  400.0467
 863  457.6156
 864  535.1732
 865  519.0883
 866  467.9668
 867  472.4938
 868  395.6629
 869  388.1285
 870  384.313
 871  594.9014
 872  523.2793
 873  454.9149
 874  386.9956
 875  428.4979
 876  438.8474
 877  374.3486
 878  371.0745
 879  344.5981
 880  337.1942
 881  445.3105
 882  470.6033
 883  421.6703
 884  423.2363
 885  372.1407
 886  358.5226
 887  351.6309
 888  421.2176
 889  453.8172
 890  382.2351
 891  359.2492
 892  319.6767
 893  320.9683
 894  480.8596
 895  509.386
 896  449.1454
 897  265.8341
 898  224.6121
 899  216.7298
 900  367.3625
 901  444.7846
 902  466.5242
 903  494.8008
 904  553.3232
 905  555.8327
 906  420.8491
 907  387.5435
 908  471.5175
 909  553.2116
 910  526.1218
 911  474.2197
 912  405.2298
 913  370.5219
 914  399.8319
 915  466.7253
 916  499.1178
 917  461.3744
 918  507.8872
 919  632.7776
 920  583.0527
 921  526.0152
 922  426.6861
 923  456.468
 924  488.3847
 925  640.8526
 926  623.231
 927  531.5919
 928  445.9464
 929  418.9835
 930  376.5646
 931  352.7664
 932  404.6407
 933  425.5146
 934  395.7813
 935  423.4054
 936  517.3274
 937  483.8962
 938  420.0937
 939  439.4125
 940  498.7075
 941  362.9533
 942  268.408
 943  311.1736
 944  483.3249
 945  411.8938
 946  425.423
 947  368.7408
 948  447.0501
 949  430.503
 950  503.975
 951  530.0386
 952  502.3317
 953  455.5875
 954  363.6888
 955  229.8498
 956  322.1215
 957  334.7696
 958  459.967
 959  450.4904
 960  510.9942
 961  340.8127
 962  246.5915
 963  241.1443
 964  371.4238
 965  375.8319
 966  394.7799
 967  408.3041
 968  385.7186
 969  277.2897
 970  308.6928
 971  361.853
 972  329.5299
 973  252.2278
 974  283.1131
 975  394.1208
 976  393.0377
 977  377.9917
 978  205.0702
 979  201.2019
 980  253.8096
 981  312.6229
 982  345.6825
 983  354.0956
 984  353.0635
 985  294.2609
 986  308.5443
 987  368.0638
 988  313.9479
 989  317.6761
 990  283.5632
 991  398.2047
 992  299.0409
 993  366.8358
 994  428.8409
 995  366.5257
 996  227.6375
 997  168.7608
 998  251.6194
 999  175.8892
1000  145.5967
1001  287.9265
1002  295.9247
1003  359.029
1004  485.3018
1005  650.1471
1006  498.8497
1007  422.196
1008  456.0278
1009  445.7548
1010  255.9453
1011  238.0302
1012  380.1796
1013  407.9918
1014  267.255
1015  192.3631
1016  176.3335
1017  268.6974
1018  371.2127
1019  487.0115
1020  430.8875
1021  437.7868
1022  362.5692
1023  386.0801
