# Input file       =  1187990819.111274_cleaned.dat
# Candidate        =  PSR_0332+5434
# Telescope        =  AR
# Epoch_topo       =  57993.893959621229
# Epoch_bary       =  N/A
# T_sample         =  0.002
# Data Folded      =  7208960
# Data Avg         =  0.0632461517763495
# Data StdDev      =  3.0102158960153  
# Profile Bins     =  1024
# Profile Avg      =  445.246677290662 
# Profile StdDev   =  252.571285331463 
# Reduced chi-sqr  =  1.167
# Prob(Noise)      <  0.00016   (~3.6 sigma)
# P_topo (ms)      =  714.463335692286  +/- 0.000117
# P'_topo (s/s)    =  -0                +/- 6.31e-11
# P''_topo (s/s^2) =  0                 +/- 2.83e-14
# P_bary (ms)      =  N/A
# P'_bary (s/s)    =  N/A
# P''_bary (s/s^2) =  N/A
# P_orb (s)        =  N/A
# asin(i)/c (s)    =  N/A
# eccentricity     =  N/A
# w (rad)          =  N/A
# T_peri           =  N/A
######################################################
   0  583.9979
   1  553.1369
   2  469.0334
   3  400.976
   4  417.0583
   5  255.429
   6  274.0091
   7  362.5734
   8  516.0718
   9  442.5829
  10  404.2091
  11  351.3596
  12  324.805
  13  311.8315
  14  420.2147
  15  433.341
  16  633.6628
  17  672.929
  18  590.012
  19  380.6831
  20  304.8038
  21  440.2407
  22  559.9189
  23  621.3934
  24  566.0561
  25  368.0883
  26  215.253
  27  150.6978
  28  174.5573
  29  353.9459
  30  435.8009
  31  590.3638
  32  560.177
  33  421.4283
  34  358.5432
  35  264.8763
  36  247.3335
  37  200.0566
  38  257.1632
  39  282.0941
  40  223.4935
  41  184.3478
  42  242.9936
  43  276.8651
  44  339.5396
  45  255.1931
  46  202.1959
  47  230.1763
  48  274.6148
  49  314.6925
  50  378.3259
  51  533.9399
  52  614.9777
  53  544.2923
  54  464.8559
  55  319.272
  56  207.9026
  57  120.2391
  58  92.63118
  59  49.60881
  60  129.6457
  61  312.874
  62  446.3797
  63  362.3233
  64  318.5779
  65  395.5882
  66  479.0695
  67  543.3542
  68  608.9854
  69  643.8608
  70  634.9614
  71  500.3271
  72  413.405
  73  296.8913
  74  335.2799
  75  327.3329
  76  397.1042
  77  323.6956
  78  314.5454
  79  272.0798
  80  343.8874
  81  454.5851
  82  610.3546
  83  625.8937
  84  554.9948
  85  467.083
  86  485.7997
  87  475.5099
  88  378.8531
  89  263.1922
  90  158.318
  91  219.2352
  92  303.1547
  93  425.4297
  94  508.1865
  95  573.3497
  96  632.5192
  97  659.2994
  98  692.3477
  99  705.4282
 100  587.8739
 101  507.6843
 102  395.1793
 103  311.8127
 104  223.7807
 105  234.7719
 106  373.092
 107  390.1346
 108  439.2509
 109  428.7426
 110  527.0817
 111  452.6447
 112  424.4915
 113  430.2939
 114  483.9077
 115  520.1038
 116  532.8603
 117  443.0535
 118  326.6546
 119  289.7548
 120  408.5236
 121  418.591
 122  354.6325
 123  359.4696
 124  326.6653
 125  277.4464
 126  189.7057
 127  308.6152
 128  294.9464
 129  286.2211
 130  335.9874
 131  415.3933
 132  395.3166
 133  344.142
 134  387.5282
 135  425.0433
 136  380.6223
 137  378.4834
 138  411.5479
 139  415.6876
 140  405.0318
 141  338.4662
 142  293.062
 143  295.0944
 144  368.9852
 145  458.2599
 146  545.2363
 147  555.6243
 148  472.8029
 149  460.2076
 150  536.1454
 151  507.5304
 152  430.7008
 153  389.7004
 154  373.6571
 155  357.0777
 156  386.1039
 157  395.7195
 158  320.2782
 159  306.954
 160  459.5271
 161  582.0088
 162  549.3657
 163  486.7407
 164  482.4415
 165  261.6589
 166  170.6179
 167  208.1911
 168  336.0068
 169  318.775
 170  251.5015
 171  270.4957
 172  222.1939
 173  213.471
 174  241.8736
 175  285.502
 176  328.8409
 177  419.4194
 178  524.9271
 179  542.0768
 180  439.7449
 181  441.8723
 182  521.8644
 183  503.8812
 184  500.7211
 185  471.2083
 186  460.8722
 187  333.5748
 188  296.9713
 189  284.9255
 190  387.3477
 191  401.2611
 192  407.7986
 193  387.8564
 194  489.4273
 195  583.6389
 196  528.7249
 197  472.1757
 198  447.6953
 199  487.0432
 200  489.832
 201  353.1828
 202  440.3144
 203  466.2773
 204  470.1988
 205  315.8238
 206  334.0826
 207  374.5934
 208  415.7101
 209  366.9626
 210  415.8871
 211  383.5326
 212  357.4205
 213  297.2884
 214  320.3975
 215  436.7838
 216  465.7048
 217  502.8537
 218  484.4744
 219  538.6615
 220  462.3399
 221  476.5197
 222  473.1914
 223  506.8229
 224  410.0397
 225  314.1638
 226  293.4778
 227  333.1074
 228  428.1971
 229  555.8799
 230  660.6797
 231  639.2737
 232  653.5972
 233  651.9251
 234  549.8318
 235  403.5475
 236  337.5348
 237  278.2379
 238  241.8343
 239  254.1656
 240  368.9331
 241  409.0256
 242  352.614
 243  307.9077
 244  189.2193
 245  206.0215
 246  286.4973
 247  298.8515
 248  316.8009
 249  336.6373
 250  489.8037
 251  526.1479
 252  454.4619
 253  348.5044
 254  208.7981
 255  146.9773
 256  126.7739
 257  35.90248
 258  90.96706
 259  185.5052
 260  358.0301
 261  395.1345
 262  412.8716
 263  411.3474
 264  534.2853
 265  582.6424
 266  640.0695
 267  641.4574
 268  652.356
 269  568.0922
 270  560.1143
 271  483.157
 272  479.8969
 273  404.2223
 274  472.7915
 275  526.9317
 276  556.9921
 277  577.262
 278  459.0232
 279  359.666
 280  373.1262
 281  507.9587
 282  524.0852
 283  478.3284
 284  510.7754
 285  484.2419
 286  484.2662
 287  438.6444
 288  420.9308
 289  410.9893
 290  416.4386
 291  421.6626
 292  397.4444
 293  411.7661
 294  428.9071
 295  588.1263
 296  583.268
 297  562.3194
 298  586.8881
 299  554.277
 300  620.5983
 301  566.9347
 302  499.1876
 303  335.5061
 304  346.7294
 305  372.2676
 306  321.275
 307  296.5031
 308  289.2112
 309  307.2733
 310  236.0982
 311  433.4123
 312  592.1328
 313  662.967
 314  522.6793
 315  553.1369
 316  548.0596
 317  577.3935
 318  422.9961
 319  369.5889
 320  259.7818
 321  415.368
 322  473.9562
 323  610.7945
 324  586.0447
 325  638.8066
 326  652.692
 327  504.9182
 328  436.9041
 329  438.1389
 330  485.4536
 331  456.1154
 332  535.5843
 333  605.6655
 334  630.9493
 335  549.1061
 336  529.9041
 337  601.1711
 338  655.5883
 339  598.7728
 340  464.8681
 341  363.5984
 342  366.6404
 343  426.7927
 344  456.065
 345  523.6087
 346  577.6682
 347  581.9171
 348  572.9364
 349  640.3157
 350  676.3285
 351  605.007
 352  511.0597
 353  383.0682
 354  274.3123
 355  409.6984
 356  625.2379
 357  694.9996
 358  616.8466
 359  557.5541
 360  519.4438
 361  462.5608
 362  423.702
 363  412.0093
 364  445.0998
 365  434.0841
 366  492.0222
 367  401.4877
 368  347.3754
 369  416.6372
 370  481.6703
 371  432.2199
 372  352.0186
 373  378.6013
 374  437.1219
 375  479.0539
 376  400.9263
 377  301.9555
 378  209.6251
 379  244.6383
 380  335.3753
 381  434.3647
 382  686.7296
 383  733.6299
 384  731.4285
 385  591.9371
 386  500.5338
 387  313.861
 388  228.488
 389  207.5664
 390  354.1328
 391  494.0073
 392  555.6348
 393  441.4489
 394  432.8883
 395  409.1355
 396  433.4744
 397  570.83
 398  585.0472
 399  658.1309
 400  518.793
 401  530.6699
 402  466.4363
 403  443.9836
 404  482.3756
 405  413.1904
 406  335.0905
 407  330.1534
 408  343.568
 409  396.2804
 410  495.863
 411  624.538
 412  631.1664
 413  551.5157
 414  586.1755
 415  601.9461
 416  548.5084
 417  458.3635
 418  445.193
 419  407.739
 420  315.7434
 421  198.9648
 422  246.6971
 423  339.666
 424  439.184
 425  442.1676
 426  472.5838
 427  508.6796
 428  449.9474
 429  425.9579
 430  439.9735
 431  461.978
 432  489.8863
 433  449.8049
 434  476.6407
 435  415.5225
 436  482.5022
 437  530.7441
 438  572.1608
 439  434.0911
 440  389.5514
 441  366.8919
 442  467.4328
 443  484.3542
 444  595.083
 445  503.3601
 446  428.3943
 447  359.3757
 448  518.4788
 449  545.9109
 450  583.3246
 451  559.7006
 452  676.1168
 453  618.0991
 454  570.9056
 455  479.9838
 456  373.7047
 457  323.3278
 458  373.6504
 459  440.0045
 460  435.2368
 461  427.8245
 462  557.6842
 463  532.6638
 464  539.2107
 465  562.9513
 466  554.0724
 467  430.6941
 468  434.4436
 469  519.4695
 470  489.3578
 471  460.3643
 472  567.1112
 473  620.0764
 474  617.441
 475  536.7323
 476  626.2272
 477  562.074
 478  425.8774
 479  393.0016
 480  280.7476
 481  394.5349
 482  460.2206
 483  600.268
 484  525.3231
 485  471.2429
 486  467.6124
 487  418.8594
 488  469.652
 489  511.5342
 490  621.6835
 491  521.4883
 492  504.6402
 493  594.3213
 494  557.4821
 495  379.8244
 496  310.6835
 497  469.603
 498  611.4012
 499  580.8474
 500  538.7089
 501  534.0146
 502  456.0638
 503  491.9644
 504  476.7399
 505  451.3167
 506  398.284
 507  403.6995
 508  505.0132
 509  690.7175
 510  739.1038
 511  629.2551
 512  468.2972
 513  410.6364
 514  395.533
 515  377.4117
 516  434.2067
 517  502.1186
 518  437.9984
 519  403.7725
 520  425.3628
 521  491.1084
 522  482.2383
 523  469.465
 524  531.957
 525  532.8285
 526  507.6821
 527  581.3178
 528  580.0602
 529  728.7493
 530  667.6192
 531  742.9514
 532  645.2504
 533  622.5983
 534  614.3295
 535  501.8147
 536  408.0115
 537  449.6402
 538  512.8497
 539  422.0266
 540  423.1256
 541  474.6278
 542  569.3366
 543  459.4147
 544  393.1186
 545  391.5583
 546  360.0966
 547  393.5411
 548  306.2772
 549  222.6387
 550  170.4235
 551  257.3609
 552  411.4941
 553  480.6248
 554  488.0141
 555  618.3499
 556  686.4747
 557  649.4309
 558  522.1447
 559  528.4987
 560  599.6562
 561  595.9877
 562  487.5478
 563  480.7966
 564  440.4516
 565  441.6691
 566  314.6515
 567  329.025
 568  367.7388
 569  355.5321
 570  262.6917
 571  352.6253
 572  390.2618
 573  391.0258
 574  294.2602
 575  395.3902
 576  475.1907
 577  455.5341
 578  412.2628
 579  568.0801
 580  618.7719
 581  684.5721
 582  572.1566
 583  472.9135
 584  346.1664
 585  317.0007
 586  357.5375
 587  448.4631
 588  414.5507
 589  604.159
 590  667.0657
 591  685.7308
 592  616.0643
 593  495.4429
 594  388.2838
 595  415.8673
 596  511.3874
 597  465.3929
 598  251.5869
 599  275.248
 600  339.3654
 601  436.8184
 602  463.9036
 603  617.8143
 604  621.5862
 605  512.4474
 606  389.7389
 607  354.5167
 608  311.9753
 609  361.5833
 610  509.634
 611  546.4789
 612  489.4333
 613  408.9963
 614  337.5139
 615  390.3152
 616  440.1063
 617  521.1163
 618  543.8208
 619  463.7442
 620  461.6225
 621  398.4784
 622  459.9546
 623  433.5012
 624  433.8512
 625  482.9402
 626  531.0797
 627  652.9318
 628  658.8017
 629  658.1264
 630  669.194
 631  655.1395
 632  667.9952
 633  648.8598
 634  695.5488
 635  679.4006
 636  730.6523
 637  815.2368
 638  856.4861
 639  887.8381
 640  925.6454
 641  938.771
 642  1018.982
 643  1143.369
 644  1289.017
 645  1311.484
 646  1360.524
 647  1422.682
 648  1420.149
 649  1289.858
 650  1245.237
 651  1178.637
 652  1015.972
 653  810.4545
 654  723.0898
 655  632.2854
 656  593.499
 657  581.3978
 658  496.1889
 659  357.9868
 660  389.0447
 661  587.9752
 662  652.6973
 663  553.2701
 664  554.8011
 665  580.5977
 666  596.9103
 667  532.2361
 668  440.2705
 669  429.2858
 670  502.9049
 671  559.2674
 672  586.9699
 673  540.3227
 674  573.1928
 675  567.4576
 676  567.6899
 677  553.759
 678  551.5143
 679  535.6923
 680  400.2395
 681  299.0797
 682  314.0998
 683  465.0791
 684  550.5541
 685  495.3972
 686  433.3076
 687  316.5921
 688  262.3854
 689  199.0177
 690  301.9852
 691  384.4536
 692  467.0103
 693  412.7938
 694  446.3148
 695  443.9596
 696  332.1843
 697  299.7466
 698  193.9754
 699  251.9944
 700  314.4189
 701  441.028
 702  545.1974
 703  422.7943
 704  384.1592
 705  332.2668
 706  305.1009
 707  284.1995
 708  344.7282
 709  524.5495
 710  533.1099
 711  422.1515
 712  344.492
 713  339.8555
 714  229.2876
 715  337.5031
 716  412.181
 717  407.3806
 718  252.6186
 719  254.7968
 720  305.4564
 721  319.5716
 722  335.2879
 723  410.1628
 724  383.8979
 725  375.0378
 726  420.1531
 727  425.5212
 728  395.4889
 729  395.5616
 730  390.946
 731  294.0064
 732  222.6707
 733  320.08
 734  436.0807
 735  465.3213
 736  364.3448
 737  425.397
 738  465.4939
 739  542.0526
 740  539.954
 741  491.3416
 742  470.0988
 743  496.7021
 744  486.0518
 745  451.9889
 746  480.531
 747  523.2947
 748  526.0457
 749  517.5116
 750  435.7486
 751  376.7174
 752  295.3354
 753  465.2968
 754  662.6087
 755  594.1322
 756  469.5152
 757  427.3335
 758  537.3745
 759  603.8903
 760  606.9999
 761  575.0616
 762  470.9305
 763  401.4686
 764  420.8897
 765  468.1555
 766  458.5912
 767  514.8648
 768  493.3007
 769  447.0926
 770  324.8037
 771  215.2677
 772  312.5849
 773  420.2286
 774  546.4066
 775  307.7572
 776  371.2391
 777  552.0552
 778  680.6537
 779  499.3936
 780  356.836
 781  340.964
 782  301.1584
 783  307.559
 784  389.2542
 785  407.26
 786  263.6353
 787  254.1599
 788  388.1811
 789  402.3952
 790  270.3977
 791  229.6854
 792  315.1153
 793  296.7837
 794  334.226
 795  355.9861
 796  402.7974
 797  417.5751
 798  535.9938
 799  528.3864
 800  467.1713
 801  363.0754
 802  344.2079
 803  420.4716
 804  443.0278
 805  465.1949
 806  305.1422
 807  425.3012
 808  404.1212
 809  423.0222
 810  411.8489
 811  485.5649
 812  579.7715
 813  489.5536
 814  496.1768
 815  492.3336
 816  483.1836
 817  424.7878
 818  463.1912
 819  479.7203
 820  482.5649
 821  452.0529
 822  500.002
 823  478.7129
 824  520.935
 825  566.8086
 826  596.0374
 827  551.5728
 828  516.7516
 829  439.2167
 830  388.7692
 831  433.8512
 832  440.0449
 833  361.1507
 834  328.9407
 835  473.379
 836  576.0453
 837  600.6369
 838  474.9388
 839  483.8127
 840  376.7462
 841  318.1823
 842  448.5574
 843  552.3508
 844  677.1584
 845  636.2357
 846  637.6129
 847  494.1674
 848  360.5944
 849  411.9173
 850  445.3617
 851  494.9634
 852  555.9803
 853  676.5078
 854  643.6982
 855  556.0132
 856  573.3433
 857  555.56
 858  448.3116
 859  349.1929
 860  387.2094
 861  433.12
 862  411.7499
 863  394.2045
 864  353.6435
 865  430.1238
 866  481.0066
 867  532.4706
 868  501.1835
 869  431.7999
 870  551.0694
 871  465.7944
 872  499.6927
 873  461.6835
 874  503.5989
 875  410.2849
 876  410.2895
 877  415.1068
 878  429.8973
 879  349.5117
 880  387.8074
 881  335.8818
 882  268.8502
 883  242.5543
 884  373.9915
 885  499.5263
 886  682.3939
 887  641.7465
 888  499.0592
 889  419.6569
 890  533.3965
 891  656.716
 892  549.2916
 893  350.1817
 894  194.6221
 895  236.2497
 896  273.4331
 897  356.605
 898  262.6367
 899  183.4232
 900  175.3204
 901  298.6465
 902  333.4991
 903  292.7194
 904  339.5486
 905  369.0573
 906  405.9634
 907  402.3135
 908  399.0521
 909  284.4079
 910  329.3092
 911  382.9722
 912  499.5276
 913  412.438
 914  335.4968
 915  224.5365
 916  164.2902
 917  221.7817
 918  272.6538
 919  303.305
 920  347.3353
 921  355.4811
 922  353.3889
 923  326.9799
 924  289.2772
 925  406.9071
 926  383.3979
 927  445.8564
 928  493.2108
 929  455.7516
 930  409.2527
 931  303.5709
 932  261.6588
 933  234.7879
 934  308.2539
 935  289.7114
 936  229.9711
 937  225.9759
 938  407.4624
 939  427.1471
 940  485.3387
 941  546.3243
 942  662.5412
 943  613.4987
 944  507.8195
 945  530.1213
 946  474.748
 947  468.1719
 948  360.2973
 949  367.5587
 950  300.8801
 951  256.3054
 952  299.4686
 953  238.0669
 954  244.9992
 955  305.0328
 956  388.3501
 957  355.0867
 958  305.199
 959  352.3928
 960  325.7387
 961  171.8363
 962  151.2033
 963  189.3222
 964  279.427
 965  305.9701
 966  427.898
 967  392.247
 968  468.7969
 969  460.6073
 970  473.2754
 971  332.0224
 972  369.317
 973  429.5667
 974  442.9019
 975  352.0663
 976  359.9427
 977  394.1731
 978  366.3363
 979  417.685
 980  401.3153
 981  361.5082
 982  337.5997
 983  391.7404
 984  453.0441
 985  368.0993
 986  343.1279
 987  383.6817
 988  413.7742
 989  374.345
 990  372.2608
 991  300.5822
 992  330.1416
 993  363.0898
 994  414.361
 995  450.5636
 996  413.7289
 997  359.2792
 998  392.7046
 999  375.0036
1000  313.2575
1001  270.3029
1002  212.1211
1003  322.3935
1004  333.4945
1005  435.6237
1006  450.6382
1007  456.7408
1008  368.6108
1009  417.7349
1010  526.6251
1011  529.1288
1012  438.7673
1013  452.6164
1014  463.1524
1015  265.296
1016  153.5574
1017  225.7013
1018  296.6418
1019  325.0565
1020  402.24
1021  432.8363
1022  349.8958
1023  378.3746
