# Input file       =  1187143878.108323_cleaned.dat
# Candidate        =  PSR_0332+5434
# Telescope        =  AR
# Epoch_topo       =  57984.091401716702
# Epoch_bary       =  N/A
# T_sample         =  0.002
# Data Folded      =  7340032
# Data Avg         =  0.0214284976536874
# Data StdDev      =  2.33345481341643 
# Profile Bins     =  512
# Profile Avg      =  306.90422505813  
# Profile StdDev   =  279.391630058329 
# Reduced chi-sqr  =  1.431
# Prob(Noise)      <  5.07e-10   (~6.1 sigma)
# P_topo (ms)      =  714.46407382627   +/- 0.000157
# P'_topo (s/s)    =  -0                +/- 8.31e-11
# P''_topo (s/s^2) =  0                 +/- 3.67e-14
# P_bary (ms)      =  N/A
# P'_bary (s/s)    =  N/A
# P''_bary (s/s^2) =  N/A
# P_orb (s)        =  N/A
# asin(i)/c (s)    =  N/A
# eccentricity     =  N/A
# w (rad)          =  N/A
# T_peri           =  N/A
######################################################
   0  -24.73713
   1  246.2979
   2  545.0901
   3  265.1315
   4  370.6952
   5  391.6367
   6  455.6461
   7  290.4609
   8  407.6577
   9  217.9354
  10  85.971
  11  253.4244
  12  276.1904
  13  455.2023
  14  477.1007
  15  301.7028
  16  -2.716243
  17  -141.1179
  18  21.39286
  19  202.3603
  20  255.4844
  21  12.14806
  22  424.8025
  23  543.7958
  24  516.5056
  25  223.9772
  26  82.43145
  27  418.9708
  28  482.6195
  29  365.8274
  30  551.863
  31  98.65573
  32  389.5878
  33  318.4045
  34  87.0888
  35  63.47684
  36  14.35155
  37  431.6106
  38  498.7728
  39  573.3498
  40  247.4052
  41  -1.582033
  42  9.462894
  43  93.97018
  44  208.8443
  45  571.9971
  46  605.5349
  47  304.2725
  48  380.1571
  49  373.0533
  50  393.6421
  51  674.8648
  52  786.1666
  53  736.152
  54  196.7797
  55  11.11986
  56  329.6812
  57  -1.444691
  58  219.943
  59  228.3761
  60  396.2855
  61  301.1076
  62  -74.98817
  63  -22.72016
  64  455.3177
  65  357.1997
  66  246.6458
  67  246.8642
  68  109.4986
  69  128.0117
  70  -97.34989
  71  151.858
  72  641.1231
  73  631.2341
  74  299.2401
  75  177.3922
  76  182.8184
  77  64.81914
  78  143.9314
  79  459.7341
  80  37.01068
  81  -89.55633
  82  200.2095
  83  388.5186
  84  569.6011
  85  484.2572
  86  253.2614
  87  -78.46355
  88  130.498
  89  212.1571
  90  89.82719
  91  60.20037
  92  -0.7173097
  93  189.895
  94  352.2599
  95  291.1529
  96  423.1055
  97  272.991
  98  203.4147
  99  152.9467
 100  164.0085
 101  -44.07529
 102  329.9708
 103  277.3049
 104  312.9909
 105  335.1131
 106  330.7628
 107  135.2833
 108  195.6748
 109  145.7375
 110  205.8663
 111  345.5758
 112  336.4763
 113  293.6139
 114  662.2672
 115  708.4792
 116  249.9965
 117  315.6631
 118  404.2632
 119  75.83595
 120  69.64751
 121  110.3229
 122  416.0816
 123  557.772
 124  337.4699
 125  188.7243
 126  136.9375
 127  430.4402
 128  386.1119
 129  221.0017
 130  774.9808
 131  640.8002
 132  256.2413
 133  87.41929
 134  210.2775
 135  337.3241
 136  380.1105
 137  459.6183
 138  550.7
 139  319.5429
 140  270.7718
 141  382.7584
 142  494.9717
 143  311.7055
 144  282.3687
 145  369.1866
 146  535.1066
 147  616.88
 148  494.9933
 149  299.1678
 150  333.9547
 151  322.7893
 152  259.4809
 153  122.2655
 154  335.7874
 155  449.7564
 156  521.8538
 157  376.3636
 158  400.0155
 159  771.4241
 160  160.4822
 161  -24.43043
 162  47.20987
 163  25.71002
 164  32.26324
 165  226.2057
 166  523.0981
 167  526.649
 168  620.1042
 169  322.3068
 170  347.6149
 171  337.3039
 172  154.8122
 173  231.0392
 174  400.4601
 175  575.4073
 176  574.2336
 177  527.7953
 178  570.7333
 179  490.754
 180  438.9382
 181  297.2721
 182  421.2468
 183  90.31418
 184  328.5085
 185  53.77997
 186  -16.36408
 187  114.4995
 188  246.0403
 189  243.8359
 190  300.0011
 191  596.3741
 192  470.4143
 193  537.1129
 194  310.2397
 195  142.2525
 196  392.0374
 197  418.896
 198  346.6103
 199  455.4327
 200  200.4018
 201  204.4749
 202  116.9817
 203  175.919
 204  51.55436
 205  60.32716
 206  401.1129
 207  21.76147
 208  308.5067
 209  531.5396
 210  460.56
 211  364.1944
 212  307.9579
 213  287.136
 214  145.041
 215  494.7075
 216  436.2395
 217  669.9456
 218  818.1995
 219  1352.358
 220  1699.16
 221  1754.971
 222  1869.679
 223  1464.098
 224  1091.461
 225  878.1226
 226  754.7359
 227  669.3204
 228  356.3995
 229  566.3722
 230  495.5688
 231  280.4532
 232  144.5356
 233  322.6451
 234  163.9335
 235  259.1304
 236  307.5403
 237  188.8368
 238  247.0419
 239  459.9707
 240  544.0399
 241  401.9326
 242  24.21681
 243  -243.0721
 244  194.358
 245  374.5596
 246  250.0319
 247  -65.17882
 248  -80.93008
 249  49.01157
 250  317.7236
 251  550.9144
 252  554.6924
 253  497.1998
 254  330.2207
 255  403.1615
 256  452.4484
 257  506.0863
 258  355.8014
 259  416.709
 260  267.0441
 261  14.29411
 262  75.29133
 263  222.297
 264  561.8136
 265  524.4112
 266  406.8984
 267  640.9252
 268  311.4152
 269  222.4308
 270  86.33269
 271  292.9657
 272  167.4388
 273  268.3086
 274  26.89122
 275  254.5461
 276  325.1262
 277  442.5545
 278  381.955
 279  -82.71317
 280  39.46671
 281  289.8506
 282  610.1673
 283  391.0901
 284  236.3881
 285  528.6718
 286  453.2384
 287  353.547
 288  566.024
 289  528.1249
 290  634.3363
 291  182.346
 292  -39.49596
 293  99.61927
 294  239.1951
 295  165.8467
 296  181.1514
 297  535.9266
 298  557.445
 299  426.8755
 300  454.5914
 301  498.7168
 302  443.0882
 303  507.7763
 304  305.2396
 305  -42.86096
 306  -185.1791
 307  119.1207
 308  437.172
 309  380.2369
 310  462.6078
 311  616.2881
 312  472.7902
 313  340.4073
 314  324.9213
 315  516.4907
 316  216.3202
 317  242.3491
 318  131.0832
 319  604.2036
 320  765.5112
 321  566.3782
 322  587.0509
 323  444.9672
 324  157.2494
 325  198.5356
 326  168.6712
 327  131.6171
 328  87.45695
 329  46.01611
 330  324.9829
 331  539.8887
 332  618.1326
 333  318.0804
 334  201.5643
 335  135.5513
 336  95.93601
 337  408.1241
 338  418.8022
 339  672.0596
 340  175.505
 341  277.6941
 342  755.3285
 343  683.0706
 344  541.4151
 345  191.2599
 346  377.4665
 347  356.4845
 348  256.8069
 349  35.38789
 350  111.4739
 351  -153.6233
 352  125.4411
 353  292.8727
 354  237.3452
 355  215.4139
 356  322.9402
 357  344.3218
 358  3.555133
 359  -321.8301
 360  -85.15319
 361  66.20232
 362  302.0902
 363  406.6681
 364  383.8024
 365  217.1379
 366  -127.9382
 367  111.6767
 368  263.691
 369  142.1678
 370  259.5661
 371  558.7274
 372  252.3186
 373  109.1917
 374  342.0109
 375  381.8055
 376  218.7203
 377  68.60696
 378  179.2296
 379  387.3814
 380  424.1175
 381  238.5863
 382  157.5612
 383  401.6856
 384  576.0312
 385  451.9981
 386  133.2202
 387  171.8003
 388  575.0549
 389  508.4808
 390  368.5585
 391  667.4572
 392  771.6055
 393  617.2389
 394  201.2632
 395  13.34609
 396  267.808
 397  414.6319
 398  358.4605
 399  606.4033
 400  120.7485
 401  32.01809
 402  133.2702
 403  109.881
 404  121.6889
 405  234.1089
 406  287.1898
 407  252.9557
 408  426.2466
 409  240.8978
 410  337.1854
 411  295.1583
 412  76.66066
 413  122.322
 414  -19.6061
 415  -31.42971
 416  298.6106
 417  563.2839
 418  420.6825
 419  261.2438
 420  181.1193
 421  245.2563
 422  182.8465
 423  180.2832
 424  30.05017
 425  -320.9763
 426  -104.6011
 427  496.2688
 428  397.6396
 429  189.4817
 430  -96.81804
 431  496.9836
 432  344.8737
 433  111.7047
 434  345.4626
 435  287.8682
 436  511.444
 437  366.3797
 438  201.1873
 439  261.205
 440  207.4264
 441  353.8496
 442  511.4766
 443  539.379
 444  308.7084
 445  -64.07895
 446  22.42144
 447  -176.7567
 448  113.423
 449  245.6592
 450  430.6639
 451  215.9741
 452  -112.4083
 453  -187.7212
 454  -46.92208
 455  25.10411
 456  122.3241
 457  195.0815
 458  175.1668
 459  325.3827
 460  163.9796
 461  220.0958
 462  238.2873
 463  112.1794
 464  404.5632
 465  85.31618
 466  132.6092
 467  46.4469
 468  315.5273
 469  323.566
 470  94.5773
 471  342.0302
 472  370.3368
 473  310.6518
 474  603.1626
 475  328.025
 476  161.8342
 477  222.2725
 478  172.4149
 479  363.9851
 480  281.016
 481  567.696
 482  623.7853
 483  380.4418
 484  311.4329
 485  471.6336
 486  355.1831
 487  348.9209
 488  390.4329
 489  546.6257
 490  429.6338
 491  244.3527
 492  70.99435
 493  101.6184
 494  132.2546
 495  285.3957
 496  340.6426
 497  209.6927
 498  236.9666
 499  253.8347
 500  309.2816
 501  276.7167
 502  168.2108
 503  99.88233
 504  148.9625
 505  93.15292
 506  175.005
 507  144.8091
 508  436.3933
 509  353.9272
 510  446.4618
 511  343.3031
