# Input file       =  1187417273.104428_cleaned.dat
# Candidate        =  PSR_0332+5434
# Telescope        =  AR
# Epoch_topo       =  57987.255695653104
# Epoch_bary       =  N/A
# T_sample         =  0.002
# Data Folded      =  7340032
# Data Avg         =  0.0200272900765412
# Data StdDev      =  2.69128729720948 
# Profile Bins     =  512
# Profile Avg      =  286.999689339111 
# Profile StdDev   =  322.235999857111 
# Reduced chi-sqr  =  1.724
# Prob(Noise)      <  4.32e-22   (~9.6 sigma)
# P_topo (ms)      =  714.463989275964  +/- 9.52e-05
# P'_topo (s/s)    =  -0                +/- 5.02e-11
# P''_topo (s/s^2) =  0                 +/- 2.22e-14
# P_bary (ms)      =  N/A
# P'_bary (s/s)    =  N/A
# P''_bary (s/s^2) =  N/A
# P_orb (s)        =  N/A
# asin(i)/c (s)    =  N/A
# eccentricity     =  N/A
# w (rad)          =  N/A
# T_peri           =  N/A
######################################################
   0  480.2801
   1  330.0724
   2  145.7819
   3  776.9122
   4  922.6872
   5  569.2603
   6  753.765
   7  927.3328
   8  816.7909
   9  713.7916
  10  1056.135
  11  1185.79
  12  1703.39
  13  2113.508
  14  2594.636
  15  2334.493
  16  1809.126
  17  1056.751
  18  770.4922
  19  219.1706
  20  217.9563
  21  731.0913
  22  741.1909
  23  396.8476
  24  200.1957
  25  537.9977
  26  761.3677
  27  502.6913
  28  642.5729
  29  379.4726
  30  539.3655
  31  682.0892
  32  354.1623
  33  188.3725
  34  85.79626
  35  225.0773
  36  547.6033
  37  192.5408
  38  -24.28419
  39  241.9292
  40  525.7755
  41  147.8777
  42  63.96133
  43  47.62252
  44  79.97436
  45  277.7332
  46  210.9649
  47  652.5373
  48  556.7666
  49  -10.88805
  50  161.0539
  51  698.4107
  52  751.6029
  53  642.9615
  54  465.3671
  55  878.3581
  56  733.3775
  57  63.95758
  58  412.2559
  59  316.1246
  60  519.1277
  61  73.67639
  62  122.6758
  63  54.82648
  64  114.1317
  65  132.6803
  66  287.1317
  67  170.9071
  68  313.4938
  69  568.7149
  70  543.9995
  71  261.7105
  72  472.0208
  73  238.7337
  74  3.299295
  75  387.934
  76  434.4297
  77  -27.47869
  78  93.72715
  79  274.8925
  80  351.8351
  81  449.1413
  82  533.8099
  83  758.4298
  84  595.9769
  85  401.0604
  86  222.541
  87  186.2975
  88  468.1321
  89  435.5242
  90  464.1135
  91  639.8426
  92  134.4964
  93  153.6154
  94  91.76986
  95  225.9766
  96  478.7501
  97  81.42336
  98  37.24237
  99  135.122
 100  239.5484
 101  124.3878
 102  -243.6975
 103  85.44602
 104  295.9274
 105  279.2205
 106  281.8983
 107  128.3265
 108  50.48567
 109  473.6482
 110  433.6995
 111  534.6871
 112  15.12307
 113  71.23259
 114  74.85605
 115  30.06494
 116  -168.8956
 117  68.4656
 118  477.6476
 119  317.6385
 120  43.54897
 121  278.7166
 122  118.2706
 123  -178.8792
 124  -240.5985
 125  -55.01935
 126  -13.93973
 127  361.8651
 128  297.9892
 129  241.2511
 130  513.8041
 131  123.7687
 132  45.09319
 133  -246.0193
 134  -273.5194
 135  59.74316
 136  24.10425
 137  240.9047
 138  454.5915
 139  483.8304
 140  -45.30731
 141  -44.92751
 142  339.5
 143  443.9758
 144  50.07003
 145  204.9141
 146  -13.41153
 147  -84.5322
 148  76.76936
 149  553.1895
 150  575.3054
 151  640.9946
 152  398.9459
 153  368.7139
 154  330.9303
 155  595.4236
 156  625.9003
 157  132.5184
 158  -122.551
 159  242.8445
 160  318.8075
 161  500.5912
 162  515.0111
 163  703.7332
 164  181.9831
 165  95.66599
 166  269.405
 167  197.13
 168  179.4379
 169  150.671
 170  -28.82774
 171  734.5262
 172  443.8641
 173  232.5791
 174  186.1662
 175  268.7684
 176  396.9662
 177  357.9046
 178  464.3727
 179  390.6931
 180  158.1038
 181  100.3733
 182  360.7129
 183  352.852
 184  430.8961
 185  212.7673
 186  111.9673
 187  450.489
 188  409.2681
 189  224.6932
 190  242.7861
 191  481.6617
 192  256.0357
 193  222.8446
 194  400.115
 195  418.2393
 196  187.8091
 197  146.8301
 198  -51.24178
 199  -21.97916
 200  252.1385
 201  275.5305
 202  57.44757
 203  97.82755
 204  334.8837
 205  574.7308
 206  546.7939
 207  410.7029
 208  472.2815
 209  516.251
 210  352.9956
 211  194.6163
 212  30.6877
 213  533.5024
 214  452.4449
 215  216.9054
 216  332.1872
 217  492.2624
 218  658.1935
 219  372.9179
 220  68.05812
 221  600.3464
 222  525.2511
 223  223.1165
 224  324.9654
 225  355.2874
 226  60.35807
 227  248.8627
 228  468.6331
 229  303.4522
 230  113.5426
 231  261.6728
 232  141.9684
 233  153.9009
 234  240.5695
 235  362.0757
 236  273.6263
 237  301.7881
 238  276.2894
 239  144.6453
 240  259.9464
 241  496.8182
 242  354.4954
 243  -50.16419
 244  93.16836
 245  536.5774
 246  444.2207
 247  207.5548
 248  365.3412
 249  280.9378
 250  554.7593
 251  304.1405
 252  41.87841
 253  94.48502
 254  -139.3393
 255  271.6524
 256  552.8691
 257  411.3371
 258  170.7667
 259  97.37344
 260  214.0288
 261  218.9703
 262  -167.1951
 263  18.56035
 264  -99.27626
 265  122.5979
 266  645.0036
 267  419.5524
 268  -117.769
 269  -197.3583
 270  -62.89246
 271  -395.8307
 272  -142.3712
 273  50.66791
 274  364.5775
 275  409.8898
 276  99.78871
 277  -152.9413
 278  248.598
 279  184.0617
 280  -75.74179
 281  -88.81726
 282  24.60933
 283  67.11066
 284  194.0769
 285  564.2638
 286  372.1613
 287  431.3697
 288  373.5828
 289  495.0794
 290  289.4283
 291  273.7703
 292  285.8659
 293  104.56
 294  386.2056
 295  274.153
 296  205.1498
 297  201.3775
 298  58.59432
 299  163.414
 300  89.3879
 301  -45.41526
 302  -220.6162
 303  -81.1628
 304  -236.7828
 305  -107.7424
 306  211.5708
 307  259.0096
 308  281.0687
 309  459.9544
 310  467.869
 311  496.2054
 312  504.8642
 313  184.5438
 314  -24.06405
 315  124.7363
 316  -151.9956
 317  -119.4572
 318  507.7299
 319  436.2398
 320  4.928777
 321  179.2173
 322  695.7186
 323  290.3589
 324  607.9269
 325  656.9171
 326  666.1245
 327  213.421
 328  452.2744
 329  805.0592
 330  620.4388
 331  100.5578
 332  249.1291
 333  215.4029
 334  315.5239
 335  545.0338
 336  261.3917
 337  50.39901
 338  -16.44434
 339  200.2227
 340  260.8451
 341  187.3943
 342  303.3149
 343  118.5539
 344  -116.7848
 345  60.32914
 346  -173.6154
 347  -33.71236
 348  -140.4745
 349  -15.31512
 350  286.2953
 351  214.7075
 352  154.5557
 353  56.14202
 354  168.2593
 355  196.5635
 356  449.9348
 357  609.7326
 358  668.9142
 359  217.0706
 360  177.4341
 361  531.3608
 362  473.4146
 363  560.3422
 364  384.5096
 365  522.7151
 366  284.0494
 367  347.352
 368  513.1128
 369  395.4333
 370  681.9449
 371  546.7373
 372  160.1079
 373  318.3622
 374  284.2619
 375  -9.023085
 376  322.688
 377  419.5398
 378  309.6326
 379  -64.72857
 380  48.29041
 381  174.1286
 382  174.329
 383  61.94529
 384  512.8135
 385  607.1788
 386  326.0779
 387  175.9776
 388  260.3711
 389  -31.69067
 390  161.3793
 391  652.3563
 392  687.6964
 393  38.73108
 394  293.069
 395  397.9717
 396  33.09211
 397  237.0418
 398  284.9341
 399  367.4868
 400  469.412
 401  460.6698
 402  100.3671
 403  43.59353
 404  116.3453
 405  268.9617
 406  492.0078
 407  108.8658
 408  -23.42262
 409  156.8103
 410  417.9062
 411  272.4056
 412  274.2133
 413  281.0841
 414  188.2232
 415  278.3941
 416  389.9633
 417  142.5145
 418  394.8536
 419  625.2452
 420  292.8775
 421  -155.5502
 422  -220.958
 423  384.1564
 424  341.6422
 425  159.8481
 426  285.6344
 427  259.4162
 428  9.915475
 429  -298.6571
 430  -304.1977
 431  136.14
 432  215.0986
 433  444.1631
 434  225.4464
 435  380.1628
 436  460.4951
 437  -107.2107
 438  3.905668
 439  357.5498
 440  558.0477
 441  202.4087
 442  138.7189
 443  340.5073
 444  377.8535
 445  170.2002
 446  214.8356
 447  193.0991
 448  188.0867
 449  374.298
 450  293.0688
 451  165.4596
 452  426.8049
 453  345.7332
 454  211.2344
 455  -238.2325
 456  -9.124406
 457  120.3389
 458  -294.0657
 459  179.0801
 460  304.1561
 461  -224.5866
 462  -285.0338
 463  229.3974
 464  376.3282
 465  25.40786
 466  118.2564
 467  77.66729
 468  255.7869
 469  354.7087
 470  224.162
 471  104.0344
 472  315.0839
 473  279.18
 474  412.5186
 475  546.1895
 476  457.755
 477  703.7072
 478  216.2574
 479  347.3
 480  503.2769
 481  146.1602
 482  296.91
 483  100.6384
 484  -273.3723
 485  -79.99967
 486  261.2413
 487  366.8778
 488  459.6658
 489  123.918
 490  -32.67512
 491  85.24055
 492  419.3745
 493  505.9414
 494  14.67131
 495  -250.1731
 496  -187.4297
 497  244.6302
 498  -39.52091
 499  -163.8244
 500  16.93349
 501  255.7052
 502  340.0334
 503  310.1478
 504  589.7863
 505  808.3411
 506  404.7471
 507  252.8951
 508  789.925
 509  698.7236
 510  366.4998
 511  246.6531
