# Input file       =  1187057703.117304_cleaned.dat
# Candidate        =  PSR_0332+5434
# Telescope        =  AR
# Epoch_topo       =  57983.094005987317
# Epoch_bary       =  N/A
# T_sample         =  0.002
# Data Folded      =  7340032
# Data Avg         =  0.0108400030691017
# Data StdDev      =  1.0001280049338  
# Profile Bins     =  512
# Profile Avg      =  155.375352005163 
# Profile StdDev   =  119.748362796161 
# Reduced chi-sqr  =  1.525
# Prob(Noise)      <  1.74e-13   (~7.3 sigma)
# P_topo (ms)      =  714.464241196489  +/- 0.000247
# P'_topo (s/s)    =  -0                +/- 1.3e-10
# P''_topo (s/s^2) =  0                 +/- 5.76e-14
# P_bary (ms)      =  N/A
# P'_bary (s/s)    =  N/A
# P''_bary (s/s^2) =  N/A
# P_orb (s)        =  N/A
# asin(i)/c (s)    =  N/A
# eccentricity     =  N/A
# w (rad)          =  N/A
# T_peri           =  N/A
######################################################
   0  899.7283
   1  699.2966
   2  523.4088
   3  325.7114
   4  207.1774
   5  229.1361
   6  269.2175
   7  330.7209
   8  315.6708
   9  115.0352
  10  94.28509
  11  165.3332
  12  323.9084
  13  251.5391
  14  231.8882
  15  317.8994
  16  372.3243
  17  326.8688
  18  269.5546
  19  185.1081
  20  256.3615
  21  236.56
  22  218.4212
  23  203.4906
  24  264.5063
  25  146.9301
  26  146.4886
  27  352.6472
  28  351.8945
  29  235.7713
  30  190.9234
  31  331.1125
  32  288.9477
  33  171.744
  34  144.875
  35  248.3112
  36  72.89893
  37  74.427
  38  77.31075
  39  100.273
  40  77.87357
  41  290.5846
  42  248.3209
  43  1.039451
  44  38.65357
  45  126.8052
  46  121.8545
  47  87.8769
  48  4.879042
  49  151.4414
  50  61.40436
  51  62.53648
  52  115.0563
  53  123.4883
  54  64.39496
  55  77.51821
  56  192.4038
  57  239.6093
  58  165.695
  59  279.4263
  60  150.6844
  61  -89.81953
  62  170.6815
  63  337.4355
  64  212.1738
  65  190.2294
  66  254.2072
  67  247.7502
  68  155.3823
  69  217.4507
  70  101.1268
  71  119.0683
  72  71.47986
  73  102.4131
  74  11.58868
  75  -20.50517
  76  -2.578025
  77  150.3563
  78  103.8863
  79  23.1527
  80  264.5433
  81  314.9928
  82  203.297
  83  77.85387
  84  140.439
  85  229.0302
  86  186.1462
  87  222.2322
  88  95.98892
  89  87.75071
  90  54.51234
  91  142.1936
  92  177.2934
  93  293.0242
  94  255.64
  95  145.4842
  96  148.2261
  97  130.3816
  98  74.15594
  99  175.9559
 100  -15.85395
 101  92.19829
 102  154.6902
 103  226.1324
 104  128.3117
 105  127.9865
 106  126.7039
 107  171.0646
 108  254.5732
 109  226.4991
 110  109.277
 111  85.28024
 112  109.3173
 113  28.26877
 114  54.40588
 115  57.33167
 116  121.5055
 117  245.709
 118  91.67329
 119  -61.63711
 120  -23.67799
 121  57.52675
 122  155.1465
 123  274.6608
 124  266.4563
 125  164.8505
 126  251.9761
 127  365.9632
 128  236.5398
 129  179.0749
 130  179.3492
 131  227.3996
 132  168.6374
 133  95.8883
 134  43.19693
 135  10.18381
 136  57.96351
 137  137.233
 138  201.285
 139  82.45355
 140  133.0112
 141  100.2314
 142  57.9922
 143  48.18655
 144  52.22443
 145  134.19
 146  38.87673
 147  57.27753
 148  177.7627
 149  209.5053
 150  78.35069
 151  142.2195
 152  230.8847
 153  218.835
 154  43.78726
 155  41.1466
 156  158.8427
 157  99.2831
 158  138.7085
 159  163.9995
 160  120.5997
 161  16.30839
 162  26.39948
 163  109.2759
 164  6.031698
 165  -46.88983
 166  91.64952
 167  122.5813
 168  55.85239
 169  69.57195
 170  144.7643
 171  91.28365
 172  14.44769
 173  139.9371
 174  136.6089
 175  120.4437
 176  14.1482
 177  115.1382
 178  142.0824
 179  131.5906
 180  246.5862
 181  287.4585
 182  131.9321
 183  49.29204
 184  73.98079
 185  165.013
 186  171.4044
 187  13.88972
 188  47.25376
 189  90.47977
 190  129.635
 191  116.7899
 192  -12.401
 193  14.3684
 194  157.7086
 195  119.2756
 196  76.55403
 197  67.93348
 198  131.34
 199  5.430558
 200  -58.24301
 201  46.72868
 202  62.73269
 203  128.6121
 204  187.8755
 205  183.7216
 206  103.6589
 207  155.0428
 208  160.9788
 209  123.7496
 210  37.33449
 211  32.14995
 212  213.8448
 213  151.0511
 214  126.4168
 215  275.9039
 216  320.1177
 217  297.4602
 218  273.9925
 219  197.7037
 220  247.769
 221  317.1501
 222  250.1857
 223  153.4098
 224  10.85256
 225  72.8528
 226  53.89182
 227  83.05934
 228  193.9499
 229  150.4644
 230  108.1578
 231  276.4135
 232  154.5707
 233  268.4344
 234  138.3582
 235  3.79565
 236  113.0318
 237  225.019
 238  240.2438
 239  140.9711
 240  142.864
 241  189.7717
 242  236.6704
 243  262.1556
 244  161.7056
 245  112.4152
 246  210.8701
 247  301.5956
 248  138.3577
 249  -19.01304
 250  163.7665
 251  201.2408
 252  146.3883
 253  34.55111
 254  76.16257
 255  -13.80942
 256  23.38739
 257  -35.52075
 258  -82.84959
 259  67.54321
 260  211.9829
 261  311.2311
 262  108.525
 263  141.4478
 264  197.6225
 265  35.58787
 266  54.02864
 267  303.0563
 268  178.3789
 269  188.2134
 270  87.3234
 271  134.4711
 272  180.8488
 273  129.573
 274  166.7716
 275  158.0953
 276  132.3678
 277  100.2482
 278  49.51903
 279  -15.57556
 280  128.7842
 281  191.9929
 282  178.1903
 283  23.96679
 284  -62.3876
 285  256.7952
 286  131.415
 287  53.73695
 288  70.72109
 289  178.662
 290  79.28097
 291  54.97221
 292  125.5751
 293  130.9912
 294  131.6068
 295  111.6999
 296  225.1305
 297  107.7912
 298  161.9621
 299  302.7905
 300  159.7471
 301  117.317
 302  146.0506
 303  262.4483
 304  199.5585
 305  164.8133
 306  73.87051
 307  110.6639
 308  157.8347
 309  72.75032
 310  114.1786
 311  164.1619
 312  138.8699
 313  195.5645
 314  242.2464
 315  35.46122
 316  40.66593
 317  95.18918
 318  211.3091
 319  186.9381
 320  159.2162
 321  164.1955
 322  198.6959
 323  167.9129
 324  184.1613
 325  210.2355
 326  94.42913
 327  43.98387
 328  64.52837
 329  182.5464
 330  157.1103
 331  154.3363
 332  159.0844
 333  199.2208
 334  168.6373
 335  104.0165
 336  274.0041
 337  240.1271
 338  119.7622
 339  140.064
 340  235.0302
 341  265.6309
 342  186.6151
 343  32.77311
 344  16.29983
 345  133.7839
 346  36.42411
 347  93.3864
 348  29.16374
 349  130.6724
 350  192.0762
 351  102.6601
 352  132.8358
 353  341.7274
 354  278.1866
 355  136.448
 356  255.6674
 357  189.5706
 358  156.6227
 359  154.047
 360  172.6004
 361  62.82663
 362  124.4731
 363  84.70837
 364  92.22733
 365  83.39075
 366  24.17398
 367  39.32402
 368  248.7193
 369  253.943
 370  251.6709
 371  296.6415
 372  170.931
 373  110.3959
 374  97.99657
 375  208.0573
 376  159.2447
 377  342.0816
 378  208.9687
 379  129.7934
 380  275.9153
 381  369.3061
 382  345.206
 383  360.3049
 384  282.0462
 385  284.9803
 386  227.9673
 387  230.1057
 388  121.0791
 389  191.8436
 390  172.7658
 391  167.1559
 392  167.2591
 393  64.96334
 394  172.4891
 395  156.1407
 396  139.2418
 397  129.0871
 398  -45.49136
 399  19.10121
 400  281.468
 401  139.6582
 402  158.0318
 403  157.6449
 404  89.15054
 405  115.3587
 406  190.4797
 407  204.1232
 408  153.2065
 409  118.9461
 410  47.89285
 411  96.09464
 412  153.0463
 413  210.4917
 414  121.2925
 415  101.5669
 416  70.34332
 417  51.92011
 418  82.66621
 419  149.7223
 420  44.42494
 421  150.0473
 422  290.4268
 423  157.564
 424  64.87751
 425  78.05362
 426  25.9189
 427  165.5511
 428  156.2098
 429  108.8388
 430  74.17165
 431  112.9208
 432  208.0356
 433  170.6467
 434  215.1876
 435  193.8549
 436  212.2699
 437  355.7118
 438  190.2047
 439  193.4502
 440  139.6381
 441  181.8507
 442  166.7819
 443  172.1316
 444  195.5766
 445  64.46074
 446  88.70322
 447  99.86707
 448  37.05588
 449  60.03078
 450  -35.35211
 451  160.5531
 452  287.7751
 453  185.9642
 454  174.9059
 455  197.0738
 456  204.6078
 457  243.3406
 458  228.9844
 459  166.0743
 460  205.5413
 461  346.0399
 462  249.5943
 463  225.1022
 464  115.5158
 465  63.66556
 466  8.772246
 467  119.5033
 468  263.1386
 469  278.5782
 470  131.2686
 471  42.81947
 472  107.483
 473  143.6685
 474  129.2423
 475  195.4618
 476  83.97292
 477  113.3377
 478  102.4251
 479  170.575
 480  251.0155
 481  95.1227
 482  70.21825
 483  0.8937831
 484  192.9971
 485  246.6493
 486  304.702
 487  227.4081
 488  106.7807
 489  3.359239
 490  21.61902
 491  -40.30648
 492  56.04234
 493  153.7372
 494  235.1295
 495  162.1914
 496  116.2487
 497  110.5219
 498  253.275
 499  301.6066
 500  150.1852
 501  195.2263
 502  206.4542
 503  173.7216
 504  204.6728
 505  220.3818
 506  198.1069
 507  276.7897
 508  403.404
 509  491.0757
 510  653.7117
 511  863.3266
