# Input file       =  1187143878.108323_cleaned.dat
# Candidate        =  PSR_0332+5434
# Telescope        =  AR
# Epoch_topo       =  57984.091401716702
# Epoch_bary       =  N/A
# T_sample         =  0.002
# Data Folded      =  7340032
# Data Avg         =  0.0214284976536874
# Data StdDev      =  2.33345481341643 
# Profile Bins     =  256
# Profile Avg      =  613.80845007753  
# Profile StdDev   =  395.119432442016 
# Reduced chi-sqr  =  1.707
# Prob(Noise)      <  1.4e-11   (~6.7 sigma)
# P_topo (ms)      =  714.46407383493   +/- 0.00017
# P'_topo (s/s)    =  -0                +/- 8.97e-11
# P''_topo (s/s^2) =  0                 +/- 3.96e-14
# P_bary (ms)      =  N/A
# P'_bary (s/s)    =  N/A
# P''_bary (s/s^2) =  N/A
# P_orb (s)        =  N/A
# asin(i)/c (s)    =  N/A
# eccentricity     =  N/A
# w (rad)          =  N/A
# T_peri           =  N/A
######################################################
   0  578.7238
   1  158.5132
   2  -19.78703
   3  968.0378
   4  609.4791
   5  419.6716
   6  340.5958
   7  -415.2037
   8  642.6268
   9  397.7532
  10  618.7668
  11  369.5327
  12  672.0585
  13  781.3398
  14  475.9754
  15  665.3105
  16  1057.055
  17  73.33351
  18  -130.2386
  19  476.1773
  20  509.9718
  21  -344.5421
  22  4.358522
  23  380.2384
  24  541.2601
  25  427.5386
  26  347.4543
  27  385.5381
  28  220.8637
  29  597.4299
  30  548.9254
  31  708.8774
  32  764.3658
  33  423.0769
  34  604.7443
  35  963.1115
  36  874.3634
  37  817.653
  38  704.8815
  39  976.1958
  40  536.7711
  41  168.6413
  42  494.3849
  43  483.3054
  44  527.0195
  45  585.5024
  46  231.2831
  47  242.1302
  48  414.898
  49  789.6003
  50  676.5571
  51  387.0237
  52  746.3922
  53  794.5585
  54  710.7514
  55  538.0367
  56  396.5651
  57  786.4329
  58  649.4776
  59  -188.1843
  60  359.4648
  61  241.917
  62  1077.73
  63  581.923
  64  651.9125
  65  853.9221
  66  537.4304
  67  661.4133
  68  104.6658
  69  641.8178
  70  1022.277
  71  99.72665
  72  179.2294
  73  940.5964
  74  826.3618
  75  734.4177
  76  1200.331
  77  1447.103
  78  156.4341
  79  278.3676
  80  477.7393
  81  625.315
  82  5.673732
  83  783.4559
  84  442.1442
  85  217.9689
  86  219.3315
  87  1201.517
  88  411.2563
  89  228.1311
  90  687.7483
  91  -111.7094
  92  684.3188
  93  998.9548
  94  60.2458
  95  392.9021
  96  137.7874
  97  293.7378
  98  662.6763
  99  644.5312
 100  344.1679
 101  80.48454
 102  628.7151
 103  670.0722
 104  421.7143
 105  364.3364
 106  618.4679
 107  659.4765
 108  1367.108
 109  608.4915
 110  324.4167
 111  232.1538
 112  1012.285
 113  396.4778
 114  716.1851
 115  680.6791
 116  1327.061
 117  262.3382
 118  609.4139
 119  908.7471
 120  776.33
 121  737.764
 122  731.7762
 123  695.7576
 124  1168.708
 125  717.4288
 126  652.0681
 127  385.0035
 128  845.4127
 129  849.6459
 130  1230.422
 131  -4.89446
 132  64.18349
 133  388.5786
 134  1123.928
 135  842.7646
 136  647.6465
 137  426.3163
 138  1096.224
 139  1049.098
 140  1009.577
 141  755.1893
 142  419.7223
 143  271.9692
 144  202.2195
 145  518.3601
 146  1011.013
 147  967.7904
 148  417.5369
 149  831.2877
 150  801.2062
 151  342.2352
 152  263.5405
 153  205.1289
 154  351.4973
 155  934.9855
 156  738.4634
 157  534.9911
 158  766.8156
 159  1197.726
 160  2469.893
 161  3528.172
 162  3129.581
 163  1822.951
 164  1298.741
 165  975.3991
 166  611.2162
 167  490.7876
 168  473.2439
 169  467.1057
 170  833.1966
 171  816.7496
 172  -292.514
 173  694.4596
 174  48.63757
 175  59.27835
 176  997.6414
 177  960.2747
 178  748.1857
 179  944.2806
 180  795.1419
 181  180.6656
 182  424.357
 183  1037.741
 184  1069.646
 185  425.1063
 186  420.5164
 187  404.2605
 188  386.6682
 189  848.3765
 190  69.2784
 191  519.6147
 192  884.693
 193  895.9894
 194  821.3366
 195  1090.737
 196  595.1302
 197  152.4449
 198  368.0338
 199  891.4752
 200  911.0555
 201  975.507
 202  946.2188
 203  69.96372
 204  101.7145
 205  813.5679
 206  1128.133
 207  712.0534
 208  855.6046
 209  397.8388
 210  938.2582
 211  1264.53
 212  952.4028
 213  328.1437
 214  280.3115
 215  187.1386
 216  963.9969
 217  805.9709
 218  287.1094
 219  584.6818
 220  1134.538
 221  532.5406
 222  1443.804
 223  639.7649
 224  755.2152
 225  224.3619
 226  -124.3729
 227  487.3215
 228  481.9672
 229  624.8505
 230  -410.4787
 231  76.19759
 232  795.2167
 233  421.7455
 234  127.713
 235  354.0356
 236  903.3447
 237  322.4655
 238  730.5787
 239  234.7739
 240  657.1348
 241  581.9794
 242  691.8985
 243  889.1785
 244  352.0467
 245  1093.764
 246  1174.263
 247  1242.085
 248  182.7749
 249  732.4869
 250  969.9557
 251  64.1932
 252  262.8399
 253  406.7969
 254  540.3857
 255  648.7545
