# Input file       =  1187489097.112756_cleaned.dat
# Candidate        =  PSR_0332+5434
# Telescope        =  AR
# Epoch_topo       =  57988.086992045784
# Epoch_bary       =  N/A
# T_sample         =  0.002
# Data Folded      =  7340032
# Data Avg         =  0.0104982649557409
# Data StdDev      =  1.00030517353187 
# Profile Bins     =  512
# Profile Avg      =  150.332909481364 
# Profile StdDev   =  119.769575730358 
# Reduced chi-sqr  =  1.770
# Prob(Noise)      <  2.65e-24   (~10.1 sigma)
# P_topo (ms)      =  714.463582680002  +/- 0.000159
# P'_topo (s/s)    =  -0                +/- 8.37e-11
# P''_topo (s/s^2) =  0                 +/- 3.69e-14
# P_bary (ms)      =  N/A
# P'_bary (s/s)    =  N/A
# P''_bary (s/s^2) =  N/A
# P_orb (s)        =  N/A
# asin(i)/c (s)    =  N/A
# eccentricity     =  N/A
# w (rad)          =  N/A
# T_peri           =  N/A
######################################################
   0  107.7776
   1  -32.46031
   2  196.0703
   3  119.4982
   4  81.50529
   5  67.65268
   6  253.5915
   7  148.7941
   8  37.61755
   9  61.44525
  10  212.4767
  11  293.1576
  12  215.2578
  13  148.5086
  14  220.1018
  15  272.076
  16  208.674
  17  -32.9473
  18  140.8859
  19  100.5898
  20  38.45448
  21  156.7615
  22  116.9306
  23  122.131
  24  169.2457
  25  305.9387
  26  161.0157
  27  68.88213
  28  129.4705
  29  234.6213
  30  250.9753
  31  326.5348
  32  349.8692
  33  286.1886
  34  248.5697
  35  152.0564
  36  143.6173
  37  204.4659
  38  161.5335
  39  253.4111
  40  258.8112
  41  303.6882
  42  117.0108
  43  243.0319
  44  280.3469
  45  321.5884
  46  263.244
  47  141.9436
  48  21.69514
  49  100.5478
  50  150.6452
  51  216.3976
  52  182.9187
  53  105.4852
  54  158.4318
  55  216.8394
  56  85.64907
  57  229.5962
  58  244.6702
  59  284.6379
  60  199.1708
  61  124.0827
  62  198.2696
  63  175.5
  64  260.1369
  65  201.2336
  66  256.4741
  67  295.4155
  68  261.8536
  69  200.3656
  70  210.7769
  71  265.6518
  72  224.01
  73  199.1881
  74  105.114
  75  -3.34108
  76  -10.70447
  77  39.20393
  78  102.2278
  79  192.9038
  80  180.5266
  81  219.3832
  82  250.2955
  83  243.8923
  84  167.7506
  85  115.6248
  86  101.2495
  87  205.2199
  88  213.1322
  89  244.3935
  90  286.7639
  91  290.8922
  92  328.2422
  93  236.1265
  94  117.5217
  95  224.5848
  96  197.5815
  97  137.5186
  98  121.5826
  99  161.8463
 100  200.7975
 101  209.2313
 102  302.1014
 103  177.1205
 104  232.7253
 105  270.0546
 106  115.1991
 107  111.9228
 108  152.3253
 109  233.0739
 110  145.5233
 111  293.8863
 112  303.261
 113  164.704
 114  217.3883
 115  231.9511
 116  183.3775
 117  261.248
 118  313.23
 119  313.8924
 120  204.671
 121  260.5701
 122  267.4043
 123  177.5058
 124  86.05128
 125  209.9111
 126  205.5377
 127  117.6912
 128  106.4228
 129  182.7069
 130  250.4619
 131  318.9677
 132  180.865
 133  209.2128
 134  221.4935
 135  89.26403
 136  14.98162
 137  138.7784
 138  198.6736
 139  178.156
 140  270.6904
 141  277.1143
 142  172.0708
 143  120.4573
 144  189.7957
 145  256.1997
 146  305.255
 147  241.6005
 148  120.8741
 149  144.4921
 150  37.91858
 151  2.630507
 152  175.572
 153  173.0789
 154  65.24738
 155  95.08922
 156  -15.97116
 157  -18.27458
 158  19.08228
 159  136.205
 160  166.5876
 161  150.2938
 162  186.5923
 163  133.9223
 164  76.1528
 165  67.87819
 166  42.94641
 167  26.60088
 168  61.74957
 169  88.01146
 170  148.3592
 171  215.869
 172  228.6663
 173  127.9275
 174  160.6483
 175  177.7903
 176  138.5499
 177  163.3481
 178  227.7307
 179  190.787
 180  178.7477
 181  175.5761
 182  248.9302
 183  210.1812
 184  165.2589
 185  103.4021
 186  40.57459
 187  167.1027
 188  213.9976
 189  48.24754
 190  71.04098
 191  38.55322
 192  137.655
 193  75.74857
 194  -20.01735
 195  87.34599
 196  135.9365
 197  242.0729
 198  92.31051
 199  -26.81044
 200  -67.35026
 201  49.30434
 202  54.15454
 203  133.4574
 204  152.165
 205  100.1
 206  94.21363
 207  20.75163
 208  146.3791
 209  120.3294
 210  48.15055
 211  -19.05838
 212  -13.80176
 213  73.36581
 214  87.19785
 215  163.4796
 216  209.8375
 217  229.7443
 218  248.1728
 219  277.6416
 220  253.8237
 221  217.2222
 222  134.9978
 223  15.94849
 224  162.5743
 225  209.1231
 226  135.6676
 227  24.69321
 228  130.3766
 229  88.9302
 230  -29.2399
 231  19.05347
 232  96.26574
 233  89.89812
 234  57.03654
 235  123.2016
 236  185.282
 237  159.4615
 238  188.7075
 239  256.9392
 240  180.168
 241  142.6589
 242  79.32905
 243  -63.87161
 244  -25.19607
 245  132.2796
 246  201.0479
 247  178.9488
 248  129.112
 249  114.8491
 250  187.0125
 251  209.843
 252  238.4782
 253  440.4412
 254  675.6268
 255  737.8058
 256  811.4064
 257  973.4333
 258  889.2533
 259  657.0977
 260  427.114
 261  328.0676
 262  125.0776
 263  220.1788
 264  215.2563
 265  225.9638
 266  269.2331
 267  143.3545
 268  136.8204
 269  274.6544
 270  218.4267
 271  120.9318
 272  181.5639
 273  117.997
 274  284.2651
 275  258.8808
 276  176.8376
 277  160.9566
 278  75.34715
 279  98.60253
 280  -27.15763
 281  -98.9484
 282  44.7014
 283  146.7251
 284  248.2501
 285  97.00748
 286  3.447514
 287  174.9428
 288  243.4971
 289  257.5015
 290  84.79626
 291  137.9107
 292  27.0854
 293  23.80194
 294  234.0195
 295  208.7048
 296  173.624
 297  143.8378
 298  38.31283
 299  -93.94757
 300  -36.64922
 301  117.5369
 302  217.733
 303  160.741
 304  170.0044
 305  24.90789
 306  -22.64179
 307  130.6475
 308  107.2421
 309  14.83345
 310  10.22698
 311  26.07896
 312  29.38553
 313  67.04622
 314  138.9502
 315  -12.41555
 316  58.34457
 317  76.12473
 318  213.6917
 319  92.33476
 320  103.31
 321  192.121
 322  156.559
 323  87.08875
 324  72.70599
 325  155.1649
 326  148.5596
 327  137.5393
 328  236.7058
 329  123.0075
 330  88.83265
 331  189.0664
 332  410.0971
 333  353.6519
 334  149.2744
 335  152.4207
 336  222.1112
 337  242.2063
 338  120.6052
 339  35.82583
 340  198.9116
 341  186.1428
 342  139.3034
 343  66.6487
 344  18.81398
 345  9.080069
 346  55.84856
 347  245.9866
 348  326.0256
 349  225.9239
 350  86.96116
 351  138.4102
 352  130.6866
 353  84.85815
 354  154.3124
 355  248.5904
 356  201.8544
 357  115.158
 358  104.4661
 359  140.2121
 360  180.7181
 361  133.0928
 362  136.0692
 363  116.1891
 364  178.1986
 365  166.2332
 366  237.3634
 367  171.5219
 368  113.2856
 369  174.9483
 370  234.0974
 371  123.2573
 372  74.70162
 373  118.6904
 374  176.6282
 375  135.3686
 376  193.9613
 377  352.2222
 378  189.9697
 379  240.5891
 380  186.3647
 381  42.26061
 382  239.0641
 383  131.0436
 384  207.7111
 385  154.9313
 386  193.815
 387  210.734
 388  199.9029
 389  113.1908
 390  237.0406
 391  205.6323
 392  59.9351
 393  235.6732
 394  255.7987
 395  162.9903
 396  100.0567
 397  1.08101
 398  199.4356
 399  138.1835
 400  -14.79908
 401  -8.815707
 402  11.93077
 403  49.51263
 404  82.21307
 405  107.1837
 406  151.8797
 407  37.92364
 408  144.6856
 409  161.2676
 410  97.06758
 411  69.51252
 412  85.93707
 413  120.9032
 414  14.10059
 415  111.2529
 416  195.5207
 417  215.6486
 418  154.8587
 419  -39.42215
 420  -27.38568
 421  32.68679
 422  158.1277
 423  210.9436
 424  131.6813
 425  -31.40948
 426  -53.86125
 427  272.8533
 428  264.8761
 429  163.9704
 430  268.3917
 431  327.6138
 432  138.765
 433  54.42435
 434  155.9687
 435  165.3371
 436  89.95428
 437  97.24052
 438  140.8065
 439  84.45327
 440  126.3757
 441  239.1703
 442  245.5039
 443  62.70906
 444  134.8795
 445  202.3093
 446  205.6494
 447  178.7737
 448  111.5155
 449  44.58424
 450  165.5957
 451  188.3807
 452  209.6837
 453  62.09181
 454  135.0154
 455  92.59109
 456  204.169
 457  152.6528
 458  120.2044
 459  77.11967
 460  84.14636
 461  185.0692
 462  156.9846
 463  62.15386
 464  81.61109
 465  247.2937
 466  28.44328
 467  -8.359577
 468  27.79224
 469  117.7318
 470  31.81918
 471  50.69234
 472  7.139715
 473  135.4149
 474  94.21569
 475  77.30421
 476  12.98664
 477  -95.44549
 478  62.11001
 479  61.73303
 480  81.23092
 481  -9.1841
 482  49.67944
 483  119.7771
 484  -4.590763
 485  125.2026
 486  112.7546
 487  209.3691
 488  94.35047
 489  18.93435
 490  106.6952
 491  5.661745
 492  14.01649
 493  47.71017
 494  -9.659873
 495  7.793627
 496  54.6566
 497  18.9035
 498  -32.20382
 499  8.56448
 500  29.08416
 501  37.59896
 502  118.8605
 503  123.2821
 504  -70.91942
 505  -25.71167
 506  -16.96503
 507  -7.426244
 508  99.05206
 509  125.1014
 510  181.267
 511  219.745
