# Input file       =  1187746985.105509_cleaned.dat
# Candidate        =  PSR_0332+5434
# Telescope        =  AR
# Epoch_topo       =  57991.071806776723
# Epoch_bary       =  N/A
# T_sample         =  0.002
# Data Folded      =  7340032
# Data Avg         =  0.0255724302509667
# Data StdDev      =  2.18176224001807 
# Profile Bins     =  512
# Profile Avg      =  366.637725147297 
# Profile StdDev   =  261.229017649538 
# Reduced chi-sqr  =  1.534
# Prob(Noise)      <  7.82e-14   (~7.4 sigma)
# P_topo (ms)      =  714.463384827096  +/- 0.000234
# P'_topo (s/s)    =  -0                +/- 1.24e-10
# P''_topo (s/s^2) =  0                 +/- 5.46e-14
# P_bary (ms)      =  N/A
# P'_bary (s/s)    =  N/A
# P''_bary (s/s^2) =  N/A
# P_orb (s)        =  N/A
# asin(i)/c (s)    =  N/A
# eccentricity     =  N/A
# w (rad)          =  N/A
# T_peri           =  N/A
######################################################
   0  343.0346
   1  240.8845
   2  375.3949
   3  516.1702
   4  396.4334
   5  167.6384
   6  310.3732
   7  457.5553
   8  306.5132
   9  253.901
  10  156.9409
  11  439.1383
  12  390.8796
  13  454.8276
  14  419.9333
  15  27.92234
  16  140.8592
  17  -125.5844
  18  180.5981
  19  60.07673
  20  175.1604
  21  448.1427
  22  577.6718
  23  235.7066
  24  298.8773
  25  245.824
  26  465.1991
  27  443.7109
  28  528.5667
  29  636.311
  30  488.4965
  31  253.4411
  32  329.1685
  33  495.5474
  34  433.1266
  35  332.9147
  36  206.5972
  37  96.31294
  38  351.3192
  39  460.8647
  40  390.2732
  41  51.99562
  42  105.2904
  43  356.0457
  44  440.2174
  45  148.9331
  46  276.5515
  47  481.7339
  48  467.6336
  49  367.299
  50  351.0292
  51  468.3293
  52  409.5013
  53  254.9263
  54  247.5027
  55  459.9375
  56  186.2712
  57  172.1115
  58  381.1008
  59  321.9774
  60  340.0457
  61  473.4484
  62  549.4054
  63  487.7731
  64  499.485
  65  506.3594
  66  206.1463
  67  201.2513
  68  219.9728
  69  216.3703
  70  140.9908
  71  344.6038
  72  290.3557
  73  153.3961
  74  263.0786
  75  109.889
  76  252.5589
  77  181.5191
  78  134.4878
  79  337.2391
  80  288.8672
  81  472.0615
  82  160.1783
  83  52.70156
  84  78.43234
  85  26.38442
  86  191.9567
  87  92.88908
  88  193.7732
  89  173.429
  90  39.63698
  91  -33.67925
  92  67.10561
  93  -105.5481
  94  -12.42508
  95  240.314
  96  422.4727
  97  446.1256
  98  379.9213
  99  163.7615
 100  381.7387
 101  381.8987
 102  77.12695
 103  114.688
 104  432.2023
 105  420.3794
 106  254.96
 107  323.1251
 108  219.0662
 109  237.0127
 110  19.75966
 111  220.7246
 112  569.8408
 113  657.4507
 114  474.7964
 115  527.3453
 116  241.8793
 117  200.8729
 118  261.0847
 119  69.53885
 120  104.9943
 121  250.155
 122  181.701
 123  256.9793
 124  105.0631
 125  211.6409
 126  476.8766
 127  312.2653
 128  347.7516
 129  233.8903
 130  80.50752
 131  260.6353
 132  551.9637
 133  526.1715
 134  435.9382
 135  64.85696
 136  515.3809
 137  756.355
 138  205.8607
 139  230.9321
 140  188.7637
 141  167.7653
 142  184.0753
 143  -60.40347
 144  297.4914
 145  702.996
 146  598.7544
 147  359.4843
 148  407.5076
 149  287.502
 150  69.60558
 151  259.7586
 152  534.5429
 153  399.42
 154  356.4059
 155  351.4405
 156  206.6882
 157  14.95616
 158  270.2193
 159  431.5066
 160  319.3141
 161  93.87953
 162  131.5029
 163  177.187
 164  125.0675
 165  279.4261
 166  410.2785
 167  264.042
 168  -62.80929
 169  52.66003
 170  329.6968
 171  247.4903
 172  87.15849
 173  180.6881
 174  348.2552
 175  46.16095
 176  61.51812
 177  206.6145
 178  464.3846
 179  584.7172
 180  176.4164
 181  220.9301
 182  376.7102
 183  204.5573
 184  306.1263
 185  289.9417
 186  152.4074
 187  334.9215
 188  459.9094
 189  533.4448
 190  504.6554
 191  407.7033
 192  229.8008
 193  411.8784
 194  542.5333
 195  423.6983
 196  577.0828
 197  681.0641
 198  553.2127
 199  364.7265
 200  355.1054
 201  182.2107
 202  220.4003
 203  510.3205
 204  712.2116
 205  804.553
 206  598.3761
 207  -30.6815
 208  -41.0797
 209  345.5534
 210  327.8084
 211  309.134
 212  -41.46196
 213  66.5628
 214  100.6581
 215  238.6532
 216  309.7227
 217  403.737
 218  422.569
 219  511.0471
 220  230.0392
 221  130.3218
 222  527.4135
 223  487.8731
 224  463.9477
 225  586.6833
 226  461.308
 227  238.5562
 228  453.265
 229  273.851
 230  565.2574
 231  806.879
 232  591.7513
 233  535.5402
 234  301.6836
 235  226.9158
 236  94.63582
 237  252.0139
 238  234.4908
 239  576.6946
 240  571.7847
 241  290.7133
 242  410.9388
 243  380.0196
 244  511.1829
 245  273.9031
 246  223.7716
 247  562.4818
 248  399.5412
 249  365.6509
 250  295.1797
 251  115.5487
 252  499.3893
 253  748.2087
 254  528.5935
 255  545.4429
 256  336.0028
 257  199.2898
 258  377.6622
 259  492.4355
 260  576.296
 261  643.7998
 262  253.0713
 263  147.9961
 264  18.52546
 265  127.8236
 266  298.07
 267  394.7748
 268  398.5303
 269  172.3653
 270  259.9839
 271  443.5318
 272  454.3632
 273  269.5575
 274  460.8817
 275  383.4564
 276  300.4564
 277  63.53527
 278  354.4665
 279  324.0911
 280  361.3921
 281  576.6526
 282  481.9105
 283  436.2767
 284  461.14
 285  458.2935
 286  677.5494
 287  815.4773
 288  774.0174
 289  778.8142
 290  595.3843
 291  444.3547
 292  316.5393
 293  165.1857
 294  255.7786
 295  340.4263
 296  414.4255
 297  567.1779
 298  648.9985
 299  540.291
 300  417.8642
 301  373.5982
 302  294.2619
 303  560.2466
 304  752.0973
 305  762.5204
 306  727.1765
 307  529.4672
 308  233.2445
 309  250.8342
 310  12.02612
 311  472.1758
 312  499.9714
 313  201.8789
 314  129.0059
 315  515.7325
 316  478.1741
 317  418.5916
 318  458.1466
 319  891.7436
 320  1223.586
 321  1719.367
 322  1917.837
 323  1769.106
 324  1667.76
 325  1421.948
 326  1186.265
 327  593.9304
 328  385.2001
 329  653.7971
 330  728.0521
 331  532.5342
 332  362.479
 333  538.985
 334  672.0303
 335  511.9792
 336  305.4511
 337  339.9947
 338  477.723
 339  631.7381
 340  588.5634
 341  569.3414
 342  162.9216
 343  274.4722
 344  701.0388
 345  693.8996
 346  630.7106
 347  490.3976
 348  278.8886
 349  362.0623
 350  362.2903
 351  180.4796
 352  107.4738
 353  423.3394
 354  543.4122
 355  291.5655
 356  139.8786
 357  129.0661
 358  210.3839
 359  337.1937
 360  573.3052
 361  541.0388
 362  336.404
 363  244.4565
 364  364.4242
 365  573.2129
 366  503.9122
 367  477.2947
 368  286.7542
 369  471.1766
 370  342.9864
 371  264.0647
 372  -93.13425
 373  86.187
 374  82.2049
 375  -206.423
 376  393.1182
 377  358.6832
 378  393.793
 379  618.5652
 380  573.5599
 381  118.2972
 382  148.4168
 383  266.0015
 384  559.1589
 385  451.1125
 386  435.6572
 387  426.9627
 388  313.1817
 389  381.2553
 390  266.1793
 391  385.6982
 392  288.474
 393  346.8692
 394  547.7151
 395  344.4644
 396  432.1351
 397  472.6793
 398  406.2012
 399  178.4535
 400  270.1571
 401  377.6507
 402  387.051
 403  241.396
 404  337.4041
 405  336.4053
 406  379.4517
 407  310.5218
 408  188.1238
 409  434.0027
 410  553.2191
 411  477.2562
 412  450.1475
 413  413.8897
 414  207.1409
 415  572.1047
 416  406.5085
 417  344.3582
 418  402.159
 419  445.0336
 420  790.4491
 421  786.9601
 422  606.257
 423  419.0557
 424  408.7591
 425  375.2099
 426  645.308
 427  552.2261
 428  540.5757
 429  629.2914
 430  321.3315
 431  67.41827
 432  87.7285
 433  186.355
 434  286.2849
 435  294.9579
 436  231.8067
 437  566.4979
 438  592.4227
 439  414.7573
 440  225.1558
 441  317.7599
 442  636.147
 443  535.3308
 444  332.6786
 445  333.6656
 446  552.1474
 447  443.2416
 448  425.1605
 449  165.6211
 450  -147.1525
 451  -24.93827
 452  15.34919
 453  -18.50636
 454  64.87054
 455  116.3294
 456  412.2034
 457  175.323
 458  184.2786
 459  384.458
 460  480.6418
 461  338.5665
 462  346.4912
 463  407.8018
 464  539.2391
 465  496.4657
 466  243.5682
 467  358.6868
 468  178.5869
 469  323.124
 470  515.2691
 471  667.8583
 472  667.2885
 473  430.0986
 474  204.4114
 475  321.0929
 476  580.7938
 477  593.6855
 478  252.4393
 479  94.43376
 480  104.7891
 481  330.1209
 482  747.3679
 483  519.5427
 484  271.0427
 485  481.866
 486  587.1569
 487  556.707
 488  529.2234
 489  637.9256
 490  450.8625
 491  296.8585
 492  95.51956
 493  226.8905
 494  556.8657
 495  558.8985
 496  466.6344
 497  240.5894
 498  141.7442
 499  506.0002
 500  587.7369
 501  165.1945
 502  278.197
 503  393.0106
 504  320.9857
 505  465.1926
 506  263.955
 507  160.1049
 508  226.2351
 509  431.9768
 510  271.2704
 511  437.7374
