# Input file       =  1187574688.10957_cleaned.dat
# Candidate        =  PSR_0332+5434
# Telescope        =  AR
# Epoch_topo       =  57989.077628582985
# Epoch_bary       =  N/A
# T_sample         =  0.002
# Data Folded      =  7340032
# Data Avg         =  0.00261350363975256
# Data StdDev      =  2.32535735534827 
# Profile Bins     =  1024
# Profile Avg      =  18.8910953815427 
# Profile StdDev   =  196.874152691404 
# Reduced chi-sqr  =  1.489
# Prob(Noise)      <  2.12e-22   (~9.7 sigma)
# P_topo (ms)      =  714.463494302385  +/- 0.000204
# P'_topo (s/s)    =  -0                +/- 1.08e-10
# P''_topo (s/s^2) =  0                 +/- 4.75e-14
# P_bary (ms)      =  N/A
# P'_bary (s/s)    =  N/A
# P''_bary (s/s^2) =  N/A
# P_orb (s)        =  N/A
# asin(i)/c (s)    =  N/A
# eccentricity     =  N/A
# w (rad)          =  N/A
# T_peri           =  N/A
######################################################
   0  194.7935
   1  243.9737
   2  62.77111
   3  28.26645
   4  65.28961
   5  145.6557
   6  20.05124
   7  5.967323
   8  3.247658
   9  97.73219
  10  126.8689
  11  50.75392
  12  103.0966
  13  163.2791
  14  210.5278
  15  178.6458
  16  135.2302
  17  139.7535
  18  120.7351
  19  114.8298
  20  -13.1739
  21  -28.35451
  22  -54.07007
  23  140.6604
  24  219.1982
  25  305.4835
  26  252.1338
  27  127.8768
  28  76.43329
  29  71.02892
  30  117.4023
  31  189.8551
  32  210.2387
  33  285.1591
  34  293.3448
  35  206.8071
  36  117.1427
  37  78.1003
  38  146.9482
  39  192.4413
  40  90.45924
  41  7.296778
  42  -14.47155
  43  19.58324
  44  -21.96012
  45  -78.37126
  46  -4.010336
  47  33.35538
  48  33.95913
  49  -24.72891
  50  111.8298
  51  174.4863
  52  176.617
  53  82.2347
  54  137.0293
  55  184.8167
  56  174.2293
  57  85.87267
  58  49.13467
  59  59.03077
  60  28.03734
  61  50.69296
  62  55.24154
  63  88.76222
  64  86.91115
  65  129.4626
  66  153.2453
  67  253.8036
  68  127.194
  69  24.72127
  70  -94.16484
  71  -18.4845
  72  69.31476
  73  78.70802
  74  -29.58581
  75  -98.58781
  76  -91.75607
  77  -9.584532
  78  -66.17079
  79  -75.12546
  80  -173.3677
  81  -183.7155
  82  -75.40247
  83  135.3375
  84  184.1622
  85  77.33648
  86  -0.9300754
  87  13.4691
  88  28.07356
  89  44.24243
  90  -11.70541
  91  35.41552
  92  -61.16887
  93  -35.74229
  94  -26.00084
  95  24.95411
  96  -7.374568
  97  -48.91865
  98  18.91395
  99  85.90493
 100  -18.43489
 101  -40.72278
 102  -109.4011
 103  -92.67382
 104  -96.09827
 105  -68.34083
 106  -28.04975
 107  -109.6308
 108  -95.41799
 109  -115.1236
 110  -191.5234
 111  -173.5449
 112  -31.55809
 113  64.13564
 114  27.13482
 115  -40.13412
 116  33.4103
 117  96.49517
 118  144.6396
 119  104.4172
 120  80.29085
 121  8.537141
 122  -75.24012
 123  -104.554
 124  -8.799297
 125  173.27
 126  214.5023
 127  186.5897
 128  118.614
 129  135.0684
 130  83.86073
 131  64.35225
 132  125.2514
 133  111.8977
 134  1.565129
 135  -177.0215
 136  -164.2059
 137  34.73648
 138  115.2397
 139  98.4649
 140  20.99491
 141  68.20998
 142  104.924
 143  48.13701
 144  0.4873261
 145  -39.24409
 146  -60.45345
 147  25.48094
 148  90.70133
 149  211.0471
 150  117.8039
 151  165.9598
 152  140.5896
 153  232.5801
 154  196.3388
 155  156.1226
 156  101.0316
 157  134.4469
 158  186.5579
 159  146.1055
 160  161.3385
 161  55.55384
 162  66.2011
 163  80.56784
 164  98.76766
 165  104.6925
 166  -2.817728
 167  -10.11391
 168  -25.5626
 169  51.39254
 170  50.02149
 171  47.54307
 172  -48.22377
 173  57.486
 174  -0.5349993
 175  24.23077
 176  -95.8988
 177  -0.5369916
 178  86.53284
 179  135.6886
 180  72.50974
 181  50.86915
 182  37.19161
 183  -90.43472
 184  -115.0796
 185  -229.1872
 186  -193.3343
 187  -112.8248
 188  -3.811079
 189  74.64003
 190  -50.7622
 191  -62.01826
 192  -55.87825
 193  4.909605
 194  176.8778
 195  186.0617
 196  181.0256
 197  176.8537
 198  50.02653
 199  2.372175
 200  -16.78032
 201  99.1731
 202  120.5114
 203  110.4734
 204  43.08896
 205  111.6275
 206  -16.53051
 207  -51.62444
 208  -39.92148
 209  53.5818
 210  33.7112
 211  -67.54462
 212  -77.76897
 213  3.596224
 214  55.39669
 215  35.18301
 216  -36.47282
 217  62.12129
 218  168.5641
 219  158.6872
 220  131.9613
 221  150.6253
 222  113.1271
 223  19.79548
 224  61.5648
 225  253.2858
 226  265.4367
 227  73.94565
 228  -62.25233
 229  -66.83271
 230  40.02935
 231  45.30865
 232  60.4202
 233  67.1261
 234  179.717
 235  135.5989
 236  80.56131
 237  -15.79685
 238  25.6832
 239  -4.542973
 240  -41.32845
 241  -25.35063
 242  126.7869
 243  122.1184
 244  73.1098
 245  15.0669
 246  42.06334
 247  167.2175
 248  31.08183
 249  -13.14441
 250  -14.97154
 251  60.7011
 252  28.78622
 253  -62.44194
 254  -78.67313
 255  -48.40614
 256  23.39228
 257  30.85593
 258  111.5847
 259  220.5912
 260  321.4121
 261  156.7152
 262  93.51424
 263  158.3061
 264  152.7846
 265  36.29942
 266  33.84529
 267  130.0555
 268  234.89
 269  163.1624
 270  153.0015
 271  -16.26223
 272  -57.06349
 273  -102.235
 274  -42.42673
 275  -109.3232
 276  -122.9233
 277  -154.8271
 278  -35.89082
 279  77.00095
 280  100.4646
 281  64.6039
 282  -10.63797
 283  48.04631
 284  93.70994
 285  131.7951
 286  63.43336
 287  36.67736
 288  -55.62758
 289  -117.0204
 290  -169.0142
 291  -137.5274
 292  41.46392
 293  125.5987
 294  44.62694
 295  -131.8092
 296  -180.2035
 297  -130.7072
 298  -26.12162
 299  -0.6757345
 300  129.55
 301  104.3497
 302  44.22047
 303  -0.8902184
 304  128.8321
 305  136.7608
 306  53.89248
 307  -95.5453
 308  17.86525
 309  33.51646
 310  46.32664
 311  -104.0953
 312  -74.53324
 313  -85.54196
 314  -70.14058
 315  -55.47301
 316  44.68737
 317  141.9117
 318  137.9846
 319  81.1012
 320  22.91767
 321  -15.10133
 322  -85.05501
 323  -81.34777
 324  52.43919
 325  194.514
 326  224.4582
 327  82.86328
 328  10.21935
 329  -158.5592
 330  -185.8904
 331  -98.14085
 332  35.49099
 333  91.26927
 334  -149.1289
 335  -246.02
 336  -171.0252
 337  38.77866
 338  62.77176
 339  -32.83858
 340  3.31707
 341  94.93908
 342  96.20145
 343  43.4131
 344  87.2841
 345  170.0687
 346  84.26278
 347  -42.21299
 348  -38.02229
 349  -10.46869
 350  81.83927
 351  114.9392
 352  133.8833
 353  87.14645
 354  2.661529
 355  -26.14619
 356  -72.20481
 357  -112.2629
 358  -79.41852
 359  51.99047
 360  27.23949
 361  81.56438
 362  29.8404
 363  27.3032
 364  -84.51517
 365  -76.81475
 366  -65.13576
 367  -46.1628
 368  -131.4822
 369  -70.418
 370  -5.682669
 371  27.00695
 372  -8.696095
 373  -66.75497
 374  -68.22551
 375  -60.59191
 376  5.162273
 377  3.768584
 378  35.71255
 379  -31.14034
 380  -2.76534
 381  -49.63794
 382  5.853006
 383  17.65671
 384  -15.99649
 385  -98.7177
 386  -36.7332
 387  -47.6919
 388  6.771328
 389  46.43789
 390  121.7575
 391  119.7466
 392  -23.21629
 393  -13.22014
 394  13.98287
 395  201.6394
 396  109.5018
 397  49.66486
 398  15.85912
 399  -32.22514
 400  -105.7265
 401  -141.6359
 402  -24.81851
 403  -4.491567
 404  -40.06882
 405  -106.1488
 406  -112.163
 407  -140.1236
 408  -112.4224
 409  -88.0927
 410  -0.7603793
 411  -83.3494
 412  -95.80741
 413  -29.69219
 414  173.1374
 415  257.0873
 416  297.7546
 417  166.3329
 418  82.52518
 419  94.25191
 420  127.4856
 421  93.72667
 422  123.3501
 423  103.5607
 424  -3.952688
 425  -170.5166
 426  -137.7691
 427  19.7383
 428  19.24528
 429  -18.61682
 430  -47.85895
 431  -12.61704
 432  -37.86781
 433  -130.1248
 434  -204.3219
 435  -73.96276
 436  43.50653
 437  88.74493
 438  -45.20591
 439  -37.81488
 440  8.771808
 441  83.72845
 442  76.25134
 443  26.67879
 444  52.56388
 445  33.43649
 446  15.82818
 447  -42.411
 448  3.828284
 449  -42.76033
 450  -119.0899
 451  -84.83068
 452  42.8766
 453  133.8836
 454  38.10534
 455  -37.88076
 456  23.76127
 457  -4.754785
 458  -2.490863
 459  -7.829617
 460  76.06803
 461  90.36993
 462  66.83589
 463  6.048239
 464  9.821482
 465  -44.68276
 466  15.26487
 467  53.07383
 468  95.55183
 469  55.77147
 470  -36.43459
 471  51.58635
 472  68.81258
 473  -9.171646
 474  -226.0177
 475  -326.7596
 476  -319.7684
 477  -269.1484
 478  -120.0291
 479  2.709846
 480  22.19914
 481  -83.63034
 482  -191.3628
 483  -135.8515
 484  -75.42635
 485  -3.289323
 486  30.44902
 487  90.37817
 488  92.49218
 489  88.29202
 490  98.12578
 491  100.4744
 492  68.82502
 493  27.69106
 494  -74.82854
 495  -148.1522
 496  -184.2992
 497  -40.36085
 498  61.44697
 499  125.2612
 500  96.36296
 501  124.0562
 502  96.22545
 503  41.01977
 504  -57.79004
 505  -63.13238
 506  -69.64719
 507  -39.33265
 508  50.99082
 509  75.90719
 510  -8.770494
 511  -102.3144
 512  -143.7699
 513  -133.2873
 514  -140.394
 515  -80.56386
 516  -41.53816
 517  -50.49006
 518  -133.9997
 519  -179.0329
 520  -128.1772
 521  -179.4658
 522  -171.4004
 523  -187.8609
 524  3.733995
 525  179.4158
 526  189.1047
 527  53.34687
 528  -135.1395
 529  -71.17719
 530  -117.5927
 531  -110.8338
 532  -132.9097
 533  -70.01736
 534  -35.56376
 535  -181.1605
 536  -175.3801
 537  -115.5506
 538  40.29192
 539  -13.89022
 540  64.33215
 541  117.1231
 542  129.4287
 543  -64.76371
 544  -202.7645
 545  -189.815
 546  -99.12409
 547  -84.8862
 548  -70.52612
 549  -88.25677
 550  2.928138
 551  134.451
 552  178.9511
 553  74.18635
 554  -5.343542
 555  39.39876
 556  68.75608
 557  -35.07454
 558  -160.205
 559  -137.7411
 560  7.446528
 561  70.53989
 562  81.58383
 563  2.8475
 564  -4.885098
 565  0.1096788
 566  -26.91625
 567  -82.84298
 568  -70.90288
 569  10.49883
 570  30.93921
 571  -40.68204
 572  -165.3188
 573  -198.6567
 574  -101.0244
 575  -68.44349
 576  -79.7318
 577  -134.3077
 578  -22.02371
 579  156.804
 580  213.2352
 581  52.14839
 582  3.49885
 583  19.67661
 584  88.76431
 585  15.23932
 586  -63.65459
 587  -58.73635
 588  -80.91776
 589  -71.50301
 590  -14.6343
 591  19.41534
 592  -44.52158
 593  -3.645442
 594  -9.023588
 595  106.8079
 596  66.86272
 597  -8.362345
 598  -36.59381
 599  -88.94761
 600  -132.5161
 601  -198.7142
 602  -91.91889
 603  -17.23225
 604  -15.82605
 605  13.02787
 606  112.9739
 607  78.74644
 608  35.39178
 609  67.79846
 610  -11.19584
 611  -29.13081
 612  -40.85405
 613  122.3572
 614  68.62045
 615  56.2661
 616  9.593874
 617  -24.68553
 618  -28.48798
 619  104.2383
 620  161.3998
 621  121.0123
 622  23.91391
 623  -37.67568
 624  -148.5244
 625  -26.63241
 626  85.3654
 627  172.0481
 628  58.24255
 629  82.68999
 630  133.8468
 631  162.9971
 632  118.8111
 633  81.57288
 634  123.364
 635  158.1248
 636  236.8377
 637  142.5526
 638  145.1336
 639  173.3837
 640  372.9179
 641  545.0214
 642  496.0029
 643  601.4453
 644  727.8875
 645  896.1772
 646  887.4702
 647  892.6445
 648  896.1357
 649  845.0914
 650  729.46
 651  548.166
 652  442.7638
 653  305.2842
 654  225.4558
 655  112.6717
 656  150.0582
 657  166.9223
 658  130.7174
 659  76.5313
 660  143.9903
 661  97.9831
 662  46.55476
 663  9.102105
 664  79.17818
 665  122.4965
 666  50.96777
 667  -0.4230486
 668  32.3072
 669  190.3554
 670  274.8849
 671  135.367
 672  12.45302
 673  31.87467
 674  207.1673
 675  224.7663
 676  82.36378
 677  53.01714
 678  99.42463
 679  116.1792
 680  -17.80272
 681  -52.91573
 682  67.55865
 683  112.7558
 684  136.0126
 685  99.654
 686  82.73969
 687  179.3358
 688  141.8165
 689  170.0699
 690  -9.967535
 691  -127.1568
 692  -108.3961
 693  -42.59209
 694  105.3468
 695  -8.695076
 696  -72.91291
 697  -126.4713
 698  -100.6478
 699  -19.74981
 700  45.45506
 701  89.0798
 702  54.70343
 703  59.47382
 704  113.8081
 705  166.5929
 706  157.6024
 707  3.996351
 708  -151.6683
 709  -234.2393
 710  -280.8793
 711  -151.6071
 712  -10.26743
 713  167.0047
 714  107.3347
 715  15.79598
 716  -34.90277
 717  6.095197
 718  79.72174
 719  109.6633
 720  28.80504
 721  -46.6582
 722  -127.2943
 723  -204.0109
 724  -109.4343
 725  -113.7796
 726  9.294743
 727  -58.56608
 728  -0.2131195
 729  -46.68609
 730  -2.407973
 731  -10.09909
 732  -82.42724
 733  -75.8205
 734  -60.36108
 735  -9.232063
 736  -120.3083
 737  -71.22243
 738  12.56842
 739  -31.3127
 740  -116.5299
 741  -187.0225
 742  -63.08887
 743  -73.42132
 744  -98.327
 745  -199.6851
 746  -195.6079
 747  -120.2703
 748  5.300452
 749  37.14396
 750  -10.95194
 751  -33.6117
 752  -129.5395
 753  -111.0098
 754  -78.85994
 755  24.32659
 756  -23.35823
 757  1.836639
 758  30.01955
 759  13.49838
 760  6.518466
 761  -5.202528
 762  143.1321
 763  119.1433
 764  70.96159
 765  8.78153
 766  6.836797
 767  94.48811
 768  76.20206
 769  6.149888
 770  -112.1669
 771  -178.3796
 772  -172.4494
 773  -58.42751
 774  -5.627712
 775  53.52762
 776  -39.47291
 777  -85.28692
 778  -134.5699
 779  -116.5103
 780  -26.9149
 781  -40.4295
 782  -3.716973
 783  11.4236
 784  162.6246
 785  292.9856
 786  208.9433
 787  85.23125
 788  -8.272581
 789  59.11811
 790  -2.694021
 791  -110.3947
 792  -163.1041
 793  -95.30112
 794  -102.7684
 795  -161.8581
 796  -97.41422
 797  -194.1136
 798  -299.7474
 799  -435.3205
 800  -208.1247
 801  -100.7638
 802  -160.4844
 803  -161.0736
 804  -8.580776
 805  101.1368
 806  47.57918
 807  -63.60005
 808  -117.1272
 809  -217.1243
 810  -307.4557
 811  -269.0317
 812  -201.2749
 813  -121.6993
 814  -104.8722
 815  -54.66158
 816  -42.82524
 817  22.32603
 818  -9.045642
 819  -62.62555
 820  -81.55844
 821  -91.63405
 822  -183.046
 823  -220.2992
 824  -232.2682
 825  -133.1037
 826  -67.1731
 827  102.225
 828  180.9127
 829  264.8388
 830  139.2505
 831  109.8768
 832  -42.24824
 833  43.65609
 834  33.32615
 835  29.9983
 836  -72.33849
 837  15.63266
 838  86.24412
 839  159.109
 840  127.9206
 841  78.86459
 842  -5.738209
 843  26.30099
 844  106.8045
 845  178.8914
 846  107.4804
 847  92.26248
 848  143.2207
 849  99.87029
 850  50.92707
 851  -70.76873
 852  -79.95904
 853  -71.58356
 854  -102.6301
 855  -127.3986
 856  -119.8529
 857  -14.99343
 858  -16.75541
 859  -86.75096
 860  -183.7344
 861  -136.5484
 862  -101.9213
 863  -36.56916
 864  43.22054
 865  4.153862
 866  -86.30569
 867  -143.7804
 868  -48.16687
 869  69.61524
 870  77.92216
 871  -67.94746
 872  -150.062
 873  -171.3329
 874  -194.6228
 875  -257.7159
 876  -217.5283
 877  -143.7153
 878  -102.8725
 879  -72.22141
 880  -60.43516
 881  1.946689
 882  -41.3736
 883  12.68114
 884  -13.92028
 885  38.77106
 886  36.01818
 887  -38.87692
 888  -118.3306
 889  -130.3049
 890  -51.83859
 891  20.0447
 892  109.8796
 893  120.2036
 894  48.47019
 895  -81.6357
 896  -155.0426
 897  -100.2428
 898  -17.41309
 899  -23.49495
 900  -47.08321
 901  1.482842
 902  3.683403
 903  7.521086
 904  -9.059532
 905  37.67144
 906  71.47121
 907  118.7762
 908  55.60827
 909  -19.53283
 910  -38.77594
 911  36.42466
 912  74.14384
 913  43.42053
 914  45.79382
 915  46.53892
 916  137.3361
 917  243.1665
 918  223.6146
 919  79.95507
 920  -80.93343
 921  -130.7094
 922  -43.18087
 923  27.28434
 924  116.5854
 925  -51.43694
 926  -88.48463
 927  -183.7567
 928  -155.4645
 929  -190.4344
 930  -118.2925
 931  -28.45499
 932  97.67642
 933  129.0312
 934  161.1726
 935  123.9688
 936  44.90234
 937  30.6013
 938  42.35647
 939  78.56904
 940  136.9626
 941  87.84842
 942  167.2039
 943  109.7139
 944  128.7242
 945  97.15112
 946  120.6667
 947  158.0857
 948  90.66035
 949  17.58298
 950  -69.4259
 951  -63.49747
 952  -72.77766
 953  -113.9663
 954  -145.6848
 955  -68.63409
 956  -33.25089
 957  -56.35327
 958  -85.37064
 959  74.15694
 960  148.6395
 961  35.64323
 962  -224.8862
 963  -175.2369
 964  16.3898
 965  111.7459
 966  67.33788
 967  -53.03144
 968  -17.83313
 969  -74.61827
 970  -119.7039
 971  -138.0833
 972  -26.30898
 973  0.07995543
 974  -18.17926
 975  -89.22852
 976  -35.75967
 977  -82.80095
 978  -140.7466
 979  -59.27701
 980  100.4245
 981  194.5075
 982  95.54132
 983  80.17863
 984  161.6906
 985  129.9705
 986  74.68006
 987  -13.99985
 988  82.25862
 989  150.293
 990  58.12624
 991  -36.28932
 992  1.408921
 993  -19.94141
 994  -59.27176
 995  -72.97194
 996  98.81539
 997  97.72099
 998  -2.093519
 999  44.99592
1000  22.22297
1001  34.42434
1002  -58.04882
1003  21.16412
1004  82.51446
1005  151.7827
1006  55.93039
1007  64.12447
1008  10.97793
1009  21.54377
1010  3.610028
1011  9.772088
1012  4.151592
1013  -100.8223
1014  -171.4407
1015  -209.0849
1016  -153.8626
1017  -109.5729
1018  -111.0608
1019  -107.3911
1020  -125.7911
1021  -24.21151
1022  17.04105
1023  156.101
