# Input file       =  1187675783.136082_cleaned.dat
# Candidate        =  PSR_0332+5434
# Telescope        =  AR
# Epoch_topo       =  57990.247709908355
# Epoch_bary       =  N/A
# T_sample         =  0.002
# Data Folded      =  7340032
# Data Avg         =  0.010202107072473
# Data StdDev      =  1.00003643217868 
# Profile Bins     =  512
# Profile Avg      =  146.153992010376 
# Profile StdDev   =  119.737398512142 
# Reduced chi-sqr  =  1.305
# Prob(Noise)      <  3.83e-06   (~4.5 sigma)
# P_topo (ms)      =  714.463756032812  +/- 0.000441
# P'_topo (s/s)    =  -0                +/- 2.33e-10
# P''_topo (s/s^2) =  0                 +/- 1.03e-13
# P_bary (ms)      =  N/A
# P'_bary (s/s)    =  N/A
# P''_bary (s/s^2) =  N/A
# P_orb (s)        =  N/A
# asin(i)/c (s)    =  N/A
# eccentricity     =  N/A
# w (rad)          =  N/A
# T_peri           =  N/A
######################################################
   0  750.7577
   1  650.7922
   2  425.8293
   3  251.8215
   4  288.7495
   5  229.0016
   6  222.9023
   7  266.8909
   8  262.994
   9  82.71382
  10  28.26687
  11  105.4402
  12  105.8457
  13  175.0952
  14  123.4777
  15  73.85043
  16  215.7406
  17  148.0109
  18  78.01888
  19  78.74602
  20  17.56937
  21  59.16758
  22  59.92627
  23  125.3462
  24  215.245
  25  78.16598
  26  49.9984
  27  25.1692
  28  119.176
  29  94.67987
  30  15.02862
  31  127.2651
  32  198.6518
  33  100.9854
  34  49.69276
  35  174.5792
  36  86.33381
  37  136.8587
  38  122.4043
  39  108.2872
  40  143.0973
  41  93.90945
  42  150.1278
  43  233.6708
  44  173.8734
  45  135.5352
  46  68.2046
  47  219.7433
  48  23.99954
  49  -81.69537
  50  105.9973
  51  211.9241
  52  96.44953
  53  93.25813
  54  161.7771
  55  91.71188
  56  123.8039
  57  139.8173
  58  252.6975
  59  239.685
  60  176.9732
  61  209.341
  62  234.0965
  63  269.742
  64  265.3328
  65  200.1521
  66  255.3429
  67  267.912
  68  248.8187
  69  134.118
  70  83.98026
  71  165.0763
  72  138.3786
  73  91.5033
  74  191.8299
  75  123.6657
  76  171.4596
  77  100.6767
  78  17.10749
  79  125.8274
  80  222.321
  81  168.9527
  82  4.690969
  83  39.04783
  84  18.77409
  85  -67.29491
  86  53.97011
  87  -93.3392
  88  -32.91728
  89  152.7705
  90  100.8806
  91  -132.0955
  92  -23.45823
  93  56.67521
  94  130.1173
  95  265.8701
  96  163.6428
  97  -70.0906
  98  47.9142
  99  18.21696
 100  51.79817
 101  32.63234
 102  -8.997872
 103  133.7251
 104  135.2103
 105  108.9024
 106  23.55225
 107  177.4774
 108  198.7677
 109  129.7108
 110  115.0002
 111  131.2833
 112  141.2645
 113  73.16769
 114  81.52412
 115  119.7595
 116  173.0177
 117  243.0918
 118  161.6995
 119  58.29683
 120  236.1143
 121  90.92865
 122  85.39978
 123  268.4683
 124  217.8299
 125  276.1009
 126  169.6777
 127  113.3055
 128  139.9389
 129  100.4607
 130  58.57665
 131  34.88441
 132  63.30907
 133  106.3773
 134  110.3086
 135  145.3253
 136  206.6607
 137  239.5395
 138  116.6829
 139  76.66042
 140  86.01932
 141  127.991
 142  -20.92476
 143  45.46684
 144  202.4445
 145  108.0455
 146  50.95809
 147  102.7203
 148  120.5476
 149  254.4808
 150  253.5023
 151  224.9653
 152  -17.73861
 153  48.90676
 154  93.25679
 155  200.8975
 156  197.8649
 157  81.70212
 158  148.3972
 159  196.0887
 160  91.43443
 161  56.27257
 162  139.9142
 163  115.4612
 164  73.54563
 165  -3.093259
 166  51.17472
 167  112.1052
 168  13.71326
 169  58.72921
 170  96.33266
 171  120.8835
 172  134.1545
 173  2.14158
 174  151.2323
 175  112.4487
 176  100.8924
 177  56.31436
 178  127.9338
 179  186.4432
 180  66.24091
 181  16.03918
 182  133.9588
 183  23.96676
 184  57.94623
 185  123.2653
 186  18.82042
 187  45.17012
 188  61.57762
 189  58.55534
 190  150.2077
 191  267.9875
 192  242.2892
 193  182.4803
 194  190.7762
 195  87.20443
 196  77.02984
 197  156.8056
 198  158.9233
 199  136.0642
 200  133.7164
 201  50.2299
 202  -7.551877
 203  65.82051
 204  96.75928
 205  87.28662
 206  188.7222
 207  166.6737
 208  109.9295
 209  246.9813
 210  410.563
 211  399.4092
 212  171.5318
 213  143.406
 214  191.4019
 215  280.8987
 216  187.4368
 217  55.69974
 218  30.95484
 219  185.594
 220  143.6576
 221  6.96085
 222  80.50476
 223  208.2632
 224  266.2885
 225  92.38081
 226  150.8744
 227  197.7062
 228  114.5875
 229  76.61222
 230  101.4309
 231  38.24273
 232  54.47198
 233  94.47155
 234  44.02728
 235  15.22055
 236  19.91732
 237  106.5009
 238  -12.76891
 239  90.00829
 240  221.0334
 241  243.7187
 242  72.34656
 243  74.82238
 244  126.2639
 245  111.9624
 246  137.1097
 247  222.1509
 248  313.4826
 249  130.3158
 250  48.89893
 251  199.4244
 252  97.3066
 253  83.28962
 254  178.128
 255  167.6959
 256  170.2777
 257  81.53555
 258  14.35492
 259  143.839
 260  100.9771
 261  -87.13641
 262  -36.68832
 263  -15.09195
 264  116.744
 265  144.1831
 266  225.126
 267  252.1385
 268  219.8601
 269  269.674
 270  122.3854
 271  171.3829
 272  275.1494
 273  235.2645
 274  275.008
 275  222.9181
 276  251.2108
 277  178.0066
 278  144.6394
 279  181.2874
 280  127.621
 281  114.5247
 282  264.1629
 283  276.0971
 284  101.8167
 285  114.7482
 286  96.23289
 287  120.1582
 288  95.14959
 289  84.35451
 290  287.8121
 291  293.0631
 292  123.9683
 293  12.81723
 294  144.5153
 295  229.9406
 296  248.2907
 297  241.6173
 298  154.922
 299  168.3095
 300  290.8607
 301  306.0291
 302  179.4529
 303  139.9834
 304  90.77545
 305  43.74113
 306  3.20963
 307  83.23743
 308  177.3864
 309  124.2827
 310  179.7186
 311  128.469
 312  163.0602
 313  244.8238
 314  220.8868
 315  175.1024
 316  71.9317
 317  158.1849
 318  166.2569
 319  153.038
 320  63.57291
 321  13.38342
 322  26.76193
 323  11.83087
 324  22.81125
 325  36.57857
 326  128.1335
 327  223.7575
 328  190.8246
 329  35.38153
 330  106.8469
 331  86.3055
 332  179.9873
 333  199.6706
 334  193.0717
 335  263.1107
 336  216.0495
 337  133.8126
 338  167.0312
 339  76.14204
 340  153.8541
 341  110.0061
 342  203.814
 343  152.1861
 344  263.0331
 345  317.4338
 346  294.4308
 347  159.3448
 348  218.4274
 349  128.8707
 350  31.3218
 351  137.555
 352  177.6313
 353  231.16
 354  131.607
 355  188.9414
 356  95.53555
 357  -2.607482
 358  103.2529
 359  146.7733
 360  143.0447
 361  191.635
 362  53.64316
 363  33.55186
 364  127.9237
 365  195.9034
 366  123.0942
 367  59.31746
 368  280.0739
 369  235.0963
 370  93.35529
 371  179.3855
 372  104.4369
 373  -21.84326
 374  85.79265
 375  113.3294
 376  285.5249
 377  136.6655
 378  194.0419
 379  252.0209
 380  202.1502
 381  148.1303
 382  79.67088
 383  40.59739
 384  164.2293
 385  167.1847
 386  197.82
 387  220.4091
 388  138.1306
 389  156.9091
 390  202.0668
 391  169.9478
 392  153.0793
 393  143.7016
 394  128.6136
 395  57.28872
 396  128.0114
 397  81.62643
 398  34.95303
 399  175.1183
 400  128.4919
 401  64.42871
 402  154.3529
 403  161.5617
 404  263.9746
 405  120.903
 406  142.4613
 407  159.4136
 408  96.04784
 409  159.5625
 410  245.3298
 411  239.8664
 412  191.4277
 413  113.9719
 414  191.5757
 415  287.6858
 416  127.1761
 417  55.40439
 418  113.8732
 419  116.4383
 420  182.0292
 421  131.8524
 422  71.49403
 423  185.7712
 424  323.9525
 425  285.9444
 426  98.29105
 427  165.7293
 428  286.5708
 429  89.98199
 430  143.5503
 431  233.5784
 432  237.0697
 433  208.1548
 434  164.207
 435  59.91227
 436  194.4427
 437  224.6624
 438  171.4141
 439  126.6615
 440  238.1755
 441  227.5032
 442  187.6234
 443  70.00821
 444  -15.40638
 445  106.0846
 446  210.447
 447  279.3421
 448  158.2162
 449  74.06492
 450  75.9922
 451  125.8877
 452  191.3805
 453  194.5599
 454  149.7625
 455  111.6208
 456  146.5843
 457  216.8204
 458  121.9496
 459  166.0582
 460  227.4061
 461  248.9489
 462  227.522
 463  198.3323
 464  156.6206
 465  11.40696
 466  14.39795
 467  23.62399
 468  195.2538
 469  208.8911
 470  116.5643
 471  147.9704
 472  95.83477
 473  77.64431
 474  196.9545
 475  214.858
 476  144.463
 477  37.2976
 478  110.5594
 479  143.6673
 480  23.68945
 481  -36.77641
 482  63.23064
 483  116.0904
 484  84.62891
 485  68.3312
 486  153.3658
 487  188.7812
 488  254.2894
 489  208.5361
 490  210.3023
 491  126.1153
 492  267.5297
 493  335.086
 494  249.6678
 495  214.7978
 496  167.9725
 497  278.2059
 498  326.0441
 499  271.4202
 500  161.6549
 501  178.7846
 502  378.3963
 503  359.4671
 504  295.6834
 505  285.5936
 506  309.0825
 507  318.8791
 508  430.2796
 509  406.5134
 510  587.468
 511  750.5692
