# Input file       =  1187574688.109570-PSRB0329-2ms-sampling-dd.dat
# Candidate        =  PSR_0332+5434
# Telescope        =  AR
# Epoch_topo       =  57989.077628582985
# Epoch_bary       =  N/A
# T_sample         =  0.002
# Data Folded      =  7340032
# Data Avg         =  -6.96555159540022e-11
# Data StdDev      =  3.0107398673993  
# Profile Bins     =  512
# Profile Avg      =  0.98214430190177 
# Profile StdDev   =  360.485026064301 
# Reduced chi-sqr  =  1.150
# Prob(Noise)      <  0.0107   (~2.3 sigma)
# P_topo (ms)      =  714.463494302385  +/- 0.000287
# P'_topo (s/s)    =  -0                +/- 1.51e-10
# P''_topo (s/s^2) =  0                 +/- 6.69e-14
# P_bary (ms)      =  N/A
# P'_bary (s/s)    =  N/A
# P''_bary (s/s^2) =  N/A
# P_orb (s)        =  N/A
# asin(i)/c (s)    =  N/A
# eccentricity     =  N/A
# w (rad)          =  N/A
# T_peri           =  N/A
######################################################
   0  16.18692
   1  229.8315
   2  -213.9683
   3  226.4929
   4  -7.6873
   5  -8.079189
   6  -308.0981
   7  -4.995027
   8  94.36246
   9  -3.507347
  10  96.19712
  11  -338.1305
  12  -451.744
  13  -157.0599
  14  -365.4594
  15  -296.4593
  16  -11.322
  17  -55.50851
  18  104.8296
  19  44.12175
  20  -550.6299
  21  -617.2985
  22  -85.23044
  23  -87.82012
  24  -180.7791
  25  92.01994
  26  -101.6111
  27  -494.2733
  28  -500.494
  29  -303.4019
  30  -394.8309
  31  -360.6797
  32  -490.6537
  33  -297.704
  34  -412.9776
  35  -229.1236
  36  -595.8509
  37  -484.5154
  38  -685.2484
  39  -752.0614
  40  -234.9847
  41  -336.3791
  42  -442.3293
  43  -258.8891
  44  -144.0356
  45  -153.3051
  46  -238.6235
  47  65.25056
  48  -8.916109
  49  48.53878
  50  72.15723
  51  -305.1245
  52  -327.0793
  53  -60.04824
  54  -239.7441
  55  -351.0331
  56  -217.2115
  57  -131.3425
  58  364.7516
  59  214.1552
  60  -27.77245
  61  -133.8531
  62  -329.3202
  63  -290.4022
  64  -439.3762
  65  -849.1645
  66  -437.6679
  67  -426.0182
  68  -36.86293
  69  -147.3015
  70  -360.16
  71  -607.8638
  72  -167.1681
  73  161.2083
  74  362.6102
  75  406.1589
  76  16.40353
  77  -212.8636
  78  -221.4998
  79  278.9711
  80  879.5126
  81  808.8752
  82  462.7509
  83  334.3865
  84  102.7616
  85  282.499
  86  252.6386
  87  61.65183
  88  367.5393
  89  177.0953
  90  197.3014
  91  -49.54747
  92  -226.4552
  93  -219.7523
  94  -190.2423
  95  -239.5058
  96  -521.9679
  97  -328.7477
  98  -93.958
  99  -274.0847
 100  -1.763681
 101  106.9985
 102  -311.3783
 103  -593.6835
 104  -603.1061
 105  -289.7398
 106  -166.6366
 107  -57.04176
 108  29.54529
 109  -15.06825
 110  -336.3668
 111  -209.0398
 112  67.10323
 113  -159.8338
 114  -364.3363
 115  -102.9241
 116  -3.224365
 117  48.73954
 118  21.97044
 119  104.7743
 120  -19.75194
 121  -95.35979
 122  88.76309
 123  84.83572
 124  379.4158
 125  342.5251
 126  -253.2207
 127  -65.01231
 128  24.95159
 129  -414.535
 130  -496.6438
 131  -276.6411
 132  88.84183
 133  192.0877
 134  -28.01225
 135  45.18118
 136  157.7733
 137  240.9405
 138  101.7662
 139  135.6386
 140  -28.6995
 141  -168.2498
 142  -158.8363
 143  -235.6104
 144  -102.5916
 145  -128.5334
 146  153.1741
 147  -560.1268
 148  -53.77465
 149  -68.42007
 150  -153.1466
 151  -370.805
 152  -179.8857
 153  -251.6096
 154  -313.1507
 155  -365.6709
 156  144.883
 157  75.80952
 158  213.4736
 159  43.81546
 160  215.499
 161  34.54568
 162  -77.61544
 163  -314.9598
 164  -24.42555
 165  -155.3
 166  -79.41918
 167  -166.3848
 168  121.5969
 169  113.2752
 170  5.92905
 171  -31.93014
 172  -200.1631
 173  -422.2632
 174  -360.0531
 175  -320.1758
 176  -250.3673
 177  7.547576
 178  290.9539
 179  -17.4122
 180  69.34859
 181  -72.94006
 182  -15.32034
 183  14.53263
 184  133.4826
 185  271.7289
 186  172.9109
 187  169.454
 188  -61.40356
 189  17.8035
 190  531.1364
 191  426.366
 192  109.4323
 193  172.6259
 194  395.0818
 195  430.265
 196  86.86536
 197  244.498
 198  57.83068
 199  -50.11137
 200  -144.3347
 201  -60.61772
 202  -7.05719
 203  262.5363
 204  234.9767
 205  288.8428
 206  229.9606
 207  17.40611
 208  23.03337
 209  102.1856
 210  86.31216
 211  279.3596
 212  64.12452
 213  -155.7686
 214  75.03813
 215  -194.7438
 216  -191.0795
 217  -174.1854
 218  -343.1612
 219  -98.18515
 220  140.5702
 221  -108.9619
 222  6.160913
 223  -58.24329
 224  -101.3098
 225  -16.18685
 226  -27.48451
 227  158.9763
 228  -38.72839
 229  -237.142
 230  -287.3898
 231  -223.4979
 232  -259.1427
 233  -431.2241
 234  -20.99202
 235  0.9748738
 236  94.60403
 237  98.81392
 238  -30.36231
 239  -305.2859
 240  0.3743901
 241  314.7779
 242  181.6205
 243  106.3668
 244  173.1175
 245  -132.8715
 246  -267.237
 247  67.44131
 248  -51.29016
 249  64.47289
 250  -169.4785
 251  -161.7925
 252  226.0762
 253  224.2025
 254  305.39
 255  303.2464
 256  167.3229
 257  198.4833
 258  202.3596
 259  146.0018
 260  183.3282
 261  -33.67507
 262  -55.41553
 263  -43.13328
 264  -138.2173
 265  -60.47725
 266  -154.5101
 267  64.46846
 268  39.79221
 269  -68.70682
 270  -470.7301
 271  -498.4446
 272  -73.12605
 273  -182.8795
 274  -132.9653
 275  283.1515
 276  260.1203
 277  -34.31966
 278  -33.70015
 279  150.9581
 280  52.92622
 281  -155.7019
 282  -94.21229
 283  -54.33737
 284  -177.5321
 285  38.78128
 286  68.43755
 287  454.9598
 288  337.7235
 289  180.9519
 290  287.935
 291  316.735
 292  -155.6117
 293  119.1433
 294  234.916
 295  360.7456
 296  109.706
 297  27.16319
 298  -45.22736
 299  264.481
 300  100.6328
 301  191.0465
 302  18.68049
 303  -11.69098
 304  46.43339
 305  -51.49365
 306  99.75177
 307  388.7809
 308  561.9313
 309  212.9888
 310  171.3335
 311  156.949
 312  379.5709
 313  140.5866
 314  -171.2079
 315  -103.284
 316  -198.0856
 317  113.6614
 318  284.8059
 319  83.51639
 320  311.341
 321  216.1847
 322  47.35165
 323  -141.9744
 324  293.3815
 325  138.8431
 326  -166.6874
 327  42.06097
 328  383.9846
 329  223.3369
 330  323.189
 331  80.56027
 332  96.93488
 333  -13.07548
 334  -109.1688
 335  -42.31586
 336  210.5804
 337  277.6605
 338  120.9397
 339  -67.50895
 340  201.5029
 341  419.3452
 342  46.30883
 343  -194.0213
 344  191.1964
 345  -269.3543
 346  -100.0528
 347  25.67342
 348  101.2338
 349  282.0126
 350  298.1506
 351  100.7726
 352  -13.69421
 353  252.7889
 354  269.2566
 355  34.44698
 356  -123.6408
 357  7.849184
 358  254.0184
 359  129.1003
 360  -106.8423
 361  -14.80361
 362  -136.3849
 363  75.82838
 364  106.7167
 365  -42.09946
 366  11.14697
 367  -2.757783
 368  -104.3012
 369  23.15865
 370  -43.34984
 371  25.09886
 372  131.6406
 373  283.1119
 374  -8.531543
 375  171.4052
 376  189.3082
 377  34.97042
 378  -212.8597
 379  -16.69377
 380  -166.3634
 381  -304.7647
 382  -217.531
 383  99.66624
 384  -9.755073
 385  466.8102
 386  540.1069
 387  245.867
 388  203.9814
 389  200.3458
 390  -46.87612
 391  23.14891
 392  177.6529
 393  -18.26103
 394  -67.18772
 395  -199.9987
 396  133.2985
 397  -34.60763
 398  108.7095
 399  133.7108
 400  121.5955
 401  16.31784
 402  74.0303
 403  -14.65783
 404  407.3069
 405  173.9196
 406  158.0916
 407  93.37938
 408  278.2911
 409  132.5951
 410  30.28865
 411  109.3075
 412  179.0179
 413  39.19129
 414  29.97699
 415  -541.733
 416  -578.1151
 417  -97.92011
 418  6.937043
 419  -295.7294
 420  -3.564587
 421  92.62599
 422  89.00322
 423  170.4587
 424  103.7935
 425  -121.3806
 426  -196.2154
 427  252.5799
 428  335.1853
 429  229.3655
 430  -50.48184
 431  -20.08236
 432  217.5148
 433  -16.74181
 434  -220.5938
 435  -242.0887
 436  -62.22149
 437  -276.5985
 438  -249.3135
 439  -303.0794
 440  130.7312
 441  202.4895
 442  -295.3883
 443  -283.4972
 444  -276.5899
 445  -163.0329
 446  -212.4807
 447  55.88704
 448  150.2603
 449  88.61612
 450  -335.0732
 451  -160.9386
 452  -109.3025
 453  209.3884
 454  325.9446
 455  77.6573
 456  54.4413
 457  -285.6725
 458  45.1032
 459  40.38841
 460  -77.56638
 461  -135.8721
 462  -84.40751
 463  -8.782578
 464  -374.1033
 465  -293.7805
 466  -258.0822
 467  39.31674
 468  141.8184
 469  -208.7826
 470  -19.18247
 471  -224.9074
 472  -306.8313
 473  -56.77882
 474  -45.75216
 475  45.04087
 476  -16.39709
 477  -205.0909
 478  -380.6726
 479  -240.3175
 480  -114.8081
 481  89.02013
 482  -8.609438
 483  -186.763
 484  -80.8325
 485  -27.796
 486  -145.9233
 487  -40.58832
 488  195.9754
 489  -28.32175
 490  -243.6348
 491  247.3814
 492  140.6995
 493  244.8707
 494  184.1639
 495  287.3994
 496  403.4654
 497  267.3509
 498  838.9745
 499  1076.109
 500  1586.138
 501  1728.801
 502  1690.301
 503  1273.391
 504  666.223
 505  257.0475
 506  293.9962
 507  96.15926
 508  169.4108
 509  -33.24445
 510  116.4239
 511  -0.4845723
