# Input file       =  1187072595.109421-PSRB0329-2ms-sampling-dd.dat
# Candidate        =  PSR_0332+5434
# Telescope        =  AR
# Epoch_topo       =  57983.266367007185
# Epoch_bary       =  N/A
# T_sample         =  0.002
# Data Folded      =  7340032
# Data Avg         =  -8.35527100824398e-11
# Data StdDev      =  5.07378299581644 
# Profile Bins     =  512
# Profile Avg      =  0.224082962133627
# Profile StdDev   =  607.499444005907 
# Reduced chi-sqr  =  0.824
# Prob(Noise)      <  0.999   (~0.0 sigma)
# P_topo (ms)      =  714.464545670094  +/- 0.00106
# P'_topo (s/s)    =  -0                +/- 5.61e-10
# P''_topo (s/s^2) =  0                 +/- 2.47e-13
# P_bary (ms)      =  N/A
# P'_bary (s/s)    =  N/A
# P''_bary (s/s^2) =  N/A
# P_orb (s)        =  N/A
# asin(i)/c (s)    =  N/A
# eccentricity     =  N/A
# w (rad)          =  N/A
# T_peri           =  N/A
######################################################
   0  -9.668679
   1  -77.79168
   2  -264.9124
   3  -450.7623
   4  131.0408
   5  154.8166
   6  -249.2269
   7  -535.3747
   8  -215.75
   9  -171.8529
  10  -671.2911
  11  -716.2208
  12  -187.2575
  13  -181.5379
  14  77.35383
  15  273.8021
  16  -152.2356
  17  287.5657
  18  -71.57431
  19  -512.9329
  20  -526.2064
  21  -334.5975
  22  -40.88303
  23  -197.8727
  24  359.2144
  25  413.0872
  26  -201.734
  27  -191.1982
  28  -257.592
  29  -158.0037
  30  -254.7371
  31  -59.93221
  32  2.223137
  33  384.5212
  34  419.2462
  35  -97.6082
  36  61.24913
  37  -93.50373
  38  -184.7027
  39  -241.5361
  40  -124.2231
  41  94.70717
  42  -134.0044
  43  227.4771
  44  221.2253
  45  514.2299
  46  614.9954
  47  781.2217
  48  794.0697
  49  583.2231
  50  377.7289
  51  484.6053
  52  653.2679
  53  347.1229
  54  137.7643
  55  -7.270596
  56  88.97015
  57  -142.9442
  58  330.5444
  59  845.2198
  60  750.9817
  61  797.5671
  62  286.7141
  63  396.7968
  64  561.4844
  65  286.8188
  66  314.3482
  67  329.9699
  68  411.1192
  69  451.2647
  70  478.4493
  71  154.8033
  72  -209.4269
  73  -125.405
  74  -15.12459
  75  308.0214
  76  160.7513
  77  120.6807
  78  -138.4845
  79  -81.0977
  80  428.577
  81  564.4058
  82  871.0904
  83  255.9624
  84  224.5021
  85  593.1858
  86  224.9458
  87  -79.29817
  88  283.6414
  89  460.1042
  90  673.3284
  91  443.6182
  92  193.5844
  93  -27.8047
  94  -10.91401
  95  343.3531
  96  219.2742
  97  243.7102
  98  672.7092
  99  517.5588
 100  247.8203
 101  561.9598
 102  634.4006
 103  440.6786
 104  64.14956
 105  -52.49282
 106  110.7927
 107  395.6942
 108  739.6987
 109  627.2473
 110  -9.257245
 111  -348.959
 112  170.0068
 113  -56.99585
 114  236.9118
 115  685.7288
 116  129.6659
 117  -420.0005
 118  -168.261
 119  484.1663
 120  243.2628
 121  -212.2164
 122  191.6976
 123  -81.93788
 124  -220.6853
 125  99.70183
 126  216.712
 127  317.832
 128  465.4726
 129  351.3467
 130  62.16841
 131  -416.3247
 132  -234.24
 133  -111.6576
 134  61.29181
 135  738.4935
 136  524.3996
 137  443.5902
 138  294.674
 139  91.62061
 140  145.4862
 141  176.4178
 142  905.4464
 143  889.6559
 144  598.3088
 145  -111.4065
 146  -232.4737
 147  -125.1064
 148  216.8396
 149  412.5935
 150  351.6859
 151  -204.0699
 152  -409.2964
 153  72.69378
 154  -354.9895
 155  -295.9818
 156  205.3668
 157  58.43864
 158  -214.0838
 159  143.9358
 160  357.1307
 161  108.8901
 162  -259.7647
 163  46.07983
 164  203.9694
 165  115.5943
 166  151.5467
 167  -218.7839
 168  -27.04238
 169  155.7343
 170  106.6937
 171  352.7651
 172  361.3942
 173  312.1187
 174  273.1981
 175  -249.722
 176  135.732
 177  449.4477
 178  660.7313
 179  623.4199
 180  580.545
 181  226.1494
 182  81.60068
 183  327.8842
 184  233.9411
 185  317.1788
 186  120.147
 187  186.3707
 188  235.4164
 189  114.515
 190  182.7854
 191  94.2714
 192  -116.5512
 193  -89.96473
 194  46.12082
 195  -9.827707
 196  -385.9843
 197  61.18605
 198  192.9291
 199  342.4612
 200  469.9115
 201  411.3486
 202  235.8366
 203  285.0999
 204  229.4093
 205  362.4098
 206  374.4619
 207  239.1847
 208  373.9412
 209  -112.0621
 210  -87.60931
 211  443.011
 212  183.5464
 213  664.3879
 214  523.2382
 215  646.7675
 216  82.50933
 217  27.00544
 218  494.8228
 219  280.1631
 220  216.0629
 221  -161.338
 222  -49.63072
 223  -85.80924
 224  -124.8176
 225  -347.8835
 226  32.332
 227  42.54091
 228  372.9038
 229  471.5398
 230  76.76187
 231  224.1818
 232  296.1582
 233  -531.1169
 234  -455.2087
 235  -91.26772
 236  22.95179
 237  296.8307
 238  804.6299
 239  454.1401
 240  -247.4015
 241  -768.4512
 242  -234.5401
 243  316.6181
 244  409.4352
 245  309.4249
 246  24.28302
 247  264.0271
 248  478.0719
 249  -111.4532
 250  91.66851
 251  -94.59264
 252  337.6143
 253  283.095
 254  -82.44762
 255  -41.12582
 256  242.8515
 257  231.765
 258  94.83396
 259  399.9089
 260  445.8864
 261  -369.9042
 262  285.6413
 263  434.6494
 264  97.61074
 265  -53.32771
 266  -50.31874
 267  200.3412
 268  274.0479
 269  442.4949
 270  359.853
 271  127.7712
 272  120.5968
 273  345.875
 274  68.95171
 275  614.9714
 276  592.9381
 277  885.8985
 278  457.2917
 279  426.3841
 280  442.676
 281  136.0731
 282  424.5564
 283  326.2834
 284  62.09946
 285  35.21611
 286  69.5556
 287  216.5471
 288  186.5414
 289  -8.85192
 290  -501.5926
 291  -184.6677
 292  248.3507
 293  209.9682
 294  99.35441
 295  227.9508
 296  280.6916
 297  -54.81071
 298  -71.47599
 299  -229.4353
 300  -59.90923
 301  -398.6255
 302  -128.8311
 303  619.2657
 304  550.7562
 305  -53.08673
 306  -176.007
 307  71.00589
 308  -528.527
 309  -275.8311
 310  -141.368
 311  179.635
 312  139.5533
 313  155.7782
 314  87.98767
 315  -432.5158
 316  -552.3867
 317  -600.2186
 318  -101.6435
 319  106.1772
 320  63.13477
 321  342.35
 322  124.0285
 323  -666.0669
 324  -494.623
 325  -269.5025
 326  57.17159
 327  -293.0314
 328  -131.2346
 329  370.824
 330  124.0963
 331  -178.9444
 332  -210.8286
 333  -4.613966
 334  153.7821
 335  75.04218
 336  493.7398
 337  928.4387
 338  1157.311
 339  1363.531
 340  1619.723
 341  1085.018
 342  368.8484
 343  450.8266
 344  252.8816
 345  204.5138
 346  354.4677
 347  -148.1082
 348  -204.1506
 349  -304.3988
 350  -206.0559
 351  -5.490972
 352  -211.6717
 353  22.73251
 354  -84.59636
 355  -355.1489
 356  -165.1179
 357  -305.8441
 358  142.7899
 359  114.1595
 360  -396.4153
 361  -78.80824
 362  88.4038
 363  19.30777
 364  -119.3398
 365  -475.7929
 366  -545.0242
 367  -652.8132
 368  -1145.863
 369  -810.4462
 370  -561.2016
 371  -255.4088
 372  -111.7995
 373  -335.3163
 374  -91.93402
 375  -492.9497
 376  -567.6365
 377  -363.6069
 378  -134.3898
 379  -9.531937
 380  -378.0432
 381  17.4952
 382  -147.7677
 383  -243.4841
 384  -376.7097
 385  -628.6793
 386  -374.6253
 387  -309.4847
 388  -532.4684
 389  -671.6796
 390  -541.1766
 391  -663.2712
 392  -731.3065
 393  -442.559
 394  -445.1967
 395  -31.66891
 396  -170.5442
 397  -533.9619
 398  -938.2501
 399  -721.7175
 400  -302.2177
 401  -265.5437
 402  -566.5396
 403  -912.7274
 404  -504.4349
 405  -483.3195
 406  -655.0767
 407  -193.9044
 408  -173.9176
 409  -748.725
 410  -517.644
 411  -330.6248
 412  -529.9233
 413  -514.6105
 414  -674.5758
 415  -192.8795
 416  -83.39751
 417  37.30892
 418  -144.6479
 419  -422.4927
 420  -386.8975
 421  -1157.341
 422  -686.0555
 423  -525.5316
 424  -380.687
 425  -303.9832
 426  -733.4468
 427  -490.0632
 428  -573.5448
 429  -877.2379
 430  -707.3982
 431  -451.5444
 432  -603.1172
 433  -915.1161
 434  -1143.132
 435  -937.9272
 436  -672.2414
 437  -402.9445
 438  -360.3993
 439  -81.79257
 440  -137.0582
 441  -608.6004
 442  -486.2663
 443  -520.192
 444  -479.3885
 445  -181.3636
 446  109.8889
 447  140.3241
 448  -142.8365
 449  -228.6922
 450  -475.1682
 451  -592.9038
 452  -187.8346
 453  -96.86055
 454  -64.7412
 455  -87.0629
 456  -490.0319
 457  -556.777
 458  -296.1712
 459  -609.6154
 460  -613.7601
 461  -394.956
 462  -172.2931
 463  -283.6137
 464  -267.2453
 465  -482.7106
 466  -637.5303
 467  -458.3641
 468  -651.2478
 469  -517.7941
 470  -349.6731
 471  -562.9941
 472  -311.01
 473  -469.9328
 474  -652.5344
 475  -523.0505
 476  351.6089
 477  71.83142
 478  193.5928
 479  212.1624
 480  145.8371
 481  53.64076
 482  -80.81465
 483  -2.913271
 484  213.8481
 485  -53.76607
 486  -272.9673
 487  -247.7761
 488  -134.5526
 489  -236.0456
 490  -311.3767
 491  -321.1203
 492  -283.7774
 493  -479.0185
 494  -50.78436
 495  327.8309
 496  -274.6082
 497  -696.3835
 498  -437.7912
 499  -370.9808
 500  -258.7307
 501  150.0483
 502  360.9015
 503  -101.8245
 504  -171.2232
 505  -210.6001
 506  -161.7465
 507  -67.42355
 508  56.26399
 509  392.6164
 510  570.8168
 511  639.9285
