# Input file       =  1187489097.112756-PSRB0329-2ms-sampling-dd.dat
# Candidate        =  PSR_0332+5434
# Telescope        =  AR
# Epoch_topo       =  57988.086992045784
# Epoch_bary       =  N/A
# T_sample         =  0.002
# Data Folded      =  7340032
# Data Avg         =  -1.09719818256656e-08
# Data StdDev      =  388.209053067568 
# Profile Bins     =  512
# Profile Avg      =  -0.724660390996497
# Profile StdDev   =  46481.4486727291 
# Reduced chi-sqr  =  1.344
# Prob(Noise)      <  3.04e-07   (~5.0 sigma)
# P_topo (ms)      =  714.463582680002  +/- 0.000649
# P'_topo (s/s)    =  -0                +/- 3.42e-10
# P''_topo (s/s^2) =  0                 +/- 1.51e-13
# P_bary (ms)      =  N/A
# P'_bary (s/s)    =  N/A
# P''_bary (s/s^2) =  N/A
# P_orb (s)        =  N/A
# asin(i)/c (s)    =  N/A
# eccentricity     =  N/A
# w (rad)          =  N/A
# T_peri           =  N/A
######################################################
   0  -25637.35
   1  -22441.74
   2  -26490.19
   3  -26941.46
   4  -27811.94
   5  -28037.66
   6  -28675.09
   7  -28739.07
   8  -27053.12
   9  -25116.4
  10  -21699.38
  11  -21243.11
  12  -23215.62
  13  -27602.96
  14  -29407.35
  15  -29920.62
  16  -26691.81
  17  -19339.18
  18  -16360.13
  19  -15297.01
  20  -11423.53
  21  -18385.28
  22  -20013.29
  23  -17713.8
  24  -13018.73
  25  -14454.16
  26  -8700.264
  27  -8414.828
  28  -9411.782
  29  -9436.514
  30  -14812.79
  31  -21148.51
  32  -27131.9
  33  -24986.56
  34  -24339.18
  35  -24154.83
  36  -22126.07
  37  -26639.97
  38  -32892.65
  39  -33246.26
  40  -36437.14
  41  -38441.25
  42  -40347.63
  43  -40489.09
  44  -41707.78
  45  -45179.86
  46  -48557.89
  47  -52331.07
  48  -55455.63
  49  -57017.76
  50  -54841.61
  51  -52945.01
  52  -49868.89
  53  -47766.04
  54  -46993.55
  55  -47613.39
  56  -49575.29
  57  -43360.41
  58  -39097.15
  59  -30223.19
  60  -28459.41
  61  -29873.34
  62  -29406.66
  63  -33132.7
  64  -33724.75
  65  -34119.99
  66  -28652.07
  67  -24990.06
  68  -19286.84
  69  -14453.94
  70  -15339.18
  71  -17948.9
  72  -27477.13
  73  -28532.16
  74  -29645.02
  75  -27625.78
  76  -27339.86
  77  -29337.07
  78  -35179.78
  79  -43646.77
  80  -49359.45
  81  -50733.99
  82  -50670.49
  83  -50711.17
  84  -51988.76
  85  -54947.07
  86  -57299.59
  87  -53017.86
  88  -45018.93
  89  -37217.29
  90  -29855.57
  91  -29398.74
  92  -32364.16
  93  -41987.84
  94  -36715.31
  95  -28493.04
  96  -20021.42
  97  -16344
  98  -14097.83
  99  -19142.61
 100  -34558.86
 101  -36869.53
 102  -32003.35
 103  -29765.17
 104  -29243.38
 105  -30744.74
 106  -35532.03
 107  -38296.07
 108  -33801.75
 109  -33120.41
 110  -31884.61
 111  -34123.54
 112  -35272.1
 113  4266.232
 114  40786.98
 115  80983.51
 116  108508.8
 117  92884.46
 118  64011.82
 119  13777.35
 120  66024.62
 121  109292
 122  143038.1
 123  140273.2
 124  120732.8
 125  72632.23
 126  42788.47
 127  36009.2
 128  38729.6
 129  36816.97
 130  44238.11
 131  42470.51
 132  44429.89
 133  43629.2
 134  36118.55
 135  40035.24
 136  44924.23
 137  57989.54
 138  69143.09
 139  81015.59
 140  83982.02
 141  83914.14
 142  87863.5
 143  80955.98
 144  87109.29
 145  101287.8
 146  104578.3
 147  102727.2
 148  93847.95
 149  88545.98
 150  79892.84
 151  81147.66
 152  80096.74
 153  71454.26
 154  64472.13
 155  45260.66
 156  37387.77
 157  33040.95
 158  35965.17
 159  43281.07
 160  45529.04
 161  43551.17
 162  46965.18
 163  54754.83
 164  64875.01
 165  73661.88
 166  82973.36
 167  89628.16
 168  88476.41
 169  96976.14
 170  100890.5
 171  94062.26
 172  92369.02
 173  92467.68
 174  90597.92
 175  82453.63
 176  71057.84
 177  63096.68
 178  36345.38
 179  25631.5
 180  14481.88
 181  6341.621
 182  3173.611
 183  -1094.992
 184  -3671.842
 185  -6746.058
 186  -10203.05
 187  -10688.66
 188  -13163.78
 189  -14751.58
 190  -11174.6
 191  -9607.979
 192  -2068.307
 193  14208.65
 194  25639.7
 195  37363.59
 196  49735.73
 197  34445.25
 198  33714.05
 199  30897.31
 200  55740.97
 201  56276.57
 202  63259.88
 203  65638.94
 204  43403.39
 205  30328.29
 206  19422.87
 207  11495.73
 208  9122.375
 209  9936.56
 210  6917.974
 211  4583.804
 212  2998.144
 213  1603.336
 214  505.6806
 215  6866.055
 216  14526.22
 217  26306.63
 218  35984.13
 219  43631.42
 220  37900.26
 221  33216.72
 222  33583.16
 223  34073.14
 224  41475.12
 225  47828.45
 226  56751.17
 227  53504.56
 228  50022.18
 229  49603.34
 230  44650.76
 231  38566.61
 232  39903.94
 233  37283.22
 234  45490.14
 235  51772.54
 236  60731.66
 237  65270.38
 238  59122.54
 239  54699.7
 240  49614.39
 241  46802.8
 242  44862.86
 243  47509.47
 244  50372.45
 245  48486.72
 246  48875.91
 247  49451.38
 248  52839.52
 249  53048.94
 250  41593.02
 251  49605.24
 252  43797.37
 253  44259.97
 254  50181.76
 255  50064.8
 256  53813.09
 257  54601.3
 258  48142.23
 259  37234.22
 260  25508.93
 261  23369.76
 262  21024.45
 263  23669.03
 264  30478.08
 265  27870.89
 266  19775.87
 267  16287.5
 268  12346.48
 269  13261.71
 270  12580.27
 271  15628.79
 272  13923.46
 273  13563.98
 274  7243.029
 275  2931.812
 276  2473.569
 277  5926.815
 278  4387.966
 279  -1639.44
 280  -5375.342
 281  -12050.56
 282  -10414.39
 283  -7384.846
 284  -5358.251
 285  -5088.369
 286  -7516.374
 287  -9326.677
 288  -11598.2
 289  -10544.53
 290  -8759.003
 291  -11698.67
 292  -17384.51
 293  -19300.33
 294  -23295.54
 295  -24334.59
 296  -25753.07
 297  -31107.3
 298  -33588.13
 299  -20376.85
 300  -10052.74
 301  -2466.455
 302  3846.865
 303  -11939.32
 304  -21687.32
 305  -28868.36
 306  2830.552
 307  10728.24
 308  16766.12
 309  17568.95
 310  6909.009
 311  2901.475
 312  1944.981
 313  11087.07
 314  15596.98
 315  13600.86
 316  15205.03
 317  13966.34
 318  24630.36
 319  31427.28
 320  34971.55
 321  31783.89
 322  23572.48
 323  21499.89
 324  16849.45
 325  17557.81
 326  19346.19
 327  18290.09
 328  20277.36
 329  22346.18
 330  19386.32
 331  16709.63
 332  13433.64
 333  7336.416
 334  2582.112
 335  270.3829
 336  -308.6294
 337  -3668.385
 338  -12143.72
 339  -21671.3
 340  -27548.3
 341  -32676.65
 342  -34242.22
 343  -31963.17
 344  -29387.22
 345  -25151.1
 346  -20287.99
 347  -17949.66
 348  -18993.62
 349  -18862.51
 350  -19618.81
 351  -19426.88
 352  -18542.03
 353  -10235.46
 354  -8996.471
 355  -8439.826
 356  -5742.355
 357  -8099.178
 358  -8027.228
 359  -9212.303
 360  -15342.25
 361  -12568.36
 362  -11487.51
 363  -9664.515
 364  -6348.226
 365  -4061.661
 366  -6679.154
 367  -13257.07
 368  -14402.94
 369  -20793.65
 370  -26664.94
 371  -30896.12
 372  -34165.21
 373  -36986.43
 374  -39529.81
 375  -40518.91
 376  -42007.06
 377  -41238.61
 378  -40948.93
 379  -38206.57
 380  -35218.57
 381  -31850.85
 382  -28520.04
 383  -23493.95
 384  -18396.05
 385  -9951.118
 386  -2992.332
 387  9048.296
 388  10160.31
 389  9834.717
 390  5444.413
 391  6283.8
 392  5437.698
 393  6966.341
 394  10860.69
 395  6000.51
 396  2352.225
 397  -10498.79
 398  -19086.15
 399  -26456.33
 400  -32073.81
 401  -31958.42
 402  -34038.09
 403  -36685.11
 404  -42417.78
 405  -44858.66
 406  -47162.7
 407  -48133.41
 408  -49204.48
 409  -49190.04
 410  -52164.04
 411  -54594.48
 412  -53915.18
 413  -55284.91
 414  -56095.03
 415  -53917.1
 416  -53184.28
 417  -51574.64
 418  -49750.73
 419  -49276.7
 420  -48790.32
 421  -50177.97
 422  -50923.94
 423  -44353.77
 424  -37207.79
 425  -30710.14
 426  -25799.16
 427  -25756.01
 428  -28117.61
 429  -31146.08
 430  -28081.51
 431  -18367.33
 432  -5238.033
 433  -751.3926
 434  -1845.145
 435  -3968.445
 436  -24677.38
 437  -25730.65
 438  -20108.98
 439  -7587.67
 440  -3211.684
 441  -4599.14
 442  -6026.652
 443  -21376.33
 444  -20597.69
 445  -14740.56
 446  -7962.896
 447  -4938.975
 448  -798.9512
 449  -10587.54
 450  -7628.667
 451  -3341.191
 452  -1640.98
 453  -3635.451
 454  -5487.41
 455  -8287.646
 456  -14541.1
 457  -19141.61
 458  -18402.17
 459  -19332.94
 460  -17921.29
 461  -17559.24
 462  -21061.06
 463  -23472.49
 464  -25222.7
 465  -25383.55
 466  -22555.89
 467  -20353.12
 468  -20482.7
 469  -24520.94
 470  -24854.62
 471  -21888.63
 472  -19460.18
 473  -21719.46
 474  -22853.22
 475  -26055.11
 476  -31481.14
 477  -36875.36
 478  -28341.02
 479  -28622.7
 480  -28274.11
 481  -29091.29
 482  -34026.68
 483  -35653.84
 484  -39168.83
 485  -37457.86
 486  -39142.58
 487  -37795.07
 488  -37248.05
 489  -35101.4
 490  -34879.42
 491  -37347.13
 492  -36971.52
 493  -33174.8
 494  -27485.79
 495  -24340.01
 496  -20394.27
 497  -18820.84
 498  -24170.63
 499  -22199.15
 500  -16383.55
 501  -15010.57
 502  -14501.19
 503  -15634.06
 504  -18274.4
 505  -17482.82
 506  -18969.48
 507  -20220.6
 508  -21897.43
 509  -28791.18
 510  -30207.35
 511  -31518.85
