# Input file       =  1187919303.11137_cleaned.dat
# Candidate        =  PSR_0332+5434
# Telescope        =  AR
# Epoch_topo       =  57993.066228140859
# Epoch_bary       =  N/A
# T_sample         =  0.002
# Data Folded      =  7340032
# Data Avg         =  0.0132420619681527
# Data StdDev      =  2.26386300636615 
# Profile Bins     =  256
# Profile Avg      =  380.101363320761 
# Profile StdDev   =  383.335585098487 
# Reduced chi-sqr  =  1.956
# Prob(Noise)      <  5.91e-18   (~8.6 sigma)
# P_topo (ms)      =  714.463344491543  +/- 0.000145
# P'_topo (s/s)    =  -0                +/- 7.63e-11
# P''_topo (s/s^2) =  0                 +/- 3.37e-14
# P_bary (ms)      =  N/A
# P'_bary (s/s)    =  N/A
# P''_bary (s/s^2) =  N/A
# P_orb (s)        =  N/A
# asin(i)/c (s)    =  N/A
# eccentricity     =  N/A
# w (rad)          =  N/A
# T_peri           =  N/A
######################################################
   0  270.038
   1  273.5514
   2  253.9286
   3  262.5334
   4  338.4831
   5  91.49017
   6  83.5146
   7  334.2773
   8  232.3141
   9  -61.84732
  10  114.8677
  11  -442.5761
  12  834.8915
  13  52.29628
  14  731.5381
  15  673.5607
  16  442.905
  17  316.5835
  18  340.7623
  19  -455.1389
  20  339.9213
  21  144.6057
  22  55.77017
  23  267.2268
  24  244.3502
  25  34.60033
  26  411.888
  27  81.46483
  28  403.0867
  29  343.7006
  30  540.7644
  31  490.3505
  32  292.8855
  33  463.1045
  34  529.6891
  35  587.9269
  36  485.9576
  37  -618.2731
  38  40.67202
  39  466.4774
  40  715.3998
  41  -477.451
  42  76.76015
  43  438.4266
  44  743.8674
  45  87.79121
  46  -323.5065
  47  793.9026
  48  -94.50607
  49  -153.6011
  50  576.9787
  51  -105.1707
  52  -188.4791
  53  203.7938
  54  296.0687
  55  464.2675
  56  560.7052
  57  237.9039
  58  450.935
  59  696.7298
  60  102.937
  61  538.8298
  62  699.5693
  63  -132.9581
  64  623.5087
  65  576.6655
  66  244.5169
  67  289.4321
  68  203.8448
  69  460.8079
  70  -78.63011
  71  753.6839
  72  15.28966
  73  528.3949
  74  546.4457
  75  -247.2825
  76  44.77208
  77  228.2787
  78  -374.7874
  79  -38.62834
  80  556.7125
  81  649.0632
  82  664.8994
  83  529.1846
  84  3.012851
  85  327.148
  86  423.4213
  87  113.9798
  88  228.5978
  89  -60.67418
  90  62.63549
  91  740.0303
  92  285.0931
  93  650.1508
  94  1120.4
  95  757.6116
  96  584.841
  97  502.3042
  98  571.3603
  99  504.479
 100  63.20137
 101  644.1431
 102  351.4941
 103  370.8591
 104  486.63
 105  -132.7577
 106  -194.1117
 107  120.6902
 108  -120.3987
 109  518.9755
 110  213.1359
 111  452.8538
 112  -115.0903
 113  196.6974
 114  312.8678
 115  679.6802
 116  623.4573
 117  505.9267
 118  671.1562
 119  1089.76
 120  -50.9831
 121  175.3835
 122  316.6912
 123  1063.613
 124  511.4078
 125  608.7791
 126  349.1479
 127  392.6277
 128  68.56743
 129  871.5474
 130  334.243
 131  444.1793
 132  1047.841
 133  182.5134
 134  245.8893
 135  567.2706
 136  56.94675
 137  345.7225
 138  1047.188
 139  437.9469
 140  594.092
 141  223.6684
 142  327.0466
 143  189.4311
 144  0.2798143
 145  212.9786
 146  999.4016
 147  424.4563
 148  331.5241
 149  -10.03511
 150  -86.25401
 151  375.9831
 152  -181.6779
 153  263.7272
 154  136.0488
 155  575.8914
 156  1017.828
 157  807.2835
 158  984.6974
 159  844.5273
 160  2702.488
 161  3878.83
 162  3292.832
 163  1298.639
 164  -265.5233
 165  487.25
 166  -116.3191
 167  618.4283
 168  927.1135
 169  532.6373
 170  1033.745
 171  358.0646
 172  -550.8633
 173  -15.24013
 174  781.7271
 175  533.3141
 176  538.671
 177  517.063
 178  1011.001
 179  525.5052
 180  298.2615
 181  870.3091
 182  498.9099
 183  252.5368
 184  359.5136
 185  -259.6764
 186  583.2659
 187  638.6942
 188  364.2172
 189  168.9911
 190  -128.4292
 191  847.1843
 192  553.3913
 193  51.77488
 194  -349.3976
 195  719.0876
 196  203.0184
 197  -13.35623
 198  369.9307
 199  -285.893
 200  432.2605
 201  586.1031
 202  478.8032
 203  855.2366
 204  867.9987
 205  364.7438
 206  632.9946
 207  331.593
 208  -124.9821
 209  426.5455
 210  426.3984
 211  433.027
 212  153.0322
 213  376.5034
 214  584.9299
 215  595.3865
 216  163.256
 217  582.4648
 218  256.4842
 219  418.0364
 220  816.9938
 221  553.9748
 222  180.2892
 223  321.5235
 224  77.21199
 225  580.8434
 226  -122.4463
 227  75.37535
 228  161.695
 229  128.0156
 230  392.5019
 231  435.8325
 232  11.26713
 233  85.43118
 234  171.748
 235  426.2467
 236  336.1864
 237  -214.3187
 238  463.9101
 239  718.1413
 240  -66.81287
 241  586.1831
 242  123.13
 243  105.9249
 244  601.9691
 245  884.9778
 246  465.7255
 247  360.7573
 248  305.5555
 249  111.7098
 250  663.8574
 251  216.3195
 252  73.42684
 253  166.4136
 254  277.3622
 255  876.0217
