# Input file       =  1187158786.106359_cleaned.dat
# Candidate        =  PSR_0332+5434
# Telescope        =  AR
# Epoch_topo       =  57984.263947990265
# Epoch_bary       =  N/A
# T_sample         =  0.002
# Data Folded      =  7340032
# Data Avg         =  0.0123511314371973
# Data StdDev      =  1.00003609813515 
# Profile Bins     =  512
# Profile Avg      =  177.105433519651 
# Profile StdDev   =  119.737358516095 
# Reduced chi-sqr  =  1.582
# Prob(Noise)      <  8.51e-16   (~8.0 sigma)
# P_topo (ms)      =  714.46438024264   +/- 0.000246
# P'_topo (s/s)    =  -0                +/- 1.3e-10
# P''_topo (s/s^2) =  0                 +/- 5.73e-14
# P_bary (ms)      =  N/A
# P'_bary (s/s)    =  N/A
# P''_bary (s/s^2) =  N/A
# P_orb (s)        =  N/A
# asin(i)/c (s)    =  N/A
# eccentricity     =  N/A
# w (rad)          =  N/A
# T_peri           =  N/A
######################################################
   0  724.5628
   1  704.7568
   2  608.6833
   3  301.8233
   4  169.5855
   5  205.9924
   6  159.2844
   7  139.1882
   8  257.5686
   9  380.7913
  10  220.2769
  11  164.7596
  12  275.3614
  13  294.9598
  14  231.1537
  15  368.9025
  16  355.7057
  17  236.7343
  18  197.1007
  19  252.5219
  20  292.6447
  21  283.1797
  22  271.729
  23  236.1779
  24  207.4431
  25  234.3382
  26  232.6624
  27  262.7921
  28  295.1263
  29  223.1208
  30  195.414
  31  204.8693
  32  189.4522
  33  160.6485
  34  122.956
  35  161.9065
  36  63.02734
  37  160.0074
  38  212.7303
  39  164.4993
  40  243.5324
  41  157.4514
  42  113.5144
  43  134.5255
  44  126.6455
  45  190.0793
  46  24.99122
  47  -19.3035
  48  64.58898
  49  120.6181
  50  121.4573
  51  140.5499
  52  98.33737
  53  46.94055
  54  99.93055
  55  127.7366
  56  170.9483
  57  168.8633
  58  245.2389
  59  183.5736
  60  283.3817
  61  329.2992
  62  172.854
  63  190.7475
  64  216.5918
  65  167.9879
  66  209.1533
  67  269.0103
  68  166.1394
  69  223.7532
  70  233.4055
  71  383.0073
  72  477.0786
  73  270.5241
  74  250.6619
  75  264.3807
  76  263.8122
  77  235.9812
  78  223.8093
  79  185.7249
  80  168.0203
  81  191.1417
  82  236.9497
  83  322.4642
  84  189.9666
  85  311.7632
  86  297.6306
  87  218.4175
  88  242.7967
  89  226.1055
  90  361.2845
  91  349.307
  92  173.1474
  93  175.3863
  94  295.4015
  95  361.3697
  96  319.7112
  97  212.6999
  98  139.1085
  99  68.60604
 100  98.17744
 101  83.54028
 102  168.2085
 103  138.7987
 104  104.6693
 105  40.92776
 106  60.74884
 107  111.4056
 108  44.1142
 109  186.5369
 110  138.1878
 111  156.7354
 112  63.58865
 113  -100.9543
 114  18.45269
 115  172.9109
 116  177.5817
 117  170.0412
 118  62.55625
 119  142.7453
 120  130.9886
 121  213.4209
 122  268.6363
 123  199.2464
 124  75.47877
 125  143.9302
 126  123.6003
 127  31.01697
 128  116.7148
 129  107.6596
 130  207.3407
 131  303.5677
 132  256.224
 133  96.17171
 134  79.85906
 135  204.7803
 136  182.021
 137  152.7511
 138  278.2887
 139  226.6279
 140  140.6623
 141  195.4683
 142  149.7583
 143  112.3327
 144  244.2072
 145  248.6098
 146  338.8616
 147  179.1136
 148  173.6504
 149  214.2201
 150  188.3797
 151  271.4984
 152  229.7888
 153  202.5837
 154  62.41434
 155  -42.52002
 156  92.12431
 157  214.1224
 158  190.6842
 159  353.7874
 160  313.6934
 161  89.24658
 162  175.9142
 163  36.96616
 164  -42.96078
 165  -27.75022
 166  -9.969193
 167  83.93279
 168  217.0726
 169  183.434
 170  25.71131
 171  -7.560057
 172  -21.35043
 173  24.1453
 174  -0.7574622
 175  55.47936
 176  -12.77802
 177  43.04453
 178  70.98941
 179  156.4736
 180  206.0978
 181  87.2388
 182  53.37603
 183  151.3143
 184  116.1275
 185  -88.28172
 186  67.27074
 187  220.3665
 188  84.22354
 189  6.945852
 190  42.93279
 191  132.3681
 192  98.8927
 193  185.362
 194  147.5795
 195  148.5081
 196  40.50847
 197  -15.55322
 198  119.3033
 199  203.4373
 200  177.2206
 201  -17.47908
 202  -21.60269
 203  69.39276
 204  52.07453
 205  224.5133
 206  166.1757
 207  128.8415
 208  170.8841
 209  132.9083
 210  218.8561
 211  281.3668
 212  169.5263
 213  139.1642
 214  110.1222
 215  85.75347
 216  21.02407
 217  151.1716
 218  173.6395
 219  98.5392
 220  199.0668
 221  208.2558
 222  53.4797
 223  167.1021
 224  130.6943
 225  102.534
 226  129.8975
 227  198.4379
 228  247.2387
 229  86.97765
 230  129.0363
 231  157.4305
 232  121.082
 233  166.9639
 234  109.8524
 235  227.2526
 236  175.8101
 237  80.31494
 238  36.16191
 239  5.315397
 240  55.77244
 241  107.963
 242  238.9138
 243  119.4598
 244  158.6572
 245  90.71722
 246  -9.319921
 247  -90.05798
 248  -3.174966
 249  28.65707
 250  198.7316
 251  304.2453
 252  126.632
 253  75.50249
 254  19.91137
 255  122.0396
 256  -26.65151
 257  123.1126
 258  129.5525
 259  213.5383
 260  238.4919
 261  206.9524
 262  117.8726
 263  81.71705
 264  196.8459
 265  118.2911
 266  189.3415
 267  227.4997
 268  25.83699
 269  105.6821
 270  125.5115
 271  191.9072
 272  216.9777
 273  193.1626
 274  219.6081
 275  289.6736
 276  165.7374
 277  145.4159
 278  232.7279
 279  -0.1221393
 280  61.5367
 281  42.47819
 282  168.8258
 283  185.4871
 284  167.636
 285  206.9306
 286  237.1072
 287  154.6188
 288  230.5396
 289  211.7403
 290  226.5452
 291  224.5516
 292  272.7645
 293  292.4911
 294  353.0277
 295  354.6235
 296  267.8108
 297  198.1927
 298  247.6325
 299  233.0989
 300  150.7596
 301  159.113
 302  271.4768
 303  281.991
 304  368.3606
 305  229.2978
 306  287.6957
 307  236.3746
 308  287.59
 309  172.216
 310  108.0839
 311  56.06994
 312  153.9307
 313  251.7893
 314  125.2531
 315  96.78499
 316  206.714
 317  40.92616
 318  -7.963364
 319  35.46355
 320  217.5091
 321  146.937
 322  -7.061402
 323  66.81241
 324  161.4425
 325  249.3093
 326  65.67399
 327  -44.9367
 328  174.8835
 329  211.0842
 330  155.8417
 331  207.3485
 332  220.468
 333  139.7718
 334  317.4651
 335  302.1473
 336  284.3004
 337  247.6134
 338  171.9467
 339  111.136
 340  78.34606
 341  68.51185
 342  35.23752
 343  100.9233
 344  288.0044
 345  136.601
 346  216.8493
 347  80.54184
 348  26.17077
 349  136.3302
 350  164.4261
 351  291.0055
 352  237.0288
 353  272.6376
 354  218.5447
 355  236.1295
 356  265.9979
 357  135.5909
 358  228.055
 359  132.2571
 360  58.41193
 361  202.4322
 362  388.0633
 363  224.2101
 364  78.63724
 365  215.2388
 366  100.2485
 367  -0.8857644
 368  16.71597
 369  109.7816
 370  223.4273
 371  281.6432
 372  354.4321
 373  255.8197
 374  179.8014
 375  297.5343
 376  195.1486
 377  124.8697
 378  103.498
 379  169.3325
 380  205.1125
 381  197.5506
 382  112.035
 383  41.11345
 384  97.71091
 385  274.9904
 386  202.8919
 387  251.7393
 388  257.8103
 389  211.495
 390  154.8011
 391  39.3611
 392  143.1441
 393  167.955
 394  81.31656
 395  128.5928
 396  184.534
 397  243.1951
 398  78.02783
 399  77.94964
 400  220.1762
 401  215.0797
 402  211.557
 403  79.90463
 404  86.98515
 405  218.075
 406  309.5457
 407  286.2981
 408  304.3169
 409  190.6801
 410  291.7175
 411  300.8048
 412  164.4789
 413  295.414
 414  203.6943
 415  178.42
 416  126.3479
 417  233.321
 418  164.8564
 419  134.3063
 420  214.0617
 421  175.8918
 422  153.4402
 423  252.4033
 424  349.0211
 425  208.4829
 426  271.0881
 427  140.083
 428  93.16959
 429  112.1468
 430  129.0809
 431  261.3825
 432  237.1997
 433  169.3042
 434  -0.6985709
 435  100.0503
 436  163.061
 437  242.5767
 438  206.8851
 439  89.0644
 440  183.5254
 441  203.0853
 442  99.25454
 443  233.7178
 444  322.7967
 445  252.6694
 446  168.4584
 447  222.4986
 448  288.0789
 449  254.9657
 450  230.033
 451  315.3529
 452  175.7085
 453  199.0161
 454  211.6355
 455  230.3146
 456  175.9562
 457  198.5028
 458  325.5962
 459  357.6105
 460  251.706
 461  286.6653
 462  154.6843
 463  67.32134
 464  143.5174
 465  237.7867
 466  218.7374
 467  325.6072
 468  244.8859
 469  172.332
 470  198.8412
 471  282.1737
 472  230.3275
 473  131.9282
 474  116.185
 475  51.64458
 476  182.6987
 477  260.1747
 478  232.7197
 479  145.3236
 480  170.7473
 481  17.56328
 482  56.08022
 483  116.2574
 484  223.7039
 485  82.83408
 486  76.3498
 487  159.8665
 488  90.5078
 489  73.51865
 490  155.2589
 491  167.4023
 492  -53.42725
 493  115.1723
 494  145.9751
 495  176.9774
 496  111.5384
 497  312.2148
 498  327.5305
 499  170.5699
 500  125.4114
 501  129.1403
 502  156.6211
 503  164.9265
 504  270.6923
 505  238.3621
 506  214.3252
 507  357.4
 508  521.6556
 509  578.8508
 510  703.4434
 511  865.0529
