# Input file       =  1187402369.104908_cleaned.dat
# Candidate        =  PSR_0332+5434
# Telescope        =  AR
# Epoch_topo       =  57987.083195658655
# Epoch_bary       =  N/A
# T_sample         =  0.002
# Data Folded      =  7340032
# Data Avg         =  0.0105548691835965
# Data StdDev      =  1.0002549286715  
# Profile Bins     =  512
# Profile Avg      =  151.314605385457 
# Profile StdDev   =  119.763559760664 
# Reduced chi-sqr  =  1.275
# Prob(Noise)      <  2.4e-05   (~4.1 sigma)
# P_topo (ms)      =  714.463672269661  +/- 0.000176
# P'_topo (s/s)    =  -0                +/- 9.31e-11
# P''_topo (s/s^2) =  0                 +/- 4.11e-14
# P_bary (ms)      =  N/A
# P'_bary (s/s)    =  N/A
# P''_bary (s/s^2) =  N/A
# P_orb (s)        =  N/A
# asin(i)/c (s)    =  N/A
# eccentricity     =  N/A
# w (rad)          =  N/A
# T_peri           =  N/A
######################################################
   0  768.4616
   1  695.014
   2  540.2931
   3  196.6931
   4  172.7055
   5  197.827
   6  237.2789
   7  306.3478
   8  248.8494
   9  193.5234
  10  252.2305
  11  122.0336
  12  156.6865
  13  231.4911
  14  172.0895
  15  210.0287
  16  201.6555
  17  129.2015
  18  86.072
  19  110.454
  20  -30.04153
  21  80.95719
  22  199.1424
  23  216.1361
  24  197.217
  25  90.00617
  26  165.3134
  27  224.5491
  28  222.25
  29  142.5998
  30  22.36331
  31  185.0748
  32  189.3773
  33  216.114
  34  132.0269
  35  50.13056
  36  88.32354
  37  167.124
  38  0.4895528
  39  41.51306
  40  152.2294
  41  124.5043
  42  174.5768
  43  254.9438
  44  159.6043
  45  150.2657
  46  208.2442
  47  176.2091
  48  254.9369
  49  164.1178
  50  10.99768
  51  -93.75357
  52  -86.37754
  53  62.71159
  54  292.1627
  55  189.5182
  56  108.1216
  57  46.31282
  58  -16.03348
  59  59.03043
  60  174.8781
  61  191.7955
  62  199.2197
  63  96.00706
  64  158.4327
  65  182.5643
  66  133.3422
  67  195.7321
  68  197.9359
  69  154.194
  70  218.916
  71  296.8761
  72  264.9684
  73  128.9798
  74  138.4594
  75  140.7585
  76  45.17899
  77  29.84391
  78  91.54642
  79  47.82488
  80  -31.01115
  81  109.0764
  82  80.88002
  83  153.8497
  84  106.6325
  85  -50.01982
  86  74.31448
  87  24.08091
  88  -54.1259
  89  82.60365
  90  109.0937
  91  291.4261
  92  262.5103
  93  12.35539
  94  -39.31702
  95  113.4862
  96  83.90529
  97  64.29086
  98  173.9206
  99  292.5747
 100  251.6891
 101  199.5843
 102  172.1156
 103  45.53227
 104  88.52465
 105  136.5493
 106  241.1342
 107  177.8188
 108  137.0006
 109  183.3469
 110  163.4043
 111  288.4109
 112  171.0809
 113  105.9524
 114  181.4398
 115  277.76
 116  167.8004
 117  198.8935
 118  85.4963
 119  128.1697
 120  173.6747
 121  122.8017
 122  182.3933
 123  211.7018
 124  100.2679
 125  257.8189
 126  244.3495
 127  263.2485
 128  253.7203
 129  186.2478
 130  226.314
 131  239.7459
 132  237.7302
 133  143.1647
 134  81.24421
 135  249.6014
 136  266.754
 137  182.5458
 138  67.21402
 139  97.08527
 140  232.2624
 141  330.1134
 142  352.1531
 143  210.233
 144  152.0103
 145  74.37186
 146  0.9186506
 147  138.7445
 148  188.6526
 149  301.9837
 150  262.6158
 151  195.4282
 152  14.00104
 153  151.3247
 154  200.2981
 155  157.8123
 156  60.86244
 157  34.18264
 158  148.0416
 159  201.9694
 160  51.97104
 161  -29.37544
 162  92.01035
 163  118.3364
 164  169.9082
 165  67.22594
 166  105.5328
 167  216.1061
 168  105.1529
 169  195.5626
 170  195.4673
 171  98.88586
 172  262.1611
 173  223.3865
 174  166.6911
 175  120.5757
 176  168.8873
 177  177.6484
 178  114.5749
 179  20.42784
 180  -20.69702
 181  38.54852
 182  187.0883
 183  182.6584
 184  151.3587
 185  316.4843
 186  185.1965
 187  120.711
 188  85.29559
 189  117.4538
 190  176.5927
 191  69.83135
 192  54.8322
 193  95.14842
 194  154.4176
 195  218.6205
 196  97.49284
 197  216.8221
 198  278.8421
 199  170.3374
 200  195.6667
 201  221.8508
 202  145.6806
 203  95.59668
 204  107.6847
 205  101.6151
 206  133.9675
 207  177.5283
 208  165.943
 209  137.0149
 210  225.5389
 211  163.0788
 212  177.6369
 213  171.9171
 214  176.5211
 215  137.005
 216  65.16873
 217  278.5176
 218  169.2068
 219  115.8025
 220  52.58516
 221  123.3047
 222  131.822
 223  161.2809
 224  158.4033
 225  82.07005
 226  151.2316
 227  87.44836
 228  70.48306
 229  12.80637
 230  221.2928
 231  341.0287
 232  161.1498
 233  84.05567
 234  142.4409
 235  195.0229
 236  186.6151
 237  268.0709
 238  290.6859
 239  121.0037
 240  233.517
 241  199.8802
 242  176.7098
 243  87.13876
 244  17.61012
 245  28.09707
 246  3.255032
 247  -22.0752
 248  66.15846
 249  95.66642
 250  145.6809
 251  113.5055
 252  49.46509
 253  29.19213
 254  167.7798
 255  203.8372
 256  164.4233
 257  200.0929
 258  106.713
 259  -9.655997
 260  74.94539
 261  -35.89939
 262  147.45
 263  197.8241
 264  216.2592
 265  209.4679
 266  196.9853
 267  333.1024
 268  171.1151
 269  136.5183
 270  38.95182
 271  102.1189
 272  133.8375
 273  127.1065
 274  186.0753
 275  236.3614
 276  184.0742
 277  154.2141
 278  107.9707
 279  -31.43887
 280  128.574
 281  57.36217
 282  205.498
 283  207.8785
 284  160.9066
 285  240.0431
 286  137.2258
 287  41.71897
 288  15.24296
 289  -39.97052
 290  114.5266
 291  248.2149
 292  223.3438
 293  118.8345
 294  114.4181
 295  194.8442
 296  133.8415
 297  101.5509
 298  231.2984
 299  179.2301
 300  143.7135
 301  149.1102
 302  121.2551
 303  146.5354
 304  321.8011
 305  137.4416
 306  32.54473
 307  71.18554
 308  130.0567
 309  47.01772
 310  44.77265
 311  96.30817
 312  115.3128
 313  188.3721
 314  135.2
 315  164.6046
 316  247.6588
 317  322.6787
 318  129.5121
 319  38.39915
 320  80.61904
 321  95.16264
 322  164.4569
 323  77.30466
 324  90.52278
 325  226.4189
 326  130.6139
 327  21.94033
 328  -95.99521
 329  -29.90735
 330  28.85228
 331  156.3926
 332  117.2728
 333  100.8972
 334  158.4037
 335  180.0317
 336  49.35852
 337  -16.10479
 338  68.78723
 339  198.8919
 340  50.56328
 341  170.0193
 342  105.6922
 343  232.304
 344  248.9796
 345  187.7031
 346  263.5947
 347  169.6679
 348  133.5672
 349  263.1693
 350  292.2323
 351  170.0436
 352  184.1805
 353  93.93551
 354  132.1335
 355  160.3927
 356  93.66885
 357  127.738
 358  63.04408
 359  16.60806
 360  84.3699
 361  246.5722
 362  59.0254
 363  -56.16247
 364  44.3608
 365  239.7901
 366  134.0258
 367  163.4651
 368  198.7086
 369  131.031
 370  48.40998
 371  137.1476
 372  176.3381
 373  118.1227
 374  198.6508
 375  190.3521
 376  239.2279
 377  247.4171
 378  197.5759
 379  235.6955
 380  124.6476
 381  257.5786
 382  355.3287
 383  240.6053
 384  151.7292
 385  113.2536
 386  154.1488
 387  95.04499
 388  77.76845
 389  68.55578
 390  221.2858
 391  229.7369
 392  190.9226
 393  157.5893
 394  57.14339
 395  -17.29689
 396  104.492
 397  164.1154
 398  131.0115
 399  -18.8051
 400  220.9921
 401  300.7617
 402  215.2639
 403  155.9185
 404  -11.28578
 405  116.5496
 406  182.6654
 407  101.1128
 408  25.00815
 409  46.92803
 410  102.8258
 411  118.7738
 412  161.128
 413  320.9595
 414  328.6207
 415  214.964
 416  359.4205
 417  208.5753
 418  193.5829
 419  154.1707
 420  227.3832
 421  169.6167
 422  220.8748
 423  116.0189
 424  38.3306
 425  129.0397
 426  42.0007
 427  122.7718
 428  62.25251
 429  5.359175
 430  159.354
 431  63.62181
 432  79.72301
 433  192.093
 434  152.6053
 435  35.57032
 436  124.344
 437  118.7804
 438  173.9556
 439  185.4812
 440  96.06428
 441  133.2215
 442  67.80713
 443  30.27446
 444  104.3862
 445  153.4982
 446  289.3919
 447  336.2765
 448  137.5909
 449  201.2097
 450  77.06586
 451  94.18598
 452  71.04437
 453  49.16077
 454  22.8013
 455  59.8023
 456  122.2316
 457  108.2461
 458  82.40384
 459  29.88003
 460  98.80415
 461  112.4434
 462  202.4343
 463  305.857
 464  329.2187
 465  313.339
 466  113.1728
 467  85.32694
 468  131.7224
 469  283.728
 470  254.7839
 471  40.21246
 472  152.9878
 473  237.7948
 474  219.2771
 475  179.6371
 476  251.1035
 477  165.5209
 478  39.74847
 479  164.3367
 480  226.9044
 481  138.9989
 482  234.0444
 483  130.972
 484  201.5934
 485  153.3645
 486  66.64057
 487  122.7743
 488  121.4612
 489  193.0534
 490  221.9376
 491  59.56575
 492  11.0609
 493  155.6059
 494  318.2093
 495  269.1772
 496  161.5502
 497  55.88947
 498  170.7697
 499  187.9441
 500  136.1398
 501  59.64622
 502  116.6051
 503  348.4752
 504  336.3647
 505  236.2089
 506  224.2876
 507  249.4355
 508  160.4354
 509  382.2835
 510  562.1646
 511  666.0475
