# Input file       =  1187057703.117304_cleaned.dat
# Candidate        =  PSR_0332+5434
# Telescope        =  AR
# Epoch_topo       =  57983.094005987317
# Epoch_bary       =  N/A
# T_sample         =  0.002
# Data Folded      =  7340032
# Data Avg         =  0.0292299371327056
# Data StdDev      =  2.27223685719694 
# Profile Bins     =  512
# Profile Avg      =  418.958899302086 
# Profile StdDev   =  272.06181827939  
# Reduced chi-sqr  =  1.497
# Prob(Noise)      <  2.04e-12   (~6.9 sigma)
# P_topo (ms)      =  714.464242036763  +/- 0.000235
# P'_topo (s/s)    =  -0                +/- 1.24e-10
# P''_topo (s/s^2) =  0                 +/- 5.48e-14
# P_bary (ms)      =  N/A
# P'_bary (s/s)    =  N/A
# P''_bary (s/s^2) =  N/A
# P_orb (s)        =  N/A
# asin(i)/c (s)    =  N/A
# eccentricity     =  N/A
# w (rad)          =  N/A
# T_peri           =  N/A
######################################################
   0  501.4931
   1  453.5141
   2  475.7031
   3  207.9848
   4  417.5966
   5  473.8307
   6  388.5001
   7  389.3684
   8  14.03717
   9  88.5894
  10  706.9003
  11  438.8534
  12  494.8934
  13  496.1317
  14  294.0723
  15  374.8491
  16  477.2452
  17  530.6306
  18  400.9818
  19  381.2744
  20  182.3551
  21  271.7032
  22  404.4396
  23  573.4131
  24  368.8918
  25  338.448
  26  241.3209
  27  193.8325
  28  253.9834
  29  464.2502
  30  215.4926
  31  353.1445
  32  729.3381
  33  471.4023
  34  262.4576
  35  310.7216
  36  181.6861
  37  461.026
  38  456.3358
  39  359.8604
  40  306.676
  41  385.3448
  42  569.8486
  43  520.7041
  44  542.7264
  45  545.0484
  46  519.772
  47  876.6682
  48  543.2384
  49  503.9167
  50  420.8904
  51  460.4514
  52  415.8108
  53  416.2957
  54  553.436
  55  257.7896
  56  271.1475
  57  301.5219
  58  152.6105
  59  238.0401
  60  6.188357
  61  401.6116
  62  710.1583
  63  463.3929
  64  443.8782
  65  540.5397
  66  516.4069
  67  574.2781
  68  541.9
  69  422.81
  70  477.5809
  71  817.0356
  72  598.3302
  73  552.335
  74  374.9468
  75  237.8001
  76  134.5807
  77  346.6333
  78  657.2778
  79  666.5622
  80  399.5244
  81  197.7381
  82  327.4781
  83  414.6993
  84  387.1151
  85  543.2298
  86  295.8407
  87  277.385
  88  254.3022
  89  402.2878
  90  613.6928
  91  339.8055
  92  222.5595
  93  50.07022
  94  434.2475
  95  573.7708
  96  660.4733
  97  552.0072
  98  308.4348
  99  60.81275
 100  74.78651
 101  -104.9796
 102  107.426
 103  348.1986
 104  566.9428
 105  470.1849
 106  307.5507
 107  336.7519
 108  594.333
 109  739.595
 110  392.6866
 111  515.1773
 112  548.3735
 113  453.7399
 114  514.2281
 115  564.2641
 116  533.2863
 117  658.1329
 118  951.6374
 119  1118.781
 120  1479.8
 121  1920.861
 122  2069.522
 123  1685.673
 124  1313.642
 125  879.7183
 126  538.6945
 127  589.7375
 128  690.7524
 129  833.2378
 130  832.1547
 131  386.9204
 132  274.6291
 133  394.0505
 134  743.7047
 135  623.5834
 136  595.278
 137  769.3821
 138  891.2185
 139  810.1033
 140  668.1235
 141  506.5061
 142  627.3532
 143  652.2761
 144  595.1616
 145  536.559
 146  657.5497
 147  405.0186
 148  352.7915
 149  883.3217
 150  864.488
 151  613.167
 152  466.2717
 153  841.2134
 154  774.9375
 155  468.8156
 156  396.9283
 157  682.9507
 158  254.5595
 159  165.6185
 160  210.4396
 161  276.4863
 162  275.6644
 163  718.4365
 164  699.7263
 165  97.53699
 166  137.3745
 167  326.9713
 168  318.7281
 169  307.4528
 170  84.3782
 171  396.4292
 172  236.218
 173  237.3252
 174  277.0126
 175  313.671
 176  178.5707
 177  285.6315
 178  494.1306
 179  594.7412
 180  425.2145
 181  630.7566
 182  482.794
 183  -170.5793
 184  366.3392
 185  817.1749
 186  559.7103
 187  485.4962
 188  581.1737
 189  624.1753
 190  432.453
 191  589.595
 192  268.1084
 193  327.881
 194  253.7252
 195  262.7661
 196  104.8714
 197  27.89393
 198  78.95161
 199  396.5621
 200  322.659
 201  110.5139
 202  611.6696
 203  815.9713
 204  572.8241
 205  255.1558
 206  360.9138
 207  609.426
 208  516.1455
 209  593.7594
 210  298.2682
 211  283.0938
 212  239.9989
 213  390.0197
 214  470.9286
 215  704.6766
 216  681.4258
 217  421.0687
 218  418.8544
 219  369.9983
 220  256.6673
 221  461.2335
 222  70.24986
 223  268.4291
 224  396.3791
 225  577.0513
 226  354.9128
 227  320.8506
 228  332.4102
 229  411.0245
 230  654.5843
 231  597.3066
 232  366.339
 233  242.4718
 234  328.268
 235  131.2659
 236  210.7857
 237  229.1717
 238  313.0142
 239  642.87
 240  328.4784
 241  -52.65691
 242  -33.42495
 243  208.0826
 244  400.0134
 245  705.0399
 246  678.1628
 247  513.061
 248  624.8329
 249  933.3991
 250  630.9691
 251  445.0659
 252  471.4547
 253  613.3409
 254  525.9415
 255  334.8773
 256  175.7746
 257  98.34138
 258  203.1037
 259  448.9709
 260  584.7628
 261  341.0731
 262  370.5549
 263  342.2294
 264  188.9727
 265  167.7641
 266  152.5779
 267  353.0514
 268  150.1671
 269  159.819
 270  457.1097
 271  553.8351
 272  235.1401
 273  369.97
 274  532.2022
 275  563.4978
 276  174.4479
 277  127.5893
 278  441.1002
 279  325.857
 280  345.1476
 281  434.252
 282  362.4149
 283  82.85232
 284  63.38385
 285  303.3589
 286  120.6443
 287  -82.71674
 288  269.2254
 289  306.8847
 290  204.0039
 291  188.6316
 292  335.4393
 293  312.5909
 294  108.0874
 295  399.487
 296  353.633
 297  329.7884
 298  106.3835
 299  260.4567
 300  366.8473
 301  369.541
 302  618.8993
 303  753.0869
 304  320.5217
 305  169.7722
 306  222.8831
 307  439.5362
 308  457.6968
 309  116.6254
 310  156.3978
 311  254.7096
 312  315.0234
 313  317.5937
 314  53.94109
 315  63.0228
 316  423.5208
 317  316.2552
 318  211.847
 319  185.3469
 320  374.3367
 321  93.57806
 322  -48.71132
 323  143.4609
 324  140.4973
 325  276.8938
 326  475.3901
 327  495.3672
 328  293.6098
 329  374.7086
 330  421.882
 331  372.5061
 332  196.863
 333  133.5901
 334  572.9896
 335  470.9798
 336  389.8882
 337  682.7632
 338  802.8032
 339  758.5359
 340  718.8112
 341  540.5622
 342  611.3518
 343  794.2545
 344  644.0623
 345  472.7614
 346  116.9265
 347  255.9578
 348  247.7098
 349  260.4088
 350  477.532
 351  475.4545
 352  336.2292
 353  716.4397
 354  480.9779
 355  714.9661
 356  475.6019
 357  105.8148
 358  274.9917
 359  600.1085
 360  633.9105
 361  440.2562
 362  365.0494
 363  463.593
 364  575.5077
 365  701.062
 366  498.4526
 367  304.3388
 368  473.3181
 369  713.0093
 370  418.4187
 371  67.60594
 372  445.0507
 373  549.4735
 374  414.2672
 375  141.1697
 376  213.7301
 377  18.77702
 378  104.1211
 379  -23.57639
 380  -163.606
 381  215.8322
 382  516.9969
 383  730.0997
 384  292.9608
 385  338.7218
 386  580.8141
 387  237.5711
 388  141.8518
 389  693.5533
 390  464.659
 391  500.2788
 392  303.8058
 393  356.8354
 394  493.2252
 395  406.3469
 396  479.1107
 397  448.5219
 398  363.1549
 399  276.0004
 400  131.7144
 401  7.85693
 402  327.127
 403  473.6614
 404  465.9772
 405  172.0938
 406  -63.2731
 407  603.1465
 408  457.1143
 409  213.149
 410  231.4241
 411  483.4402
 412  243.3179
 413  112.263
 414  301.851
 415  326.0671
 416  353.5045
 417  317.9396
 418  588.5785
 419  361.8416
 420  404.0117
 421  763.3804
 422  450.6368
 423  359.8256
 424  436.1071
 425  696.6052
 426  589.3278
 427  464.1752
 428  242.0181
 429  275.1613
 430  430.6926
 431  234.8619
 432  324.7247
 433  477.8275
 434  370.8305
 435  472.711
 436  597.4001
 437  155.1527
 438  121.6091
 439  266.7461
 440  534.0907
 441  480.7455
 442  413.7116
 443  415.8415
 444  523.0822
 445  470.9701
 446  432.0186
 447  527.6766
 448  293.0008
 449  183.3543
 450  173.6223
 451  416.0859
 452  367.9705
 453  355.9867
 454  428.7305
 455  495.8057
 456  425.2917
 457  256.3277
 458  651.5347
 459  580.6097
 460  329.9527
 461  312.2876
 462  536.2637
 463  609.9644
 464  460.1035
 465  182.1459
 466  41.67987
 467  386.0432
 468  146.7625
 469  338.9332
 470  181.6077
 471  317.0626
 472  460.1024
 473  284.0569
 474  311.5407
 475  758.7615
 476  729.3729
 477  377.8936
 478  645.5117
 479  501.6506
 480  422.963
 481  388.8074
 482  415.3705
 483  200.9169
 484  324.2024
 485  220.1538
 486  220.7007
 487  232.7498
 488  161.8938
 489  112.569
 490  581.5377
 491  636.6338
 492  620.6671
 493  738.8314
 494  504.5156
 495  340.1365
 496  269.9099
 497  513.9095
 498  418.6773
 499  784.4435
 500  535.1863
 501  337.4561
 502  689.9488
 503  895.4131
 504  846.0742
 505  863.3535
 506  717.6719
 507  698.1871
 508  593.7843
 509  634.203
 510  409.2248
 511  523.1892
