# Input file       =  1187158786.106359_cleaned.dat
# Candidate        =  PSR_0332+5434
# Telescope        =  AR
# Epoch_topo       =  57984.263947990265
# Epoch_bary       =  N/A
# T_sample         =  0.002
# Data Folded      =  7340032
# Data Avg         =  0.0123511314371973
# Data StdDev      =  1.00003609813515 
# Profile Bins     =  512
# Profile Avg      =  177.105423615086 
# Profile StdDev   =  119.737358516095 
# Reduced chi-sqr  =  1.583
# Prob(Noise)      <  8.12e-16   (~8.0 sigma)
# P_topo (ms)      =  714.464380974797  +/- 0.000246
# P'_topo (s/s)    =  -0                +/- 1.3e-10
# P''_topo (s/s^2) =  0                 +/- 5.73e-14
# P_bary (ms)      =  N/A
# P'_bary (s/s)    =  N/A
# P''_bary (s/s^2) =  N/A
# P_orb (s)        =  N/A
# asin(i)/c (s)    =  N/A
# eccentricity     =  N/A
# w (rad)          =  N/A
# T_peri           =  N/A
######################################################
   0  44.17585
   1  169.9871
   2  188.4197
   3  164.3216
   4  213.1096
   5  229.5309
   6  158.9401
   7  231.6397
   8  211.3604
   9  227.0218
  10  224.8455
  11  274.9774
  12  290.0083
  13  356.1671
  14  351.6411
  15  267.7157
  16  197.5315
  17  249.1364
  18  229.4723
  19  147.9891
  20  165.519
  21  270.5171
  22  285.7683
  23  365.4128
  24  229.8781
  25  285.0939
  26  235.478
  27  289.2503
  28  168.6517
  29  106.9961
  30  54.5386
  31  160.1595
  32  249.4855
  33  121.205
  34  101.6809
  35  205.5212
  36  34.78292
  37  -7.545989
  38  40.82774
  39  221.1331
  40  139.3267
  41  -9.526477
  42  72.50085
  43  164.0526
  44  249.236
  45  54.17788
  46  -37.5715
  47  180.0051
  48  209.4365
  49  154.8899
  50  212.5424
  51  215.3138
  52  142.3762
  53  321.7066
  54  297.5318
  55  285.5578
  56  245.1408
  57  171.124
  58  107.0798
  59  78.52431
  60  67.497
  61  34.84689
  62  109.4502
  63  286.8441
  64  135.0245
  65  216.3129
  66  75.33057
  67  26.91981
  68  140.059
  69  166.4062
  70  293.2892
  71  237.3372
  72  270.1372
  73  215.9928
  74  242.7864
  75  259.2839
  76  138.0597
  77  226.297
  78  130.8221
  79  57.49863
  80  212.8462
  81  386.0117
  82  217.6801
  83  77.83193
  84  218.2761
  85  92.52225
  86  0.3866877
  87  13.26485
  88  119.6949
  89  223.7276
  90  284.804
  91  353.7473
  92  251.6533
  93  181.8728
  94  297.0315
  95  192.7076
  96  122.7813
  97  107.0787
  98  167.9522
  99  209.2982
 100  194.0497
 101  108.9459
 102  41.29432
 103  101.8241
 104  276.9217
 105  200.5156
 106  253.5678
 107  258.8198
 108  206.9707
 109  153.041
 110  40.48935
 111  145.1223
 112  165.369
 113  80.88064
 114  133.0372
 115  185.9141
 116  241.3992
 117  71.18158
 118  84.80736
 119  220.928
 120  212.2919
 121  209.8286
 122  75.74965
 123  91.95165
 124  224.1419
 125  308.5802
 126  289.7893
 127  301.8322
 128  186.8021
 129  300.0594
 130  292.1796
 131  167.4684
 132  296.8728
 133  200.0623
 134  175.2507
 135  127.5493
 136  235.3034
 137  158.6994
 138  140.3372
 139  213.6689
 140  175.2059
 141  154.4122
 142  259.6271
 143  343.5689
 144  209.3066
 145  268.3804
 146  136.176
 147  95.31674
 148  108.9682
 149  133.6806
 150  264.1493
 151  236.6994
 152  162.9518
 153  -0.901295
 154  102.0996
 155  165.6459
 156  243.4977
 157  203.6428
 158  88.19909
 159  190.8363
 160  195.1279
 161  101.1893
 162  238.6344
 163  323.0844
 164  247.958
 165  168.1487
 166  227.3276
 167  288.2492
 168  253.0249
 169  234.4965
 170  312.3626
 171  172.8042
 172  199.1374
 173  212.9685
 174  229.1375
 175  174.1051
 176  201.2032
 177  330.0882
 178  356.4215
 179  250.3227
 180  285.9987
 181  147.4244
 182  67.29272
 183  150.0807
 184  237.1953
 185  222.7923
 186  325.0013
 187  240.1615
 188  172.3414
 189  199.7008
 190  286.4751
 191  222.2861
 192  133.2231
 193  112.4944
 194  55.41847
 195  184.9426
 196  266.1524
 197  226.5618
 198  145.8412
 199  167.337
 200  14.50324
 201  57.41143
 202  120.7972
 203  220.0379
 204  80.23257
 205  79.8298
 206  161.1933
 207  88.13612
 208  74.90952
 209  157.6482
 210  162.0519
 211  -57.45
 212  123.3831
 213  145.1561
 214  176.7074
 215  113.0846
 216  318.5707
 217  322.5864
 218  166.8809
 219  127.1428
 220  128.7881
 221  158.6512
 222  163.4195
 223  276.1483
 224  230.5755
 225  219.2383
 226  365.993
 227  524.3398
 228  579.685
 229  712.018
 230  864.6162
 231  720.4938
 232  706.0146
 233  600.2863
 234  291.5684
 235  169.4018
 236  209.364
 237  153.2858
 238  143.4154
 239  262.6053
 240  378.5914
 241  211.5037
 242  167.8191
 243  280.3938
 244  294.0068
 245  231.0588
 246  373.7337
 247  349.7631
 248  235.7364
 249  196.1244
 250  256.6112
 251  291.0967
 252  282.0387
 253  272.4495
 254  233.5746
 255  209.9151
 256  234.6515
 257  233.7472
 258  264.7662
 259  293.0727
 260  219.8315
 261  195.1567
 262  205.4177
 263  187.9605
 264  158.6784
 265  127.1608
 266  158.7751
 267  62.99569
 268  162.2445
 269  213.728
 270  163.1269
 271  245.1731
 272  152.7964
 273  115.2569
 274  134.0391
 275  127.3673
 276  186.9863
 277  20.27916
 278  -14.9072
 279  66.95531
 280  121.6096
 281  120.1859
 282  140.4318
 283  96.00046
 284  48.26078
 285  101.2413
 286  128.8496
 287  169.0767
 288  172.2164
 289  245.9501
 290  181.8521
 291  288.5567
 292  326.9161
 293  170.9523
 294  189.7928
 295  218.0952
 296  167.3219
 297  211.2371
 298  268.4303
 299  163.1268
 300  229.7622
 301  231.4271
 302  392.3049
 303  472.4206
 304  263.4324
 305  252.3312
 306  264.0064
 307  262.3227
 308  237.4644
 309  219.5523
 310  187.7701
 311  168.6354
 312  192.6112
 313  241.9729
 314  318.6455
 315  188.9716
 316  315.3134
 317  293.1881
 318  220.828
 319  241.2286
 320  228.4592
 321  364.7322
 322  344.4364
 323  165.9135
 324  182.2493
 325  298.6671
 326  363.4549
 327  314.373
 328  212.3309
 329  134.4403
 330  69.59317
 331  97.09438
 332  85.33701
 333  170.7304
 334  134.5347
 335  104.697
 336  38.8384
 337  62.73691
 338  108.2194
 339  48.50913
 340  186.7612
 341  138.9219
 342  154.3497
 343  59.46047
 344  -105.967
 345  29.8078
 346  172.9698
 347  178.6065
 348  167.8595
 349  61.22197
 350  145.8694
 351  127.5696
 352  222.2809
 353  265.0599
 354  194.4641
 355  74.81138
 356  148.0583
 357  117.6752
 358  30.51394
 359  120.9178
 360  107.5952
 361  213.2897
 362  304.2223
 363  251.3575
 364  92.63525
 365  81.97785
 366  210.4998
 367  175.1007
 368  157.8493
 369  281.3369
 370  220.1902
 371  141.1472
 372  195.8327
 373  148.2985
 374  114.361
 375  245.6754
 376  251.4684
 377  340.201
 378  171.6582
 379  177.1303
 380  211.7335
 381  190.7525
 382  274.0056
 383  226.7344
 384  201.5742
 385  54.7725
 386  -41.3218
 387  98.29018
 388  213.051
 389  195.315
 390  358.3661
 391  305.3102
 392  87.20398
 393  176.5191
 394  29.96458
 395  -41.98535
 396  -25.17738
 397  -10.88665
 398  90.71905
 399  218.1382
 400  178.3203
 401  21.52873
 402  -7.998896
 403  -18.77333
 404  23.86383
 405  0.6689416
 406  53.64438
 407  -13.81991
 408  45.31353
 409  73.39887
 410  158.1626
 411  205.05
 412  85.78796
 413  54.98587
 414  152.442
 415  110.3705
 416  -89.74561
 417  76.86468
 418  218.8523
 419  79.77688
 420  4.177485
 421  47.78705
 422  133.311
 423  98.82625
 424  186.5236
 425  146.2851
 426  146.7429
 427  36.3322
 428  -13.22284
 429  124.8717
 430  205.3992
 431  172.2212
 432  -24.69296
 433  -16.87492
 434  69.84941
 435  53.86154
 436  230.81
 437  158.621
 438  132.3286
 439  168.9397
 440  132.5033
 441  225.9643
 442  279.1656
 443  164.5277
 444  140.6393
 445  108.4047
 446  85.11664
 447  21.28679
 448  155.1976
 449  171.6693
 450  95.91805
 451  207.8535
 452  201.3865
 453  54.00895
 454  169.1228
 455  125.4422
 456  102.2481
 457  133.9252
 458  202.1028
 459  245.9251
 460  81.06068
 461  135.0187
 462  151.8029
 463  124.5483
 464  165.5543
 465  112.9186
 466  227.4806
 467  173.2605
 468  77.481
 469  33.79175
 470  3.802374
 471  60.29267
 472  111.5608
 473  241.1902
 474  112.7276
 475  162.5957
 476  85.10241
 477  -10.75566
 478  -92.31018
 479  3.164522
 480  28.35837
 481  208.8887
 482  299.574
 483  123.0114
 484  72.81731
 485  22.63824
 486  119.1124
 487  -29.5459
 488  128.4574
 489  131.1884
 490  217.307
 491  235.464
 492  206.868
 493  112.6002
 494  86.86003
 495  196.8595
 496  115.8499
 497  194.9639
 498  223.9494
 499  19.47174
 500  110.5692
 501  123.731
 502  198.3813
 503  215.1955
 504  193.2864
 505  221.2158
 506  289.6324
 507  158.1592
 508  153.347
 509  227.9957
 510  -2.351611
 511  61.86708
