# Input file       =  1187833148.117958_cleaned.dat
# Candidate        =  PSR_0332+5434
# Telescope        =  AR
# Epoch_topo       =  57992.069063865252
# Epoch_bary       =  N/A
# T_sample         =  0.002
# Data Folded      =  7340032
# Data Avg         =  0.00409827787150987
# Data StdDev      =  0.999993002732093
# Profile Bins     =  512
# Profile Avg      =  58.7610132215585 
# Profile StdDev   =  119.732198572633 
# Reduced chi-sqr  =  1.609
# Prob(Noise)      <  6.16e-17   (~8.3 sigma)
# P_topo (ms)      =  714.463356159347  +/- 0.000219
# P'_topo (s/s)    =  -0                +/- 1.15e-10
# P''_topo (s/s^2) =  0                 +/- 5.09e-14
# P_bary (ms)      =  N/A
# P'_bary (s/s)    =  N/A
# P''_bary (s/s^2) =  N/A
# P_orb (s)        =  N/A
# asin(i)/c (s)    =  N/A
# eccentricity     =  N/A
# w (rad)          =  N/A
# T_peri           =  N/A
######################################################
   0  161.1654
   1  96.93268
   2  -169.8147
   3  -72.64946
   4  37.43703
   5  24.7401
   6  -25.78675
   7  33.00347
   8  -18.61645
   9  -63.70287
  10  25.86469
  11  -69.75285
  12  -54.64291
  13  92.61486
  14  93.44032
  15  -106.4269
  16  -8.287798
  17  116.4927
  18  -10.88344
  19  92.91029
  20  40.0201
  21  -19.24711
  22  63.02065
  23  14.39786
  24  28.43088
  25  4.670299
  26  89.45052
  27  27.7077
  28  -33.14904
  29  34.85767
  30  35.16207
  31  99.38358
  32  87.84898
  33  105.8949
  34  66.82683
  35  63.90299
  36  146.5304
  37  155.3306
  38  18.9558
  39  95.27203
  40  201.5843
  41  158.3139
  42  116.9283
  43  102.7449
  44  111.7675
  45  -36.31665
  46  10.787
  47  69.12456
  48  -4.870238
  49  -120.1453
  50  104.2902
  51  37.25827
  52  33.16149
  53  285.9193
  54  295.3729
  55  282.4665
  56  455.5753
  57  689.5582
  58  702.6962
  59  718.0447
  60  653.6777
  61  636.4466
  62  564.6185
  63  183.5064
  64  71.3776
  65  100.3841
  66  88.35858
  67  70.71507
  68  184.9515
  69  88.62546
  70  67.23714
  71  114.9693
  72  114.7403
  73  46.95914
  74  53.21383
  75  82.01406
  76  16.88719
  77  68.23775
  78  13.80764
  79  3.291459
  80  56.28649
  81  182.5439
  82  -8.143506
  83  -14.19022
  84  272.5924
  85  184.7565
  86  76.26738
  87  156.0874
  88  101.128
  89  31.98567
  90  4.676573
  91  53.34814
  92  185.2134
  93  108.5623
  94  -35.96209
  95  -4.411645
  96  154.1375
  97  118.7298
  98  121.8811
  99  88.98973
 100  -66.13487
 101  -37.2558
 102  68.84557
 103  -56.45013
 104  -0.3577649
 105  102.467
 106  39.46317
 107  82.14142
 108  37.46896
 109  6.598436
 110  -18.90319
 111  -1.294225
 112  -128.2859
 113  5.592505
 114  80.78535
 115  40.39935
 116  43.14923
 117  -26.66502
 118  -29.91988
 119  -60.26204
 120  -14.41158
 121  25.91277
 122  87.67152
 123  -0.2477374
 124  -136.5146
 125  -52.71089
 126  50.84749
 127  -36.73528
 128  -49.59971
 129  96.83698
 130  151.8125
 131  201.7276
 132  161.5794
 133  -104.1135
 134  -45.35537
 135  167.401
 136  107.1908
 137  77.81532
 138  256.5002
 139  121.6847
 140  -4.873698
 141  14.09925
 142  130.7713
 143  82.21893
 144  242.3571
 145  145.9945
 146  -3.987396
 147  73.68745
 148  101.6835
 149  85.28839
 150  127.737
 151  122.0017
 152  68.16703
 153  97.07496
 154  36.18443
 155  43.0837
 156  92.39201
 157  40.55318
 158  25.062
 159  14.63761
 160  85.94846
 161  161.2436
 162  123.6078
 163  17.30204
 164  67.27247
 165  89.50928
 166  50.49466
 167  -65.93388
 168  -26.51261
 169  131.7497
 170  122.0221
 171  -49.73851
 172  -168.869
 173  -244.1976
 174  -100.0472
 175  117.4886
 176  25.76963
 177  -42.27616
 178  -23.27711
 179  26.45849
 180  16.18896
 181  -97.02742
 182  31.33282
 183  34.06209
 184  -15.07986
 185  -58.60567
 186  -110.4272
 187  -80.89975
 188  65.34334
 189  39.3455
 190  -75.56874
 191  15.49378
 192  82.27402
 193  -38.25648
 194  40.40079
 195  42.08586
 196  104.84
 197  -15.72263
 198  130.9657
 199  118.9589
 200  49.38703
 201  92.55019
 202  64.85186
 203  117.6294
 204  122.3649
 205  9.942209
 206  50.25864
 207  111.1614
 208  103.7121
 209  92.906
 210  100.9551
 211  75.01087
 212  -69.74422
 213  42.60563
 214  229.1101
 215  139.7166
 216  126.248
 217  128.3044
 218  35.96864
 219  39.82791
 220  -3.172394
 221  -62.51014
 222  -154.8378
 223  19.98456
 224  142.6809
 225  7.29955
 226  80.29027
 227  15.6097
 228  40.39902
 229  78.06278
 230  124.5948
 231  92.47423
 232  9.490868
 233  189.9058
 234  99.3123
 235  37.08451
 236  44.41847
 237  27.80246
 238  73.3378
 239  78.98097
 240  100.0836
 241  -27.53398
 242  119.0195
 243  238.7077
 244  215.6846
 245  145.348
 246  89.76762
 247  71.28394
 248  -72.89969
 249  -113.0395
 250  -75.39517
 251  56.44942
 252  66.77612
 253  14.54744
 254  55.64139
 255  95.08888
 256  106.883
 257  206.3094
 258  132.8986
 259  96.95806
 260  311.3368
 261  205.2444
 262  26.2804
 263  -120.6984
 264  29.0625
 265  141.6378
 266  189.7965
 267  112.9783
 268  182.2928
 269  34.90127
 270  24.02201
 271  88.8252
 272  182.6027
 273  137.8859
 274  -48.40861
 275  -69.99596
 276  227.2307
 277  181.6658
 278  61.97188
 279  7.572886
 280  35.58363
 281  -46.79609
 282  99.00299
 283  12.54388
 284  36.10171
 285  90.28884
 286  160.8141
 287  83.23891
 288  -69.21862
 289  100.8607
 290  206.7694
 291  32.47449
 292  24.93687
 293  -120.0713
 294  -109.7944
 295  -76.96499
 296  -84.42268
 297  -136.4328
 298  99.91087
 299  40.6145
 300  69.28674
 301  59.72408
 302  6.754131
 303  8.281623
 304  -22.29809
 305  -6.884766
 306  28.82663
 307  48.38693
 308  168.1421
 309  67.0239
 310  -64.9604
 311  -43.34407
 312  65.85333
 313  68.25545
 314  58.51364
 315  -93.49001
 316  -63.59963
 317  -82.66322
 318  87.09759
 319  105.2813
 320  63.37972
 321  68.56194
 322  55.71627
 323  20.75727
 324  113.6703
 325  77.28362
 326  47.22832
 327  49.97651
 328  120.5096
 329  139.2887
 330  96.62363
 331  -29.35074
 332  59.42587
 333  113.2475
 334  -17.98448
 335  1.641421
 336  53.22937
 337  -40.56462
 338  -53.7529
 339  -28.88332
 340  73.75764
 341  125.5391
 342  97.23528
 343  36.38271
 344  -26.04427
 345  50.22814
 346  113.3185
 347  6.868366
 348  121.9748
 349  288.5313
 350  108.5268
 351  185.0448
 352  231.7021
 353  169.4251
 354  83.12187
 355  -76.79836
 356  88.84468
 357  43.05695
 358  123.6962
 359  147.9788
 360  58.31605
 361  7.359787
 362  -46.87759
 363  64.6131
 364  76.34978
 365  165.5103
 366  36.26456
 367  34.25481
 368  88.21729
 369  -37.78308
 370  91.30714
 371  199.7337
 372  134.3732
 373  34.8439
 374  111.9734
 375  72.24284
 376  -4.918087
 377  37.25698
 378  122.6121
 379  159.3659
 380  124.7338
 381  124.2902
 382  41.84256
 383  -88.3829
 384  -2.185026
 385  56.57508
 386  27.34384
 387  -30.82129
 388  -114.8422
 389  -114.7968
 390  -15.34173
 391  14.53531
 392  -17.35726
 393  -14.12982
 394  -44.33461
 395  23.47011
 396  70.96513
 397  176.0014
 398  45.85154
 399  -53.26795
 400  -182.0207
 401  -172.6528
 402  -146.6978
 403  31.93847
 404  55.99546
 405  166.671
 406  147.8448
 407  0.3987873
 408  63.99763
 409  60.38592
 410  84.00268
 411  70.95278
 412  58.47005
 413  59.86331
 414  60.73303
 415  17.73731
 416  49.27081
 417  -39.32419
 418  173.6248
 419  308.7294
 420  271.2454
 421  174.6484
 422  96.62939
 423  74.13756
 424  44.21492
 425  133.0224
 426  -25.47314
 427  -120.134
 428  24.52292
 429  -58.17291
 430  -40.07843
 431  67.56029
 432  30.79468
 433  153.3371
 434  172.0177
 435  40.96054
 436  76.24069
 437  71.88943
 438  136.2293
 439  74.74738
 440  -6.106737
 441  51.43812
 442  48.98288
 443  70.78049
 444  109.0471
 445  22.88546
 446  -32.99442
 447  -151.0207
 448  -70.68869
 449  -14.48192
 450  -26.23035
 451  -33.4931
 452  83.38039
 453  141.7867
 454  99.07542
 455  -24.4141
 456  -58.90387
 457  37.54087
 458  144.7534
 459  128.3513
 460  10.04227
 461  100.601
 462  125.7182
 463  132.8203
 464  115.2176
 465  115.3564
 466  2.169866
 467  4.403958
 468  -1.827724
 469  -67.52654
 470  -36.25893
 471  -58.39463
 472  -3.685021
 473  85.95517
 474  60.03101
 475  44.19256
 476  122.3311
 477  201.3872
 478  278.7825
 479  164.109
 480  15.2694
 481  152.9881
 482  52.35397
 483  -104.1589
 484  -99.34058
 485  -33.09933
 486  -69.70292
 487  -76.85232
 488  61.39544
 489  88.47247
 490  49.19546
 491  105.4879
 492  30.12951
 493  123.5297
 494  47.63492
 495  67.1047
 496  -68.82428
 497  -36.74559
 498  30.7851
 499  -31.57908
 500  -62.16201
 501  22.46036
 502  -49.45895
 503  -55.41459
 504  19.63734
 505  58.05975
 506  128.9341
 507  -51.23943
 508  -46.67926
 509  76.19353
 510  209.4721
 511  171.8816
