# Input file       =  1187646230.105641_cleaned.dat
# Candidate        =  PSR_0332+5434
# Telescope        =  AR
# Epoch_topo       =  57989.905660944918
# Epoch_bary       =  N/A
# T_sample         =  0.002
# Data Folded      =  7208960
# Data Avg         =  -0.0275584761772984
# Data StdDev      =  2.76764311875299 
# Profile Bins     =  512
# Profile Avg      =  -387.993534715764
# Profile StdDev   =  328.406251361867 
# Reduced chi-sqr  =  0.930
# Prob(Noise)      <  0.868   (~0.0 sigma)
# P_topo (ms)      =  714.463427404814  +/- 0.000172
# P'_topo (s/s)    =  -0                +/- 9.24e-11
# P''_topo (s/s^2) =  0                 +/- 4.15e-14
# P_bary (ms)      =  N/A
# P'_bary (s/s)    =  N/A
# P''_bary (s/s^2) =  N/A
# P_orb (s)        =  N/A
# asin(i)/c (s)    =  N/A
# eccentricity     =  N/A
# w (rad)          =  N/A
# T_peri           =  N/A
######################################################
   0  -390.0101
   1  -539.0683
   2  -500.1859
   3  -541.0468
   4  -365.2688
   5  -71.35522
   6  -82.67307
   7  -362.4874
   8  -573.886
   9  -753.723
  10  -719.4763
  11  -861.7142
  12  -1052.479
  13  -791.5452
  14  -440.507
  15  -429.3465
  16  14.03795
  17  -584.5095
  18  -641.0627
  19  -513.3938
  20  -432.3793
  21  -332.5378
  22  -522.7127
  23  -284.4014
  24  -131.0864
  25  -355.2293
  26  -291.0863
  27  -347.7979
  28  -391.079
  29  -369.2453
  30  -546.3879
  31  -469.9222
  32  -231.1757
  33  -415.7229
  34  -581.5612
  35  -489.9874
  36  -411.5233
  37  -283.8221
  38  -188.9381
  39  -464.6308
  40  -813.8226
  41  -878.2565
  42  -473.3151
  43  -194.5257
  44  -420.9359
  45  -513.6138
  46  -515.8358
  47  -413.5461
  48  -432.4355
  49  -165.8232
  50  -579.4177
  51  -719.7822
  52  -419.6735
  53  -278.3756
  54  -402.8623
  55  -451.2406
  56  -462.1069
  57  -561.6777
  58  -245.5399
  59  -45.95358
  60  -129.8166
  61  -209.2767
  62  -341.9952
  63  -378.0925
  64  -87.40685
  65  -106.8694
  66  -33.9944
  67  -198.606
  68  -385.3609
  69  -356.8013
  70  -503.1258
  71  -440.3415
  72  -328.0081
  73  -208.8463
  74  -100.0256
  75  -161.957
  76  245.9264
  77  547.1014
  78  777.7852
  79  899.0885
  80  757.3918
  81  962.2042
  82  401.3545
  83  -99.13376
  84  -280.7762
  85  -414.3282
  86  -494.1873
  87  -373.5387
  88  -404.6055
  89  -659.0281
  90  -368.5592
  91  -452.2382
  92  -573.259
  93  -292.275
  94  -262.6927
  95  -106.8431
  96  -216.4634
  97  -334.0875
  98  -211.4493
  99  -274.0978
 100  -288.2869
 101  -381.2193
 102  -547.6808
 103  -480.7593
 104  -758.4684
 105  -492.5223
 106  -444.004
 107  -666.6119
 108  -545.2628
 109  -579.6312
 110  -463.2021
 111  -206.0923
 112  -40.63371
 113  -268.0755
 114  -627.9033
 115  -889.9828
 116  -596.979
 117  -436.9748
 118  -353.0926
 119  -306.078
 120  -316.1992
 121  -374.4236
 122  -328.1714
 123  -322.2149
 124  -334.8604
 125  -410.6372
 126  -395.5982
 127  -477.1528
 128  -475.0446
 129  -463.1215
 130  -577.4088
 131  -286.8177
 132  -220.2188
 133  -525.5585
 134  -184.5537
 135  -311.6089
 136  -922.7206
 137  -906.5128
 138  -608.1066
 139  -381.54
 140  -431.042
 141  -182.4852
 142  -484.4139
 143  -475.3466
 144  -371.0667
 145  -356.1013
 146  -352.8062
 147  -672.3585
 148  -387.924
 149  -122.4228
 150  -242.541
 151  -210.5999
 152  -456.3012
 153  -312.9337
 154  -424.9271
 155  -242.2375
 156  -423.292
 157  -497.4574
 158  -654.4688
 159  -431.1581
 160  -325.2083
 161  -442.7828
 162  -922.1072
 163  -526.7262
 164  -154.0267
 165  -161.7882
 166  -438.3959
 167  -493.2812
 168  -220.0095
 169  -456.995
 170  -347.6156
 171  -374.7192
 172  -485.7202
 173  -544.7842
 174  -408.4737
 175  -597.6019
 176  -589.3274
 177  -598.1682
 178  -414.9669
 179  -281.1349
 180  -504.377
 181  -331.7202
 182  -390.4505
 183  -601.6439
 184  -786.6881
 185  -513.8593
 186  -386.9102
 187  -32.64797
 188  -523.9538
 189  -386.8548
 190  -389.5783
 191  -939.1285
 192  -418.9072
 193  -215.162
 194  -147.0102
 195  -410.3499
 196  -615.4749
 197  -394.5139
 198  -570.8433
 199  -552.7405
 200  -530.7043
 201  -552.6338
 202  -567.3049
 203  -470.9171
 204  -532.4421
 205  -203.8779
 206  -263.6961
 207  -354.6711
 208  -481.7409
 209  -483.1975
 210  -681.5917
 211  -801.8973
 212  -648.5021
 213  -579.3228
 214  -414.9981
 215  -372.8123
 216  -439.366
 217  -388.6027
 218  -334.8275
 219  -495.7396
 220  -157.6322
 221  -476.1377
 222  -541.3612
 223  -284.5712
 224  -393.8501
 225  -451.5363
 226  -470.3634
 227  -343.6729
 228  -288.898
 229  -484.3139
 230  -442.8885
 231  -412.4538
 232  -523.1788
 233  -376.2484
 234  -457.0709
 235  -329.5408
 236  -283.6125
 237  -391.5141
 238  -356.868
 239  -452.6927
 240  -308.3553
 241  -395.6152
 242  -327.6256
 243  -413.7268
 244  -79.64388
 245  -303.9598
 246  -511.2753
 247  -639.5594
 248  -387.4916
 249  -569.5153
 250  -645.1963
 251  -279.3287
 252  -211.0254
 253  -560.8759
 254  -705.864
 255  -409.4066
 256  -230.2824
 257  -526.504
 258  -606.337
 259  -393.8168
 260  -359.0477
 261  -643.5518
 262  -557.6688
 263  -615.8431
 264  -646.7071
 265  -701.4718
 266  -782.1027
 267  -726.9929
 268  -699.3135
 269  -657.3871
 270  -238.0156
 271  -264.5076
 272  -533.7852
 273  -608.179
 274  -634.8742
 275  -372.1335
 276  -340.1391
 277  -202.8101
 278  -139.9318
 279  -292.2589
 280  -400.7142
 281  -541.3877
 282  -461.9415
 283  -337.2036
 284  -433.886
 285  -396.0326
 286  -693.0596
 287  -723.9973
 288  -422.5987
 289  -530.3895
 290  -603.1898
 291  -763.3391
 292  -904.1627
 293  -283.0297
 294  -113.2965
 295  -261.3815
 296  -555.4102
 297  -240.1964
 298  -348.5963
 299  -527.8539
 300  -258.0968
 301  -191.0624
 302  -634.0626
 303  -644.5366
 304  -359.5662
 305  -769.8792
 306  -724.186
 307  -490.2588
 308  -376.9769
 309  -174.4655
 310  -24.26794
 311  245.6804
 312  -130.123
 313  -555.1294
 314  -328.7535
 315  -228.2776
 316  -241.2542
 317  -104.4342
 318  -245.5334
 319  -409.0873
 320  -404.0541
 321  -564.4256
 322  -585.4618
 323  -501.7478
 324  -329.5258
 325  -420.3347
 326  -536.4943
 327  -371.4395
 328  -561.9962
 329  -708.3064
 330  -338.667
 331  -230.1221
 332  -493.8976
 333  -349.3901
 334  -342.8999
 335  -373.2202
 336  -164.0665
 337  -141.2401
 338  -488.999
 339  -505.3819
 340  -334.6936
 341  -335.1061
 342  -913.4139
 343  -678.7876
 344  -497.4213
 345  -568.4319
 346  -760.2452
 347  -358.7009
 348  -190.8309
 349  -394.004
 350  -527.5786
 351  -502.7361
 352  -468.2533
 353  -361.9756
 354  -715.822
 355  -304.8741
 356  -674.0976
 357  -795.0324
 358  -640.7219
 359  -630.6201
 360  -284.8684
 361  -382.5924
 362  -312.0841
 363  -208.5988
 364  -549.5351
 365  -407.7766
 366  -379.8499
 367  -252.8186
 368  -180.8282
 369  -148.7602
 370  32.49477
 371  -324.5537
 372  -288.2392
 373  -279.1353
 374  -86.49258
 375  -387.009
 376  -392.5027
 377  -285.4
 378  -358.1672
 379  -461.8774
 380  -368.211
 381  -345.1088
 382  -293.3482
 383  -326.7852
 384  206.3292
 385  -95.50202
 386  -545.4999
 387  -407.1823
 388  -339.6276
 389  -448.0489
 390  -443.6027
 391  -176.536
 392  -298.1802
 393  -281.4378
 394  -166.376
 395  -318.8137
 396  -85.29706
 397  -270.7059
 398  -444.1082
 399  -489.065
 400  -569.2545
 401  -309.165
 402  -252.2987
 403  -131.1172
 404  -21.63451
 405  -450.8434
 406  -316.9335
 407  -295.2553
 408  -462.3973
 409  -417.745
 410  -454.4821
 411  -522.6951
 412  -150.386
 413  -226.9381
 414  -360.4438
 415  -424.2948
 416  -106.5241
 417  -18.611
 418  -323.7538
 419  -165.975
 420  -201.0752
 421  -451.5936
 422  -557.0236
 423  -523.2422
 424  -552.2999
 425  -143.4446
 426  -81.96376
 427  -324.2912
 428  -445.5364
 429  -382.9347
 430  -502.9525
 431  -703.8357
 432  -588.0004
 433  -645.5035
 434  -213.0185
 435  -247.1453
 436  9.285298
 437  93.92447
 438  -305.951
 439  -626.3664
 440  -464.483
 441  -280.5998
 442  -213.6801
 443  -345.2166
 444  -144.5843
 445  -270.5716
 446  -284.6139
 447  -634.9144
 448  -447.6124
 449  -170.0858
 450  -340.3544
 451  -466.0056
 452  -579.2299
 453  -534.3898
 454  -222.1103
 455  -208.3918
 456  -376.6449
 457  -533.3879
 458  -397.6514
 459  -175.2674
 460  -71.9111
 461  -336.4026
 462  -322.2319
 463  -324.4195
 464  -692.2097
 465  -373.2252
 466  -346.5779
 467  -452.7718
 468  -378.7679
 469  -197.3063
 470  -47.74103
 471  -447.6152
 472  -702.3008
 473  -735.8759
 474  -887.0679
 475  -469.4878
 476  -88.06641
 477  149.1439
 478  -62.85736
 479  -565.6566
 480  -622.623
 481  -134.7069
 482  -178.0517
 483  -361.9064
 484  -219.9859
 485  105.4601
 486  -176.9284
 487  -586.7285
 488  -387.9044
 489  -287.5066
 490  -197.7473
 491  -543.228
 492  -136.2195
 493  -202.7584
 494  -172.2021
 495  -385.7132
 496  -439.8627
 497  -242.5478
 498  -300.4198
 499  -300.5805
 500  -468.5634
 501  -639.452
 502  -326.1513
 503  -368.0707
 504  -603.9976
 505  -629.7909
 506  -551.7678
 507  -526.3711
 508  -406.3077
 509  -494.638
 510  -634.4268
 511  -496.7278
