# Input file       =  1187417273.104428_cleaned.dat
# Candidate        =  PSR_0332+5434
# Telescope        =  AR
# Epoch_topo       =  57987.255695653104
# Epoch_bary       =  N/A
# T_sample         =  0.002
# Data Folded      =  7340032
# Data Avg         =  0.00721330404871267
# Data StdDev      =  1.00002290724655 
# Profile Bins     =  512
# Profile Avg      =  103.351494128576 
# Profile StdDev   =  119.73577913095  
# Reduced chi-sqr  =  1.768
# Prob(Noise)      <  3.22e-24   (~10.1 sigma)
# P_topo (ms)      =  714.463989275964  +/- 0.000109
# P'_topo (s/s)    =  -0                +/- 5.75e-11
# P''_topo (s/s^2) =  0                 +/- 2.54e-14
# P_bary (ms)      =  N/A
# P'_bary (s/s)    =  N/A
# P''_bary (s/s^2) =  N/A
# P_orb (s)        =  N/A
# asin(i)/c (s)    =  N/A
# eccentricity     =  N/A
# w (rad)          =  N/A
# T_peri           =  N/A
######################################################
   0  170.901
   1  145.5523
   2  66.11958
   3  274.8758
   4  346.7607
   5  215.5717
   6  264.7732
   7  347.1884
   8  308.3389
   9  259.5682
  10  391.4462
  11  467.6468
  12  649.5823
  13  801.9711
  14  990.4711
  15  901.5627
  16  685.8639
  17  395.0269
  18  307.3958
  19  86.54437
  20  77.07496
  21  269.7065
  22  268.7675
  23  157.9311
  24  76.7727
  25  200.1574
  26  284.6095
  27  174.9267
  28  249.4717
  29  129.9772
  30  177.4194
  31  232.7898
  32  121.3085
  33  68.13068
  34  25.64034
  35  83.93644
  36  211.9013
  37  82.94239
  38  -18.23723
  39  84.31151
  40  206.8211
  41  55.46971
  42  9.693509
  43  19.15918
  44  43.30956
  45  87.89015
  46  80.24879
  47  234.7484
  48  191.7068
  49  -1.328147
  50  70.73581
  51  275.8155
  52  295.0119
  53  233.129
  54  166.7265
  55  305.8488
  56  254.214
  57  29.30812
  58  158.2996
  59  128.5913
  60  209.6497
  61  27.56704
  62  32.55072
  63  6.653848
  64  36.17701
  65  50.62251
  66  111.4142
  67  72.61614
  68  117.2802
  69  208.9433
  70  222.6476
  71  99.47761
  72  142.5107
  73  65.85632
  74  -3.576244
  75  138.8603
  76  155.8287
  77  -14.04236
  78  39.3307
  79  94.5295
  80  103.2157
  81  150.2319
  82  212.2925
  83  284.3356
  84  216.6265
  85  159.634
  86  93.30758
  87  64.2119
  88  157.8445
  89  152.412
  90  158.1803
  91  229.7495
  92  50.93559
  93  54.80661
  94  40.4127
  95  88.99709
  96  182.069
  97  30.07052
  98  -2.303473
  99  41.16758
 100  75.4384
 101  43.32975
 102  -87.84386
 103  17.15836
 104  95.01599
 105  106.1765
 106  109.5458
 107  55.40979
 108  36.19868
 109  180.731
 110  158.5598
 111  172.9376
 112  -9.048543
 113  19.0882
 114  30.24788
 115  16.35364
 116  -52.4918
 117  44.8523
 118  171.4581
 119  122.958
 120  3.236948
 121  90.32047
 122  53.45467
 123  -68.66502
 124  -102.4429
 125  -24.9921
 126  5.051497
 127  158.2946
 128  111.7053
 129  74.89452
 130  176.8346
 131  45.12017
 132  16.20528
 133  -96.7291
 134  -120.1271
 135  17.90305
 136  -4.946982
 137  103.3446
 138  181.8157
 139  175.2274
 140  -28.97037
 141  -26.54449
 142  115.5893
 143  161.5147
 144  17.62376
 145  55.17628
 146  -11.46992
 147  -36.16053
 148  22.14258
 149  198.3118
 150  224.7008
 151  235.8499
 152  122.9065
 153  136.8446
 154  125.0853
 155  221.9611
 156  222.3544
 157  37.79023
 158  -34.53608
 159  89.31189
 160  118.1292
 161  180.2506
 162  199.4735
 163  259.6452
 164  50.11337
 165  23.72224
 166  82.8675
 167  56.75975
 168  48.43383
 169  31.1927
 170  -20.24828
 171  255.4987
 172  144.267
 173  88.25134
 174  73.41133
 175  112.5155
 176  144.1768
 177  119.7524
 178  167.0709
 179  152.5936
 180  70.9125
 181  46.2085
 182  138.5536
 183  121.0796
 184  155.3816
 185  86.22297
 186  49.58112
 187  174.3774
 188  161.4947
 189  98.56847
 190  121.7496
 191  192.2678
 192  90.90179
 193  101.8681
 194  148.3849
 195  136.135
 196  83.52679
 197  58.02966
 198  -3.695553
 199  -24.93017
 200  68.90917
 201  98.15282
 202  40.63598
 203  42.68667
 204  111.0503
 205  225.3843
 206  211.3515
 207  137.9008
 208  167.194
 209  191.3142
 210  117.4606
 211  61.69167
 212  18.27741
 213  204.2031
 214  178.0628
 215  83.35687
 216  110.509
 217  185.6306
 218  248.7654
 219  145.0988
 220  26.8236
 221  222.2367
 222  187.6603
 223  74.40282
 224  116.4465
 225  127.4837
 226  7.404309
 227  69.1007
 228  157.2345
 229  110.0685
 230  28.93961
 231  94.09029
 232  66.04131
 233  65.88442
 234  72.31197
 235  135.2396
 236  93.47194
 237  100.7121
 238  101.6692
 239  42.85497
 240  97.30066
 241  160.0311
 242  135.7233
 243  -16.9067
 244  22.9236
 245  191.1571
 246  174.2708
 247  79.40134
 248  138.1321
 249  110.5341
 250  219.8195
 251  116.0062
 252  29.30022
 253  41.4542
 254  -69.50758
 255  99.39851
 256  196.4128
 257  159.6163
 258  56.72416
 259  13.17806
 260  53.49832
 261  73.94516
 262  -65.3522
 263  13.49007
 264  -26.81609
 265  50.7786
 266  254.9363
 267  172.8078
 268  -33.6912
 269  -66.37685
 270  -23.88617
 271  -133.9435
 272  -46.29792
 273  30.93801
 274  144.9108
 275  159.6706
 276  39.52769
 277  -55.87621
 278  87.55522
 279  69.17437
 280  -27.98474
 281  -4.549213
 282  1.484499
 283  8.77632
 284  58.94323
 285  193.6853
 286  138.6777
 287  161.9983
 288  146.4063
 289  203.0755
 290  103.496
 291  99.77812
 292  78.54996
 293  8.729991
 294  101.8977
 295  95.58822
 296  88.69878
 297  92.52422
 298  26.95394
 299  46.97589
 300  38.09163
 301  -4.089259
 302  -61.54219
 303  -32.58697
 304  -79.9358
 305  -15.57841
 306  94.14954
 307  112.4988
 308  118.909
 309  170.68
 310  174.021
 311  189.4012
 312  171.436
 313  61.92935
 314  -13.21082
 315  48.63925
 316  -38.32932
 317  -47.22286
 318  179.3975
 319  158.8208
 320  4.450896
 321  57.65651
 322  247.1469
 323  101.3988
 324  220.417
 325  240.1346
 326  237.9654
 327  75.23747
 328  150.4224
 329  281.9055
 330  243.1915
 331  41.70357
 332  86.30953
 333  66.79098
 334  117.4826
 335  185.7032
 336  82.6109
 337  27.94268
 338  3.540239
 339  55.60955
 340  101.3107
 341  61.31977
 342  102.2029
 343  49.88062
 344  -33.14273
 345  38.79433
 346  -61.202
 347  -6.573347
 348  -55.97646
 349  -4.845111
 350  111.6384
 351  89.87926
 352  50.07068
 353  8.505254
 354  57.81031
 355  80.18631
 356  165.6846
 357  214.4741
 358  232.9786
 359  71.63428
 360  47.8452
 361  174.6218
 362  142.8643
 363  171.8735
 364  124.3336
 365  184.7782
 366  100.1061
 367  109.4886
 368  184.6396
 369  125.5435
 370  224.0807
 371  177.1704
 372  34.4347
 373  90.87424
 374  75.88339
 375  -16.71899
 376  118.7616
 377  145.896
 378  102.3829
 379  -49.9864
 380  6.668614
 381  73.77277
 382  73.74221
 383  15.84574
 384  178.7629
 385  216.7999
 386  104.5874
 387  67.37696
 388  105.1956
 389  -18.11208
 390  64.61462
 391  239.9957
 392  235.0309
 393  -8.718451
 394  96.39491
 395  130.7921
 396  -5.853581
 397  83.50655
 398  81.11646
 399  113.3015
 400  163.9514
 401  152.3992
 402  19.31104
 403  -3.948646
 404  40.75062
 405  101.1536
 406  176.2428
 407  44.28679
 408  -22.45967
 409  38.32986
 410  153.0874
 411  100.4975
 412  94.60316
 413  121.4658
 414  73.47553
 415  87.48813
 416  134.3044
 417  59.38935
 418  137.4494
 419  205.8756
 420  112.1969
 421  -61.1075
 422  -102.9113
 423  136.9682
 424  96.9183
 425  36.93381
 426  101.6733
 427  104.1842
 428  -1.655425
 429  -137.2187
 430  -141.9784
 431  38.00853
 432  67.75854
 433  152.2815
 434  77.59842
 435  136.2737
 436  166.465
 437  -45.70434
 438  -5.950139
 439  118.461
 440  175.2875
 441  52.19768
 442  53.48122
 443  123.1566
 444  125.832
 445  64.1647
 446  76.72604
 447  49.00899
 448  68.04848
 449  140.6345
 450  89.24105
 451  48.16876
 452  160.113
 453  108.4383
 454  59.78999
 455  -105.0351
 456  11.83462
 457  60.77559
 458  -123.0594
 459  58.46584
 460  106.4524
 461  -77.55463
 462  -97.30934
 463  92.12038
 464  162.3273
 465  21.83693
 466  38.1736
 467  26.12599
 468  98.57103
 469  131.971
 470  93.65241
 471  20.44807
 472  98.18461
 473  96.99419
 474  151.4942
 475  204.2119
 476  151.5356
 477  234.5029
 478  68.79662
 479  103.5817
 480  189.1881
 481  61.76968
 482  104.1189
 483  29.6489
 484  -107.0054
 485  -40.4334
 486  109.7279
 487  148.6277
 488  175.7882
 489  35.42223
 490  -17.4761
 491  25.24926
 492  161.3793
 493  196.2689
 494  11.79664
 495  -85.53195
 496  -51.4489
 497  96.49214
 498  -36.56027
 499  -71.33966
 500  -3.999453
 501  100.6098
 502  128.9999
 503  108.1966
 504  227.7568
 505  309.2674
 506  148.8475
 507  87.84769
 508  285.872
 509  247.7377
 510  128.5612
 511  72.79324
