# Input file       =  1187904722.109216_cleaned.dat
# Candidate        =  PSR_0332+5434
# Telescope        =  AR
# Epoch_topo       =  57992.897466541850
# Epoch_bary       =  N/A
# T_sample         =  0.002
# Data Folded      =  7143424
# Data Avg         =  0.0266602994017559
# Data StdDev      =  2.91724235724841 
# Profile Bins     =  512
# Profile Avg      =  371.892251335064 
# Profile StdDev   =  344.580537828728 
# Reduced chi-sqr  =  0.853
# Prob(Noise)      <  0.993   (~0.0 sigma)
# P_topo (ms)      =  714.463332553653  +/- 0.000704
# P'_topo (s/s)    =  -0                +/- 3.82e-10
# P''_topo (s/s^2) =  0                 +/- 1.73e-13
# P_bary (ms)      =  N/A
# P'_bary (s/s)    =  N/A
# P''_bary (s/s^2) =  N/A
# P_orb (s)        =  N/A
# asin(i)/c (s)    =  N/A
# eccentricity     =  N/A
# w (rad)          =  N/A
# T_peri           =  N/A
######################################################
   0  247.2997
   1  50.52622
   2  430.2624
   3  384.1739
   4  388.4432
   5  459.2256
   6  524.754
   7  409.6584
   8  400.9679
   9  295.0399
  10  245.9673
  11  253.7008
  12  454.3488
  13  462.5407
  14  248.3457
  15  134.0211
  16  288.4175
  17  397.3728
  18  236.3685
  19  143.2333
  20  37.7126
  21  75.29972
  22  193.3584
  23  498.0332
  24  435.4148
  25  213.345
  26  365.0098
  27  424.3548
  28  122.1492
  29  222.7632
  30  276.7805
  31  498.9834
  32  416.1622
  33  308.4523
  34  335.7893
  35  425.0478
  36  360.0184
  37  333.1553
  38  326.601
  39  282.3744
  40  597.9355
  41  207.3634
  42  120.3345
  43  128.0234
  44  15.23641
  45  346.7428
  46  524.3833
  47  285.1759
  48  347.9691
  49  466.9222
  50  188.7273
  51  150.8951
  52  114.8426
  53  225.908
  54  158.1656
  55  358.5866
  56  511.6298
  57  107.5508
  58  -201.8359
  59  -18.56426
  60  413.2138
  61  561.1987
  62  676.9399
  63  415.5576
  64  603.6236
  65  689.8025
  66  551.7935
  67  154.8268
  68  395.1059
  69  515.3287
  70  245.4886
  71  329.5219
  72  454.5078
  73  594.178
  74  613.3956
  75  354.9604
  76  162.9294
  77  9.616096
  78  216.8107
  79  451.0299
  80  465.8309
  81  509.2201
  82  303.7351
  83  -60.44489
  84  67.96667
  85  421.4111
  86  346.6663
  87  394.2144
  88  233.3347
  89  214.9332
  90  484.5329
  91  472.3385
  92  540.6496
  93  225.7741
  94  285.8826
  95  403.5049
  96  444.0389
  97  448.647
  98  346.1136
  99  221.2042
 100  404.9391
 101  483.7204
 102  346.612
 103  264.7253
 104  633.5953
 105  544.0124
 106  650.8979
 107  168.8088
 108  222.2786
 109  353.6165
 110  128.0411
 111  236.7506
 112  357.4109
 113  563.1865
 114  285.2963
 115  353.4207
 116  512.0042
 117  443.4751
 118  345.2752
 119  286.274
 120  219.8331
 121  117.9495
 122  171.5636
 123  110.6336
 124  445.7433
 125  -0.8437954
 126  -38.3776
 127  126.0238
 128  487.3725
 129  500.9735
 130  360.0216
 131  494.2994
 132  439.1214
 133  307.4821
 134  479.9553
 135  361.2364
 136  197.9495
 137  298.1516
 138  534.0515
 139  423.1031
 140  408.0352
 141  426.0241
 142  701.3032
 143  620.7214
 144  367.149
 145  549.8463
 146  37.09005
 147  495.3044
 148  439.9883
 149  231.3194
 150  270.0328
 151  197.9032
 152  413.9344
 153  306.2653
 154  5.955739
 155  104.8223
 156  270.126
 157  456.7549
 158  474.777
 159  303.1238
 160  283.4787
 161  368.6477
 162  631.1602
 163  449.7663
 164  450.9641
 165  345.3501
 166  546.179
 167  563.1091
 168  583.3863
 169  286.0033
 170  346.5301
 171  493.7643
 172  673.2045
 173  611.0228
 174  699.6169
 175  164.0495
 176  331.7913
 177  549.2382
 178  444.72
 179  464.5869
 180  596.1505
 181  371.6932
 182  231.0758
 183  421.5963
 184  381.0471
 185  95.61722
 186  291.5897
 187  404.2428
 188  507.7598
 189  351.2182
 190  459.1186
 191  400.5057
 192  189.7512
 193  239.7456
 194  292.8771
 195  467.2372
 196  402.4756
 197  261.9364
 198  564.4664
 199  481.5331
 200  277.1792
 201  814.0034
 202  849.0264
 203  737.1414
 204  505.598
 205  377.1308
 206  228.072
 207  524.4779
 208  513.1995
 209  273.1061
 210  343.724
 211  443.4065
 212  485.7551
 213  582.8525
 214  691.7854
 215  403.6018
 216  293.1684
 217  182.8198
 218  71.56037
 219  257.4797
 220  530.3444
 221  51.02748
 222  419.7223
 223  404.6614
 224  490.2545
 225  247.5244
 226  147.9144
 227  200.4113
 228  412.0757
 229  596.3936
 230  220.7133
 231  62.69517
 232  483.6008
 233  328.1452
 234  142.8123
 235  385.2104
 236  309.9309
 237  347.9498
 238  191.0046
 239  -64.52628
 240  -174.771
 241  308.5584
 242  644.2283
 243  482.2765
 244  247.2105
 245  301.9391
 246  346.2473
 247  377.4838
 248  746.307
 249  682.4719
 250  192.6045
 251  119.1429
 252  335.5488
 253  709.0461
 254  576.5478
 255  643.8153
 256  692.2479
 257  623.3182
 258  524.7927
 259  465.0611
 260  481.9291
 261  699.1655
 262  624.7968
 263  185.0479
 264  154.1802
 265  104.9067
 266  298.5006
 267  355.1599
 268  486.1334
 269  325.6189
 270  443.9586
 271  634.721
 272  366.3261
 273  305.5682
 274  487.3889
 275  348.2479
 276  -49.77924
 277  17.91691
 278  180.7697
 279  422.3572
 280  394.4286
 281  672.9716
 282  594.9224
 283  409.0578
 284  482.9691
 285  297.299
 286  272.6928
 287  519.0185
 288  406.7692
 289  217.9944
 290  -136.666
 291  103.3077
 292  344.5916
 293  349.5342
 294  756.9427
 295  374.2973
 296  358.016
 297  475.9346
 298  444.781
 299  436.6222
 300  596.9892
 301  691.4835
 302  509.4732
 303  412.8948
 304  632.2095
 305  531.6194
 306  695.0858
 307  561.4033
 308  575.5074
 309  599.578
 310  534.3912
 311  496.8771
 312  296.0312
 313  623.2096
 314  321.2701
 315  299.856
 316  447.946
 317  479.3335
 318  588.6755
 319  930.7502
 320  1174.159
 321  1675.095
 322  1586.562
 323  1768.325
 324  1669.048
 325  1254.788
 326  924.6781
 327  675.8663
 328  677.1107
 329  487.5505
 330  778.8281
 331  560.9755
 332  834.1914
 333  580.623
 334  452.0973
 335  907.5121
 336  549.3661
 337  567.3387
 338  442.0787
 339  852.7833
 340  796.6619
 341  192.1143
 342  141.8857
 343  274.8891
 344  443.0698
 345  437.1307
 346  316.3564
 347  440.0963
 348  119.647
 349  -188.2171
 350  -44.25132
 351  221.3754
 352  324.4335
 353  444.8517
 354  476.0107
 355  454.5147
 356  512.5975
 357  348.7752
 358  154.5625
 359  111.386
 360  280.5689
 361  488.3717
 362  472.7453
 363  524.8575
 364  647.6375
 365  545.2476
 366  337.1647
 367  235.5596
 368  394.9617
 369  441.1201
 370  58.31961
 371  334.3705
 372  344.5271
 373  225.4511
 374  59.67875
 375  172.2438
 376  87.57687
 377  -94.93355
 378  227.2833
 379  91.14661
 380  21.49109
 381  140.6071
 382  368.3753
 383  379.1114
 384  93.0569
 385  -82.12712
 386  256.2943
 387  -95.53442
 388  -182.6727
 389  292.266
 390  440.5549
 391  138.0937
 392  191.8135
 393  368.5555
 394  320.4334
 395  440.8402
 396  406.7644
 397  94.79357
 398  -13.9422
 399  129.407
 400  269.0201
 401  444.7967
 402  461.4776
 403  220.4431
 404  10.95086
 405  13.99477
 406  232.6606
 407  181.1305
 408  253.4236
 409  637.2274
 410  675.8125
 411  185.2558
 412  201.5452
 413  -14.28787
 414  100.7021
 415  301.9762
 416  81.05744
 417  221.5492
 418  206.0869
 419  201.6676
 420  468.5148
 421  306.0937
 422  582.1702
 423  645.7075
 424  504.8348
 425  542.9626
 426  582.2537
 427  519.5775
 428  356.1392
 429  387.9269
 430  498.9098
 431  323.3526
 432  382.2437
 433  271.7394
 434  194.9338
 435  325.4297
 436  379.5337
 437  317.067
 438  544.0475
 439  282.3026
 440  429.7003
 441  718.0782
 442  523.772
 443  380.344
 444  317.7469
 445  301.0041
 446  436.8625
 447  363.3326
 448  319.0244
 449  205.67
 450  182.2061
 451  221.3627
 452  338.5476
 453  317.824
 454  178.0727
 455  435.0226
 456  536.2776
 457  214.2297
 458  146.7321
 459  386.3312
 460  336.4995
 461  18.62449
 462  -135.2244
 463  -54.82026
 464  -5.239818
 465  426.6605
 466  432.8803
 467  391.9098
 468  216.8249
 469  273.7573
 470  152.54
 471  468.7401
 472  611.9084
 473  142.7663
 474  250.8118
 475  183.283
 476  268.9246
 477  368.2016
 478  180.5235
 479  224.6497
 480  201.0918
 481  238.7471
 482  224.6239
 483  210.0695
 484  381.0246
 485  378.7585
 486  371.6367
 487  489.4317
 488  352.5836
 489  442.9859
 490  575.2284
 491  507.2945
 492  293.5976
 493  438.3322
 494  179.5571
 495  366.7019
 496  588.8405
 497  590.7628
 498  604.3782
 499  330.8968
 500  277.4951
 501  366.6248
 502  412.4968
 503  253.96
 504  577.811
 505  336.9583
 506  201.328
 507  375.5229
 508  563.2632
 509  495.0706
 510  425.5513
 511  468.5354
