# Input file       =  1187746985.105509_cleaned.dat
# Candidate        =  PSR_0332+5434
# Telescope        =  AR
# Epoch_topo       =  57991.071806776723
# Epoch_bary       =  N/A
# T_sample         =  0.002
# Data Folded      =  7340032
# Data Avg         =  0.0255724302509667
# Data StdDev      =  2.18176224001807 
# Profile Bins     =  256
# Profile Avg      =  733.275450294595 
# Profile StdDev   =  369.433619645377 
# Reduced chi-sqr  =  1.836
# Prob(Noise)      <  9.16e-15   (~7.7 sigma)
# P_topo (ms)      =  714.463384827096  +/- 0.000241
# P'_topo (s/s)    =  -0                +/- 1.27e-10
# P''_topo (s/s^2) =  0                 +/- 5.61e-14
# P_bary (ms)      =  N/A
# P'_bary (s/s)    =  N/A
# P''_bary (s/s^2) =  N/A
# P_orb (s)        =  N/A
# asin(i)/c (s)    =  N/A
# eccentricity     =  N/A
# w (rad)          =  N/A
# T_peri           =  N/A
######################################################
   0  583.9191
   1  891.5651
   2  564.0718
   3  767.9285
   4  560.4142
   5  596.0792
   6  845.7072
   7  447.8556
   8  15.27481
   9  240.6748
  10  623.3031
  11  813.3784
  12  544.7014
  13  908.91
  14  1164.878
  15  741.9376
  16  824.7159
  17  766.0413
  18  302.9102
  19  812.1839
  20  442.2689
  21  461.3361
  22  589.1505
  23  758.2855
  24  834.9326
  25  819.3585
  26  664.4276
  27  707.4402
  28  358.3827
  29  703.0782
  30  813.4941
  31  1037.178
  32  1005.844
  33  407.3976
  34  436.3431
  35  485.5946
  36  443.7518
  37  372.9676
  38  434.078
  39  471.727
  40  760.9286
  41  212.8798
  42  104.8168
  43  284.8458
  44  367.2022
  45  5.95773
  46  -38.44249
  47  227.8889
  48  868.5983
  49  543.6827
  50  763.6374
  51  191.8149
  52  852.5817
  53  578.0851
  54  456.0789
  55  240.4842
  56  1227.292
  57  1002.142
  58  442.7523
  59  330.6236
  60  355.1493
  61  438.6804
  62  316.704
  63  789.1419
  64  581.6418
  65  341.1429
  66  1078.135
  67  500.7951
  68  1271.736
  69  436.7928
  70  356.529
  71  123.6719
  72  1000.487
  73  958.2388
  74  695.0096
  75  329.3642
  76  933.9629
  77  707.8463
  78  221.6444
  79  701.7259
  80  413.1937
  81  308.69
  82  404.4935
  83  674.3205
  84  -10.14926
  85  577.1871
  86  267.8466
  87  394.4161
  88  268.1327
  89  1049.102
  90  397.3464
  91  581.2676
  92  596.0679
  93  487.3289
  94  993.3542
  95  912.3587
  96  641.6791
  97  966.2316
  98  1258.147
  99  917.9392
 100  537.3162
 101  730.7208
 102  1516.765
 103  567.6946
 104  304.4737
 105  636.9425
 106  25.10084
 107  339.3113
 108  713.4597
 109  933.6162
 110  360.361
 111  1015.287
 112  1050.631
 113  699.8643
 114  727.116
 115  1372.136
 116  1127.292
 117  528.5994
 118  346.6497
 119  811.1854
 120  862.4979
 121  790.9584
 122  785.086
 123  786.2534
 124  765.1921
 125  410.7284
 126  1247.598
 127  1074.036
 128  535.2926
 129  870.0977
 130  1220.096
 131  401.0674
 132  146.3491
 133  692.8448
 134  570.8956
 135  703.5157
 136  723.9207
 137  844.3381
 138  363.9917
 139  678.5576
 140  938.0447
 141  918.1872
 142  919.4335
 143  1493.027
 144  1552.832
 145  1039.739
 146  481.725
 147  596.2049
 148  981.6035
 149  1189.289
 150  791.4624
 151  854.5085
 152  1514.618
 153  1256.644
 154  484.0787
 155  484.2019
 156  701.8503
 157  644.7384
 158  896.7657
 159  1349.89
 160  2942.953
 161  3686.943
 162  3089.708
 163  1780.195
 164  1038.997
 165  1260.586
 166  901.4641
 167  1184.01
 168  645.4457
 169  1109.461
 170  1157.905
 171  437.3939
 172  1394.938
 173  1121.108
 174  640.9508
 175  542.7698
 176  530.8133
 177  834.9777
 178  268.9447
 179  547.5776
 180  1114.344
 181  580.8606
 182  937.6371
 183  981.2069
 184  757.9307
 185  607.0511
 186  -6.947248
 187  -124.2181
 188  751.8014
 189  1012.358
 190  691.8571
 191  414.4183
 192  1010.271
 193  862.6199
 194  694.437
 195  651.8774
 196  635.3432
 197  892.1796
 198  904.8145
 199  584.6547
 200  647.8078
 201  628.447
 202  673.8094
 203  689.9735
 204  622.1265
 205  1030.475
 206  864.0372
 207  779.2457
 208  750.8667
 209  847.1926
 210  1577.409
 211  1025.313
 212  783.9691
 213  1197.534
 214  1169.867
 215  388.7498
 216  274.0836
 217  581.2428
 218  798.3046
 219  1007.18
 220  542.9157
 221  1171.478
 222  666.3441
 223  995.3891
 224  590.7816
 225  -172.0908
 226  -3.157178
 227  181.2
 228  587.5265
 229  568.7366
 230  819.2083
 231  754.293
 232  1035.705
 233  602.2549
 234  501.7109
 235  1183.127
 236  1097.387
 237  525.5043
 238  1174.479
 239  346.8731
 240  434.91
 241  1266.911
 242  752.9087
 243  1143.864
 244  1167.149
 245  747.7211
 246  322.41
 247  1115.764
 248  707.2238
 249  647.7444
 250  752.9313
 251  671.2076
 252  786.1783
 253  424.0598
 254  658.2119
 255  709.0078
