# Input file       =  1187732385.107513_cleaned.dat
# Candidate        =  PSR_0332+5434
# Telescope        =  AR
# Epoch_topo       =  57990.902825318437
# Epoch_bary       =  N/A
# T_sample         =  0.002
# Data Folded      =  7143424
# Data Avg         =  0.170412691338885
# Data StdDev      =  3.5067708199153  
# Profile Bins     =  256
# Profile Avg      =  4755.12752491214 
# Profile StdDev   =  585.788195462709 
# Reduced chi-sqr  =  0.773
# Prob(Noise)      <  0.997   (~0.0 sigma)
# P_topo (ms)      =  714.463378863861  +/- 0.000194
# P'_topo (s/s)    =  -0                +/- 1.05e-10
# P''_topo (s/s^2) =  0                 +/- 4.78e-14
# P_bary (ms)      =  N/A
# P'_bary (s/s)    =  N/A
# P''_bary (s/s^2) =  N/A
# P_orb (s)        =  N/A
# asin(i)/c (s)    =  N/A
# eccentricity     =  N/A
# w (rad)          =  N/A
# T_peri           =  N/A
######################################################
   0  4821.828
   1  4908.958
   2  4682.197
   3  4874.074
   4  4695.721
   5  4453.598
   6  4342.823
   7  4315.621
   8  4186.197
   9  4324.708
  10  4749.479
  11  5164.999
  12  4917.23
  13  4788.122
  14  4566.035
  15  4705.714
  16  5029.234
  17  5128.813
  18  4661.303
  19  4926.377
  20  4539.068
  21  4451.353
  22  4884.279
  23  4810.711
  24  5091.628
  25  5135.645
  26  5017.828
  27  4039.288
  28  4896.812
  29  4765.87
  30  4752.503
  31  3900.529
  32  4354.599
  33  4691.256
  34  4639.453
  35  4909.698
  36  4942.322
  37  5137.913
  38  5191.467
  39  4960.018
  40  4112.944
  41  5264.899
  42  4607.313
  43  4562.508
  44  4813.633
  45  4797.143
  46  4155.371
  47  4667.138
  48  4558.39
  49  4612.149
  50  4713.641
  51  4683.799
  52  5193.322
  53  4211.341
  54  4638.221
  55  4510.449
  56  4253.111
  57  4465.544
  58  5247.079
  59  4342.182
  60  4695.968
  61  4331.303
  62  4646.18
  63  4706.036
  64  4879.113
  65  4616.325
  66  4614.957
  67  4852.378
  68  4772.104
  69  4908.219
  70  4307.704
  71  5023.281
  72  4943.618
  73  4777.466
  74  4145.079
  75  4281.457
  76  4271.086
  77  4745.769
  78  5090.287
  79  4569.925
  80  4206.906
  81  4552.98
  82  4711.856
  83  4753.909
  84  4594.014
  85  5079.506
  86  4493.565
  87  4846.41
  88  5281.33
  89  4908.418
  90  3843.841
  91  4588.015
  92  4206.518
  93  4524.263
  94  5246.365
  95  4796.762
  96  4878.969
  97  4555.388
  98  5051.997
  99  4810.091
 100  4521.061
 101  3766.026
 102  4016.748
 103  4319.118
 104  4496.489
 105  4219.692
 106  4376.756
 107  4876.926
 108  4360.569
 109  4703.491
 110  4158.021
 111  4050.291
 112  4080.725
 113  4657.474
 114  4539.705
 115  4705.291
 116  4760.103
 117  4534.457
 118  4732.135
 119  4554.306
 120  4772.735
 121  4259.641
 122  4224.393
 123  4678.101
 124  4663.943
 125  4619.027
 126  4957.458
 127  4611.302
 128  4384.945
 129  5020.869
 130  4867.143
 131  4600.898
 132  4650.034
 133  4772.965
 134  4605.686
 135  4616.837
 136  4830.186
 137  5004.831
 138  3813.088
 139  4543.827
 140  4925.462
 141  4947.87
 142  4086.682
 143  3848.757
 144  4445.296
 145  5032.297
 146  5231.928
 147  4516.66
 148  4483.116
 149  5210.005
 150  4889.126
 151  4675.307
 152  5052.763
 153  5185.954
 154  4886.821
 155  4834.097
 156  4666.5
 157  5065.482
 158  5538.225
 159  5316.08
 160  6190.008
 161  7846.756
 162  7197.005
 163  5781.304
 164  5646.552
 165  5315.604
 166  5686.08
 167  4998.621
 168  5332.176
 169  5696.436
 170  5317.19
 171  4758.069
 172  4877.235
 173  4642.628
 174  4844.388
 175  5389.083
 176  4532.977
 177  4731.789
 178  4256.621
 179  4764.042
 180  4220.262
 181  4574.305
 182  5561.732
 183  4346.564
 184  4775.786
 185  4890.664
 186  5329.634
 187  4370.633
 188  4830.934
 189  4619.651
 190  5090.246
 191  4285.704
 192  4452.607
 193  4910.32
 194  4717.407
 195  4647.138
 196  4575.277
 197  4395.691
 198  4663.658
 199  5158.135
 200  5026.213
 201  4860.208
 202  4363.05
 203  4598.379
 204  4405.522
 205  4680.914
 206  5300.648
 207  5462.284
 208  4905.078
 209  4606.565
 210  5290.491
 211  4773.625
 212  5219.367
 213  4316.924
 214  4847.711
 215  5092.371
 216  4972.079
 217  4910.338
 218  4395.38
 219  4692.63
 220  4815.823
 221  4526.409
 222  4988.348
 223  4679.436
 224  4621.587
 225  4577.114
 226  4854.674
 227  5014.251
 228  4990.712
 229  4077.204
 230  4885.008
 231  4640.872
 232  4734.299
 233  4841.664
 234  5252.399
 235  4944.254
 236  4727.335
 237  5006.547
 238  4753.797
 239  4639.143
 240  5281.78
 241  4558.206
 242  3961.956
 243  4429.305
 244  5235.663
 245  4978.635
 246  4303.678
 247  4492.77
 248  5001.858
 249  4543.315
 250  4408.574
 251  5275.958
 252  4890.861
 253  4839.923
 254  5393.864
 255  4564.209
