# Input file       =  1187833148.117958_cleaned.dat
# Candidate        =  PSR_0332+5434
# Telescope        =  AR
# Epoch_topo       =  57992.069063865252
# Epoch_bary       =  N/A
# T_sample         =  0.002
# Data Folded      =  7340032
# Data Avg         =  0.0101254475801917
# Data StdDev      =  2.31901406054986 
# Profile Bins     =  512
# Profile Avg      =  145.180736715662 
# Profile StdDev   =  277.662594870049 
# Reduced chi-sqr  =  1.585
# Prob(Noise)      <  6.61e-16   (~8.0 sigma)
# P_topo (ms)      =  714.463356191061  +/- 0.000187
# P'_topo (s/s)    =  -0                +/- 9.87e-11
# P''_topo (s/s^2) =  0                 +/- 4.36e-14
# P_bary (ms)      =  N/A
# P'_bary (s/s)    =  N/A
# P''_bary (s/s^2) =  N/A
# P_orb (s)        =  N/A
# asin(i)/c (s)    =  N/A
# eccentricity     =  N/A
# w (rad)          =  N/A
# T_peri           =  N/A
######################################################
   0  -274.2874
   1  -182.3525
   2  -14.46827
   3  210.513
   4  95.21252
   5  75.43947
   6  246.2184
   7  173.0832
   8  493.1367
   9  431.0504
  10  136.5699
  11  605.4923
  12  691.1559
  13  314.5558
  14  -236.0848
  15  26.96737
  16  234.8175
  17  501.2733
  18  265.8428
  19  457.0059
  20  218.5105
  21  72.27499
  22  133.4665
  23  402.5528
  24  420.5343
  25  119.7868
  26  -208.7251
  27  327.3904
  28  610.926
  29  254.9496
  30  46.71763
  31  151.6236
  32  -91.60526
  33  168.6119
  34  166.6679
  35  44.92747
  36  227.2366
  37  354.412
  38  364.3208
  39  -63.49888
  40  31.32513
  41  524.1315
  42  181.3726
  43  89.77177
  44  -79.68963
  45  -266.2752
  46  -187.3589
  47  -165.2453
  48  -289.3528
  49  79.5922
  50  240.0254
  51  75.75532
  52  203.1948
  53  27.5886
  54  35.51866
  55  8.431825
  56  55.93756
  57  63.63652
  58  97.41568
  59  310.1143
  60  337.5936
  61  -71.42368
  62  -136.9136
  63  96.57748
  64  200.0944
  65  260.6247
  66  -99.67873
  67  -161.8035
  68  -204.602
  69  -39.63888
  70  320.6162
  71  162.2038
  72  223.9006
  73  159.569
  74  74.56319
  75  225.3404
  76  225.6304
  77  136.3496
  78  137.933
  79  218.3474
  80  372.2404
  81  285.1613
  82  106.6827
  83  17.1538
  84  348.4294
  85  58.22211
  86  -37.77792
  87  132.3826
  88  -28.53148
  89  -108.1683
  90  7.133392
  91  48.51273
  92  332.09
  93  236.9245
  94  179.0236
  95  -61.54803
  96  71.80263
  97  260.7887
  98  219.3382
  99  124.6076
 100  647.7085
 101  396.6621
 102  280.9334
 103  595.1967
 104  366.2321
 105  399.7525
 106  -169.9677
 107  208.302
 108  105.4437
 109  253.4804
 110  323.8743
 111  249.4323
 112  106.6417
 113  -125.0379
 114  151.6187
 115  112.9788
 116  384.5182
 117  153.0852
 118  65.57262
 119  232.9065
 120  -1.777942
 121  39.85245
 122  423.2396
 123  438.0483
 124  79.77911
 125  261.022
 126  242.7671
 127  38.64676
 128  -2.989605
 129  250.2452
 130  353.4413
 131  334.323
 132  214.9002
 133  212.3825
 134  -194.1441
 135  -140.16
 136  64.80486
 137  -3.0388
 138  25.85236
 139  -193.0936
 140  -226.3909
 141  -172.4511
 142  76.21207
 143  -69.04081
 144  -7.341522
 145  -138.5009
 146  -67.60588
 147  88.11213
 148  403.6786
 149  256.9981
 150  -33.61814
 151  -326.7541
 152  -372.935
 153  -386.3543
 154  -109.4928
 155  74.75069
 156  284.7235
 157  516.6197
 158  41.71814
 159  115.6289
 160  168.6684
 161  193.5999
 162  216.7368
 163  62.35124
 164  182.719
 165  185.0228
 166  86.63097
 167  149.3657
 168  -107.0626
 169  240.8047
 170  693.891
 171  691.588
 172  507.736
 173  287.2654
 174  252.6939
 175  116.776
 176  292.6475
 177  182.9628
 178  -298.6434
 179  -58.35986
 180  -12.80405
 181  -153.3251
 182  157.6979
 183  114.4356
 184  230.8359
 185  477.23
 186  170.0383
 187  133.2016
 188  156.4429
 189  353.0222
 190  304.685
 191  33.44142
 192  69.41171
 193  131.1418
 194  29.35895
 195  239.498
 196  119.3606
 197  68.40266
 198  -322.3473
 199  -219.8952
 200  -100.8836
 201  -33.38965
 202  -89.85578
 203  29.08656
 204  297.7202
 205  325.2509
 206  114.6962
 207  -67.63428
 208  -81.38178
 209  303.178
 210  337.6457
 211  184.9502
 212  158.8445
 213  316.4039
 214  291.8985
 215  311.522
 216  269.2272
 217  63.78395
 218  -45.73747
 219  -12.33079
 220  -145.9737
 221  -180.6134
 222  -66.83978
 223  -96.91729
 224  251.6035
 225  161.8706
 226  123.4512
 227  192.0771
 228  397.5531
 229  562.7327
 230  551.0154
 231  24.34252
 232  249.0237
 233  278.0748
 234  -158.7678
 235  -277.217
 236  -157.4781
 237  -18.83037
 238  -216.3332
 239  69.33128
 240  246.7232
 241  116.7028
 242  204.5148
 243  165.6703
 244  106.3075
 245  262.1698
 246  186.4946
 247  -9.378895
 248  -91.63393
 249  32.87033
 250  79.46696
 251  -193.9984
 252  22.11546
 253  -79.23306
 254  -227.5475
 255  3.284584
 256  30.18402
 257  403.0028
 258  68.06844
 259  -180.5079
 260  2.079105
 261  446.4276
 262  442.9284
 263  381.6693
 264  385.8681
 265  -154.0682
 266  -328.5798
 267  30.71202
 268  60.93316
 269  -32.63904
 270  16.45901
 271  118.2776
 272  -185.4553
 273  68.34541
 274  -56.45141
 275  -259.5362
 276  92.9357
 277  312.3784
 278  -127.6804
 279  -198.041
 280  278.0733
 281  78.31316
 282  127.1803
 283  138.0479
 284  -67.45344
 285  38.51541
 286  100.7033
 287  16.16493
 288  112.3922
 289  130.222
 290  192.2311
 291  -114.5826
 292  81.95246
 293  97.15195
 294  237.6446
 295  236.4904
 296  245.1723
 297  253.7298
 298  144.0529
 299  268.337
 300  402.3177
 301  178.3906
 302  69.88358
 303  355.4689
 304  347.9756
 305  334.3371
 306  242.1273
 307  271.0576
 308  59.19045
 309  -45.93895
 310  200.5232
 311  90.84496
 312  -244.1124
 313  33.52278
 314  296.5759
 315  -21.89734
 316  457.5055
 317  666.5751
 318  581.3735
 319  843.7398
 320  1467.88
 321  1565.583
 322  1625.422
 323  1548.086
 324  1416.111
 325  1496.283
 326  748.1768
 327  192.8711
 328  264.615
 329  228.9096
 330  121.2461
 331  320.4323
 332  257.7695
 333  141.4239
 334  284.1764
 335  242.0165
 336  72.45071
 337  80.34825
 338  219.2793
 339  127.2851
 340  153.4554
 341  48.07487
 342  19.70764
 343  65.82484
 344  418.39
 345  216.2011
 346  -153.0777
 347  338.022
 348  705.1028
 349  167.9874
 350  352.0497
 351  308.1252
 352  99.34727
 353  74.11011
 354  5.21756
 355  409.3322
 356  383.2563
 357  110.1014
 358  -58.68022
 359  309.7652
 360  316.564
 361  314.2557
 362  327.8605
 363  -7.653634
 364  -185.5041
 365  114.2048
 366  -41.95162
 367  -121.5093
 368  286.3815
 369  170.0473
 370  158.7026
 371  86.60226
 372  78.35114
 373  -58.27665
 374  1.579328
 375  -189.4851
 376  -129.2657
 377  116.1638
 378  13.06883
 379  136.0673
 380  -7.075367
 381  -14.03141
 382  -86.04242
 383  -78.25574
 384  20.1677
 385  91.54407
 386  26.92269
 387  -229.2828
 388  -266.5012
 389  91.35733
 390  0.5184625
 391  -40.93881
 392  134.5256
 393  373.5233
 394  401.6757
 395  457.4625
 396  76.5561
 397  -290.4199
 398  283.4341
 399  339.6422
 400  83.19724
 401  472.8951
 402  406.7101
 403  41.71662
 404  -64.89281
 405  309.7083
 406  199.9725
 407  433.0273
 408  514.7036
 409  81.24548
 410  135.1435
 411  211.3846
 412  289.2858
 413  273.9656
 414  344.5585
 415  218.7151
 416  250.3139
 417  154.7232
 418  59.51906
 419  123.2539
 420  209.4058
 421  -9.240862
 422  30.09236
 423  78.28925
 424  402.0903
 425  264.148
 426  174.409
 427  2.120086
 428  246.1642
 429  124.204
 430  1.995186
 431  -215.766
 432  235.5796
 433  368.9675
 434  40.459
 435  -269.8786
 436  -588.0435
 437  -398.8967
 438  199.4001
 439  154.2534
 440  -38.80912
 441  -164.7501
 442  64.07144
 443  98.50073
 444  -155.4763
 445  -45.80217
 446  117.0816
 447  116.7935
 448  -98.27242
 449  -47.94673
 450  -315.2693
 451  97.40189
 452  143.5085
 453  -27.38942
 454  -117.3851
 455  202.3396
 456  -106.6288
 457  61.64899
 458  88.32415
 459  231.2383
 460  -35.35632
 461  214.3125
 462  350.2021
 463  171.7654
 464  233.3497
 465  156.7332
 466  173.3714
 467  271.4194
 468  100.3214
 469  17.29067
 470  174.7008
 471  210.8792
 472  156.7654
 473  236.3556
 474  229.3833
 475  -56.99817
 476  -103.9967
 477  405.1235
 478  451.7439
 479  284.4584
 480  318.5407
 481  130.4632
 482  96.46539
 483  101.8402
 484  -55.91349
 485  -365.6907
 486  -134.9099
 487  343.7241
 488  144.1204
 489  109.665
 490  97.01493
 491  46.21245
 492  109.1831
 493  236.7766
 494  374.4455
 495  28.95744
 496  266.4156
 497  327.4088
 498  52.4874
 499  97.75175
 500  75.05657
 501  201.5892
 502  152.7172
 503  253.6471
 504  0.6890092
 505  114.8607
 506  543.2006
 507  485.3838
 508  406.1222
 509  216.7687
 510  263.0742
 511  9.682317
