# Input file       =  1187503992.109945_cleaned.dat
# Candidate        =  PSR_0332+5434
# Telescope        =  AR
# Epoch_topo       =  57988.259387846585
# Epoch_bary       =  N/A
# T_sample         =  0.002
# Data Folded      =  7340032
# Data Avg         =  0.0272029389338319
# Data StdDev      =  3.0346033506929  
# Profile Bins     =  512
# Profile Avg      =  389.896371901284 
# Profile StdDev   =  363.342273377569 
# Reduced chi-sqr  =  1.318
# Prob(Noise)      <  1.68e-06   (~4.6 sigma)
# P_topo (ms)      =  714.463908131201  +/- 0.00013
# P'_topo (s/s)    =  -0                +/- 6.85e-11
# P''_topo (s/s^2) =  0                 +/- 3.02e-14
# P_bary (ms)      =  N/A
# P'_bary (s/s)    =  N/A
# P''_bary (s/s^2) =  N/A
# P_orb (s)        =  N/A
# asin(i)/c (s)    =  N/A
# eccentricity     =  N/A
# w (rad)          =  N/A
# T_peri           =  N/A
######################################################
   0  1011.676
   1  1112.679
   2  837.9947
   3  700.1748
   4  498.2732
   5  524.0166
   6  752.0255
   7  875.4942
   8  540.533
   9  101.9314
  10  236.3452
  11  538.1188
  12  345.8018
  13  266.417
  14  100.4011
  15  59.54852
  16  53.17819
  17  324.5145
  18  208.9748
  19  270.0294
  20  418.9038
  21  366.6018
  22  250.8679
  23  174.3771
  24  70.47128
  25  139.4139
  26  208.2816
  27  422.7077
  28  439.2
  29  458.231
  30  327.4269
  31  467.4772
  32  532.2811
  33  270.5462
  34  225.9619
  35  533.5059
  36  499.2859
  37  390.4745
  38  487.8341
  39  214.8984
  40  517.7316
  41  398.9701
  42  -57.96661
  43  336.5803
  44  479.6172
  45  649.6069
  46  552.9659
  47  160.8274
  48  311.7013
  49  126.9234
  50  296.2812
  51  388.8781
  52  369.6465
  53  598.8546
  54  357.944
  55  103.4478
  56  255.8575
  57  500.3596
  58  -33.34569
  59  -80.20544
  60  27.52558
  61  -94.15893
  62  114.8638
  63  376.5167
  64  119.4722
  65  327.9315
  66  711.928
  67  834.813
  68  147.3361
  69  -58.95506
  70  372.3144
  71  716.681
  72  592.267
  73  314.3995
  74  34.13777
  75  268.5188
  76  471.095
  77  354.1303
  78  246.2736
  79  66.22193
  80  362.3716
  81  388.2458
  82  301.9021
  83  414.0963
  84  554.0891
  85  414.8236
  86  236.3777
  87  185.4284
  88  547.8507
  89  547.6733
  90  488.758
  91  491.4609
  92  363.7245
  93  569.209
  94  628.7379
  95  526.4363
  96  164.5662
  97  450.6282
  98  519.6566
  99  630.3538
 100  247.0836
 101  230.7288
 102  625.8881
 103  369.3418
 104  70.0129
 105  -223.4224
 106  24.78561
 107  333.5101
 108  277.3109
 109  166.5373
 110  409.6099
 111  537.5039
 112  316.1548
 113  232.9941
 114  622.0838
 115  239.045
 116  -231.3473
 117  286.1502
 118  301.64
 119  189.5401
 120  305.3274
 121  334.9951
 122  184.5047
 123  485.5879
 124  478.602
 125  50.41587
 126  54.24936
 127  249.2757
 128  272.6754
 129  171.3635
 130  478.1213
 131  452.9546
 132  259.8121
 133  409.0786
 134  345.9225
 135  507.0998
 136  455.635
 137  93.01212
 138  437.2899
 139  363.7649
 140  83.16749
 141  15.21935
 142  233.3028
 143  245.6983
 144  591.6789
 145  295.8503
 146  265.6773
 147  167.5455
 148  24.472
 149  433.5655
 150  545.5797
 151  582.4447
 152  410.3811
 153  71.62544
 154  129.0298
 155  228.3281
 156  111.6654
 157  -345.73
 158  -261.7539
 159  19.24792
 160  216.5407
 161  77.14831
 162  493.2066
 163  513.8452
 164  309.1425
 165  110.155
 166  -152.0512
 167  378.9193
 168  109.3453
 169  284.315
 170  134.4704
 171  218.3938
 172  334.1344
 173  -214.61
 174  -292.3243
 175  -85.12756
 176  355.8995
 177  871.09
 178  174.5741
 179  175.4843
 180  212.2128
 181  298.4988
 182  152.5569
 183  339.1657
 184  335.3229
 185  527.3398
 186  446.9154
 187  344.1755
 188  340.9244
 189  477.2617
 190  593.9232
 191  240.0083
 192  462.8929
 193  445.1886
 194  605.9281
 195  410.3423
 196  105.473
 197  172.9497
 198  160.1664
 199  185.7232
 200  485.0681
 201  622.5278
 202  810.1414
 203  789.9352
 204  170.6431
 205  402.6979
 206  538.7043
 207  529.2957
 208  419.3335
 209  273.8531
 210  593.1423
 211  620.2639
 212  202.4858
 213  501.2511
 214  920.1895
 215  810.5803
 216  121.601
 217  230.0029
 218  328.8124
 219  295.9776
 220  320.5839
 221  444.6957
 222  768.7687
 223  768.8235
 224  696.7558
 225  855.1035
 226  923.8306
 227  886.473
 228  411.2856
 229  232.5551
 230  571.2147
 231  130.6198
 232  398.1451
 233  277.5093
 234  343.5435
 235  676.1179
 236  359.6088
 237  274.2032
 238  329.7088
 239  -85.75932
 240  -89.04372
 241  353.1271
 242  771.6758
 243  874.8795
 244  486.9812
 245  735.9848
 246  558.7599
 247  396.7353
 248  362.5334
 249  327.15
 250  758.048
 251  819.1848
 252  463.136
 253  65.87997
 254  -249.5965
 255  160.5539
 256  173.6432
 257  43.86573
 258  467.975
 259  544.7139
 260  650.7661
 261  796.2993
 262  212.0113
 263  65.92835
 264  761.6711
 265  420.51
 266  855.6225
 267  279.2627
 268  212.7218
 269  287.7671
 270  557.6486
 271  1153.147
 272  775.6718
 273  243.9255
 274  346.5606
 275  657.4751
 276  569.559
 277  544.6393
 278  505.813
 279  444.1725
 280  303.9529
 281  653.7645
 282  605.8589
 283  529.459
 284  -84.0573
 285  140.9575
 286  441.6451
 287  669.1441
 288  265.1413
 289  229.3863
 290  681.564
 291  388.7054
 292  377.3873
 293  764.5832
 294  512.1807
 295  489.9987
 296  128.9885
 297  571.0287
 298  915.3279
 299  273.8318
 300  363.4027
 301  238.8432
 302  160.0096
 303  306.7852
 304  839.3766
 305  860.0316
 306  653.3979
 307  486.703
 308  776.953
 309  692.0083
 310  459.7765
 311  265.1173
 312  329.6811
 313  352.4853
 314  224.3583
 315  503.6501
 316  592.1003
 317  237.6242
 318  662.5355
 319  947.0197
 320  1336.099
 321  1792.721
 322  1964.086
 323  2083.152
 324  1989.956
 325  1626.052
 326  1150.453
 327  434.1212
 328  -265.1654
 329  -12.98522
 330  265.1081
 331  259.4171
 332  -72.07614
 333  186.2494
 334  548.4721
 335  220.9175
 336  534.1849
 337  880.7518
 338  1042.526
 339  666.3181
 340  323.8045
 341  497.2259
 342  426.5721
 343  340.4118
 344  207.5857
 345  67.12766
 346  454.3699
 347  765.076
 348  648.1639
 349  606.785
 350  606.8867
 351  219.739
 352  503.7935
 353  540.3073
 354  477.8953
 355  555.3661
 356  483.6002
 357  -61.15022
 358  237.2754
 359  212.8577
 360  308.373
 361  395.0261
 362  361.311
 363  386.85
 364  50.1658
 365  260.3978
 366  424.9482
 367  10.38275
 368  170.5075
 369  834.0878
 370  872.192
 371  590.6269
 372  563.2888
 373  103.2549
 374  110.4737
 375  418.9657
 376  241.914
 377  441.7178
 378  403.999
 379  861.5107
 380  342.3222
 381  73.39935
 382  536.405
 383  696.7208
 384  406.58
 385  -10.09229
 386  -117.4914
 387  171.7881
 388  209.979
 389  368.5799
 390  392.4781
 391  62.29656
 392  -13.57589
 393  474.218
 394  740.9572
 395  897.5562
 396  382.2089
 397  247.78
 398  51.71866
 399  81.80654
 400  651.5908
 401  328.2092
 402  -46.61381
 403  467.2944
 404  617.7192
 405  205.0874
 406  430.505
 407  552.9064
 408  315.8927
 409  356.3365
 410  611.3344
 411  512.2345
 412  396.7623
 413  464.9052
 414  524.554
 415  102.4079
 416  -77.36113
 417  224.5638
 418  377.8312
 419  481.932
 420  -184.9865
 421  5.858572
 422  96.93175
 423  434.961
 424  665.0121
 425  380.7616
 426  205.9938
 427  230.9168
 428  67.80711
 429  49.08052
 430  31.04992
 431  351.727
 432  572.9302
 433  270.2909
 434  -84.73682
 435  171.1069
 436  710.4713
 437  1265.151
 438  755.7374
 439  361.4766
 440  388.1959
 441  168.6812
 442  82.56701
 443  -67.60674
 444  319.5944
 445  484.5869
 446  275.4685
 447  318.4622
 448  592.5511
 449  535.3734
 450  569.9009
 451  319.5862
 452  582.2276
 453  626.5725
 454  407.9244
 455  379.7827
 456  476.2867
 457  220.9805
 458  65.22086
 459  169.9522
 460  -131.2267
 461  392.0149
 462  608.6542
 463  941.4869
 464  796.3951
 465  923.5381
 466  468.3542
 467  89.08873
 468  196.0132
 469  263.696
 470  637.8168
 471  767.0483
 472  -46.31343
 473  5.72208
 474  1.249482
 475  -125.9092
 476  371.3491
 477  156.6254
 478  328.5775
 479  348.0193
 480  305.9611
 481  108.8024
 482  102.7786
 483  -90.89466
 484  306.8696
 485  78.16811
 486  67.19338
 487  303.6871
 488  -10.43285
 489  370.343
 490  547.7488
 491  756.8461
 492  495.6261
 493  358.8745
 494  660.3624
 495  753.8097
 496  630.6154
 497  613.0649
 498  798.9193
 499  570.3466
 500  245.9864
 501  176.1802
 502  418.7454
 503  792.7772
 504  465.0683
 505  339.5289
 506  672.016
 507  658.197
 508  533.2041
 509  535.3165
 510  589.9669
 511  376.4726
