# Input file       =  1187057703.117304_cleaned.dat
# Candidate        =  PSR_0332+5434
# Telescope        =  AR
# Epoch_topo       =  57983.094005987317
# Epoch_bary       =  N/A
# T_sample         =  0.002
# Data Folded      =  7340032
# Data Avg         =  0.0108400030691017
# Data StdDev      =  1.0001280049338  
# Profile Bins     =  512
# Profile Avg      =  155.3753283632   
# Profile StdDev   =  119.748362796161 
# Reduced chi-sqr  =  1.526
# Prob(Noise)      <  1.63e-13   (~7.3 sigma)
# P_topo (ms)      =  714.464242036763  +/- 0.000246
# P'_topo (s/s)    =  -0                +/- 1.3e-10
# P''_topo (s/s^2) =  0                 +/- 5.72e-14
# P_bary (ms)      =  N/A
# P'_bary (s/s)    =  N/A
# P''_bary (s/s^2) =  N/A
# P_orb (s)        =  N/A
# asin(i)/c (s)    =  N/A
# eccentricity     =  N/A
# w (rad)          =  N/A
# T_peri           =  N/A
######################################################
   0  178.1262
   1  159.3233
   2  175.2991
   3  67.55124
   4  165.7206
   5  160.8333
   6  136.0961
   7  139.9015
   8  -35.06213
   9  -6.548349
  10  274.64
  11  152.7893
  12  155.3491
  13  164.7865
  14  88.43285
  15  112.3969
  16  180.9139
  17  208.7934
  18  155.0044
  19  129.0258
  20  45.98872
  21  94.95878
  22  144.665
  23  212.73
  24  126.5173
  25  106.97
  26  64.81504
  27  55.75717
  28  75.79317
  29  152.4618
  30  49.66167
  31  133.2
  32  286.3675
  33  176.9673
  34  61.78927
  35  80.55721
  36  24.74848
  37  155.8117
  38  161.7592
  39  114.065
  40  73.71748
  41  109.9755
  42  201.385
  43  180.3022
  44  199.4796
  45  203.4342
  46  194.2566
  47  360.4799
  48  201.1949
  49  187.5936
  50  151.5684
  51  170.2007
  52  177.112
  53  160.7535
  54  207.9655
  55  69.41014
  56  79.51623
  57  110.0167
  58  34.56072
  59  68.53551
  60  -39.96781
  61  143.4267
  62  283.889
  63  198.0128
  64  164.601
  65  202.5325
  66  200.4314
  67  242.4127
  68  232.0594
  69  168.9304
  70  198.5619
  71  343.2225
  72  257.3245
  73  223.3775
  74  127.7492
  75  64.42676
  76  15.34902
  77  100.8305
  78  253.6926
  79  283.4917
  80  145.607
  81  46.92983
  82  97.4397
  83  141.3409
  84  130.3108
  85  196.8349
  86  95.12605
  87  107.7958
  88  103.0902
  89  157.807
  90  253.5528
  91  110.4171
  92  67.27105
  93  2.643311
  94  173.1739
  95  252.3491
  96  294.5716
  97  243.995
  98  112.3199
  99  6.043287
 100  25.73084
 101  -42.74619
 102  46.71513
 103  148.6506
 104  231.477
 105  177.1847
 106  109.0841
 107  113.484
 108  231.9022
 109  315.2692
 110  150.9584
 111  193.0094
 112  204.2854
 113  175.3875
 114  202.1361
 115  227.6448
 116  198.7776
 117  263.2426
 118  396.2474
 119  477.0252
 120  639.4525
 121  843.1127
 122  907.282
 123  720.9266
 124  536.7687
 125  344.1087
 126  209.5418
 127  226.4164
 128  263.262
 129  337.0108
 130  319.0929
 131  126.9503
 132  94.37251
 133  149.4594
 134  318.2571
 135  257.2335
 136  232.5589
 137  305.09
 138  376.8934
 139  331.7393
 140  272.0615
 141  189.4272
 142  248.1898
 143  245.0823
 144  217.0335
 145  205.6277
 146  260.4962
 147  163.684
 148  126.8771
 149  342.3359
 150  357.9534
 151  249.9579
 152  179.1266
 153  331.1397
 154  293.5294
 155  182.2796
 156  135.0109
 157  251.9674
 158  87.0563
 159  62.28167
 160  85.51702
 161  95.35932
 162  76.47069
 163  269.0762
 164  274.0342
 165  11.51473
 166  30.0033
 167  124.7981
 168  115.5131
 169  99.60471
 170  -1.458994
 171  149.5715
 172  68.37107
 173  61.71842
 174  103.5328
 175  133.24
 176  67.66544
 177  69.67604
 178  187.1079
 179  240.1037
 180  168.9618
 181  261.2014
 182  189.2844
 183  -99.69964
 184  141.6688
 185  341.7969
 186  224.6456
 187  189.5901
 188  245.6534
 189  256.0567
 190  151.814
 191  223.6452
 192  104.3966
 193  117.842
 194  73.71025
 195  99.64495
 196  25.66697
 197  -20.19954
 198  -10.20506
 199  138.048
 200  115.7098
 201  15.74983
 202  243.58
 203  327.9735
 204  213.1096
 205  81.72927
 206  128.8892
 207  229.0748
 208  186.7623
 209  226.0667
 210  97.27287
 211  94.69523
 212  52.31596
 213  140.8145
 214  168.7607
 215  282.1694
 216  270.2614
 217  146.4394
 218  147.2401
 219  137.5785
 220  68.16896
 221  178.1594
 222  -3.857944
 223  81.50022
 224  149.3218
 225  222.3615
 226  136.9545
 227  122.5115
 228  132.8139
 229  159.8787
 230  253.5718
 231  231.4406
 232  120.407
 233  81.07961
 234  114.2975
 235  29.89942
 236  49.81151
 237  61.92128
 238  105.9094
 239  246.165
 240  111.5315
 241  -59.52888
 242  -30.98557
 243  57.30639
 244  141.3477
 245  267.0048
 246  270.8534
 247  177.2019
 248  229.0869
 249  374.3424
 250  241.5096
 251  182.7631
 252  174.1047
 253  229.2834
 254  177.0378
 255  97.03665
 256  48.97307
 257  11.10488
 258  51.25808
 259  131.0219
 260  201.0835
 261  91.45014
 262  126.9862
 263  109.9992
 264  53.4925
 265  54.40722
 266  43.33736
 267  133.865
 268  43.05145
 269  50.01404
 270  170.7282
 271  216.4883
 272  81.81566
 273  135.4282
 274  221.0114
 275  229.9536
 276  56.14305
 277  29.14201
 278  157.074
 279  112.7454
 280  126.2502
 281  167.4449
 282  124.5471
 283  24.41255
 284  20.60494
 285  105.1791
 286  22.50101
 287  -57.76414
 288  87.34315
 289  119.9424
 290  66.61974
 291  61.79062
 292  138.1157
 293  104.3773
 294  8.631013
 295  135.3108
 296  137.3127
 297  128.1906
 298  14.53151
 299  103.2513
 300  145.4196
 301  132.9015
 302  226.095
 303  302.9387
 304  138.154
 305  58.42778
 306  60.45327
 307  160.1847
 308  179.3797
 309  27.86987
 310  36.29686
 311  87.83914
 312  125.3276
 313  122.1232
 314  0.9222738
 315  -1.624009
 316  157.1827
 317  118.5778
 318  85.88497
 319  64.481
 320  130.7082
 321  13.10638
 322  -58.62093
 323  35.4863
 324  67.30491
 325  121.7283
 326  182.9065
 327  192.8427
 328  102.6315
 329  151.3921
 330  162.0085
 331  128.1952
 332  46.83987
 333  20.87992
 334  205.601
 335  160.0041
 336  121.0461
 337  261.7664
 338  319.9488
 339  302.1995
 340  277.7602
 341  206.1406
 342  235.6969
 343  319.7401
 344  252.7019
 345  169.174
 346  15.00295
 347  61.22027
 348  65.01184
 349  73.13403
 350  182.066
 351  165.9329
 352  95.29294
 353  277.102
 354  157.8122
 355  258.797
 356  158.9844
 357  10.08378
 358  96.89891
 359  223.4075
 360  235.734
 361  149.4899
 362  135.7672
 363  181.0138
 364  241.4776
 365  266.7918
 366  173.4647
 367  108.4117
 368  196.3101
 369  300.9241
 370  157.9253
 371  -16.53295
 372  151.677
 373  198.9761
 374  157.4652
 375  38.08376
 376  76.60754
 377  -9.460117
 378  15.9543
 379  -25.89164
 380  -85.28949
 381  53.34002
 382  196.064
 383  319.6531
 384  123.3106
 385  128.7592
 386  203.6544
 387  50.8185
 388  30.39939
 389  301.1647
 390  189.0127
 391  187.2761
 392  93.93312
 393  124.1113
 394  181.1515
 395  133.9448
 396  164.9698
 397  158.0916
 398  139.1616
 399  105.0808
 400  52.96375
 401  -17.36589
 402  112.7701
 403  191.3547
 404  187.0694
 405  40.42453
 406  -79.4047
 407  239.6438
 408  159.2332
 409  44.40734
 410  72.41412
 411  170.1539
 412  89.39843
 413  49.21209
 414  126.3743
 415  128.1175
 416  133.2139
 417  106.0429
 418  222.7033
 419  124.6109
 420  136.7945
 421  306.355
 422  174.0793
 423  119.1715
 424  138.6226
 425  253.1369
 426  210.9642
 427  165.89
 428  85.26413
 429  98.59448
 430  160.4396
 431  76.39169
 432  105.8118
 433  165.6236
 434  136.7007
 435  191.4353
 436  247.8719
 437  53.13625
 438  30.18962
 439  87.0965
 440  204.5955
 441  187.7903
 442  168.3604
 443  158.0685
 444  196.863
 445  174.3776
 446  176.671
 447  217.9373
 448  101.4527
 449  49.19557
 450  51.11821
 451  177.8216
 452  160.8625
 453  155.0991
 454  160.7866
 455  196.4545
 456  173.9314
 457  90.19901
 458  270.7769
 459  249.4532
 460  128.9428
 461  132.1111
 462  228.3661
 463  270.9536
 464  189.0857
 465  49.3405
 466  2.861276
 467  141.0181
 468  28.20555
 469  101.8391
 470  30.1779
 471  118.1272
 472  196.4979
 473  108.2557
 474  118.4478
 475  321.7709
 476  303.7396
 477  129.5397
 478  254.845
 479  193.7252
 480  164.8985
 481  143.6561
 482  180.408
 483  71.02824
 484  120.7372
 485  86.91411
 486  91.52995
 487  82.82223
 488  33.76101
 489  26.58434
 490  233.0714
 491  256.6041
 492  252.4734
 493  299.268
 494  186.5631
 495  111.3677
 496  89.03566
 497  206.9961
 498  154.9947
 499  329.8409
 500  228.6961
 501  122.6006
 502  266.0771
 503  366.3106
 504  349.6971
 505  358.1926
 506  287.5695
 507  283.8577
 508  227.1739
 509  235.2253
 510  132.8629
 511  181.1928
