# Input file       =  1187761893.121302_cleaned.dat
# Candidate        =  PSR_0332+5434
# Telescope        =  AR
# Epoch_topo       =  57991.244353255810
# Epoch_bary       =  N/A
# T_sample         =  0.002
# Data Folded      =  7340032
# Data Avg         =  0.0120237123560538
# Data StdDev      =  1.00002772176841 
# Profile Bins     =  512
# Profile Avg      =  172.421053485464 
# Profile StdDev   =  119.736355588271 
# Reduced chi-sqr  =  1.406
# Prob(Noise)      <  3.51e-09   (~5.8 sigma)
# P_topo (ms)      =  714.463711963049  +/- 0.000234
# P'_topo (s/s)    =  -0                +/- 1.23e-10
# P''_topo (s/s^2) =  0                 +/- 5.44e-14
# P_bary (ms)      =  N/A
# P'_bary (s/s)    =  N/A
# P''_bary (s/s^2) =  N/A
# P_orb (s)        =  N/A
# asin(i)/c (s)    =  N/A
# eccentricity     =  N/A
# w (rad)          =  N/A
# T_peri           =  N/A
######################################################
   0  624.493
   1  542.3092
   2  363.7279
   3  218.93
   4  154.3371
   5  134.6801
   6  49.57264
   7  106.6337
   8  209.0313
   9  -57.52019
  10  41.08488
  11  124.6995
  12  122.4217
  13  65.92488
  14  225.0477
  15  271.6468
  16  154.7994
  17  136.6843
  18  125.673
  19  122.6236
  20  161.9203
  21  180.4145
  22  240.4538
  23  99.50597
  24  -1.946144
  25  154.1952
  26  157.7671
  27  275.0573
  28  170.6367
  29  243.5288
  30  288.672
  31  223.7343
  32  48.62052
  33  35.64778
  34  170.9299
  35  194.5777
  36  158.5538
  37  270.986
  38  326.4614
  39  287.7746
  40  119.4979
  41  165.0202
  42  190.3827
  43  184.0928
  44  148.4594
  45  224.1668
  46  244.973
  47  243.1625
  48  140.0852
  49  205.8005
  50  414.009
  51  381.6108
  52  228.4346
  53  185.7214
  54  259.1486
  55  240.3003
  56  214.0435
  57  47.79842
  58  4.761419
  59  96.88656
  60  178.5966
  61  307.5419
  62  221.773
  63  186.4061
  64  144.908
  65  114.3495
  66  44.2467
  67  85.96551
  68  92.05986
  69  125.4156
  70  206.481
  71  50.66409
  72  -41.78076
  73  58.25301
  74  151.2859
  75  119.6616
  76  18.54767
  77  232.8355
  78  160.5261
  79  241.82
  80  248.9281
  81  290.5259
  82  224.2339
  83  301.179
  84  104.53
  85  66.83495
  86  227.0594
  87  217.177
  88  148.8782
  89  242.2816
  90  219.8289
  91  77.0711
  92  160.962
  93  30.19767
  94  42.44115
  95  74.95731
  96  234.6934
  97  125.8331
  98  57.61351
  99  109.9923
 100  26.23937
 101  76.61753
 102  20.78386
 103  123.1711
 104  66.83747
 105  50.68626
 106  91.51157
 107  116.4074
 108  157.7379
 109  246.5709
 110  177.005
 111  115.0576
 112  98.62774
 113  138.3745
 114  121.1715
 115  142.9931
 116  203.7967
 117  231.3384
 118  100.8176
 119  -35.44799
 120  102.5494
 121  258.7011
 122  315.1152
 123  249.724
 124  220.8245
 125  261.1327
 126  151.9282
 127  252.9323
 128  246.3992
 129  46.3844
 130  177.6477
 131  338.6249
 132  165.2044
 133  208.599
 134  313.4155
 135  259.703
 136  159.0517
 137  194.3043
 138  131.838
 139  121.3094
 140  272.8253
 141  257.5724
 142  256.8612
 143  244.4579
 144  197.847
 145  96.74821
 146  99.1262
 147  165.7546
 148  78.6545
 149  114.6774
 150  162.5331
 151  -13.4935
 152  -16.39854
 153  129.1376
 154  68.14445
 155  75.09567
 156  171.2857
 157  242.8636
 158  102.3762
 159  -51.81847
 160  81.04095
 161  145.0392
 162  181.0559
 163  127.159
 164  154.0798
 165  159.8077
 166  -12.85049
 167  96.79345
 168  92.81786
 169  66.02628
 170  102.3848
 171  159.0809
 172  256.1245
 173  167.0943
 174  104.5371
 175  121.5567
 176  177.6058
 177  177.3286
 178  257.8044
 179  111.9938
 180  98.47916
 181  127.2871
 182  169.7964
 183  126.7866
 184  118.0812
 185  258.7634
 186  333.6489
 187  198.4534
 188  120.3458
 189  135.8677
 190  122.196
 191  182.6803
 192  210.5055
 193  309.9815
 194  216.0338
 195  165.1806
 196  36.1268
 197  183.1133
 198  161.0661
 199  241.2619
 200  107.7883
 201  268.6141
 202  331.1445
 203  317.6803
 204  367.4874
 205  301.4359
 206  245.3053
 207  243.39
 208  228.3624
 209  302.0493
 210  358.7988
 211  255.4726
 212  143.909
 213  91.53504
 214  206.1929
 215  163.9683
 216  83.14249
 217  13.31275
 218  54.83505
 219  114.4803
 220  74.56099
 221  134.6748
 222  270.6069
 223  168.7376
 224  49.0973
 225  138.7244
 226  135.7853
 227  164.8849
 228  250.6944
 229  211.1534
 230  129.9073
 231  162.2333
 232  187.7391
 233  82.50157
 234  94.78394
 235  275.3329
 236  237.7952
 237  233.1077
 238  259.224
 239  270.8317
 240  144.4076
 241  111.3629
 242  70.89158
 243  214.4329
 244  203.7146
 245  118.7634
 246  217.0241
 247  173.9938
 248  249.4445
 249  205.9293
 250  149.2204
 251  56.3749
 252  116.4652
 253  141.5886
 254  173.2313
 255  397.0811
 256  411.7522
 257  331.2434
 258  249.1799
 259  270.072
 260  314.304
 261  305.3732
 262  263.7893
 263  380.1662
 264  325.5816
 265  178.9026
 266  206.2754
 267  243.6412
 268  280.5959
 269  270.3318
 270  207.3404
 271  160.7174
 272  191.3371
 273  190.2984
 274  200.7336
 275  202.8204
 276  251.1045
 277  210.2576
 278  322.2996
 279  174.127
 280  120.261
 281  93.21281
 282  315.9607
 283  268.745
 284  53.23339
 285  114.1791
 286  346.019
 287  162.6316
 288  283.719
 289  359.241
 290  197.9251
 291  83.87725
 292  148.3802
 293  269.0968
 294  246.3481
 295  94.14072
 296  152.4038
 297  206.9996
 298  144.679
 299  210.7683
 300  106.3099
 301  126.4902
 302  127.2411
 303  171.7223
 304  199.7659
 305  172.0572
 306  124.8639
 307  85.07588
 308  105.3578
 309  202.2769
 310  137.7502
 311  124.5367
 312  62.27242
 313  137.4857
 314  104.7561
 315  99.61073
 316  21.81551
 317  98.72231
 318  -5.646239
 319  93.32786
 320  159.693
 321  123.8544
 322  176.7652
 323  116.0802
 324  104.4057
 325  135.1859
 326  333.7861
 327  68.09499
 328  66.43356
 329  109.969
 330  203.6441
 331  291.807
 332  156.9944
 333  261.4667
 334  303.3391
 335  228.895
 336  273.2072
 337  243.0467
 338  286.3148
 339  172.9134
 340  21.7926
 341  106.5177
 342  309.0663
 343  305.2242
 344  264.5116
 345  219.7093
 346  235.0656
 347  308.1407
 348  172.2527
 349  219.1219
 350  380.8754
 351  294.0429
 352  279.944
 353  151.192
 354  105.2013
 355  231.8235
 356  347.1629
 357  263.1368
 358  262.6136
 359  79.88358
 360  172.8552
 361  70.11945
 362  37.73418
 363  114.7551
 364  168.5579
 365  193.7452
 366  177.8797
 367  117.0463
 368  117.3237
 369  153.9436
 370  43.77544
 371  103.9496
 372  77.26426
 373  61.49881
 374  207.271
 375  223.6731
 376  90.73485
 377  42.32622
 378  110.2299
 379  -36.98492
 380  -66.29916
 381  161.7234
 382  240.6175
 383  174.5278
 384  167.2464
 385  114.7564
 386  152.7149
 387  21.53462
 388  -46.83926
 389  -14.711
 390  65.50187
 391  80.48282
 392  62.96857
 393  169.0126
 394  216.0812
 395  129.9716
 396  184.1687
 397  315.1994
 398  156.2986
 399  41.55468
 400  14.93989
 401  93.81345
 402  129.2416
 403  216.1705
 404  229.692
 405  215.796
 406  255.8427
 407  387.7497
 408  340.8506
 409  74.94946
 410  2.117113
 411  -0.2694423
 412  35.99471
 413  65.7646
 414  217.1144
 415  222.9965
 416  217.1326
 417  100.6871
 418  93.43002
 419  235.9099
 420  204.5377
 421  214.6292
 422  199.1961
 423  74.74225
 424  107.3318
 425  185.5285
 426  175.194
 427  166.1655
 428  232.1537
 429  147.5746
 430  156.7147
 431  263.5725
 432  244.6965
 433  88.21243
 434  88.65862
 435  121.1329
 436  129.6172
 437  206.0616
 438  40.24418
 439  15.28548
 440  149.4044
 441  113.3909
 442  147.0066
 443  165.5198
 444  199.5513
 445  182.3731
 446  176.8531
 447  168.1846
 448  54.24123
 449  -16.44132
 450  232.9363
 451  256.8214
 452  154.7238
 453  96.66089
 454  111.0421
 455  194.7259
 456  120.4209
 457  46.34696
 458  129.4271
 459  5.420164
 460  4.399459
 461  91.78049
 462  97.22668
 463  64.79279
 464  147.1205
 465  104.2096
 466  201.5144
 467  84.04686
 468  -1.364745
 469  118.7606
 470  62.46605
 471  56.15206
 472  47.82197
 473  26.70594
 474  132.8188
 475  224.5979
 476  362.2642
 477  327.7219
 478  175.3098
 479  277.4066
 480  135.1491
 481  213.059
 482  305.5164
 483  92.97579
 484  44.64888
 485  141.7006
 486  18.48715
 487  124.0955
 488  165.3604
 489  243.326
 490  330.518
 491  340.4965
 492  332.8311
 493  275.5048
 494  244.2829
 495  205.7147
 496  163.0717
 497  236.4589
 498  400.6307
 499  343.3752
 500  251.9854
 501  134.1553
 502  49.65026
 503  278.5717
 504  319.5807
 505  310.6527
 506  271.4921
 507  195.781
 508  303.4261
 509  468.9938
 510  639.0432
 511  851.5626
