# Input file       =  1187559996.112759_cleaned.dat
# Candidate        =  PSR_0332+5434
# Telescope        =  AR
# Epoch_topo       =  57988.907582323598
# Epoch_bary       =  N/A
# T_sample         =  0.002
# Data Folded      =  7208960
# Data Avg         =  0.0608886222757231
# Data StdDev      =  3.23165269487907 
# Profile Bins     =  256
# Profile Avg      =  1714.64323574384 
# Profile StdDev   =  542.301750496333 
# Reduced chi-sqr  =  0.912
# Prob(Noise)      <  0.841   (~0.0 sigma)
# P_topo (ms)      =  714.463494369183  +/- 0.000221
# P'_topo (s/s)    =  -0                +/- 1.19e-10
# P''_topo (s/s^2) =  0                 +/- 5.33e-14
# P_bary (ms)      =  N/A
# P'_bary (s/s)    =  N/A
# P''_bary (s/s^2) =  N/A
# P_orb (s)        =  N/A
# asin(i)/c (s)    =  N/A
# eccentricity     =  N/A
# w (rad)          =  N/A
# T_peri           =  N/A
######################################################
   0  1666.397
   1  1994.689
   2  1776.402
   3  2421.321
   4  1931.627
   5  2418.251
   6  1810.089
   7  1980.626
   8  1912.674
   9  2200.451
  10  1504.337
  11  1997.172
  12  2500.025
  13  2244.73
  14  2196.795
  15  1673.738
  16  1824.957
  17  2180.013
  18  1897.494
  19  1960.384
  20  1810.134
  21  1567.041
  22  1488.003
  23  1427.172
  24  1675.103
  25  979.0607
  26  1608.168
  27  1632.575
  28  1545.362
  29  2248.123
  30  1692.075
  31  1821.786
  32  1710.087
  33  1800.555
  34  1845.748
  35  1017.663
  36  1262.425
  37  1752.636
  38  1716.535
  39  1011.451
  40  1137.589
  41  2211.816
  42  2090.438
  43  1884.985
  44  1491.626
  45  1646.854
  46  1566.852
  47  1032.44
  48  1715.588
  49  1833.952
  50  2311.755
  51  1903.873
  52  1696.264
  53  1773.989
  54  1450.139
  55  1004.588
  56  1426.823
  57  1554.638
  58  1863.215
  59  1080.639
  60  1025.507
  61  1934.371
  62  1966.64
  63  1718.125
  64  1884.638
  65  1881.693
  66  1302.519
  67  1822.221
  68  1666.003
  69  1719.564
  70  1674.425
  71  1605.972
  72  1278.055
  73  1401.964
  74  2186.558
  75  1805.377
  76  1551.285
  77  1238.428
  78  1417.407
  79  1828.636
  80  1748.833
  81  1477.249
  82  1920.468
  83  1525.014
  84  1894.629
  85  1798.184
  86  1407.981
  87  2210.657
  88  1311.921
  89  1414.85
  90  1499.737
  91  1999.84
  92  1860.567
  93  1198.011
  94  1406.405
  95  1682.958
  96  1280.817
  97  1266.79
  98  1849.172
  99  1767.72
 100  1658.059
 101  1401.531
 102  1821.456
 103  2547.209
 104  2095.375
 105  1610.85
 106  1319.03
 107  1263.764
 108  1980.02
 109  2114.118
 110  1744.174
 111  1757.934
 112  1308.597
 113  2139.787
 114  1977.098
 115  1763.087
 116  1719.409
 117  1279.725
 118  1058.232
 119  2027.91
 120  1811.829
 121  1133.078
 122  1116.7
 123  1183.545
 124  1357.255
 125  1495.217
 126  1602.285
 127  1686.765
 128  1677.806
 129  2063.399
 130  1339.632
 131  1704.4
 132  2099.006
 133  1934.109
 134  1493.643
 135  1059.326
 136  1418.627
 137  1533.137
 138  1228.293
 139  1391.091
 140  750.9023
 141  1569.427
 142  1518.74
 143  1879.615
 144  1775.539
 145  2261.83
 146  1879.068
 147  1866.323
 148  1086.634
 149  1848.884
 150  2183.325
 151  1368.739
 152  1882.181
 153  2270.004
 154  1809.326
 155  1799.462
 156  2253.361
 157  2157.292
 158  1847.113
 159  2692.32
 160  3826.106
 161  4654.438
 162  4300.549
 163  2231.383
 164  2228.872
 165  1511.867
 166  1404.641
 167  1701.974
 168  2098.212
 169  1829.284
 170  1757.74
 171  1767.875
 172  1382.006
 173  1463.369
 174  1507.984
 175  1347.475
 176  2010.609
 177  1331.433
 178  1809.158
 179  1945.132
 180  1216.158
 181  1647.893
 182  2017.184
 183  1665.835
 184  2074.475
 185  1901.422
 186  1695.82
 187  911.1325
 188  1125.38
 189  1314.944
 190  1740.539
 191  1593.285
 192  1788.423
 193  1791.734
 194  1780.534
 195  1727.548
 196  1522.665
 197  1587.495
 198  1456.025
 199  2487.211
 200  2420.075
 201  2368.979
 202  1919.427
 203  1723.547
 204  1581.632
 205  1211.499
 206  1472.446
 207  1604.042
 208  1397.798
 209  1879.483
 210  2091.312
 211  2627.957
 212  1735.198
 213  1424.763
 214  2054.976
 215  1586.6
 216  1996.854
 217  1692.154
 218  1893.565
 219  1572.134
 220  1623.754
 221  1530.713
 222  1613.853
 223  1586.194
 224  1266.366
 225  1653.987
 226  1956.509
 227  1999.421
 228  1615.662
 229  2043.168
 230  2067.161
 231  2281.817
 232  1658.795
 233  1602.652
 234  1857.015
 235  1493.435
 236  1667.589
 237  1840.109
 238  1693.046
 239  1469.091
 240  1411.083
 241  1491.399
 242  1360.239
 243  1239.502
 244  1281.94
 245  1184.359
 246  1334.268
 247  1305.164
 248  1471.301
 249  922.8113
 250  973.0994
 251  2047.074
 252  1445.048
 253  1295.149
 254  1117.588
 255  1708.339
