# Input file       =  1187244965.110599_cleaned.dat
# Candidate        =  PSR_0332+5434
# Telescope        =  AR
# Epoch_topo       =  57985.261390168969
# Epoch_bary       =  N/A
# T_sample         =  0.002
# Data Folded      =  7340032
# Data Avg         =  0.0308916507742001
# Data StdDev      =  2.50484127456814 
# Profile Bins     =  512
# Profile Avg      =  442.832808198334 
# Profile StdDev   =  299.912251445892 
# Reduced chi-sqr  =  1.312
# Prob(Noise)      <  2.49e-06   (~4.6 sigma)
# P_topo (ms)      =  714.464233458237  +/- 0.000296
# P'_topo (s/s)    =  -0                +/- 1.56e-10
# P''_topo (s/s^2) =  0                 +/- 6.9e-14
# P_bary (ms)      =  N/A
# P'_bary (s/s)    =  N/A
# P''_bary (s/s^2) =  N/A
# P_orb (s)        =  N/A
# asin(i)/c (s)    =  N/A
# eccentricity     =  N/A
# w (rad)          =  N/A
# T_peri           =  N/A
######################################################
   0  1824.947
   1  1456.071
   2  925.6652
   3  506.4685
   4  335.9165
   5  605.8022
   6  422.3169
   7  430.1971
   8  507.6914
   9  375.4024
  10  358.1962
  11  212.1224
  12  538.3622
  13  691.5781
  14  625.1608
  15  238.9019
  16  296.7435
  17  403.0504
  18  506.5771
  19  256.1782
  20  152.6951
  21  74.80382
  22  363.8576
  23  701.4263
  24  416.3704
  25  217.6718
  26  433.784
  27  602.6682
  28  747.2077
  29  591.9837
  30  584.9835
  31  274.5014
  32  133.0286
  33  594.4675
  34  656.0194
  35  827.1727
  36  531.6234
  37  516.5204
  38  356.5853
  39  432.7729
  40  442.7407
  41  620.5849
  42  417.2591
  43  520.6409
  44  595.8948
  45  686.972
  46  372.3473
  47  452.9474
  48  596.8652
  49  373.9789
  50  230.6995
  51  563.1879
  52  571.1369
  53  65.11797
  54  87.5043
  55  413.7424
  56  216.881
  57  279.3398
  58  342.7736
  59  646.9983
  60  547.9129
  61  609.4653
  62  352.5912
  63  48.19436
  64  213.1333
  65  254.4153
  66  414.6604
  67  111.2326
  68  -70.29783
  69  315.6046
  70  781.4129
  71  391.1428
  72  139.213
  73  347.318
  74  702.0118
  75  122.4666
  76  197.4586
  77  511.9091
  78  404.5938
  79  692.3796
  80  476.4757
  81  301.7339
  82  322.0586
  83  20.00482
  84  550.0567
  85  301.2223
  86  306.5453
  87  351.5878
  88  608.8049
  89  625.2919
  90  319.2896
  91  551.3008
  92  689.3777
  93  429.6558
  94  198.78
  95  349.1999
  96  634.373
  97  159.5881
  98  182.1521
  99  305.7358
 100  147.6788
 101  -58.11759
 102  478.3212
 103  303.4402
 104  165.8431
 105  127.4642
 106  572.8826
 107  508.5039
 108  374.6767
 109  496.3784
 110  502.8954
 111  477.0455
 112  431.4702
 113  380.4091
 114  527.5085
 115  231.4525
 116  410.2354
 117  584.6625
 118  317.9142
 119  419.153
 120  294.2967
 121  228.9668
 122  145.9021
 123  411.1349
 124  402.7612
 125  253.1707
 126  396.1171
 127  616.6249
 128  536.1403
 129  640.9949
 130  789.337
 131  343.0062
 132  179.3509
 133  354.5799
 134  335.0716
 135  659.6922
 136  730.9044
 137  235.9697
 138  154.9975
 139  149.2812
 140  605.058
 141  760.9301
 142  574.9332
 143  638.6281
 144  559.6885
 145  450.8288
 146  584.4197
 147  249.0944
 148  415.0227
 149  491.1608
 150  543.9959
 151  308.2638
 152  380.5914
 153  545.2778
 154  307.9575
 155  500.8388
 156  461.8742
 157  521.3177
 158  579.2956
 159  480.6148
 160  181.6681
 161  273.2489
 162  417.9856
 163  393.6415
 164  504.2264
 165  546.8853
 166  576.4492
 167  821.0507
 168  231.4704
 169  463.0201
 170  280.2977
 171  371.8709
 172  662.1428
 173  573.3977
 174  680.1791
 175  308.6286
 176  495.9271
 177  779.3288
 178  725.9171
 179  499.865
 180  574.9573
 181  530.6722
 182  205.8994
 183  -234.2515
 184  51.84444
 185  691.8549
 186  681.5601
 187  505.8386
 188  437.4063
 189  644.51
 190  670.1851
 191  763.5169
 192  461.9913
 193  371.8029
 194  663.6332
 195  362.3825
 196  563.4283
 197  346.9952
 198  224.6237
 199  431.4317
 200  296.5475
 201  439.068
 202  600.4567
 203  400.8151
 204  333.7888
 205  345.6748
 206  548.77
 207  451.02
 208  439.3551
 209  526.1148
 210  450.9482
 211  295.1588
 212  341.2246
 213  282.5339
 214  145.2131
 215  472.4217
 216  489.7061
 217  -62.94947
 218  -38.80881
 219  281.9073
 220  528.7669
 221  94.42807
 222  345.87
 223  551.4016
 224  291.6685
 225  362.5421
 226  470.6135
 227  392.414
 228  206.0636
 229  97.60936
 230  578.0307
 231  261.6323
 232  191.9254
 233  245.4171
 234  311.1582
 235  406.0928
 236  230.6136
 237  320.1957
 238  478.0715
 239  533.9345
 240  548.3808
 241  502.6578
 242  433.4105
 243  258.2647
 244  53.24235
 245  133.2119
 246  699.1041
 247  647.9888
 248  608.3829
 249  309.2521
 250  10.56948
 251  -180.3971
 252  85.21021
 253  210.944
 254  517.0065
 255  356.0627
 256  224.6746
 257  463.866
 258  429.598
 259  501.3339
 260  436.5704
 261  377.5484
 262  85.68227
 263  243.4606
 264  423.3065
 265  489.6537
 266  590.1556
 267  622.1796
 268  638.9146
 269  449.5425
 270  476.5994
 271  507.6165
 272  556.474
 273  750.3206
 274  518.5244
 275  585.2745
 276  820.6628
 277  754.3146
 278  362.7251
 279  650.989
 280  676.3649
 281  669.486
 282  482.7736
 283  483.4313
 284  341.2151
 285  561.0845
 286  584.554
 287  534.0109
 288  661.6486
 289  576.0161
 290  343.5793
 291  479.5452
 292  596.2618
 293  554.2933
 294  554.9398
 295  415.7158
 296  320.8401
 297  58.78176
 298  363.1069
 299  462.6886
 300  251.245
 301  207.5857
 302  424.3208
 303  326.9518
 304  436.4772
 305  468.383
 306  610.9033
 307  388.2384
 308  450.8259
 309  627.4607
 310  704.9938
 311  636.1011
 312  589.0886
 313  707.6935
 314  664.2397
 315  726.273
 316  562.7402
 317  669.9266
 318  46.74725
 319  102.1981
 320  527.9144
 321  399.5213
 322  198.3224
 323  381.0426
 324  798.752
 325  1010.311
 326  276.1111
 327  558.1069
 328  978.7211
 329  688.911
 330  639.7753
 331  642.3231
 332  264.2262
 333  301.3015
 334  464.4531
 335  506.2246
 336  362.647
 337  252.3255
 338  623.6661
 339  381.9658
 340  457.6101
 341  558.9333
 342  423.3073
 343  247.1439
 344  414.4883
 345  501.8006
 346  444.6285
 347  741.3061
 348  507.0457
 349  712.7654
 350  837.5657
 351  759.5739
 352  547.6233
 353  254.0146
 354  203.8405
 355  473.0365
 356  499.5784
 357  468.2122
 358  257.3507
 359  390.1657
 360  503.1353
 361  521.1385
 362  588.4343
 363  400.0215
 364  446.6244
 365  486.9959
 366  333.4717
 367  437.4661
 368  282.4193
 369  403.8105
 370  440.9714
 371  348.0183
 372  289.0495
 373  482.7582
 374  454.7516
 375  384.7054
 376  195.8784
 377  208.5279
 378  198.0639
 379  181.1001
 380  229.1635
 381  500.9734
 382  234.6976
 383  498.084
 384  534.0171
 385  446.58
 386  573.4785
 387  374.5205
 388  390.6916
 389  415.3444
 390  701.2365
 391  797.7832
 392  531.9165
 393  361.0518
 394  167.1945
 395  108.5437
 396  479.0428
 397  705.5461
 398  284.1036
 399  -1.679284
 400  313.8883
 401  594.7809
 402  581.6937
 403  318.8969
 404  -30.13986
 405  19.69951
 406  185.2532
 407  302.91
 408  195.0951
 409  673.3107
 410  866.4166
 411  326.5165
 412  332.562
 413  440.209
 414  250.8132
 415  547.7373
 416  799.8574
 417  477.1634
 418  487.5801
 419  629.5842
 420  229.9249
 421  37.51982
 422  242.572
 423  394.1826
 424  475.7522
 425  629.9519
 426  187.7975
 427  435.0807
 428  598.5715
 429  543.7307
 430  136.7639
 431  285.1689
 432  598.8868
 433  240.6181
 434  580.8132
 435  335.0269
 436  162.524
 437  -154.3342
 438  -157.0974
 439  347.7409
 440  699.5299
 441  594.3085
 442  409.0896
 443  311.1034
 444  410.1849
 445  376.0383
 446  352.9514
 447  517.0939
 448  530.7635
 449  566.3898
 450  677.2662
 451  286.3659
 452  459.1716
 453  323.5544
 454  294.7275
 455  -77.14042
 456  489.4796
 457  883.9784
 458  773.4811
 459  508.5242
 460  609.2083
 461  344.0786
 462  248.9035
 463  492.8413
 464  419.4591
 465  439.7213
 466  199.6517
 467  175.3916
 468  455.3416
 469  561.2117
 470  553.4626
 471  381.944
 472  418.4726
 473  415.7095
 474  303.6915
 475  323.1752
 476  278.5157
 477  150.2447
 478  307.9343
 479  631.3409
 480  344.652
 481  431.4504
 482  310.388
 483  428.468
 484  579.2704
 485  518.4519
 486  51.33866
 487  379.1363
 488  557.2334
 489  776.0927
 490  648.9148
 491  586.2174
 492  394.7313
 493  392.9233
 494  436.3225
 495  400.0885
 496  472.4899
 497  237.1947
 498  152.4857
 499  239.7546
 500  459.6687
 501  392.3689
 502  304.9096
 503  555.1772
 504  863.5994
 505  837.6644
 506  714.0488
 507  921.5989
 508  1261.733
 509  1929.177
 510  2228.964
 511  2121.475
