# Input file       =  1187848054.111043_cleaned.dat
# Candidate        =  PSR_0332+5434
# Telescope        =  AR
# Epoch_topo       =  57992.241586933371
# Epoch_bary       =  N/A
# T_sample         =  0.002
# Data Folded      =  7340032
# Data Avg         =  0.0108019714004914
# Data StdDev      =  1.00004312261911 
# Profile Bins     =  512
# Profile Avg      =  154.819544716621 
# Profile StdDev   =  119.738199578889 
# Reduced chi-sqr  =  1.383
# Prob(Noise)      <  1.93e-08   (~5.5 sigma)
# P_topo (ms)      =  714.463686894058  +/- 0.000264
# P'_topo (s/s)    =  -0                +/- 1.39e-10
# P''_topo (s/s^2) =  0                 +/- 6.16e-14
# P_bary (ms)      =  N/A
# P'_bary (s/s)    =  N/A
# P''_bary (s/s^2) =  N/A
# P_orb (s)        =  N/A
# asin(i)/c (s)    =  N/A
# eccentricity     =  N/A
# w (rad)          =  N/A
# T_peri           =  N/A
######################################################
   0  243.3338
   1  234.9264
   2  84.60693
   3  35.68924
   4  85.01084
   5  14.56216
   6  86.80096
   7  88.50719
   8  135.1578
   9  165.6228
  10  136.7583
  11  163.8955
  12  182.4701
  13  119.4936
  14  53.68136
  15  215.289
  16  202.1816
  17  270.1477
  18  208.0944
  19  183.2614
  20  227.3005
  21  56.89597
  22  72.4185
  23  -5.237987
  24  150.466
  25  291.5928
  26  208.0412
  27  295.4676
  28  200.3428
  29  210.1945
  30  99.80022
  31  51.02689
  32  178.8226
  33  276.476
  34  191.6734
  35  240.6199
  36  216.8295
  37  119.5784
  38  95.88348
  39  168.0931
  40  227.4727
  41  121.597
  42  167.5282
  43  239.6616
  44  169.4053
  45  193.3942
  46  122.0196
  47  -30.6947
  48  112.2558
  49  136.544
  50  129.7096
  51  67.83222
  52  219.4938
  53  208.3378
  54  291.912
  55  186.0877
  56  158.727
  57  130.9277
  58  185.0564
  59  167.494
  60  47.70789
  61  194.5904
  62  182.224
  63  113.7181
  64  82.71222
  65  -27.14018
  66  49.48159
  67  91.00412
  68  100.2408
  69  143.0539
  70  248.0556
  71  85.10223
  72  159.7239
  73  240.5922
  74  278.8939
  75  137.7141
  76  200.6867
  77  207.1865
  78  210.1919
  79  50.66422
  80  48.94141
  81  96.86261
  82  92.66574
  83  220.9746
  84  197.7544
  85  263.3086
  86  258.9701
  87  92.79198
  88  156.3612
  89  278.9193
  90  285.945
  91  185.6732
  92  271.7191
  93  242.7048
  94  190.3155
  95  327.1133
  96  280.8766
  97  179.5017
  98  95.07822
  99  275.0188
 100  231.1353
 101  117.5973
 102  308.9021
 103  176.2359
 104  180.5856
 105  147.2958
 106  190.6808
 107  273.4246
 108  254.0711
 109  254.3179
 110  187.383
 111  296.2385
 112  196.2062
 113  199.3453
 114  134.5044
 115  176.167
 116  163.8185
 117  139.1062
 118  92.77594
 119  255.7311
 120  284.8114
 121  192.9271
 122  210.3608
 123  133.0694
 124  95.85155
 125  223.8509
 126  268.6972
 127  267.8539
 128  54.14818
 129  126.281
 130  72.63398
 131  155.4879
 132  137.5896
 133  248.54
 134  130.7642
 135  171.14
 136  137.3184
 137  153.0851
 138  142.5224
 139  217.4068
 140  177.7598
 141  285.9883
 142  299.3897
 143  226.027
 144  223.9419
 145  169.6634
 146  34.04188
 147  150.3462
 148  175.246
 149  118.4663
 150  195.0056
 151  210.8936
 152  206.0746
 153  68.1346
 154  65.2496
 155  218.1322
 156  195.2039
 157  70.79659
 158  130.4036
 159  136.1489
 160  242.7522
 161  273.5206
 162  247.2281
 163  192.1199
 164  107.8553
 165  66.54488
 166  194.7161
 167  270.4612
 168  285.9464
 169  226.4494
 170  185.0071
 171  330.7181
 172  206.6795
 173  8.023448
 174  64.37988
 175  270.211
 176  177.4747
 177  168.2235
 178  86.30424
 179  168.4671
 180  201.016
 181  274.7109
 182  216.2402
 183  184.8059
 184  159.4657
 185  74.47583
 186  181.636
 187  199.2164
 188  245.1168
 189  160.958
 190  -6.192608
 191  -66.40007
 192  43.51265
 193  210.894
 194  85.18048
 195  136.1987
 196  136.5892
 197  62.96328
 198  44.86929
 199  7.416891
 200  37.69777
 201  -5.299132
 202  -51.38639
 203  110.361
 204  -10.61778
 205  -39.22866
 206  9.242705
 207  75.65907
 208  39.76128
 209  92.26542
 210  67.7644
 211  43.57373
 212  210.3047
 213  199.1757
 214  116.2762
 215  104.4581
 216  107.4834
 217  39.20718
 218  -22.07025
 219  86.31906
 220  96.52693
 221  99.80641
 222  138.1055
 223  167.8801
 224  161.1912
 225  8.429606
 226  16.17821
 227  86.82251
 228  129.1596
 229  97.31633
 230  74.68552
 231  228.3507
 232  124.9213
 233  114.4677
 234  186.938
 235  223.1744
 236  258.257
 237  104.326
 238  167.0208
 239  183.0124
 240  76.53075
 241  144.6994
 242  96.23905
 243  174.7292
 244  208.5847
 245  251.9254
 246  118.0359
 247  114.9145
 248  145.8084
 249  252.6521
 250  154.9048
 251  73.31699
 252  118.27
 253  70.52504
 254  72.52091
 255  147.8916
 256  203.0646
 257  316.498
 258  126.9921
 259  83.37656
 260  110.0263
 261  89.35196
 262  -11.83564
 263  75.60291
 264  158.6821
 265  167.1841
 266  -23.37369
 267  161.6273
 268  197.7747
 269  120.3358
 270  0.3969796
 271  5.690506
 272  -5.816068
 273  139.5436
 274  136.5407
 275  109.2255
 276  139.5919
 277  183.4457
 278  127.3188
 279  60.1392
 280  119.2723
 281  27.6255
 282  20.32163
 283  119.0359
 284  161.901
 285  286.916
 286  269.2144
 287  309.7052
 288  210.9181
 289  117.1591
 290  124.6447
 291  220.1193
 292  126.9489
 293  52.24932
 294  66.48394
 295  216.3105
 296  339.7034
 297  235.9685
 298  244.7207
 299  205.6856
 300  148.7746
 301  144.0052
 302  223.1469
 303  206.8484
 304  180.5933
 305  368.793
 306  303.4191
 307  338.2845
 308  218.2594
 309  129.7593
 310  158.7975
 311  185.2624
 312  185.7378
 313  240.0287
 314  255.7773
 315  181.5901
 316  257.6521
 317  356.5291
 318  333.3355
 319  208.7837
 320  370.566
 321  340.1126
 322  351.2897
 323  223.5383
 324  184.3081
 325  162.6584
 326  70.17113
 327  17.18422
 328  132.3075
 329  246.6899
 330  148.9209
 331  77.14658
 332  97.65086
 333  62.31824
 334  11.09421
 335  22.22634
 336  198.8125
 337  193.62
 338  236.5916
 339  150.0823
 340  139.9636
 341  126.6556
 342  145.1046
 343  96.04867
 344  71.09699
 345  166.511
 346  96.69807
 347  -74.66971
 348  50.50159
 349  177.8252
 350  123.1593
 351  166.3722
 352  137.8732
 353  120.8399
 354  38.62027
 355  -99.66113
 356  -64.84089
 357  -2.359262
 358  94.99238
 359  75.65934
 360  -19.03048
 361  105.781
 362  94.87408
 363  150.1146
 364  149.7188
 365  65.10028
 366  109.9037
 367  183.2529
 368  181.9549
 369  249.6568
 370  174.8637
 371  50.96196
 372  41.46349
 373  55.96537
 374  151.4456
 375  345.6464
 376  208.5638
 377  138.5164
 378  135.1989
 379  167.2155
 380  216.006
 381  109.3495
 382  270.026
 383  161.6228
 384  99.55543
 385  224.6031
 386  193.528
 387  149.1593
 388  86.04841
 389  148.2291
 390  249.384
 391  95.56398
 392  214.7315
 393  163.4319
 394  145.9395
 395  82.66462
 396  133.1274
 397  127.6132
 398  29.63763
 399  92.90161
 400  236.008
 401  149.9223
 402  122.4995
 403  66.95746
 404  152.8959
 405  226.5975
 406  100.6022
 407  59.01189
 408  181.5554
 409  84.89154
 410  90.07746
 411  4.139092
 412  -83.21014
 413  63.83185
 414  156.2677
 415  177.4422
 416  210.1866
 417  220.1728
 418  157.525
 419  -51.91375
 420  138.9372
 421  186.9901
 422  115.3201
 423  41.38324
 424  110.6692
 425  43.03581
 426  -52.54666
 427  43.94295
 428  123.893
 429  63.19504
 430  -80.89645
 431  26.27354
 432  25.61959
 433  105.0289
 434  167.7097
 435  87.06898
 436  65.5761
 437  129.0036
 438  176.0065
 439  199.9753
 440  91.09879
 441  161.5444
 442  43.58121
 443  131.8395
 444  83.2963
 445  156.1321
 446  149.2328
 447  293.0426
 448  258.5994
 449  225.1346
 450  245.193
 451  249.6961
 452  288.4057
 453  188.0918
 454  65.81083
 455  94.71984
 456  130.2083
 457  -44.55533
 458  99.89954
 459  309.2516
 460  276.5784
 461  211.9902
 462  202.107
 463  196.7161
 464  180.8787
 465  237.1588
 466  211.4127
 467  383.9665
 468  333.8418
 469  564.1266
 470  867.6716
 471  777.2411
 472  711.2848
 473  455.4427
 474  393.9752
 475  243.1191
 476  132.2484
 477  97.74377
 478  183.0127
 479  44.05133
 480  109.6589
 481  207.9961
 482  216.8442
 483  201.3698
 484  98.64898
 485  106.9286
 486  220.9658
 487  178.8309
 488  154.3139
 489  49.02237
 490  -72.55955
 491  25.74949
 492  210.4059
 493  228.06
 494  120.7143
 495  147.4884
 496  264.5558
 497  146.6501
 498  172.0836
 499  213.7712
 500  47.33374
 501  -2.112077
 502  183.4994
 503  192.951
 504  156.6914
 505  183.0654
 506  212.0641
 507  158.8432
 508  18.5331
 509  66.0636
 510  55.04166
 511  158.0226
