# Input file       =  1187473945.116488_cleaned.dat
# Candidate        =  PSR_0332+5434
# Telescope        =  AR
# Epoch_topo       =  57987.911621718609
# Epoch_bary       =  N/A
# T_sample         =  0.002
# Data Folded      =  7471104
# Data Avg         =  0.0194775180030043
# Data StdDev      =  1.00015676095512 
# Profile Bins     =  512
# Profile Avg      =  284.284036153718 
# Profile StdDev   =  120.816287272445 
# Reduced chi-sqr  =  1.646
# Prob(Noise)      <  1.52e-18   (~8.7 sigma)
# P_topo (ms)      =  714.463575528125  +/- 0.000287
# P'_topo (s/s)    =  -0                +/- 1.49e-10
# P''_topo (s/s^2) =  0                 +/- 6.45e-14
# P_bary (ms)      =  N/A
# P'_bary (s/s)    =  N/A
# P''_bary (s/s^2) =  N/A
# P_orb (s)        =  N/A
# asin(i)/c (s)    =  N/A
# eccentricity     =  N/A
# w (rad)          =  N/A
# T_peri           =  N/A
######################################################
   0  1077.683
   1  1120.33
   2  979.4722
   3  652.1677
   4  493.4477
   5  511.7628
   6  500.0684
   7  383.7147
   8  279.6291
   9  136.2353
  10  333.5179
  11  362.698
  12  415.3744
  13  244.3463
  14  246.3504
  15  280.2401
  16  305.0553
  17  359.1229
  18  347.054
  19  314.1456
  20  324.5979
  21  403.0382
  22  412.1316
  23  364.1802
  24  324.7982
  25  368.188
  26  318.4637
  27  190.7769
  28  297.9119
  29  245.5962
  30  299.3313
  31  338.201
  32  335.4944
  33  310.5269
  34  349.914
  35  368.546
  36  300.5271
  37  263.6244
  38  269.4626
  39  330.977
  40  258.7953
  41  162.0238
  42  125.3487
  43  109.8176
  44  201.2962
  45  305.2373
  46  315.7592
  47  367.1866
  48  261.9182
  49  192.5499
  50  236.4556
  51  176.1765
  52  123.344
  53  213.4847
  54  215.1554
  55  190.6815
  56  49.01093
  57  199.1591
  58  283.7711
  59  159.942
  60  246.9169
  61  289.7673
  62  222.8501
  63  217.3539
  64  163.9771
  65  181.6115
  66  266.8805
  67  357.9172
  68  312.3811
  69  361.8777
  70  287.3535
  71  307.9127
  72  290.4961
  73  212.1116
  74  175.0149
  75  341.5807
  76  389.0322
  77  394.5149
  78  261.0234
  79  213.6656
  80  191.178
  81  255.3785
  82  383.7824
  83  423.494
  84  327.7515
  85  353.2577
  86  400.6945
  87  339.8448
  88  411.7429
  89  454.2455
  90  278.4423
  91  346.0477
  92  294.3803
  93  350.7602
  94  238.0213
  95  232.8205
  96  127.1365
  97  172.526
  98  290.8524
  99  373.8404
 100  281.7631
 101  329.8242
 102  409.0653
 103  269.9176
 104  138.0996
 105  247.5993
 106  301.5075
 107  435.3254
 108  313.624
 109  132.7197
 110  316.7642
 111  354.0027
 112  206.201
 113  218.8745
 114  306.7273
 115  524.6628
 116  399.4692
 117  294.8271
 118  178.4383
 119  58.54183
 120  202.131
 121  253.1241
 122  252.3643
 123  254.3885
 124  220.5441
 125  216.9564
 126  290.1426
 127  146.924
 128  88.50218
 129  282.043
 130  108.6098
 131  84.85709
 132  214.2803
 133  225.1843
 134  241.8629
 135  229.6323
 136  157.2245
 137  199.5594
 138  182.316
 139  227.0702
 140  256.0294
 141  277.4284
 142  283.9771
 143  263.0726
 144  244.492
 145  109.4256
 146  221.8319
 147  324.4596
 148  159.3401
 149  235.7248
 150  379.7154
 151  370.3914
 152  246.846
 153  161.6424
 154  244.2029
 155  223.3311
 156  235.0447
 157  426.5472
 158  388.6934
 159  305.3581
 160  222.9945
 161  167.524
 162  252.9147
 163  324.8079
 164  408.4131
 165  338.4176
 166  287.632
 167  263.9441
 168  429.593
 169  401.4595
 170  393.8254
 171  271.9264
 172  247.5125
 173  159.9315
 174  214.795
 175  219.5988
 176  174.5805
 177  161.105
 178  234.5152
 179  308.8328
 180  265.4822
 181  302.5366
 182  279.8808
 183  383.3844
 184  353.6127
 185  339.8304
 186  366.749
 187  399.5718
 188  332.3272
 189  289.8634
 190  234.4475
 191  71.71539
 192  38.89298
 193  285.7175
 194  305.4185
 195  266.2409
 196  253.859
 197  401.0319
 198  404.5977
 199  328.1074
 200  158.3782
 201  110.4047
 202  200.2443
 203  258.3981
 204  294.5085
 205  288.8068
 206  147.9513
 207  68.6059
 208  207.1463
 209  301.9833
 210  345.3474
 211  291.7506
 212  365.8634
 213  367.4986
 214  168.789
 215  105.7667
 216  190.4896
 217  365.0111
 218  385.9768
 219  181.6017
 220  95.08711
 221  78.0022
 222  189.7491
 223  201.1236
 224  154.2892
 225  190.5119
 226  183.969
 227  159.4884
 228  107.4537
 229  269.9514
 230  267.3283
 231  107.4915
 232  154.9808
 233  298.0821
 234  153.6281
 235  97.37772
 236  100.7309
 237  170.7456
 238  266.0114
 239  227.0551
 240  109.2978
 241  181.5831
 242  231.7693
 243  209.1954
 244  238.2748
 245  248.618
 246  231.9961
 247  167.3058
 248  296.0168
 249  296.2835
 250  305.1441
 251  166.6008
 252  238.7883
 253  306.3573
 254  229.4118
 255  215.6822
 256  282.1374
 257  273.9393
 258  191.0601
 259  228.0106
 260  161.3015
 261  149.9058
 262  233.824
 263  223.8875
 264  350.2683
 265  326.2887
 266  125.278
 267  211.6838
 268  293.8636
 269  174.1901
 270  176.9309
 271  175.562
 272  258.0616
 273  312.9272
 274  281.74
 275  208.857
 276  213.2235
 277  291.8019
 278  246.7791
 279  172.3801
 280  168.1053
 281  215.5743
 282  288.6664
 283  354.8358
 284  300.0526
 285  205.7913
 286  283.4572
 287  208.276
 288  269.8425
 289  321.9991
 290  336.7946
 291  217.9798
 292  177.0028
 293  236.5689
 294  363.7332
 295  423.368
 296  335.3802
 297  186.5542
 298  275.8417
 299  321.1317
 300  312.3242
 301  287.6523
 302  218.5087
 303  285.7461
 304  238.9691
 305  253.6532
 306  262.5971
 307  277.9202
 308  390.5862
 309  373.9283
 310  389.1902
 311  375.462
 312  270.8397
 313  256.2697
 314  359.0727
 315  387.3712
 316  427.597
 317  277.7899
 318  355.0207
 319  273.1031
 320  185.9241
 321  138.786
 322  276.4383
 323  304.1147
 324  337.4529
 325  389.7438
 326  416.0858
 327  499.9039
 328  357.3804
 329  221.5546
 330  216.5594
 331  244.9723
 332  294.4651
 333  289.6706
 334  316.9691
 335  265.5505
 336  330.3499
 337  352.8144
 338  313.9867
 339  329.1492
 340  366.0406
 341  289.2906
 342  183.498
 343  177.251
 344  276.1614
 345  357.8822
 346  366.1178
 347  369.814
 348  340.3263
 349  400.9314
 350  361.4336
 351  396.1353
 352  321.4708
 353  423.1413
 354  346.5217
 355  285.8788
 356  365.8662
 357  375.4123
 358  347.8538
 359  257.5674
 360  304.0214
 361  243.089
 362  221.5517
 363  271.7331
 364  236.6568
 365  266.2526
 366  246.7644
 367  256.8709
 368  216.9251
 369  85.35153
 370  201.1343
 371  255.1131
 372  305.3351
 373  257.9026
 374  148.5148
 375  306.0677
 376  322.8411
 377  281.9409
 378  223.4664
 379  303.4715
 380  303.6276
 381  328.8113
 382  272.1684
 383  159.9092
 384  296.6446
 385  333.1258
 386  246.2092
 387  148.0039
 388  250.5755
 389  282.2927
 390  229.424
 391  297.2608
 392  384.6089
 393  286.3462
 394  384.5715
 395  165.5295
 396  236.9058
 397  413.7201
 398  370.5007
 399  409.1776
 400  392.8333
 401  288.007
 402  234.8225
 403  290.9104
 404  326.4153
 405  222.5646
 406  234.3922
 407  287.7408
 408  226.1481
 409  250.5146
 410  256.7503
 411  298.6474
 412  211.3004
 413  375.0666
 414  325.4727
 415  390.0703
 416  392.1352
 417  365.5831
 418  310.8376
 419  330.8265
 420  192.458
 421  186.1982
 422  295.6319
 423  252.642
 424  231.9314
 425  414.2142
 426  471.1676
 427  428.9122
 428  270.2089
 429  286.6297
 430  209.0909
 431  174.776
 432  268.1121
 433  300.3718
 434  409.2269
 435  333.7382
 436  259.118
 437  342.4223
 438  262.1489
 439  214.1022
 440  203.8084
 441  392.0952
 442  341.2463
 443  342.6805
 444  184.9414
 445  317.4161
 446  356.2912
 447  239.899
 448  310.8345
 449  338.8641
 450  380.4984
 451  396.325
 452  283.2256
 453  180.882
 454  153.0032
 455  288.7249
 456  375.6654
 457  338.1257
 458  207.8792
 459  243.0575
 460  260.6962
 461  415.4009
 462  318.91
 463  288.4053
 464  203.8936
 465  317.0851
 466  280.8593
 467  340.0868
 468  388.8502
 469  330.2291
 470  334.7168
 471  349.5155
 472  243.9768
 473  333.5852
 474  316.3577
 475  302.0375
 476  100.5625
 477  162.5506
 478  185.7999
 479  251.5559
 480  199.7118
 481  195.3328
 482  262.6144
 483  224.3778
 484  218.0601
 485  234.9061
 486  258.5646
 487  247.3263
 488  196.5571
 489  304.3174
 490  304.8786
 491  311.55
 492  343.9468
 493  304.8445
 494  389.3942
 495  414.2996
 496  337.3607
 497  274.5263
 498  341.2004
 499  183.4437
 500  306.9548
 501  415.3848
 502  315.331
 503  235.6725
 504  372.484
 505  285.5708
 506  387.2771
 507  504.4867
 508  540.411
 509  609.5521
 510  815.4888
 511  892.6043
