# Input file       =  1187589586.114317-PSRB0329-2ms-sampling-dd.dat
# Candidate        =  PSR_0332+5434
# Telescope        =  AR
# Epoch_topo       =  57989.250059193480
# Epoch_bary       =  N/A
# T_sample         =  0.002
# Data Folded      =  7340032
# Data Avg         =  -2.36232133518004e-10
# Data StdDev      =  5.41742365645513 
# Profile Bins     =  512
# Profile Avg      =  0.149045265699418
# Profile StdDev   =  648.644583726696 
# Reduced chi-sqr  =  0.796
# Prob(Noise)      <  1   (~0.0 sigma)
# P_topo (ms)      =  714.4638160598    +/- 9.13e-05
# P'_topo (s/s)    =  -0                +/- 4.82e-11
# P''_topo (s/s^2) =  0                 +/- 2.13e-14
# P_bary (ms)      =  N/A
# P'_bary (s/s)    =  N/A
# P''_bary (s/s^2) =  N/A
# P_orb (s)        =  N/A
# asin(i)/c (s)    =  N/A
# eccentricity     =  N/A
# w (rad)          =  N/A
# T_peri           =  N/A
######################################################
   0  -35.06083
   1  -534.0099
   2  -14.22507
   3  -235.6755
   4  -151.4377
   5  -331.2493
   6  -416.7719
   7  -6.374051
   8  75.84416
   9  11.94543
  10  251.8356
  11  181.9457
  12  3.775461
  13  -396.8907
  14  -591.2188
  15  -912.6013
  16  -986.9299
  17  -923.29
  18  -379.8569
  19  -361.0666
  20  355.7234
  21  -271.2898
  22  -479.6023
  23  -311.624
  24  -460.2761
  25  -221.7249
  26  -137.8324
  27  -97.80483
  28  -607.709
  29  -796.6664
  30  -86.89552
  31  -303.2935
  32  -542.2465
  33  56.79013
  34  195.8718
  35  1.506814
  36  -692.1044
  37  -393.0443
  38  -345.2842
  39  -379.4552
  40  -273.2443
  41  -73.42372
  42  -409.2035
  43  -117.9754
  44  73.15842
  45  73.81278
  46  -473.4957
  47  -479.3228
  48  -269.823
  49  -251.0467
  50  41.67715
  51  866.6301
  52  573.2052
  53  -61.99151
  54  -487.1834
  55  -475.9713
  56  -393.7526
  57  -207.4335
  58  -430.8578
  59  -5.540756
  60  64.62603
  61  -592.9438
  62  -860.0247
  63  -268.0224
  64  79.0384
  65  316.4283
  66  79.70323
  67  -161.3927
  68  -578.1194
  69  -649.9175
  70  -415.1613
  71  -166.3842
  72  -401.522
  73  56.83274
  74  389.4085
  75  121.1111
  76  -240.3493
  77  -378.7278
  78  -97.04811
  79  -277.0736
  80  -379.6786
  81  267.9865
  82  -271.329
  83  -247.3624
  84  -435.006
  85  -260.7185
  86  -211.7373
  87  -155.092
  88  -622.3772
  89  -1104.261
  90  -856.7512
  91  -444.7514
  92  147.2321
  93  203.8559
  94  252.0357
  95  3.967132
  96  -400.4291
  97  -482.6576
  98  -514.6848
  99  -444.3669
 100  201.2789
 101  -6.246702
 102  -453.3536
 103  -236.4617
 104  -178.815
 105  -179.4395
 106  -312.252
 107  -400.5776
 108  -48.8788
 109  -50.5005
 110  424.8819
 111  144.8594
 112  143.0094
 113  -341.2825
 114  303.6229
 115  52.79959
 116  -11.51468
 117  -84.89642
 118  172.9628
 119  113.2531
 120  -171.373
 121  -299.5017
 122  11.38906
 123  -185.0579
 124  -37.67621
 125  -8.262171
 126  -267.4401
 127  -614.687
 128  -615.4371
 129  -120.1188
 130  65.22285
 131  -251.3086
 132  -555.5606
 133  -28.38843
 134  -71.6338
 135  -114.0942
 136  -21.11059
 137  55.69582
 138  -300.2635
 139  -287.8095
 140  -19.06636
 141  271.9738
 142  241.7163
 143  312.2126
 144  451.678
 145  156.6703
 146  136.1204
 147  149.3451
 148  -388.2234
 149  -929.6101
 150  -599.5644
 151  -308.4757
 152  -460.9566
 153  82.62733
 154  116.9315
 155  -15.52851
 156  -600.4483
 157  -312.619
 158  117.0008
 159  -58.1631
 160  -4.463325
 161  -308.3412
 162  -112.9516
 163  33.53459
 164  99.68522
 165  330.3612
 166  80.30148
 167  311.4588
 168  481.157
 169  68.34716
 170  198.8792
 171  -461.8353
 172  -263.872
 173  -167.904
 174  103.2778
 175  22.15364
 176  344.6819
 177  821.8481
 178  875.5204
 179  164.8321
 180  -254.8219
 181  -83.53184
 182  108.7815
 183  495.762
 184  551.011
 185  126.519
 186  53.84741
 187  148.7731
 188  254.4051
 189  -118.8265
 190  416.7526
 191  847.9942
 192  822.8613
 193  380.5913
 194  259.6637
 195  115.8397
 196  -432.6632
 197  -182.2365
 198  203.5963
 199  414.5392
 200  788.5087
 201  733.6157
 202  626.7898
 203  84.21249
 204  -147.133
 205  -160.7672
 206  -168.8708
 207  507.9396
 208  681.506
 209  852.5386
 210  896.2149
 211  772.798
 212  825.2647
 213  468.2591
 214  451.1494
 215  422.5142
 216  999.5251
 217  819.4293
 218  134.1551
 219  430.2774
 220  669.2657
 221  545.0835
 222  -7.231589
 223  139.7311
 224  457.3364
 225  342.8366
 226  679.704
 227  945.0158
 228  133.4095
 229  294.6042
 230  259.3772
 231  373.1003
 232  232.8772
 233  145.9619
 234  41.01614
 235  439.334
 236  684.3752
 237  772.3582
 238  78.01377
 239  -154.6527
 240  215.3074
 241  627.8262
 242  51.24667
 243  459.7835
 244  281.3586
 245  383.926
 246  271.8723
 247  905.9126
 248  1040.411
 249  275.0831
 250  -54.22853
 251  447.2518
 252  -3.070557
 253  -108.5547
 254  44.91666
 255  309.8781
 256  763.9736
 257  419.6909
 258  286.7444
 259  156.6619
 260  629.2356
 261  -117.936
 262  -274.3627
 263  -243.5746
 264  158.8386
 265  622.4552
 266  1164.542
 267  811.1902
 268  94.63438
 269  -144.3659
 270  -306.1763
 271  -96.82401
 272  -10.15864
 273  406.7068
 274  742.2545
 275  572.9382
 276  -73.41408
 277  -331.9422
 278  -104.2108
 279  241.2135
 280  51.87687
 281  572.8088
 282  669.4109
 283  684.951
 284  155.1203
 285  394.3617
 286  30.81867
 287  41.00431
 288  407.5786
 289  -92.48194
 290  21.79784
 291  711.2418
 292  509.6583
 293  130.5864
 294  -555.5704
 295  -86.65673
 296  166.254
 297  186.215
 298  617.7689
 299  500.769
 300  322.7991
 301  133.6567
 302  23.2632
 303  -154.3229
 304  -350.0065
 305  -650.2328
 306  -70.79848
 307  -154.9831
 308  96.13972
 309  457.2213
 310  342.2599
 311  110.518
 312  0.8939519
 313  -42.01639
 314  17.20943
 315  450.6497
 316  372.9229
 317  66.07508
 318  109.4707
 319  602.7171
 320  91.93815
 321  -247.0981
 322  -123.1633
 323  452.9506
 324  -178.2603
 325  -169.5404
 326  -655.4508
 327  -95.60798
 328  45.11491
 329  7.032296
 330  -42.43176
 331  16.14437
 332  139.6227
 333  -9.558735
 334  88.06609
 335  -541.2263
 336  -1075.128
 337  -1155.205
 338  -440.2311
 339  -120.0344
 340  -28.87436
 341  -7.329412
 342  -121.5599
 343  -319.8465
 344  -637.1487
 345  -500.4586
 346  -542.6241
 347  -130.7794
 348  434.8795
 349  -56.64608
 350  -148.9025
 351  -529.8597
 352  -212.2655
 353  172.1441
 354  -205.7072
 355  -597.8836
 356  -335.8509
 357  86.58869
 358  -290.9084
 359  -503.0727
 360  -234.4648
 361  -474.6137
 362  -587.1547
 363  -412.66
 364  151.3981
 365  247.6009
 366  180.2351
 367  -291.6271
 368  -115.418
 369  30.36045
 370  -398.1372
 371  -512.6113
 372  234.2209
 373  -104.7499
 374  111.3201
 375  -7.297592
 376  -410.0216
 377  -351.3469
 378  -381.8825
 379  295.0052
 380  654.7921
 381  135.6029
 382  54.8339
 383  84.03442
 384  -201.4467
 385  -533.447
 386  -253.4373
 387  320.2842
 388  168.8687
 389  435.2098
 390  -3.638082
 391  -506.7899
 392  -248.2501
 393  -195.1873
 394  -53.33456
 395  -85.21214
 396  -111.5629
 397  193.4568
 398  -439.4624
 399  -292.1855
 400  -420.0947
 401  13.5966
 402  -383.7266
 403  -243.4161
 404  -714.8732
 405  -16.5259
 406  107.1276
 407  -288.3449
 408  -137.1385
 409  -332.9126
 410  -139.1597
 411  -263.7003
 412  -362.0515
 413  -291.7664
 414  108.1454
 415  42.05887
 416  -144.2126
 417  -365.8788
 418  -374.8424
 419  -276.8321
 420  -251.0867
 421  48.04136
 422  -204.9656
 423  -135.1094
 424  -310.7148
 425  -747.7864
 426  -796.5894
 427  -1079.19
 428  -380.7883
 429  -418.5742
 430  -131.7006
 431  314.0129
 432  -287.7858
 433  -557.6185
 434  -379.6958
 435  -276.6178
 436  -506.18
 437  -535.2485
 438  512.3193
 439  609.6823
 440  207.8157
 441  -491.7473
 442  305.0236
 443  127.4468
 444  191.2317
 445  -236.4922
 446  108.8098
 447  541.0734
 448  243.6221
 449  -182.1107
 450  -225.4253
 451  225.4085
 452  61.66287
 453  -334.5686
 454  -102.4745
 455  -147.313
 456  -54.30317
 457  -368.7367
 458  -155.4305
 459  206.7809
 460  334.6988
 461  424.93
 462  210.5083
 463  176.2446
 464  -230.9863
 465  -553.2178
 466  -331.9889
 467  -310.088
 468  -123.3408
 469  -486.162
 470  -316.6508
 471  292.3026
 472  -66.35315
 473  404.6896
 474  111.4779
 475  98.08203
 476  14.95298
 477  328.5222
 478  550.5015
 479  854.3856
 480  676.7147
 481  230.8111
 482  -112.4232
 483  -39.88787
 484  -123.41
 485  -47.8996
 486  164.1095
 487  -30.84939
 488  410.2987
 489  486.0111
 490  90.31886
 491  -71.30767
 492  444.803
 493  858.4443
 494  1497.562
 495  2200.68
 496  1963.38
 497  1597.069
 498  462.7388
 499  -372.2823
 500  -448.2402
 501  -31.94116
 502  -66.19659
 503  -74.58533
 504  359.8064
 505  558.6771
 506  15.47627
 507  -126.2172
 508  -111.8222
 509  -167.791
 510  -59.74932
 511  92.37043
