# Input file       =  1187158786.106359_cleaned.dat
# Candidate        =  PSR_0332+5434
# Telescope        =  AR
# Epoch_topo       =  57984.263947990265
# Epoch_bary       =  N/A
# T_sample         =  0.002
# Data Folded      =  7340032
# Data Avg         =  0.036843469993203
# Data StdDev      =  2.66319942695933 
# Profile Bins     =  256
# Profile Avg      =  1056.52814863241 
# Profile StdDev   =  450.954456032263 
# Reduced chi-sqr  =  2.057
# Prob(Noise)      <  8.25e-21   (~9.3 sigma)
# P_topo (ms)      =  714.464381008453  +/- 0.000325
# P'_topo (s/s)    =  -0                +/- 1.71e-10
# P''_topo (s/s^2) =  0                 +/- 7.56e-14
# P_bary (ms)      =  N/A
# P'_bary (s/s)    =  N/A
# P''_bary (s/s^2) =  N/A
# P_orb (s)        =  N/A
# asin(i)/c (s)    =  N/A
# eccentricity     =  N/A
# w (rad)          =  N/A
# T_peri           =  N/A
######################################################
   0  175.886
   1  531.0946
   2  792.4091
   3  832.7562
   4  -1.808258
   5  833.8575
   6  346.2918
   7  150.8032
   8  566.1752
   9  697.1021
  10  742.1193
  11  1274.554
  12  705.3937
  13  490.6968
  14  504.3277
  15  848.5134
  16  1221.941
  17  888.517
  18  708.0798
  19  1174.724
  20  1068.347
  21  940.1267
  22  993.1914
  23  1084.673
  24  842.4109
  25  299.5536
  26  635.9351
  27  1004.694
  28  711.8674
  29  -292.7477
  30  299.1722
  31  1408.081
  32  642.7132
  33  551.4469
  34  493.6209
  35  1145.532
  36  1190.543
  37  689.5432
  38  924.4233
  39  1248.205
  40  394.0028
  41  1017.539
  42  1174.865
  43  1498.813
  44  903.8118
  45  688.1034
  46  460.9191
  47  1003.204
  48  1261.077
  49  1160.247
  50  1380.025
  51  1501.143
  52  1786.806
  53  2230.979
  54  1722.149
  55  1580.092
  56  1138.927
  57  1814.41
  58  1956.19
  59  1623.98
  60  1472.33
  61  736.4164
  62  1188.544
  63  680.8164
  64  684.4308
  65  475.1992
  66  1025.909
  67  245.4165
  68  1158.715
  69  253.6175
  70  1174.766
  71  1197.885
  72  1083.714
  73  1794.901
  74  1603.45
  75  927.2228
  76  512.767
  77  547.2191
  78  1133.391
  79  730.1461
  80  577.1386
  81  1249.345
  82  1391.741
  83  1334.99
  84  1267.897
  85  932.7145
  86  927.9164
  87  1662.475
  88  952.1396
  89  359.7773
  90  730.1796
  91  1646.053
  92  1657.106
  93  1439.378
  94  990.3401
  95  849.0474
  96  1116.233
  97  557.0021
  98  1280.919
  99  1411.377
 100  1336.434
 101  594.084
 102  814.9676
 103  667.3905
 104  1098.735
 105  441.0572
 106  1033.029
 107  826.7453
 108  797.4089
 109  1631.387
 110  1152.354
 111  1542.986
 112  1259.972
 113  1119.761
 114  1008.361
 115  789.3828
 116  1065.08
 117  1134.656
 118  1357.762
 119  1069.7
 120  534.9729
 121  1063.842
 122  1127.66
 123  472.0001
 124  1268.393
 125  930.7823
 126  1449.533
 127  1246.082
 128  1597.051
 129  1341.276
 130  1804.573
 131  1668.158
 132  1403.083
 133  1558.733
 134  1232.61
 135  2072.506
 136  1692.358
 137  769.7159
 138  1120.749
 139  1546.483
 140  1177.762
 141  1325.156
 142  977.7473
 143  438.9792
 144  1308.776
 145  1065.192
 146  589.8506
 147  505.5075
 148  918.2741
 149  798.9167
 150  666.2191
 151  938.6829
 152  471.19
 153  1001.354
 154  1424.552
 155  1291.448
 156  949.8586
 157  1144.418
 158  1541.26
 159  1765.765
 160  3084.997
 161  4252.586
 162  3726.192
 163  2483.153
 164  1327.006
 165  1211.304
 166  1988.241
 167  1437.886
 168  1736.666
 169  2077.369
 170  1688.211
 171  1699.598
 172  1857.609
 173  1718.155
 174  1532.818
 175  1569.508
 176  1433.816
 177  1215.59
 178  1068.678
 179  876.342
 180  818.9047
 181  1004.116
 182  1139.445
 183  632.5486
 184  808.8355
 185  136.9016
 186  585.6888
 187  625.0059
 188  453.085
 189  696.1859
 190  1128.475
 191  1312.186
 192  1674.634
 193  1125.576
 194  1207.948
 195  1525.831
 196  1317.628
 197  1880.011
 198  1959.801
 199  1364.131
 200  1661.224
 201  1202.757
 202  1074.934
 203  1725.872
 204  1513.844
 205  1433.557
 206  1425.71
 207  2027.525
 208  1056.105
 209  1890.427
 210  1405.874
 211  679.7802
 212  652.0745
 213  759.2958
 214  496.7128
 215  408.8001
 216  677.2313
 217  817.9949
 218  -71.18792
 219  591.6588
 220  929.8809
 221  612.578
 222  1052.83
 223  1049.964
 224  687.3522
 225  345.1374
 226  665.6621
 227  1195.533
 228  957.7169
 229  863.2798
 230  874.3246
 231  1188.573
 232  999.7778
 233  740.3794
 234  1236.883
 235  1293.716
 236  1027.991
 237  1123.019
 238  1102.261
 239  165.8031
 240  897.7589
 241  1598.853
 242  1023.254
 243  575.0997
 244  -128.4945
 245  219.5353
 246  1005.421
 247  0.07834584
 248  -14.25816
 249  94.60303
 250  80.76158
 251  568.4953
 252  731.9105
 253  550.2777
 254  74.4416
 255  702.5538
