# Input file       =  1187331128.11481_cleaned.dat
# Candidate        =  PSR_0332+5434
# Telescope        =  AR
# Epoch_topo       =  57986.258647162154
# Epoch_bary       =  N/A
# T_sample         =  0.002
# Data Folded      =  7340032
# Data Avg         =  0.0528330982373776
# Data StdDev      =  2.77986677409479 
# Profile Bins     =  256
# Profile Avg      =  1514.98349647333 
# Profile StdDev   =  470.709514377356 
# Reduced chi-sqr  =  2.066
# Prob(Noise)      <  4.74e-21   (~9.3 sigma)
# P_topo (ms)      =  714.464102592024  +/- 0.000218
# P'_topo (s/s)    =  -0                +/- 1.15e-10
# P''_topo (s/s^2) =  0                 +/- 5.08e-14
# P_bary (ms)      =  N/A
# P'_bary (s/s)    =  N/A
# P''_bary (s/s^2) =  N/A
# P_orb (s)        =  N/A
# asin(i)/c (s)    =  N/A
# eccentricity     =  N/A
# w (rad)          =  N/A
# T_peri           =  N/A
######################################################
   0  685.7747
   1  1480.17
   2  690.5154
   3  898.5751
   4  1373.839
   5  1548.07
   6  823.1318
   7  652.8051
   8  455.812
   9  1596.856
  10  1732.79
  11  1467.87
  12  1522.911
  13  1950.595
  14  1867.631
  15  652.8146
  16  1128.557
  17  1344.272
  18  1216.723
  19  1997.038
  20  2505.28
  21  1820.407
  22  2018.723
  23  1929.766
  24  1458.015
  25  2145.954
  26  2010.073
  27  1060.122
  28  2211.208
  29  1194.364
  30  1669.74
  31  2021.853
  32  1673.967
  33  1446.233
  34  1430.769
  35  2353.703
  36  2056.916
  37  1628.768
  38  1794.28
  39  2715.198
  40  1770.805
  41  1488.32
  42  1896.152
  43  1276.7
  44  1824.005
  45  1725.303
  46  2088.667
  47  2298.388
  48  1473.92
  49  1979.924
  50  2403.656
  51  1674.793
  52  1595.027
  53  1884.998
  54  1698.557
  55  1966.333
  56  2203.21
  57  1006.288
  58  1904.747
  59  2183.192
  60  2117.496
  61  2814.261
  62  3065.811
  63  2963.286
  64  2921.197
  65  2952.998
  66  2561.735
  67  1789.865
  68  1342.655
  69  1874.644
  70  1429.381
  71  1171.154
  72  1547.835
  73  1544.346
  74  2626.17
  75  1704.513
  76  1539.934
  77  1111.263
  78  1210.722
  79  1847.149
  80  912.8854
  81  1184.495
  82  1176.999
  83  1511.27
  84  1152.931
  85  481.6338
  86  1565.179
  87  1354.312
  88  1872.146
  89  849.525
  90  924.4209
  91  1633.16
  92  1579.272
  93  1811.5
  94  1456.615
  95  1255.479
  96  1810.775
  97  1788.324
  98  895.283
  99  1631.642
 100  864.4666
 101  1332.908
 102  1841.029
 103  1516.949
 104  1003.343
 105  1342.432
 106  2039.064
 107  1166.475
 108  1135.927
 109  1564.552
 110  759.5291
 111  614.1258
 112  1140.194
 113  1038.78
 114  973.8443
 115  1052.813
 116  692.829
 117  1682.871
 118  1041.652
 119  627.4809
 120  1354.358
 121  991.2092
 122  1537.029
 123  1479.39
 124  918.6271
 125  1055.005
 126  1492.502
 127  1622.361
 128  1409.9
 129  1479.145
 130  1303.06
 131  700.0083
 132  1017.383
 133  1376.042
 134  1251.369
 135  1036.514
 136  762.5422
 137  1127.585
 138  1328.064
 139  1240.286
 140  1073.137
 141  972.8691
 142  1551.417
 143  1872.623
 144  1914.432
 145  1358.231
 146  930.5274
 147  1516.024
 148  1516.344
 149  853.9687
 150  1286.684
 151  1518.346
 152  1861.634
 153  1762.571
 154  1736.538
 155  1746.118
 156  1783.601
 157  1001.133
 158  2032.13
 159  2772.407
 160  2953.785
 161  4696.207
 162  4249.678
 163  2559.698
 164  1464.759
 165  1665.555
 166  1316.898
 167  2063.344
 168  2225.138
 169  2692.604
 170  1979.185
 171  1575.624
 172  820.833
 173  1158.124
 174  1686.827
 175  1649.157
 176  1599.81
 177  1511.084
 178  1422.427
 179  1391.761
 180  1912.637
 181  1337.965
 182  1428.316
 183  533.0602
 184  1185.229
 185  1316.557
 186  1864.452
 187  841.3951
 188  867.4736
 189  1407.081
 190  1000.849
 191  1142.517
 192  1329.622
 193  1003.813
 194  1380.564
 195  1389.843
 196  480.621
 197  1567.641
 198  1771.093
 199  556.4129
 200  1177.802
 201  879.661
 202  1280.891
 203  1891.835
 204  1737.221
 205  1446.365
 206  2028.416
 207  1812.503
 208  1587.93
 209  2048.568
 210  2023.437
 211  2591.882
 212  1618.179
 213  1521.632
 214  1110.693
 215  891.7203
 216  1872.178
 217  1622.539
 218  1198.317
 219  642.1346
 220  2150.348
 221  1063.52
 222  1164.339
 223  1671.707
 224  1543.545
 225  380.1474
 226  766.3359
 227  868.0381
 228  743.6118
 229  842.4572
 230  1402.428
 231  1650.965
 232  1967.753
 233  2234.117
 234  1235.557
 235  1108.647
 236  1419.02
 237  951.0329
 238  1179.202
 239  1893.672
 240  2137.134
 241  2012.65
 242  1267.164
 243  1524.012
 244  1329.749
 245  1322.719
 246  962.1854
 247  2059.045
 248  1363.494
 249  894.1663
 250  1121.671
 251  795.7497
 252  1164.965
 253  1565.091
 254  844.4132
 255  717.8691
