# Input file       =  1187387774.104203_cleaned.dat
# Candidate        =  PSR_0332+5434
# Telescope        =  AR
# Epoch_topo       =  57986.914272039387
# Epoch_bary       =  N/A
# T_sample         =  0.002
# Data Folded      =  7143424
# Data Avg         =  0.020052694261897
# Data StdDev      =  1.00006486734809 
# Profile Bins     =  512
# Profile Avg      =  279.761555793615 
# Profile StdDev   =  118.126246521202 
# Reduced chi-sqr  =  1.282
# Prob(Noise)      <  1.58e-05   (~4.2 sigma)
# P_topo (ms)      =  714.463676904511  +/- 0.00021
# P'_topo (s/s)    =  -0                +/- 1.14e-10
# P''_topo (s/s^2) =  0                 +/- 5.16e-14
# P_bary (ms)      =  N/A
# P'_bary (s/s)    =  N/A
# P''_bary (s/s^2) =  N/A
# P_orb (s)        =  N/A
# asin(i)/c (s)    =  N/A
# eccentricity     =  N/A
# w (rad)          =  N/A
# T_peri           =  N/A
######################################################
   0  851.5616
   1  757.7917
   2  585.8871
   3  462.8033
   4  396.551
   5  180.1697
   6  364.2238
   7  394.1238
   8  282.9107
   9  266.5382
  10  330.8516
  11  316.452
  12  307.998
  13  331.7031
  14  325.5946
  15  292.4434
  16  423.1922
  17  400.9312
  18  388.8533
  19  372.3391
  20  317.6906
  21  211.5461
  22  191.335
  23  195.928
  24  235.38
  25  412.8758
  26  276.4499
  27  337.7335
  28  323.2601
  29  302.7902
  30  361.1024
  31  299.5934
  32  293.8767
  33  475.1386
  34  266.2754
  35  237.6088
  36  337.3997
  37  275.2022
  38  197.7635
  39  181.2491
  40  233.7051
  41  268.2093
  42  256.1844
  43  206.4074
  44  169.1969
  45  129.021
  46  194.2094
  47  187.0768
  48  150.8288
  49  260.2311
  50  213.0519
  51  297.3148
  52  259.381
  53  224.5989
  54  258.5574
  55  252.7004
  56  313.433
  57  299.4457
  58  345.3011
  59  217.8313
  60  365.2835
  61  397.1469
  62  351.1702
  63  286.5934
  64  329.7943
  65  380.6496
  66  254.8593
  67  243.4743
  68  122.1091
  69  190.2773
  70  235.1714
  71  292.2761
  72  145.3947
  73  204.2905
  74  231.4072
  75  234.8118
  76  280.7941
  77  301.6008
  78  258.1826
  79  220.2277
  80  255.8916
  81  239.6664
  82  110.6467
  83  149.324
  84  207.7861
  85  194.1702
  86  159.8255
  87  239.8708
  88  285.9113
  89  259.2591
  90  260.2829
  91  300.663
  92  295.2767
  93  455.8008
  94  365.4736
  95  293.4769
  96  239.8816
  97  195.1425
  98  224.9587
  99  259.6059
 100  343.7922
 101  293.6595
 102  244.9021
 103  198.5858
 104  133.9893
 105  169.8507
 106  217.6494
 107  276.8879
 108  246.4135
 109  229.6562
 110  277.1566
 111  324.8868
 112  367.9531
 113  336.8517
 114  216.7336
 115  214.4993
 116  164.6921
 117  248.4952
 118  268.1022
 119  351.7086
 120  297.4158
 121  294.1733
 122  315.0188
 123  297.3524
 124  262.1407
 125  300.7155
 126  323.5851
 127  204.9335
 128  273.1489
 129  296.1481
 130  324.4664
 131  302.8183
 132  305.842
 133  311.6685
 134  254.2434
 135  298.9903
 136  329.864
 137  356.2385
 138  400.9153
 139  302.4775
 140  268.9383
 141  341.4764
 142  235.4761
 143  295.5424
 144  254.6439
 145  281.993
 146  210.4669
 147  190.7339
 148  254.8755
 149  299.8857
 150  288.7782
 151  272.7054
 152  303.3512
 153  272.5062
 154  189.2981
 155  189.7099
 156  278.2373
 157  328.273
 158  345.9037
 159  191.9672
 160  266.5717
 161  290.0791
 162  223.9801
 163  272.8557
 164  319.2096
 165  229.6412
 166  110.1714
 167  251.1543
 168  323.4734
 169  215.2873
 170  262.7036
 171  192.5518
 172  286.0636
 173  250.3943
 174  229.6517
 175  254.3917
 176  88.74393
 177  151.4194
 178  266.4813
 179  222.916
 180  293.1615
 181  243.5128
 182  226.0577
 183  239.3458
 184  294.6949
 185  328.3316
 186  271.977
 187  49.69562
 188  64.73827
 189  278.9218
 190  312.1978
 191  152.4745
 192  215.0486
 193  392.3866
 194  392.2093
 195  245.4084
 196  334.3418
 197  329.1579
 198  247.562
 199  326.7843
 200  178.0414
 201  177.3693
 202  304.3939
 203  339.8888
 204  239.0462
 205  105.6002
 206  43.99618
 207  122.8866
 208  156.8852
 209  293.0984
 210  249.4984
 211  351.562
 212  333.1208
 213  283.3858
 214  207.1549
 215  179.8293
 216  229.8619
 217  181.1361
 218  275.1064
 219  210.8848
 220  215.5703
 221  284.6304
 222  317.6606
 223  258.9426
 224  186.6277
 225  215.722
 226  209.0471
 227  234.0805
 228  332.1747
 229  294.7094
 230  282.4467
 231  198.578
 232  256.0227
 233  223.5556
 234  241.3889
 235  303.4163
 236  267.5837
 237  231.825
 238  126.3581
 239  214.2621
 240  158.8643
 241  153.8573
 242  87.08023
 243  230.1748
 244  302.213
 245  220.9758
 246  362.1766
 247  373.959
 248  258.5397
 249  268.6237
 250  221.5688
 251  343.51
 252  361.9611
 253  328.1789
 254  293.2564
 255  168.5949
 256  130.7849
 257  351.453
 258  430.4826
 259  391.8365
 260  303.5534
 261  133.5732
 262  220.6956
 263  227.5857
 264  177.6857
 265  141.2541
 266  120.7577
 267  113.3247
 268  237.7938
 269  305.4432
 270  407.9135
 271  264.3191
 272  85.9097
 273  158.1801
 274  345.17
 275  359.0556
 276  350.709
 277  336.8486
 278  348.5374
 279  305.268
 280  243.458
 281  125.5845
 282  169.9424
 283  428.1913
 284  342.4312
 285  243.7093
 286  287.9979
 287  328.5508
 288  292.2676
 289  378.3845
 290  361.0578
 291  324.3068
 292  240.4801
 293  312.0619
 294  229.145
 295  211.1205
 296  344.9081
 297  428.1416
 298  288.657
 299  184.0551
 300  206.8849
 301  174.938
 302  183.3823
 303  173.5549
 304  243.3081
 305  309.1196
 306  304.1457
 307  272.837
 308  190.8194
 309  214.9581
 310  264.867
 311  103.6074
 312  218.2552
 313  273.0225
 314  362.2946
 315  163.9594
 316  65.57271
 317  217.8433
 318  249.304
 319  359.1225
 320  472.4654
 321  276.5938
 322  244.1283
 323  245.7336
 324  339.2791
 325  286.6865
 326  242.0046
 327  209.6812
 328  251.7596
 329  301.8715
 330  306.1966
 331  243.8637
 332  186.8709
 333  236.1545
 334  252.3012
 335  274.2102
 336  235.7785
 337  231.8072
 338  341.5343
 339  401.6601
 340  246.7587
 341  36.6214
 342  77.78297
 343  217.4893
 344  435.3217
 345  359.8578
 346  266.4417
 347  266.4548
 348  256.4783
 349  46.47181
 350  106.9467
 351  113.8371
 352  242.7605
 353  329.9697
 354  270.2715
 355  187.7992
 356  104.0551
 357  177.7687
 358  256.6861
 359  323.2875
 360  415.1362
 361  510.2169
 362  420.2244
 363  277.5718
 364  370.5497
 365  399.6095
 366  341.4972
 367  282.8989
 368  215.9893
 369  273.2133
 370  328.2512
 371  317.2538
 372  461.7199
 373  346.2755
 374  333.8492
 375  242.4303
 376  153.9337
 377  310.5052
 378  265.9182
 379  138.6544
 380  69.80547
 381  126.6812
 382  285.6751
 383  310.6198
 384  360.6212
 385  267.1392
 386  274.2193
 387  452.4591
 388  374.7178
 389  293.6777
 390  292.8065
 391  428.8945
 392  253.3354
 393  282.7127
 394  333.6229
 395  242.5296
 396  214.0184
 397  256.7967
 398  259.7574
 399  188.8704
 400  167.8584
 401  241.4547
 402  393.4126
 403  369.0025
 404  177.4299
 405  244.0309
 406  176.4416
 407  279.7651
 408  245.0202
 409  218.7719
 410  309.0852
 411  262.492
 412  238.2216
 413  281.6395
 414  293.8407
 415  269.5746
 416  194.3869
 417  243.2233
 418  289.2445
 419  359.0143
 420  317.6087
 421  356.1862
 422  371.3374
 423  303.4386
 424  264.108
 425  320.154
 426  340.5148
 427  209.4172
 428  274.6675
 429  380.1582
 430  389.2182
 431  322.7507
 432  264.6218
 433  239.5744
 434  426.3261
 435  348.1362
 436  223.4451
 437  249.0642
 438  305.4922
 439  257.8131
 440  181.4239
 441  271.4413
 442  287.2777
 443  186.0217
 444  228.8996
 445  380.2221
 446  351.4319
 447  358.7801
 448  350.405
 449  314.3462
 450  371.2886
 451  351.1025
 452  402.8121
 453  271.6297
 454  220.9055
 455  251.0668
 456  352.0664
 457  386.9159
 458  315.8571
 459  196.6944
 460  312.3145
 461  266.9176
 462  237.237
 463  409.0562
 464  379.3502
 465  269.8023
 466  331.2395
 467  332.2983
 468  313.0115
 469  335.9656
 470  344.3242
 471  331.825
 472  327.2164
 473  232.2438
 474  309.1345
 475  356.3422
 476  286.1808
 477  345.5279
 478  322.1117
 479  360.1673
 480  295.7242
 481  352.3773
 482  311.3176
 483  385.458
 484  260.4064
 485  330.2269
 486  488.0422
 487  400.6386
 488  310.638
 489  456.9644
 490  472.4131
 491  281.299
 492  177.1803
 493  253.0418
 494  313.698
 495  300.0618
 496  262.5638
 497  287.4216
 498  115.318
 499  350.0475
 500  423.005
 501  316.2032
 502  355.1432
 503  457.0231
 504  366.9167
 505  328.9019
 506  393.5211
 507  473.5935
 508  330.5379
 509  678.8954
 510  811.4118
 511  876.1926
