# Input file       =  1187503992.109945_cleaned.dat
# Candidate        =  PSR_0332+5434
# Telescope        =  AR
# Epoch_topo       =  57988.259387846585
# Epoch_bary       =  N/A
# T_sample         =  0.002
# Data Folded      =  7340032
# Data Avg         =  0.00841313800774841
# Data StdDev      =  1.00002108701649 
# Profile Bins     =  512
# Profile Avg      =  120.564705544856 
# Profile StdDev   =  119.735561189278 
# Reduced chi-sqr  =  1.418
# Prob(Noise)      <  1.36e-09   (~5.9 sigma)
# P_topo (ms)      =  714.463908139553  +/- 0.000207
# P'_topo (s/s)    =  -0                +/- 1.09e-10
# P''_topo (s/s^2) =  0                 +/- 4.81e-14
# P_bary (ms)      =  N/A
# P'_bary (s/s)    =  N/A
# P''_bary (s/s^2) =  N/A
# P_orb (s)        =  N/A
# asin(i)/c (s)    =  N/A
# eccentricity     =  N/A
# w (rad)          =  N/A
# T_peri           =  N/A
######################################################
   0  -3.108267
   1  94.83283
   2  102.6755
   3  71.72821
   4  35.84911
   5  18.47956
   6  -38.57079
   7  89.68017
   8  19.18806
   9  42.52314
  10  115.0785
  11  -14.1958
  12  125.8966
  13  165.6783
  14  219.7566
  15  143.9483
  16  91.18617
  17  208.8906
  18  220.8372
  19  210.6714
  20  213.2228
  21  271.6463
  22  177.2431
  23  55.77655
  24  55.41363
  25  124.0798
  26  237.8028
  27  141.7963
  28  134.6852
  29  211.7647
  30  177.0974
  31  146.6911
  32  180.7857
  33  186.0705
  34  130.0919
  35  324.5836
  36  306.5706
  37  220.2427
  38  197.0501
  39  143.8512
  40  182.5269
  41  270.2035
  42  273.9408
  43  134.3242
  44  26.95335
  45  99.23878
  46  168.4331
  47  86.56724
  48  68.61101
  49  26.6123
  50  2.03878
  51  14.257
  52  114.5257
  53  72.58765
  54  64.55106
  55  119.6024
  56  112.8107
  57  67.52248
  58  67.44827
  59  26.82737
  60  19.22144
  61  67.48994
  62  140.7402
  63  144.8544
  64  130.6621
  65  117.995
  66  187.9616
  67  171.3423
  68  51.60779
  69  109.5448
  70  175.653
  71  198.4426
  72  154.4722
  73  160.9234
  74  59.33222
  75  179.4113
  76  94.92445
  77  -3.36714
  78  106.8558
  79  146.3773
  80  225.5737
  81  169.3003
  82  73.04044
  83  70.08118
  84  44.07742
  85  97.07458
  86  139.6669
  87  126.1002
  88  196.6414
  89  91.80786
  90  19.51652
  91  95.33656
  92  120.3738
  93  -43.51149
  94  -29.56174
  95  5.917109
  96  -42.97853
  97  23.29493
  98  114.7579
  99  50.06216
 100  89.0446
 101  223.5875
 102  251.5663
 103  29.76403
 104  -9.902708
 105  146.5742
 106  226.3132
 107  172.2979
 108  66.87747
 109  -9.86106
 110  97.03119
 111  135.0647
 112  115.456
 113  69.64865
 114  20.97829
 115  120.6315
 116  134.1734
 117  56.12468
 118  98.90154
 119  147.0705
 120  135.8999
 121  40.35601
 122  67.34991
 123  156.0414
 124  150.4041
 125  156.2948
 126  174.6357
 127  110.5961
 128  171.7532
 129  192.8486
 130  113.0005
 131  47.52367
 132  151.2865
 133  201.6942
 134  225.3165
 135  89.91467
 136  98.07098
 137  180.4023
 138  106.8485
 139  13.99738
 140  -124.2017
 141  5.76399
 142  124.8323
 143  65.27734
 144  44.43211
 145  143.9492
 146  168.4253
 147  90.68961
 148  52.95134
 149  198.491
 150  43.94136
 151  -62.9174
 152  133.8202
 153  123.6105
 154  94.60325
 155  94.75029
 156  100.8138
 157  55.94361
 158  155.4144
 159  110.4247
 160  4.618683
 161  40.51257
 162  120.7395
 163  92.26242
 164  61.87395
 165  159.5644
 166  139.6954
 167  91.476
 168  109.652
 169  92.22874
 170  126.3743
 171  105.0663
 172  9.462509
 173  105.2246
 174  95.52294
 175  16.18376
 176  1.242153
 177  35.04569
 178  43.94958
 179  168.2128
 180  54.64764
 181  47.23301
 182  13.15563
 183  -23.38646
 184  117.989
 185  146.992
 186  164.9353
 187  87.80338
 188  -14.57684
 189  -10.91551
 190  34.35732
 191  3.452819
 192  -106.0367
 193  -54.49045
 194  25.1244
 195  40.76672
 196  -7.125869
 197  168.4655
 198  149.0887
 199  70.53813
 200  4.315527
 201  -52.69755
 202  94.59591
 203  6.829886
 204  93.7366
 205  25.16417
 206  59.55099
 207  112.2912
 208  -109.803
 209  -88.71849
 210  -20.51268
 211  118.5907
 212  262.385
 213  -4.079297
 214  56.29545
 215  39.35825
 216  83.66396
 217  32.69022
 218  115.8456
 219  83.76634
 220  172.5201
 221  143.522
 222  114.4364
 223  79.79282
 224  159.9102
 225  162.8182
 226  49.37136
 227  105.8759
 228  85.62122
 229  172.1707
 230  83.9469
 231  8.46268
 232  58.28865
 233  40.19023
 234  52.83881
 235  184.6607
 236  199.4374
 237  253.2381
 238  251.6671
 239  45.58767
 240  137.9116
 241  172.1288
 242  178.3284
 243  81.50356
 244  71.88271
 245  221.2028
 246  175.9094
 247  42.7998
 248  163.4466
 249  290.4491
 250  211.3301
 251  -3.51426
 252  30.98344
 253  64.97896
 254  75.57665
 255  86.79917
 256  128.536
 257  219.6098
 258  236.736
 259  231.8358
 260  312.3049
 261  311.05
 262  250.1601
 263  111.2784
 264  108.9294
 265  194.5071
 266  41.10574
 267  146.2926
 268  94.8635
 269  118.6906
 270  221.773
 271  106.0053
 272  99.41896
 273  74.81847
 274  -66.21523
 275  -10.34986
 276  125.8465
 277  258.2541
 278  272.6469
 279  180.2599
 280  242.8239
 281  193.9032
 282  142.0169
 283  116.4038
 284  91.68032
 285  274.2929
 286  257.401
 287  167.4391
 288  22.59081
 289  -60.81533
 290  65.38152
 291  38.75168
 292  -9.033991
 293  152.5711
 294  187.447
 295  244.8615
 296  269.9186
 297  64.59544
 298  30.2944
 299  265.9993
 300  144.0197
 301  277.4619
 302  70.63052
 303  61.87406
 304  84.70094
 305  186.045
 306  377.2053
 307  215.1228
 308  84.25636
 309  115.0349
 310  228.7767
 311  153.9078
 312  151.8033
 313  133.8517
 314  96.62321
 315  92.06066
 316  225.0798
 317  177.5954
 318  172.5193
 319  -31.86758
 320  82.21527
 321  186.3116
 322  227.9252
 323  73.74881
 324  87.4106
 325  210.9693
 326  97.77046
 327  111.7958
 328  245.7412
 329  168.0495
 330  133.1974
 331  19.06219
 332  217.9836
 333  263.7448
 334  70.82128
 335  112.1454
 336  103.578
 337  70.55104
 338  111.299
 339  260.3334
 340  243.7327
 341  213.6196
 342  201.7941
 343  247.0194
 344  190.2932
 345  116.2092
 346  79.02785
 347  79.59073
 348  85.0294
 349  60.10291
 350  173.8109
 351  188.6175
 352  103.2441
 353  278.02
 354  362.5391
 355  487.0549
 356  600.9102
 357  707.5724
 358  734.2889
 359  700.5588
 360  577.3674
 361  402.1227
 362  138.6438
 363  -88.32108
 364  -27.23169
 365  48.17408
 366  62.78407
 367  16.55533
 368  97.97777
 369  185.4574
 370  75.30795
 371  199.1033
 372  274.7858
 373  326.5417
 374  196.0775
 375  115.7901
 376  190.0128
 377  131.335
 378  125.8992
 379  52.13918
 380  8.805176
 381  157.4729
 382  233.0398
 383  204.2169
 384  207.2828
 385  220.5159
 386  73.49422
 387  173.7953
 388  181.5961
 389  140.0434
 390  159.1749
 391  131.3508
 392  -35.3407
 393  83.28364
 394  66.09361
 395  98.69233
 396  116.2837
 397  72.97498
 398  106.1538
 399  25.06581
 400  125.3615
 401  132.628
 402  5.940299
 403  61.28853
 404  254.6585
 405  270.9206
 406  151.9807
 407  151.4371
 408  14.01192
 409  35.57119
 410  132.8185
 411  77.65144
 412  149.6529
 413  123.7021
 414  264.0828
 415  71.79836
 416  50.83028
 417  186.5268
 418  253.066
 419  136.6668
 420  -22.32675
 421  -32.48102
 422  75.24641
 423  90.13519
 424  145.4458
 425  122.1252
 426  -2.669646
 427  6.835601
 428  141.4639
 429  218.6949
 430  245.463
 431  93.01617
 432  70.27783
 433  -6.528951
 434  62.50065
 435  233.6776
 436  122.3689
 437  -27.40423
 438  139.62
 439  158.089
 440  71.645
 441  145.0855
 442  199.0864
 443  104.5037
 444  131.7046
 445  220.556
 446  154.7673
 447  138.3018
 448  162.5724
 449  163.4929
 450  6.559957
 451  -46.21786
 452  80.48448
 453  160.8342
 454  145.9223
 455  -72.39421
 456  -16.48837
 457  17.0061
 458  155.0139
 459  198.4901
 460  100.5085
 461  57.62538
 462  66.30271
 463  -2.133143
 464  8.465993
 465  2.725523
 466  106.1939
 467  158.3531
 468  69.02122
 469  -45.22779
 470  27.95347
 471  247.1238
 472  414.3228
 473  189.0574
 474  105.5349
 475  147.8815
 476  65.2784
 477  16.33106
 478  -32.53595
 479  88.89617
 480  146.7192
 481  63.25119
 482  92.87927
 483  183.27
 484  195.0864
 485  203.2482
 486  110.2313
 487  180.7609
 488  172.0394
 489  94.90897
 490  140.668
 491  157.3459
 492  56.75749
 493  58.28234
 494  42.65573
 495  -59.94888
 496  117.7264
 497  171.6759
 498  311.5766
 499  275.9278
 500  296
 501  144.146
 502  42.10728
 503  64.18501
 504  86.64082
 505  194.864
 506  202.1584
 507  -25.47082
 508  28.13831
 509  -4.390103
 510  -41.69219
 511  83.89073
