# Input file       =  1187990819.111274_cleaned.dat
# Candidate        =  PSR_0332+5434
# Telescope        =  AR
# Epoch_topo       =  57993.893959621229
# Epoch_bary       =  N/A
# T_sample         =  0.002
# Data Folded      =  7208960
# Data Avg         =  0.0632461517763495
# Data StdDev      =  3.0102158960153  
# Profile Bins     =  256
# Profile Avg      =  1780.98670936735 
# Profile StdDev   =  505.142570662927 
# Reduced chi-sqr  =  1.539
# Prob(Noise)      <  6.6e-08   (~5.3 sigma)
# P_topo (ms)      =  714.463335772958  +/- 0.000136
# P'_topo (s/s)    =  -0                +/- 7.29e-11
# P''_topo (s/s^2) =  0                 +/- 3.28e-14
# P_bary (ms)      =  N/A
# P'_bary (s/s)    =  N/A
# P''_bary (s/s^2) =  N/A
# P_orb (s)        =  N/A
# asin(i)/c (s)    =  N/A
# eccentricity     =  N/A
# w (rad)          =  N/A
# T_peri           =  N/A
######################################################
   0  2000.017
   1  1326.209
   2  1741.311
   3  1430.551
   4  2336.02
   5  1785.267
   6  1547.542
   7  1306.856
   8  1786.012
   9  986.1964
  10  923.2927
  11  1029.492
  12  1357.021
  13  2081.364
  14  595.7347
  15  1092.446
  16  1632.47
  17  2425.02
  18  1424.792
  19  1344.942
  20  1874.779
  21  2075.906
  22  1124.29
  23  1634.75
  24  2620.525
  25  2031.03
  26  1163.107
  27  1815.82
  28  1823.632
  29  1707.387
  30  1492.613
  31  1120.919
  32  1282.186
  33  1576.63
  34  1571.045
  35  1402.679
  36  1793.59
  37  1995.322
  38  1633.942
  39  1420.893
  40  2002.937
  41  1216.4
  42  1175.651
  43  933.0872
  44  1718.588
  45  1931.006
  46  1842.498
  47  1359.695
  48  1736.735
  49  2009.314
  50  1746.865
  51  1556.977
  52  1569.835
  53  1357.542
  54  1962.837
  55  1953.667
  56  1419.048
  57  2136.252
  58  2387.419
  59  1155.669
  60  1443.949
  61  985.1143
  62  1537.578
  63  1363.288
  64  385.7274
  65  1481.496
  66  2296.489
  67  2348.258
  68  1856.728
  69  2033.769
  70  1840.236
  71  1931.373
  72  1668.915
  73  1747.827
  74  2294.55
  75  2154.771
  76  1325.859
  77  1192.915
  78  2267.58
  79  2043.324
  80  1621.031
  81  2427.359
  82  1856.228
  83  2273.353
  84  2355.821
  85  1697.296
  86  2081.724
  87  2493.255
  88  1632.797
  89  2447.816
  90  1888.774
  91  1779.505
  92  1677.711
  93  1591.036
  94  1274.759
  95  1960.224
  96  2374.838
  97  1160.161
  98  1890.682
  99  2118.886
 100  2050.384
 101  1645.008
 102  1675.895
 103  2400.257
 104  1961.73
 105  1137.62
 106  1786.066
 107  1810.716
 108  1825.641
 109  2023.446
 110  1684.833
 111  1946.985
 112  2095.709
 113  2412.336
 114  1516.534
 115  1913.419
 116  2148.915
 117  1855.809
 118  2294.247
 119  2103.735
 120  1610.594
 121  1999.48
 122  2075.062
 123  2115.3
 124  1857.561
 125  2081.873
 126  1728.03
 127  2500.4
 128  1736.494
 129  1794.312
 130  1814.961
 131  2101.915
 132  2638.677
 133  2526.83
 134  1835.225
 135  1907.865
 136  1551.496
 137  1007.344
 138  1825.769
 139  2454.735
 140  2167.241
 141  1611.329
 142  1312.484
 143  1467.372
 144  1799.271
 145  2448.777
 146  1449.63
 147  2264.893
 148  2038.041
 149  1561.641
 150  1678.176
 151  2023.523
 152  1630.898
 153  1716.056
 154  1933.756
 155  1761.375
 156  1976.845
 157  2666.772
 158  2674.932
 159  3184.895
 160  3880.427
 161  5258.343
 162  5266.233
 163  3464.997
 164  2156.507
 165  2095.545
 166  2269.762
 167  1899.513
 168  2253.413
 169  2248.046
 170  1501.077
 171  1880.83
 172  1112.044
 173  1740.1
 174  1172.378
 175  1644.014
 176  1355.982
 177  1789.425
 178  1244.47
 179  1407.109
 180  1277.13
 181  1596.647
 182  1561.374
 183  1340.051
 184  1742.532
 185  2034.507
 186  1939.595
 187  1938.631
 188  1904.462
 189  2036.712
 190  2127.194
 191  1804.524
 192  1642.034
 193  1550.346
 194  2030.657
 195  1383.366
 196  1315.075
 197  1325.744
 198  1232.082
 199  1807.365
 200  1644.435
 201  1616.091
 202  1706.045
 203  2044.646
 204  1874.25
 205  1913.325
 206  2201.516
 207  1823.572
 208  1580.591
 209  2132.197
 210  1638.762
 211  2523.197
 212  1697.347
 213  2426.652
 214  2014.865
 215  1595.711
 216  1720.361
 217  1998.78
 218  1894.368
 219  1620.417
 220  1289.174
 221  2028.625
 222  2080.175
 223  1545.975
 224  1111.123
 225  1027.337
 226  1453.855
 227  1410.971
 228  1579.698
 229  919.4486
 230  1358.608
 231  1458.41
 232  1751.782
 233  1104.977
 234  1212.94
 235  2219.161
 236  2039.642
 237  1390.47
 238  1047.888
 239  1397.718
 240  903.1992
 241  1325.766
 242  1750.413
 243  1597.257
 244  1487.11
 245  1516.468
 246  1544.583
 247  1506.382
 248  1496.546
 249  1567.218
 250  1140.858
 251  1622.875
 252  1802.296
 253  1774.625
 254  920.157
 255  1541.759
