# Input file       =  1187129238.101036_cleaned.dat
# Candidate        =  PSR_0332+5434
# Telescope        =  AR
# Epoch_topo       =  57983.921957187915
# Epoch_bary       =  N/A
# T_sample         =  0.002
# Data Folded      =  7208960
# Data Avg         =  0.274160013113975
# Data StdDev      =  5.94389177366789 
# Profile Bins     =  512
# Profile Avg      =  3860.18876345492 
# Profile StdDev   =  705.297298869379 
# Reduced chi-sqr  =  0.502
# Prob(Noise)      <  1   (~0.0 sigma)
# P_topo (ms)      =  714.464087938302  +/- 0.00011
# P'_topo (s/s)    =  -0                +/- 5.93e-11
# P''_topo (s/s^2) =  0                 +/- 2.67e-14
# P_bary (ms)      =  N/A
# P'_bary (s/s)    =  N/A
# P''_bary (s/s^2) =  N/A
# P_orb (s)        =  N/A
# asin(i)/c (s)    =  N/A
# eccentricity     =  N/A
# w (rad)          =  N/A
# T_peri           =  N/A
######################################################
   0  3293.054
   1  3817.172
   2  3849.957
   3  3646.239
   4  3925.884
   5  3978.736
   6  4025.498
   7  3565.152
   8  4211.065
   9  3773.49
  10  3580.376
  11  3880.408
  12  3818.781
  13  3626.543
  14  3850.71
  15  3921.2
  16  3895.024
  17  3714.834
  18  3752.094
  19  4014.729
  20  3960.276
  21  3648.212
  22  3355.385
  23  3511.323
  24  2940.999
  25  2950.593
  26  4059.265
  27  4324.219
  28  4371.877
  29  3939.969
  30  3402.119
  31  3147.357
  32  3375.776
  33  3323.243
  34  3265.55
  35  3786.039
  36  3765.972
  37  3866.837
  38  4107.581
  39  3868.242
  40  3407.948
  41  3501.02
  42  3448.693
  43  3424.29
  44  3691.992
  45  3689.209
  46  3442.592
  47  3478.79
  48  4025.954
  49  4018.964
  50  3697.519
  51  3525.533
  52  3760.69
  53  3907.951
  54  3640.303
  55  3383.185
  56  3584.325
  57  3864.632
  58  3558.446
  59  3889.48
  60  3775.871
  61  4147.649
  62  4101.805
  63  3743.446
  64  3523.71
  65  3351.675
  66  3768.982
  67  3596.018
  68  3881.692
  69  3745.034
  70  3891.177
  71  4183.835
  72  3730.677
  73  3665.556
  74  3896.801
  75  3982.076
  76  3610.697
  77  3565.117
  78  3946.538
  79  3827.489
  80  3639.393
  81  4113.916
  82  4216.266
  83  4341.194
  84  3699.156
  85  3522.403
  86  4192.149
  87  3889.709
  88  3753.745
  89  3721.245
  90  3940.948
  91  3750.515
  92  4030.821
  93  4059.613
  94  3794.312
  95  3852.662
  96  3566.465
  97  3164.274
  98  2990.986
  99  3941.209
 100  4087.292
 101  4420.234
 102  4225.186
 103  3864.57
 104  3511.34
 105  3448.398
 106  3112.654
 107  3162.646
 108  3666.874
 109  3630.29
 110  4235.483
 111  4341.598
 112  3607.205
 113  3168.748
 114  3198.874
 115  3513.377
 116  3535.401
 117  3303.246
 118  3615.929
 119  4472.856
 120  3882.427
 121  3597.694
 122  3541.322
 123  3900.275
 124  4134.393
 125  4078.929
 126  4305.174
 127  4192.194
 128  4211.109
 129  3805.711
 130  3277.117
 131  3609.927
 132  3562.644
 133  4087.258
 134  4468.525
 135  3971.017
 136  3511.628
 137  3592.182
 138  3977.705
 139  3664.955
 140  3775.787
 141  4079.238
 142  3404.427
 143  3910.428
 144  4714.947
 145  4301.286
 146  4180.646
 147  4105.818
 148  4278.838
 149  3811.518
 150  3994.23
 151  3747.046
 152  3847.138
 153  3641.098
 154  3634.514
 155  4166.328
 156  4082.61
 157  4153.155
 158  4094.648
 159  3974.038
 160  4257.819
 161  4210.323
 162  3761.088
 163  3718.199
 164  4463.734
 165  5518.799
 166  5712.372
 167  5506.408
 168  5845.103
 169  5316.119
 170  4561.772
 171  3709.879
 172  3844.88
 173  3976.358
 174  3931.283
 175  3999.69
 176  3784.221
 177  4661.569
 178  3992.504
 179  3811.612
 180  3281.504
 181  3260.097
 182  4017.178
 183  3978.94
 184  4147.594
 185  4425.148
 186  4413.083
 187  3797.043
 188  3913.824
 189  4482.741
 190  3963.696
 191  3978.352
 192  4136.634
 193  4157.717
 194  3947.468
 195  3729.714
 196  3739.355
 197  4106.456
 198  3752.467
 199  3479.021
 200  3849.807
 201  4214.624
 202  3936.888
 203  3557.826
 204  3430.76
 205  3319.79
 206  3600.606
 207  3517.108
 208  4023.644
 209  3432.427
 210  3769.486
 211  3696.069
 212  3641.704
 213  4007.665
 214  3811.643
 215  3804.289
 216  3504.736
 217  3633.674
 218  4016.364
 219  4260.117
 220  4467.564
 221  4125.768
 222  4284.598
 223  4406.663
 224  4380.388
 225  4513.827
 226  4038.97
 227  3805.329
 228  4004.34
 229  4108.135
 230  4467.146
 231  4445.44
 232  4173.125
 233  3955.76
 234  3997.615
 235  4163.373
 236  3645.266
 237  4037.066
 238  3820.572
 239  4598.179
 240  4537.238
 241  4195.782
 242  4442.621
 243  3909.927
 244  3940.424
 245  3474.074
 246  3419.012
 247  3460.634
 248  4070.803
 249  4351.006
 250  4434.345
 251  4234.357
 252  4353.443
 253  3593.237
 254  3329.995
 255  3820.591
 256  4065.549
 257  3886.239
 258  3914.12
 259  4030.774
 260  3748.886
 261  3754.498
 262  3463.025
 263  3748.251
 264  3971.054
 265  3620.779
 266  4044.806
 267  4104.488
 268  4172.527
 269  3764.524
 270  3677.827
 271  3812.129
 272  3399.01
 273  3957.916
 274  3641.195
 275  3762.854
 276  3821.785
 277  3746.31
 278  3833.595
 279  3358.405
 280  3596.309
 281  3656.631
 282  3831.4
 283  3724.008
 284  3977.926
 285  4264.489
 286  3645.606
 287  3818.74
 288  4052.727
 289  3761.675
 290  3355.876
 291  3205.072
 292  4187.978
 293  3853.27
 294  3698.331
 295  4100.238
 296  3980.228
 297  4358.605
 298  3549.077
 299  3673.892
 300  4218.779
 301  3970.059
 302  4298.656
 303  4134.021
 304  4457.552
 305  3954.272
 306  4047.564
 307  3610.483
 308  3799.722
 309  3567.48
 310  3301.801
 311  3796.455
 312  4015.644
 313  4058.627
 314  4454.453
 315  4570.824
 316  4120.731
 317  3891.871
 318  4057.252
 319  3490.622
 320  3131.931
 321  4105.281
 322  4310.433
 323  3560.9
 324  3583.53
 325  3730.368
 326  4201.567
 327  4011.073
 328  4044.517
 329  3843.867
 330  3569.949
 331  3827.564
 332  3857.459
 333  4279.082
 334  4139.596
 335  3920.683
 336  4002.145
 337  4157.158
 338  4064.945
 339  3744.135
 340  3770.985
 341  3769.38
 342  3950.815
 343  3797.535
 344  3535.219
 345  3788.852
 346  4199.542
 347  4392.108
 348  4392.306
 349  3807.612
 350  4208.274
 351  3819.174
 352  3510.632
 353  3457.127
 354  3478.38
 355  3685.263
 356  3430.533
 357  4000.762
 358  4073.586
 359  4368.647
 360  4235.831
 361  3829.302
 362  3942.679
 363  3135.477
 364  3509.577
 365  3874.228
 366  3927.636
 367  3956.1
 368  3664.89
 369  4169.533
 370  4163.996
 371  3818.567
 372  3629.745
 373  3894.418
 374  4103.535
 375  4064.862
 376  3935.749
 377  3691.017
 378  3293.639
 379  3739.052
 380  3857.56
 381  3891.728
 382  3724.784
 383  3670.387
 384  4019.716
 385  3440.908
 386  3350.256
 387  3325.243
 388  4044.735
 389  4197.413
 390  3893.586
 391  4220.754
 392  3996.232
 393  3809.553
 394  3663.718
 395  3974.922
 396  3829.714
 397  3727.088
 398  3743.983
 399  4231.055
 400  4437.805
 401  3879.613
 402  4011.401
 403  3537.02
 404  3717.282
 405  4047.864
 406  3978.234
 407  3810.102
 408  3910.668
 409  3815.373
 410  3479.377
 411  3166.128
 412  3460.068
 413  4283.284
 414  3879.792
 415  3742.077
 416  3560.012
 417  3880.648
 418  3660.822
 419  3769.173
 420  4263.747
 421  4440.056
 422  4330.372
 423  3840.867
 424  4338.152
 425  3761.604
 426  3580.277
 427  3342.822
 428  3108.106
 429  3781.3
 430  3598.133
 431  4069.451
 432  4203.571
 433  3908.393
 434  3632.668
 435  3442.757
 436  3708.719
 437  3698.389
 438  3635.911
 439  4247.332
 440  4191.368
 441  4043.547
 442  4123.42
 443  3632.814
 444  3683.927
 445  3663.737
 446  4187.61
 447  3726.25
 448  3593.343
 449  3802.026
 450  3712.015
 451  4093.336
 452  3268.465
 453  3464.417
 454  3993.042
 455  3951.461
 456  3881.574
 457  4082.264
 458  3929.829
 459  3384.768
 460  3685.473
 461  3700.441
 462  3762.499
 463  3850.424
 464  3569.687
 465  4158.06
 466  4658.692
 467  4204.474
 468  4148.639
 469  3999.982
 470  3399.896
 471  3438.795
 472  3592.954
 473  3848.41
 474  4060.14
 475  4189.731
 476  3911.948
 477  3525.145
 478  3136.021
 479  3211.784
 480  3497.916
 481  3529.703
 482  3730.937
 483  3932.893
 484  4016.913
 485  3777.564
 486  3587.281
 487  4017.955
 488  3875.542
 489  4016.246
 490  4114.421
 491  4094.438
 492  3658.005
 493  3252.424
 494  3194.526
 495  3566.895
 496  4164.458
 497  3424.037
 498  3286.315
 499  4015.783
 500  3484.72
 501  3649.417
 502  3926.686
 503  3853.795
 504  4250.851
 505  3816.979
 506  3986.891
 507  3862.669
 508  3633.462
 509  3573.728
 510  3446.57
 511  3739.412
