# Input file       =  1187746985.105509_cleaned.dat
# Candidate        =  PSR_0332+5434
# Telescope        =  AR
# Epoch_topo       =  57991.071806776723
# Epoch_bary       =  N/A
# T_sample         =  0.002
# Data Folded      =  7340032
# Data Avg         =  0.0255724302509667
# Data StdDev      =  2.18176224001807 
# Profile Bins     =  512
# Profile Avg      =  366.637725106968 
# Profile StdDev   =  261.229017649538 
# Reduced chi-sqr  =  1.538
# Prob(Noise)      <  5.23e-14   (~7.4 sigma)
# P_topo (ms)      =  714.463385016569  +/- 0.000235
# P'_topo (s/s)    =  -0                +/- 1.24e-10
# P''_topo (s/s^2) =  0                 +/- 5.47e-14
# P_bary (ms)      =  N/A
# P'_bary (s/s)    =  N/A
# P''_bary (s/s^2) =  N/A
# P_orb (s)        =  N/A
# asin(i)/c (s)    =  N/A
# eccentricity     =  N/A
# w (rad)          =  N/A
# T_peri           =  N/A
######################################################
   0  15.55317
   1  146.7951
   2  391.7955
   3  593.0129
   4  316.1589
   5  155.89
   6  331.8292
   7  299.0906
   8  224.9089
   9  340.2928
  10  188.445
  11  228.1142
  12  467.8357
  13  491.5351
  14  506.4893
  15  467.1684
  16  270.4706
  17  333.4269
  18  527.1259
  19  476.4794
  20  475.8714
  21  672.8873
  22  629.1345
  23  375.7293
  24  378.0264
  25  217.9505
  26  193.45
  27  410.4732
  28  692.2626
  29  784.9066
  30  721.0625
  31  149.6152
  32  -158.978
  33  259.1873
  34  349.9641
  35  340.5161
  36  110.4268
  37  -51.74179
  38  136.4511
  39  121.117
  40  352.999
  41  348.8677
  42  458.484
  43  462.0418
  44  378.2212
  45  56.56197
  46  428.0177
  47  526.7623
  48  434.3965
  49  587.062
  50  548.3806
  51  231.4047
  52  398.0467
  53  317.9756
  54  442.8404
  55  783.1038
  56  676.6547
  57  555.9193
  58  377.0426
  59  257.4485
  60  86.17844
  61  216.9909
  62  219.491
  63  466.1101
  64  630.3771
  65  341.5713
  66  375.6716
  67  377.6077
  68  509.9538
  69  348.6443
  70  198.8753
  71  464.2973
  72  494.9051
  73  330.7747
  74  344.6644
  75  155.0337
  76  306.945
  77  769.5805
  78  588.6
  79  529.9889
  80  445.2845
  81  154.873
  82  366.2542
  83  422.7458
  84  557.5818
  85  649.0242
  86  427.0367
  87  115.7734
  88  80.04208
  89  55.38337
  90  261.4336
  91  364.0427
  92  431.41
  93  235.8103
  94  215.7816
  95  349.17
  96  501.5915
  97  291.3867
  98  389.4319
  99  439.6999
 100  342.1093
 101  118.3431
 102  223.4976
 103  398.3301
 104  267.0717
 105  582.132
 106  469.9622
 107  467.7685
 108  469.4702
 109  422.1866
 110  639.7437
 111  721.6193
 112  884.9197
 113  714.8818
 114  720.4557
 115  426.798
 116  389.094
 117  220.6925
 118  160.8021
 119  373.7615
 120  335.5094
 121  536.2264
 122  630.0533
 123  609.9395
 124  442.2227
 125  395.5545
 126  292.3136
 127  453.9781
 128  725.1664
 129  766.5383
 130  722.9252
 131  622.9869
 132  303.8905
 133  261.0616
 134  24.74856
 135  333.3366
 136  536.569
 137  368.983
 138  16.19619
 139  439.5898
 140  462.3931
 141  470.306
 142  363.9129
 143  776.201
 144  1140.961
 145  1519.857
 146  1962.334
 147  1737.271
 148  1775.082
 149  1467.622
 150  1338.825
 151  767.8032
 152  411.6852
 153  514.2333
 154  777.6131
 155  575.2833
 156  402.903
 157  414.4781
 158  693.5109
 159  577.3473
 160  382.1218
 161  302.4277
 162  404.1437
 163  588.4827
 164  633.6282
 165  575.9281
 166  369.0187
 167  92.70164
 168  637.368
 169  702.5363
 170  643.1678
 171  549.3742
 172  296.3382
 173  365.1153
 174  353.0367
 175  287.8065
 176  78.66631
 177  322.6564
 178  547.8428
 179  359.8301
 180  164.8945
 181  133.6405
 182  147.4933
 183  307.4264
 184  514.2477
 185  571.8631
 186  415.5442
 187  233.4626
 188  311.3521
 189  553.5888
 190  528.1281
 191  517.1032
 192  309.468
 193  386.9651
 194  415.3273
 195  317.8465
 196  6.383108
 197  -11.19531
 198  152.8912
 199  -190.0641
 200  213.7982
 201  401.4936
 202  355.0755
 203  534.4583
 204  654.2072
 205  242.0869
 206  70.6328
 207  261.1156
 208  469.9322
 209  526.3145
 210  407.286
 211  446.3771
 212  321.5461
 213  399.6957
 214  263.739
 215  371.6252
 216  290.3847
 217  321.0133
 218  518.1175
 219  424.132
 220  372.0708
 221  468.6488
 222  445.101
 223  241.5341
 224  225.8493
 225  331.75
 226  394.0309
 227  277.0542
 228  292.0121
 229  356.5428
 230  358.3124
 231  373.8714
 232  189.7448
 233  344.4019
 234  539.433
 235  528.0695
 236  395.6013
 237  503.9385
 238  183.7479
 239  493.8963
 240  487.5937
 241  323.4383
 242  434.6828
 243  358.7859
 244  712.1398
 245  800.7764
 246  710.101
 247  450.6251
 248  418.0725
 249  379.4001
 250  528.6923
 251  623.1938
 252  487.3189
 253  646.4065
 254  472.5297
 255  90.33731
 256  63.32237
 257  138.9762
 258  278.0605
 259  331.1285
 260  219.2347
 261  398.4034
 262  646.6988
 263  428.0545
 264  336.411
 265  235.0263
 266  572.3835
 267  600.8206
 268  379.084
 269  287.7592
 270  512.9832
 271  467.386
 272  456.9391
 273  271.7842
 274  -65.79626
 275  -145.522
 276  91.29237
 277  -88.82845
 278  114.9265
 279  34.61166
 280  389.9339
 281  229.3972
 282  142.1295
 283  294.7747
 284  474.944
 285  418.382
 286  341.8945
 287  399.7816
 288  496.1852
 289  521.9565
 290  303.7257
 291  294.9387
 292  271.417
 293  224.1783
 294  489.6532
 295  614.9826
 296  691.3771
 297  512.8621
 298  245.9838
 299  223.3586
 300  529.4078
 301  631.5602
 302  403.2361
 303  78.17613
 304  113.6526
 305  214.8048
 306  659.0814
 307  659.0027
 308  263.7128
 309  418.5092
 310  539.4672
 311  601.5799
 312  503.6666
 313  648.1394
 314  520.262
 315  340.4353
 316  139.4806
 317  172.1241
 318  431.5204
 319  629.8992
 320  457.8575
 321  342.6497
 322  120.1772
 323  356.2943
 324  676.1727
 325  265.8948
 326  176.3464
 327  407.1187
 328  308.2852
 329  468.6624
 330  303.7446
 331  227.0826
 332  178.5069
 333  385.3979
 334  303.6691
 335  373.7108
 336  441.8846
 337  221.7034
 338  317.1187
 339  466.2546
 340  475.2258
 341  234.0635
 342  204.8935
 343  468.5864
 344  340.4864
 345  276.7008
 346  148.8846
 347  377.6694
 348  414.5302
 349  414.6971
 350  478.2523
 351  124.3304
 352  127.4645
 353  -74.82437
 354  81.33077
 355  111.6622
 356  106.6728
 357  348.1302
 358  612.4368
 359  316.6587
 360  260.8727
 361  275.7332
 362  375.4266
 363  484.4836
 364  457.1959
 365  634.1539
 366  571.9766
 367  295.014
 368  262.9018
 369  464.4441
 370  509.6135
 371  332.4484
 372  301.4588
 373  31.13295
 374  288.3846
 375  407.7216
 376  482.2892
 377  132.9527
 378  25.42014
 379  327.1799
 380  432.3208
 381  269.1034
 382  145.2349
 383  492.1087
 384  458.1833
 385  416.0029
 386  315.6822
 387  430.6803
 388  464.4747
 389  304.6955
 390  188.9952
 391  441.4716
 392  290.4264
 393  142.1212
 394  295.4014
 395  386.1036
 396  310.1489
 397  435.5021
 398  527.6483
 399  519.8433
 400  474.0786
 401  522.7465
 402  300.2778
 403  186.468
 404  223.0502
 405  240.8249
 406  115.7536
 407  268.4085
 408  354.7252
 409  171.8388
 410  277.6804
 411  142.7696
 412  199.2806
 413  254.0698
 414  79.24857
 415  275.497
 416  273.129
 417  413.5205
 418  343.6599
 419  4.400682
 420  145.9591
 421  -46.76661
 422  199.7833
 423  93.99684
 424  151.3419
 425  196.85
 426  101.3843
 427  -41.02064
 428  81.18103
 429  -89.06248
 430  -45.6773
 431  133.4519
 432  404.0061
 433  428.834
 434  414.5756
 435  212.6081
 436  277.7591
 437  459.7801
 438  146.7782
 439  45.6948
 440  347.2762
 441  487.2777
 442  283.3435
 443  309.2725
 444  253.5034
 445  250.2676
 446  58.49982
 447  144.0316
 448  428.4768
 449  697.6647
 450  487.9353
 451  558.6633
 452  328.9201
 453  174.5388
 454  241.5679
 455  163.2138
 456  43.30026
 457  234.3221
 458  218.0742
 459  215.4344
 460  173.889
 461  126.9002
 462  427.8162
 463  392.2261
 464  287.878
 465  351.0269
 466  85.12193
 467  164.7318
 468  482.2148
 469  541.2233
 470  496.5794
 471  136.0839
 472  278.857
 473  829.9265
 474  396.8618
 475  131.971
 476  268.5422
 477  144.4991
 478  224.8493
 479  -20.77736
 480  107.9646
 481  613.2882
 482  691.208
 483  410.8252
 484  396.8363
 485  356.5439
 486  105.6155
 487  134.0449
 488  484.8476
 489  468.01
 490  347.663
 491  367.137
 492  304.4457
 493  52.45751
 494  140.1405
 495  405.9971
 496  382.1917
 497  163.6514
 498  94.75186
 499  171.3729
 500  167.5414
 501  184.1517
 502  368.8518
 503  349.9495
 504  -1.640921
 505  7.764429
 506  234.3698
 507  315.6753
 508  130.4117
 509  125.4516
 510  344.177
 511  130.5532
