# Input file       =  1187660879.113576_cleaned.dat
# Candidate        =  PSR_0332+5434
# Telescope        =  AR
# Epoch_topo       =  57990.075209647868
# Epoch_bary       =  N/A
# T_sample         =  0.002
# Data Folded      =  7340032
# Data Avg         =  0.0111890540368002
# Data StdDev      =  1.00006421505909 
# Profile Bins     =  512
# Profile Avg      =  160.44985225537  
# Profile StdDev   =  119.740725040772 
# Reduced chi-sqr  =  1.292
# Prob(Noise)      <  8.85e-06   (~4.3 sigma)
# P_topo (ms)      =  714.463431463742  +/- 0.000199
# P'_topo (s/s)    =  -0                +/- 1.05e-10
# P''_topo (s/s^2) =  0                 +/- 4.63e-14
# P_bary (ms)      =  N/A
# P'_bary (s/s)    =  N/A
# P''_bary (s/s^2) =  N/A
# P_orb (s)        =  N/A
# asin(i)/c (s)    =  N/A
# eccentricity     =  N/A
# w (rad)          =  N/A
# T_peri           =  N/A
######################################################
   0  177.7052
   1  214.6911
   2  184.9962
   3  121.9523
   4  134.4141
   5  185.7663
   6  123.0997
   7  93.53865
   8  133.2124
   9  189.7918
  10  55.31239
  11  82.9593
  12  116.5236
  13  136.8794
  14  208.7789
  15  123.4675
  16  219.5691
  17  154.1419
  18  160.8828
  19  170.0417
  20  193.4554
  21  240.7933
  22  201.8671
  23  179.6299
  24  134.4538
  25  53.96104
  26  172.3763
  27  136.3998
  28  184.8994
  29  125.6489
  30  98.52462
  31  203.9291
  32  82.39314
  33  229.1646
  34  313.1398
  35  179.5291
  36  132.6393
  37  160.0561
  38  212.1929
  39  216.3787
  40  194.8205
  41  240.0658
  42  133.6289
  43  63.09055
  44  227.4233
  45  174.4186
  46  106.0437
  47  195.1147
  48  295.3554
  49  251.455
  50  243.8499
  51  218.2555
  52  250.0059
  53  140.6287
  54  54.56316
  55  154.8893
  56  164.9173
  57  233.0089
  58  161.3938
  59  228.3456
  60  272.375
  61  190.4911
  62  268.719
  63  75.06033
  64  128.9009
  65  223.0749
  66  181.2389
  67  140.5648
  68  84.90308
  69  133.0868
  70  124.2031
  71  96.56914
  72  220.3003
  73  171.6985
  74  121.9892
  75  173.4786
  76  231.3729
  77  216.9454
  78  270.5205
  79  189.3531
  80  259.1593
  81  129.2426
  82  119.5369
  83  -13.39075
  84  -36.86061
  85  70.17492
  86  206.4002
  87  265.6072
  88  315.6168
  89  160.2105
  90  -27.89999
  91  -92.54095
  92  33.77526
  93  204.5459
  94  66.30925
  95  121.472
  96  -2.664527
  97  0.4463949
  98  126.0924
  99  144.8027
 100  116.2171
 101  119.6471
 102  217.2519
 103  366.5793
 104  90.62582
 105  -3.853942
 106  49.79112
 107  137.6767
 108  105.9732
 109  160.6682
 110  169.1631
 111  152.3282
 112  192.7042
 113  121.2537
 114  -105.9886
 115  -97.54836
 116  121.8031
 117  176.2479
 118  141.2189
 119  21.91807
 120  94.43358
 121  222.4257
 122  191.3523
 123  169.2771
 124  191.7018
 125  281.8145
 126  293.4373
 127  158.3853
 128  160.8894
 129  222.4851
 130  219.7389
 131  191.2913
 132  223.1421
 133  241.0819
 134  119.3579
 135  156.5596
 136  256.4428
 137  392.4474
 138  377.2123
 139  170.4215
 140  168.9046
 141  225.4118
 142  274.5801
 143  152.5925
 144  34.91679
 145  96.03379
 146  25.91649
 147  30.45101
 148  94.52322
 149  122.8403
 150  139.09
 151  154.0678
 152  133.8087
 153  128.1523
 154  205.0614
 155  161.8225
 156  6.252455
 157  -44.41883
 158  -11.74002
 159  159.3566
 160  196.2822
 161  170.0184
 162  268.1676
 163  121.3105
 164  91.48538
 165  177.1693
 166  306.4845
 167  306.472
 168  125.0832
 169  94.13668
 170  169.3666
 171  126.7342
 172  157.6248
 173  192.7209
 174  108.4419
 175  67.10697
 176  137.0406
 177  201.6869
 178  247.7622
 179  156.8621
 180  39.15124
 181  251.9683
 182  137.0251
 183  210.9279
 184  178.148
 185  209.4099
 186  89.19789
 187  76.26404
 188  111.6988
 189  171.3072
 190  94.50925
 191  124.1209
 192  29.6177
 193  -0.9866285
 194  143.0145
 195  116.6242
 196  120.753
 197  165.3074
 198  120.0017
 199  100.9049
 200  76.66476
 201  103.7291
 202  123.9802
 203  72.65749
 204  50.4861
 205  166.3879
 206  200.489
 207  274.2047
 208  161.3549
 209  97.85439
 210  100.8113
 211  124.2417
 212  217.5435
 213  170.6511
 214  140.1534
 215  158.6202
 216  231.0437
 217  166.6594
 218  82.92873
 219  273.5682
 220  256.5621
 221  208.0482
 222  192.7297
 223  172.2203
 224  133.9979
 225  116.7231
 226  80.34756
 227  -0.3189953
 228  112.8339
 229  121.4792
 230  128.2225
 231  109.4586
 232  195.1507
 233  202.9025
 234  149.6061
 235  110.0337
 236  195.8597
 237  241.8074
 238  169.4447
 239  191.9669
 240  174.6939
 241  176.0962
 242  306.9771
 243  271.3982
 244  264.382
 245  203.6318
 246  96.16018
 247  71.02811
 248  194.004
 249  214.425
 250  60.09787
 251  75.3793
 252  223.7809
 253  223.5625
 254  142.7118
 255  183.4035
 256  116.8902
 257  88.07258
 258  35.48636
 259  44.67258
 260  -34.47001
 261  45.62815
 262  187.2803
 263  191.1782
 264  198.0021
 265  78.55679
 266  -160.491
 267  62.99334
 268  267.8485
 269  137.4278
 270  130.9946
 271  137.5354
 272  68.44891
 273  114.8025
 274  175.8211
 275  220.2526
 276  155.485
 277  113.8845
 278  33.33776
 279  170.7064
 280  67.24738
 281  164.4437
 282  61.44607
 283  205.1961
 284  174.8454
 285  -15.80341
 286  -59.88535
 287  122.236
 288  277.1578
 289  218.1143
 290  217.0813
 291  250.3458
 292  230.286
 293  34.92177
 294  116.1553
 295  220.489
 296  280.5281
 297  187.4199
 298  149.024
 299  118.4789
 300  169.1588
 301  172.113
 302  44.68838
 303  94.55487
 304  111.9122
 305  181.9303
 306  211.215
 307  109.8186
 308  190.6362
 309  135.9389
 310  108.2323
 311  101.4002
 312  113.3937
 313  178.7096
 314  253.8221
 315  169.479
 316  175.6338
 317  84.12615
 318  27.31089
 319  -68.90807
 320  171.9233
 321  262.9821
 322  141.3835
 323  223.8038
 324  270.343
 325  340.2528
 326  252.7846
 327  450.6053
 328  627.2736
 329  710.0015
 330  927.4286
 331  788.4313
 332  554.1072
 333  309.4565
 334  239.7334
 335  264.068
 336  170.9082
 337  262.0378
 338  285.9636
 339  113.7679
 340  52.42269
 341  154.9794
 342  227.258
 343  348.8632
 344  309.2031
 345  247.2039
 346  272.6823
 347  148.6318
 348  79.37676
 349  216.9095
 350  236.837
 351  36.93274
 352  125.83
 353  243.5753
 354  245.6091
 355  129.1768
 356  167.4395
 357  95.54057
 358  41.9695
 359  38.91647
 360  1.80303
 361  91.85846
 362  257.4502
 363  110.3566
 364  50.03954
 365  112.3075
 366  54.97509
 367  161.4893
 368  140.3493
 369  123.3205
 370  18.89499
 371  159.719
 372  259.234
 373  287.8732
 374  124.4345
 375  215.5359
 376  176.1384
 377  176.2063
 378  120.0121
 379  92.21619
 380  193.6258
 381  84.30824
 382  88.89794
 383  104.0536
 384  80.35982
 385  219.413
 386  194.9814
 387  118.2617
 388  172.768
 389  124.3095
 390  219.6772
 391  283.631
 392  140.2722
 393  104.8091
 394  199.3518
 395  172.2745
 396  264.1897
 397  230.9143
 398  91.97025
 399  91.37907
 400  96.0136
 401  125.9097
 402  128.0176
 403  69.68472
 404  89.00286
 405  75.75939
 406  203.4285
 407  276.6156
 408  337.2227
 409  284.7928
 410  148.1056
 411  183.1357
 412  115.1369
 413  227.4958
 414  273.0292
 415  217.8151
 416  112.5183
 417  105.7048
 418  204.4975
 419  206.5396
 420  57.66177
 421  67.34547
 422  186.6722
 423  208.2063
 424  247.9262
 425  241.9711
 426  136.2611
 427  75.49057
 428  179.3073
 429  111.4434
 430  139.8826
 431  111.1702
 432  144.1482
 433  181.5317
 434  140.5503
 435  183.0505
 436  185.5191
 437  209.6755
 438  192.9473
 439  92.94595
 440  233.869
 441  298.8107
 442  242.7678
 443  135.0552
 444  103.2672
 445  207.1223
 446  163.2419
 447  189.5562
 448  140.0911
 449  209.4039
 450  218.9277
 451  118.4482
 452  -3.512637
 453  106.6436
 454  232.6376
 455  152.3665
 456  46.7713
 457  102.4968
 458  80.20396
 459  172
 460  193.7863
 461  157.0767
 462  187.0919
 463  128.5901
 464  -7.013375
 465  202.4626
 466  231.4331
 467  227.5494
 468  202.0293
 469  169.6267
 470  159.1797
 471  274.1866
 472  226.218
 473  124.6541
 474  80.66169
 475  200.6499
 476  318.1776
 477  164.249
 478  175.7574
 479  174.7761
 480  206.3901
 481  184.8659
 482  141.6116
 483  62.27455
 484  118.2825
 485  77.06121
 486  60.11423
 487  143.0562
 488  225.7379
 489  191.6677
 490  35.54114
 491  -8.594934
 492  177.2112
 493  119.8026
 494  -5.513073
 495  194.7914
 496  218.1702
 497  228.0587
 498  76.09784
 499  -41.84834
 500  76.60678
 501  134.1202
 502  164.5303
 503  257.8603
 504  220.812
 505  225.1686
 506  227.548
 507  134.6848
 508  178.5831
 509  127.9752
 510  200.7279
 511  159.7004
