# Input file       =  1187818549.106852-PSRB0329-2ms-sampling-dd.dat
# Candidate        =  PSR_0332+5434
# Telescope        =  AR
# Epoch_topo       =  57991.900093829303
# Epoch_bary       =  N/A
# T_sample         =  0.002
# Data Folded      =  7208960
# Data Avg         =  5.76754003452813e-10
# Data StdDev      =  3.92586887917447 
# Profile Bins     =  512
# Profile Avg      =  0.0707601945181971
# Profile StdDev   =  465.840365476315 
# Reduced chi-sqr  =  0.762
# Prob(Noise)      <  1   (~0.0 sigma)
# P_topo (ms)      =  714.463347371075  +/- 0.00178
# P'_topo (s/s)    =  -0                +/- 9.54e-10
# P''_topo (s/s^2) =  0                 +/- 4.29e-13
# P_bary (ms)      =  N/A
# P'_bary (s/s)    =  N/A
# P''_bary (s/s^2) =  N/A
# P_orb (s)        =  N/A
# asin(i)/c (s)    =  N/A
# eccentricity     =  N/A
# w (rad)          =  N/A
# T_peri           =  N/A
######################################################
   0  -88.33414
   1  -38.28275
   2  36.16254
   3  -50.41096
   4  -414.5859
   5  -428.6425
   6  -513.27
   7  -10.87956
   8  -3.554343
   9  -66.9304
  10  -286.654
  11  157.1778
  12  -7.696484
  13  -79.19508
  14  -84.67467
  15  -152.758
  16  -221.6186
  17  -68.50312
  18  289.4594
  19  81.65192
  20  -125.7115
  21  96.76603
  22  13.0021
  23  -29.10855
  24  -245.4294
  25  19.76206
  26  -288.7156
  27  -255.8817
  28  66.8656
  29  216.9681
  30  -18.97517
  31  -124.788
  32  -180.9769
  33  -106.729
  34  127.2103
  35  56.90056
  36  -169.4133
  37  -84.31325
  38  -59.03319
  39  -245.9948
  40  -165.2011
  41  94.33161
  42  88.39472
  43  167.953
  44  -92.77613
  45  -85.76849
  46  -162.8519
  47  -405.6125
  48  -14.48564
  49  246.438
  50  -68.45644
  51  134.8661
  52  167.8225
  53  101.1974
  54  160.1132
  55  24.0197
  56  -253.5225
  57  -203.4633
  58  -93.9184
  59  -121.9033
  60  -1.828937
  61  196.3114
  62  293.4293
  63  316.8246
  64  -85.26674
  65  -91.79507
  66  -63.78692
  67  -18.79869
  68  -170.9542
  69  58.77408
  70  36.63649
  71  -164.4775
  72  -88.23518
  73  -230.4067
  74  30.55994
  75  118.956
  76  241.8581
  77  -2.687435
  78  -114.7564
  79  11.13618
  80  -153.8041
  81  -129.6287
  82  257.3003
  83  325.0328
  84  255.5289
  85  378.7769
  86  78.74977
  87  8.999089
  88  82.34458
  89  217.4502
  90  256.5738
  91  360.0166
  92  -2.501059
  93  -636.9544
  94  -332.8643
  95  -428.0093
  96  -512.0775
  97  -294.7702
  98  -276.549
  99  62.50136
 100  -126.9152
 101  -4.509319
 102  -43.11066
 103  213.5471
 104  -202.6678
 105  -385.2776
 106  -539.5174
 107  -305.8888
 108  -106.3077
 109  -335.0942
 110  -7.357516
 111  204.5816
 112  -49.69276
 113  -429.1364
 114  0.07296851
 115  43.31466
 116  165.7429
 117  110.1677
 118  25.15627
 119  -228.7124
 120  -283.5099
 121  125.1171
 122  639.8164
 123  213.1529
 124  -294.6639
 125  -256.0185
 126  -243.3509
 127  -437.1066
 128  -194.7804
 129  -81.73294
 130  -92.98193
 131  -49.75928
 132  -9.101774
 133  -294.8107
 134  -250.791
 135  -33.7727
 136  156.4919
 137  76.18311
 138  341.9249
 139  -16.16752
 140  -39.56024
 141  19.02557
 142  -142.8327
 143  40.57715
 144  220.7318
 145  0.8801786
 146  -136.0934
 147  9.337997
 148  57.06161
 149  105.1257
 150  -67.7476
 151  -255.8688
 152  -183.8243
 153  -332.9867
 154  -446.9211
 155  -566.4651
 156  -397.7647
 157  -106.0132
 158  -215.7173
 159  -323.1137
 160  -37.12247
 161  330.4073
 162  267.1348
 163  -113.5822
 164  -8.772868
 165  152.7397
 166  49.42588
 167  -108.7826
 168  -151.7446
 169  -21.82224
 170  -168.5949
 171  -55.95414
 172  191.5142
 173  35.28481
 174  -180.6023
 175  -271.6862
 176  -257.859
 177  35.71188
 178  144.6896
 179  -69.97279
 180  33.26442
 181  359.6372
 182  89.43333
 183  -291.1619
 184  -192.5763
 185  26.31286
 186  -59.78025
 187  67.86168
 188  121.2811
 189  -67.99219
 190  82.53613
 191  182.6292
 192  -3.7673
 193  10.31295
 194  139.8898
 195  -42.51105
 196  -328.7639
 197  -283.4778
 198  -117.6581
 199  -253.6974
 200  -120.224
 201  -384.4573
 202  -184.8116
 203  76.22127
 204  -270.5605
 205  -382.9322
 206  -109.4323
 207  -6.978036
 208  -40.99792
 209  -231.0439
 210  -84.88344
 211  151.26
 212  -358.7519
 213  -205.817
 214  -248.2524
 215  -24.71583
 216  -151.4122
 217  -228.9236
 218  -42.2282
 219  -164.1001
 220  158.5394
 221  17.52662
 222  -190.6026
 223  5.069457
 224  129.6682
 225  -84.55172
 226  -451.0687
 227  -467.1169
 228  -486.742
 229  -120.3295
 230  -457.3611
 231  -298.8423
 232  -159.3112
 233  -679.2875
 234  -671.0542
 235  -93.39964
 236  -325.9722
 237  -624.0257
 238  -429.5581
 239  -203.6618
 240  -312.4591
 241  -475.9056
 242  -755.2347
 243  -347.25
 244  -254.8601
 245  -165.3342
 246  -84.84405
 247  -290.1258
 248  -405.7488
 249  -363.9447
 250  97.10964
 251  192.0742
 252  -18.49457
 253  -6.533382
 254  154.1701
 255  -233.2654
 256  -176.3673
 257  -22.38579
 258  -30.85638
 259  -156.8395
 260  48.15596
 261  215.3946
 262  -20.70299
 263  132.701
 264  152.628
 265  -132.5291
 266  -321.8638
 267  -224.9067
 268  146.3475
 269  225.091
 270  380.9926
 271  348.4601
 272  22.83598
 273  17.83409
 274  -36.33088
 275  245.8353
 276  376.0791
 277  256.0331
 278  172.3252
 279  519.1322
 280  157.0493
 281  110.9816
 282  57.77549
 283  28.63519
 284  -1.505252
 285  106.6503
 286  -42.93292
 287  372.3581
 288  -183.4147
 289  25.14145
 290  191.2294
 291  312.0527
 292  210.4531
 293  236.6579
 294  519.1112
 295  152.0563
 296  -127.7997
 297  78.93657
 298  450.7907
 299  45.8066
 300  97.32523
 301  14.37427
 302  -157.1791
 303  -122.1545
 304  200.2688
 305  365.4131
 306  171.4761
 307  12.64391
 308  186.3956
 309  -77.12531
 310  -291.327
 311  118.8387
 312  228.0849
 313  127.387
 314  23.71388
 315  -60.76752
 316  206.0493
 317  -30.05161
 318  -4.082519
 319  248.1061
 320  -57.82546
 321  -65.79435
 322  -383.3705
 323  156.3319
 324  328.7213
 325  154.5025
 326  234.3972
 327  655.0228
 328  693.1069
 329  763.9744
 330  965.1349
 331  1182.661
 332  1573.212
 333  1754.438
 334  1649.337
 335  1437.535
 336  1340.426
 337  779.1628
 338  441.1604
 339  147.3962
 340  54.27682
 341  148.0005
 342  -28.06333
 343  8.68011
 344  3.757109
 345  120.7441
 346  304.7612
 347  461.166
 348  713.7278
 349  690.8364
 350  397.8734
 351  198.3122
 352  129.3082
 353  -26.25827
 354  -25.4942
 355  19.4999
 356  326.136
 357  379.2056
 358  474.3823
 359  413.2042
 360  73.10468
 361  424.2002
 362  375.2787
 363  494.1407
 364  149.9651
 365  483.1687
 366  476.7476
 367  355.5422
 368  87.5125
 369  134.2184
 370  125.5057
 371  386.0844
 372  543.1024
 373  -83.4924
 374  164.2124
 375  392.2264
 376  410.1131
 377  121.3629
 378  68.97217
 379  20.08059
 380  -230.7151
 381  -191.3664
 382  -178.5044
 383  12.73596
 384  -107.9602
 385  -352.1228
 386  142.1157
 387  382.8999
 388  98.07129
 389  -217.0557
 390  105.711
 391  52.85772
 392  -85.54593
 393  45.61133
 394  333.3431
 395  361.4391
 396  -261.4425
 397  22.63837
 398  253.2215
 399  -125.0973
 400  -282.3301
 401  -262.1938
 402  -421.0524
 403  2.469548
 404  184.8185
 405  263.8479
 406  -302.6628
 407  -289.4332
 408  -30.08899
 409  -181.5988
 410  -226.1375
 411  -108.0968
 412  66.29137
 413  -77.98205
 414  -459.9131
 415  -436.9278
 416  -417.3599
 417  -99.34893
 418  77.93693
 419  -32.00699
 420  -223.2524
 421  -399.1682
 422  -235.1917
 423  -223.7119
 424  -236.3056
 425  144.7162
 426  -10.27633
 427  -100.7891
 428  55.23081
 429  266.4357
 430  176.7315
 431  98.50782
 432  271.0196
 433  -213.1417
 434  -306.7891
 435  -310.6677
 436  -170.375
 437  154.5425
 438  217.9472
 439  10.38504
 440  -200.1322
 441  -278.3578
 442  -736.1882
 443  -362.0375
 444  -45.45174
 445  -60.23759
 446  -59.98867
 447  -575.2017
 448  -299.6922
 449  -393.4637
 450  -134.1315
 451  171.1976
 452  10.28372
 453  266.2165
 454  290.6739
 455  -279.714
 456  -195.0513
 457  -70.4219
 458  -356.3207
 459  -215.8324
 460  -10.9081
 461  -95.46753
 462  -180.7816
 463  98.2878
 464  -204.0943
 465  -202.4922
 466  -255.0469
 467  -26.62286
 468  13.17487
 469  -71.02213
 470  -112.8059
 471  148.3492
 472  242.7748
 473  -131.8606
 474  -270.0954
 475  -9.265936
 476  -167.6172
 477  57.69655
 478  15.68123
 479  3.017427
 480  -154.385
 481  -149.7128
 482  105.3373
 483  -88.112
 484  -34.82911
 485  39.39846
 486  305.0114
 487  159.5893
 488  -380.8615
 489  -231.0506
 490  310.7543
 491  96.05903
 492  74.4
 493  104.6813
 494  -132.7008
 495  -3.222206
 496  78.51334
 497  -167.9519
 498  35.00895
 499  280.1217
 500  -77.67935
 501  -163.0396
 502  -249.7789
 503  299.6631
 504  382.5297
 505  257.9121
 506  130.0232
 507  -100.6435
 508  282.4153
 509  91.87794
 510  86.18465
 511  -53.79685
