# Input file       =  1187331128.114810-PSRB0329-2ms-sampling-dd.dat
# Candidate        =  PSR_0332+5434
# Telescope        =  AR
# Epoch_topo       =  57986.258647162154
# Epoch_bary       =  N/A
# T_sample         =  0.002
# Data Folded      =  7340032
# Data Avg         =  -4.7037222699549e-10
# Data StdDev      =  7.2087528127973  
# Profile Bins     =  512
# Profile Avg      =  0.111254766853164
# Profile StdDev   =  863.125862765774 
# Reduced chi-sqr  =  0.945
# Prob(Noise)      <  0.81   (~0.0 sigma)
# P_topo (ms)      =  714.464102442754  +/- 9.75e-05
# P'_topo (s/s)    =  -0                +/- 5.14e-11
# P''_topo (s/s^2) =  0                 +/- 2.27e-14
# P_bary (ms)      =  N/A
# P'_bary (s/s)    =  N/A
# P''_bary (s/s^2) =  N/A
# P_orb (s)        =  N/A
# asin(i)/c (s)    =  N/A
# eccentricity     =  N/A
# w (rad)          =  N/A
# T_peri           =  N/A
######################################################
   0  -480.1492
   1  -460.6552
   2  62.18281
   3  -30.80911
   4  -224.5329
   5  228.1527
   6  358.9457
   7  248.1936
   8  -394.7284
   9  -737.6501
  10  -726.465
  11  -336.0451
  12  544.4802
  13  323.5913
  14  301.5368
  15  1.042935
  16  -499.775
  17  299.6802
  18  147.5119
  19  391.2807
  20  274.192
  21  176.7057
  22  316.1198
  23  134.6194
  24  -172.0883
  25  -634.5769
  26  -789.9586
  27  -251.0227
  28  155.3187
  29  72.58865
  30  451.9387
  31  -99.88551
  32  -567.1452
  33  -530.3447
  34  -611.7881
  35  -458.8186
  36  -411.3102
  37  -35.72548
  38  -82.05341
  39  168.8327
  40  -90.28513
  41  -60.23281
  42  -191.8121
  43  -468.2989
  44  -6.278424
  45  102.5277
  46  61.76723
  47  233.5936
  48  113.6048
  49  -296.1509
  50  -455.5634
  51  -428.7971
  52  -46.41904
  53  -280.0085
  54  208.9445
  55  514.8347
  56  329.4546
  57  -97.58577
  58  -543.8995
  59  -584.9628
  60  -473.6224
  61  -271.1133
  62  -658.3804
  63  -844.9954
  64  -989.9841
  65  -567.1964
  66  -300.6777
  67  -306.1736
  68  50.0549
  69  -371.7034
  70  -421.3533
  71  -755.5847
  72  -723.3182
  73  -489.7451
  74  356.2854
  75  -46.76976
  76  -238.7403
  77  -664.5739
  78  -309.1654
  79  -5.673098
  80  78.8274
  81  378.8071
  82  349.439
  83  -156.1242
  84  -803.9022
  85  -872.3978
  86  -182.235
  87  -158.0376
  88  15.21653
  89  -206.263
  90  -428.7128
  91  -521.436
  92  -711.2507
  93  -550.3203
  94  -612.5802
  95  -333.8227
  96  -85.86095
  97  197.7514
  98  205.3902
  99  -28.00883
 100  -87.88019
 101  -305.0785
 102  -942.2071
 103  -990.7969
 104  -663.9924
 105  330.3736
 106  348.4987
 107  -166.5253
 108  -438.4596
 109  -899.1669
 110  -488.2816
 111  -194.0941
 112  366.1982
 113  443.5501
 114  546.4047
 115  304.7487
 116  120.17
 117  -158.4706
 118  -470.0408
 119  -422.9696
 120  -453.4374
 121  -319.4639
 122  -177.1443
 123  -81.81985
 124  -319.0145
 125  -825.8349
 126  -745.0789
 127  -404.2248
 128  158.1994
 129  5.989361
 130  -249.4785
 131  -650.2419
 132  -619.9563
 133  -324.5914
 134  -550.6818
 135  -538.8683
 136  -822.7668
 137  -480.9062
 138  -701.0536
 139  -478.4326
 140  116.5185
 141  -116.9251
 142  -346.3346
 143  -778.8011
 144  -575.4625
 145  -684.3307
 146  -678.4532
 147  -182.8303
 148  197.0105
 149  90.4142
 150  -518.3572
 151  -878.703
 152  -678.4026
 153  -499.5505
 154  -430.0796
 155  -278.8438
 156  -289.5194
 157  -605.0648
 158  -831.3198
 159  -772.0344
 160  -1053.485
 161  -1445.804
 162  -955.977
 163  -221.9219
 164  -139.2448
 165  -201.4147
 166  -388.3795
 167  -511.0343
 168  -686.6315
 169  -578.7791
 170  -650.4447
 171  -126.5851
 172  125.6733
 173  148.4562
 174  147.244
 175  -419.7339
 176  -860.6862
 177  -519.3986
 178  -1063.489
 179  -475.5187
 180  -214.3018
 181  261.3903
 182  -333.8768
 183  -22.71707
 184  422.1623
 185  17.88075
 186  5.548275
 187  -146.7745
 188  -327.555
 189  -556.2357
 190  -282.5136
 191  -255.1923
 192  -316.8395
 193  -315.6019
 194  -356.3259
 195  -104.952
 196  116.7006
 197  -14.27307
 198  -166.515
 199  -407.0211
 200  -722.9465
 201  -22.14804
 202  96.34433
 203  -440.5068
 204  52.10072
 205  526.6375
 206  747.7794
 207  686.0715
 208  387.6788
 209  317.9142
 210  -65.62139
 211  353.448
 212  -122.0471
 213  367.8934
 214  173.4829
 215  300.8911
 216  792.2599
 217  449.8959
 218  424.9443
 219  50.34124
 220  -300.3487
 221  62.99526
 222  -179.0468
 223  270.3212
 224  602.0764
 225  294.6196
 226  101.7774
 227  -136.1846
 228  144.9157
 229  -100.5367
 230  121.8044
 231  -82.24355
 232  104.0856
 233  587.7745
 234  447.4445
 235  649.2006
 236  247.5058
 237  -38.6586
 238  129.9244
 239  497.1427
 240  450.7168
 241  237.4032
 242  -17.20352
 243  -53.51765
 244  -59.70834
 245  146.5365
 246  379.2423
 247  46.98351
 248  241.8949
 249  548.8502
 250  -50.58015
 251  -44.57975
 252  -284.304
 253  -173.8292
 254  210.5569
 255  24.62025
 256  -75.16826
 257  -70.88414
 258  300.8381
 259  -529.967
 260  -564.3679
 261  -292.1863
 262  -112.1703
 263  118.8919
 264  99.87432
 265  453.4311
 266  543.7811
 267  438.0647
 268  489.3239
 269  862.8732
 270  1068.229
 271  831.8453
 272  889.7757
 273  903.0038
 274  808.0509
 275  964.241
 276  1053.901
 277  805.3018
 278  573.5836
 279  352.1083
 280  -199.1076
 281  -123.2427
 282  -52.56866
 283  505.6412
 284  437.5903
 285  -202.1258
 286  -201.5318
 287  -61.04329
 288  218.4109
 289  -38.29491
 290  375.6331
 291  195.8866
 292  -49.86147
 293  7.206594
 294  289.4691
 295  405.5233
 296  17.74155
 297  -369.3135
 298  161.1775
 299  260.1643
 300  170.76
 301  -71.25945
 302  213.6834
 303  32.74664
 304  58.15513
 305  -42.82557
 306  -292.3027
 307  8.669607
 308  367.2033
 309  408.965
 310  -73.77275
 311  -238.7653
 312  -260.0516
 313  -164.1686
 314  -213.3165
 315  -211.1445
 316  15.70782
 317  578.1746
 318  366.4509
 319  -27.00314
 320  397.2501
 321  -105.2092
 322  325.4933
 323  1951.468
 324  4657.372
 325  5131.696
 326  5146.837
 327  2394.57
 328  999.7749
 329  -300.953
 330  1829.488
 331  1374.441
 332  963.1097
 333  798.0336
 334  525.4844
 335  68.5957
 336  14.07141
 337  111.4723
 338  420.6969
 339  759.5131
 340  649.0013
 341  284.6435
 342  220.3066
 343  121.2658
 344  338.8765
 345  -209.053
 346  -308.868
 347  -469.0409
 348  93.36925
 349  351.8713
 350  557.4028
 351  280.7001
 352  -392.8414
 353  -308.1278
 354  -301.2483
 355  -364.5631
 356  -182.1762
 357  310.7088
 358  760.3132
 359  540.486
 360  -90.11496
 361  128.5206
 362  -395.7488
 363  -394.2801
 364  215.8139
 365  -23.84147
 366  -3.886501
 367  -310.1043
 368  -356.2368
 369  -58.05352
 370  -41.69569
 371  -84.82175
 372  -326.0262
 373  45.75537
 374  511.3513
 375  325.5432
 376  202.8937
 377  -273.3918
 378  -925.3881
 379  -636.9168
 380  -151.8374
 381  98.82429
 382  -114.369
 383  -410.5624
 384  -682.4756
 385  -216.4879
 386  -262.7822
 387  -639.8928
 388  -469.9836
 389  -177.3253
 390  -240.6353
 391  -383.3656
 392  -366.6213
 393  -705.2943
 394  -783.0278
 395  -645.4388
 396  -114.2638
 397  133.1899
 398  524.2025
 399  667.9373
 400  344.1358
 401  -79.22691
 402  -108.0433
 403  280.4975
 404  85.12233
 405  186.275
 406  357.5496
 407  -398.6571
 408  -238.4063
 409  -226.5153
 410  -371.7858
 411  -275.3982
 412  -239.9686
 413  -469.196
 414  -476.3476
 415  -113.8235
 416  -126.9092
 417  -296.9093
 418  -260.4725
 419  243.1115
 420  -258.79
 421  -658.7402
 422  -306.6707
 423  31.5702
 424  -171.8299
 425  -248.4496
 426  -140.238
 427  -374.3672
 428  -567.4785
 429  -344.8001
 430  491.493
 431  530.7368
 432  367.8773
 433  240.7999
 434  365.55
 435  39.51514
 436  -249.4598
 437  -475.2268
 438  -106.3242
 439  -206.2971
 440  219.7626
 441  387.4732
 442  722.909
 443  33.31413
 444  -308.4781
 445  222.991
 446  -488.5643
 447  -438.2134
 448  403.2768
 449  723.403
 450  222.1684
 451  -156.7027
 452  83.33253
 453  -1.716552
 454  -456.7065
 455  -347.4833
 456  -124.2544
 457  207.4987
 458  170.4854
 459  133.4608
 460  -175.0016
 461  -188.4077
 462  -38.29889
 463  286.0569
 464  764.3336
 465  896.6964
 466  788.2835
 467  1366.147
 468  1705.736
 469  1526.842
 470  1803.423
 471  1352.62
 472  857.2907
 473  122.6796
 474  -533.4574
 475  -453.9774
 476  -65.43687
 477  -210.7479
 478  -355.0826
 479  -482.3076
 480  -2.153653
 481  -82.05978
 482  591.1577
 483  857.6345
 484  533.5035
 485  273.9283
 486  -411.5381
 487  -268.6257
 488  -559.6919
 489  -489.0205
 490  -150.5675
 491  -39.01324
 492  -136.3968
 493  36.89949
 494  -154.8773
 495  -356.5133
 496  2.95767
 497  196.3553
 498  69.24501
 499  114.7025
 500  320.8085
 501  196.1764
 502  336.4783
 503  244.8438
 504  151.7778
 505  343.5025
 506  433.3589
 507  517.676
 508  152.279
 509  239.2256
 510  101.3084
 511  -174.5493
