# Input file       =  1187143878.108323_cleaned.dat
# Candidate        =  PSR_0332+5434
# Telescope        =  AR
# Epoch_topo       =  57984.091401716702
# Epoch_bary       =  N/A
# T_sample         =  0.002
# Data Folded      =  7340032
# Data Avg         =  0.00898073258492638
# Data StdDev      =  1.00008468810936 
# Profile Bins     =  512
# Profile Avg      =  128.637380973286 
# Profile StdDev   =  119.743176341245 
# Reduced chi-sqr  =  1.457
# Prob(Noise)      <  5.79e-11   (~6.4 sigma)
# P_topo (ms)      =  714.464072987167  +/- 0.000157
# P'_topo (s/s)    =  -0                +/- 8.29e-11
# P''_topo (s/s^2) =  0                 +/- 3.66e-14
# P_bary (ms)      =  N/A
# P'_bary (s/s)    =  N/A
# P''_bary (s/s^2) =  N/A
# P_orb (s)        =  N/A
# asin(i)/c (s)    =  N/A
# eccentricity     =  N/A
# w (rad)          =  N/A
# T_peri           =  N/A
######################################################
   0  779.9341
   1  583.3964
   2  434.8346
   3  342.5984
   4  338.7199
   5  238.9231
   6  127.5981
   7  250.5883
   8  172.5268
   9  82.65725
  10  70.71983
  11  113.7515
  12  91.06694
  13  123.6873
  14  163.5737
  15  81.74989
  16  117.8857
  17  219.9477
  18  221.809
  19  128.2422
  20  -35.40606
  21  -91.49286
  22  118.1656
  23  161.5049
  24  69.5107
  25  -54.58711
  26  -26.70822
  27  40.95442
  28  169.4047
  29  246.9876
  30  250.0204
  31  187.7839
  32  120.9365
  33  166.7706
  34  211.7499
  35  208.8327
  36  162.1261
  37  186.5458
  38  81.38111
  39  17.83927
  40  42.54266
  41  153.4638
  42  274.309
  43  191.7061
  44  201.8446
  45  247.3575
  46  103.5723
  47  93.18432
  48  73.24448
  49  107.7626
  50  69.10023
  51  99.91792
  52  -1.216558
  53  144.1386
  54  109.2836
  55  219.7478
  56  98.24338
  57  -52.46186
  58  45.52798
  59  137.9783
  60  264.1866
  61  108.5666
  62  121.7483
  63  235.9356
  64  160.1494
  65  183.9802
  66  220.5148
  67  273.1857
  68  259.2806
  69  21.33705
  70  -15.41262
  71  54.5365
  72  121.6276
  73  56.85891
  74  114.8099
  75  240.9586
  76  211.4894
  77  178.1036
  78  174.9193
  79  203.8488
  80  184.5189
  81  217.7068
  82  102.9791
  83  -40.01843
  84  -64.96791
  85  112.7254
  86  213.3795
  87  146.5467
  88  199.8495
  89  282.8077
  90  222.7341
  91  136.6653
  92  162.7425
  93  176.5054
  94  73.68668
  95  67.18518
  96  101.4519
  97  286.6816
  98  317.6494
  99  246.5929
 100  273.6766
 101  179.6658
 102  85.19656
 103  91.83621
 104  52.52557
 105  49.85976
 106  39.57545
 107  54.54941
 108  174.5603
 109  260.0712
 110  272.6675
 111  129.5325
 112  113.4071
 113  46.85067
 114  105.712
 115  181.8873
 116  221.5143
 117  284.652
 118  51.7839
 119  173.2053
 120  330.7281
 121  278.1798
 122  197.9691
 123  116.0822
 124  185.3573
 125  155.4109
 126  78.75558
 127  30.68984
 128  24.70758
 129  -26.79087
 130  114.3152
 131  114.8166
 132  117.9335
 133  111.9363
 134  156.4025
 135  113.437
 136  -48.76903
 137  -126.9796
 138  -34.294
 139  41.26578
 140  149.3827
 141  171.8365
 142  151.6381
 143  34.12564
 144  -61.3163
 145  67.3382
 146  102.9193
 147  64.68358
 148  159.4594
 149  212.5829
 150  76.14904
 151  93.81477
 152  153.7102
 153  172.2431
 154  58.68926
 155  23.66078
 156  100.6521
 157  175.5652
 158  167.1888
 159  79.01264
 160  59.29013
 161  197.7016
 162  219.061
 163  156.9361
 164  58.79538
 165  106.3607
 166  289.005
 167  169.8217
 168  146.359
 169  277.1906
 170  305.1046
 171  231.5846
 172  57.8573
 173  49.1041
 174  121.4716
 175  173.4026
 176  157.0068
 177  234.4911
 178  -10.45205
 179  40.9541
 180  65.72858
 181  49.84051
 182  56.87442
 183  99.04271
 184  109.7843
 185  95.59863
 186  171.2492
 187  100.5274
 188  158.0894
 189  110.0508
 190  24.77434
 191  59.21167
 192  -19.05682
 193  0.5176737
 194  160.7838
 195  224.6903
 196  162.4403
 197  113.14
 198  66.53073
 199  94.97851
 200  74.36024
 201  61.82863
 202  -43.53407
 203  -158.5984
 204  17.26475
 205  235.1279
 206  157.2937
 207  27.38582
 208  -23.75814
 209  253.8505
 210  66.70093
 211  62.32333
 212  120.9157
 213  124.5087
 214  203.8588
 215  122.3382
 216  101.0612
 217  97.62407
 218  86.91319
 219  150.092
 220  200.4637
 221  228.7295
 222  64.83661
 223  -30.11058
 224  -12.92744
 225  -61.8902
 226  67.3185
 227  132.9624
 228  179.0291
 229  62.29032
 230  -68.68063
 231  -88.28941
 232  2.031037
 233  -15.88678
 234  63.81218
 235  71.75311
 236  76.23978
 237  144.4985
 238  35.39354
 239  130.8238
 240  58.54349
 241  68.12058
 242  153.5186
 243  -0.5116906
 244  27.14166
 245  22.238
 246  146.0378
 247  120.8867
 248  64.02006
 249  171.5063
 250  145.1631
 251  143.3219
 252  224.9883
 253  69.36233
 254  69.14792
 255  67.84983
 256  117.4029
 257  173.1762
 258  138.0967
 259  248.0044
 260  236.8349
 261  151.1116
 262  165.8939
 263  209.4222
 264  138.694
 265  149.4244
 266  161.7346
 267  225.684
 268  153.2382
 269  84.66888
 270  32.88268
 271  46.3096
 272  53.34259
 273  132.6225
 274  130.895
 275  60.23421
 276  113.9196
 277  90.92397
 278  131.2561
 279  95.8584
 280  46.7177
 281  47.11541
 282  57.48542
 283  50.98406
 284  79.06983
 285  73.84815
 286  173.3232
 287  161.3572
 288  198.6461
 289  119.3605
 290  -29.85306
 291  169.9532
 292  209.4963
 293  88.06674
 294  164.1752
 295  166.6668
 296  156.7803
 297  120.2022
 298  170.7257
 299  49.31234
 300  44.65493
 301  104.279
 302  135.7789
 303  214.4685
 304  211.1737
 305  76.22184
 306  -27.60707
 307  -73.5955
 308  22.70551
 309  72.38748
 310  89.92313
 311  -0.412596
 312  182.2313
 313  230.3019
 314  211.6373
 315  66.83785
 316  54.34118
 317  208.5929
 318  175.946
 319  174.5391
 320  215.2392
 321  16.05305
 322  177.459
 323  89.28246
 324  51.72757
 325  3.156231
 326  39.32198
 327  191.3401
 328  215.2318
 329  210.2189
 330  70.57709
 331  -6.096194
 332  29.42829
 333  14.82509
 334  91.05544
 335  256.6695
 336  236.0327
 337  147.3561
 338  164.1109
 339  119.2734
 340  205.873
 341  291.9697
 342  334.0587
 343  260.1359
 344  35.08815
 345  72.10983
 346  122.9023
 347  28.8143
 348  113.3976
 349  92.6751
 350  185.8433
 351  86.53938
 352  -51.25256
 353  50.91026
 354  214.796
 355  155.452
 356  130.6371
 357  101.9984
 358  47.27776
 359  64.41605
 360  -52.39663
 361  105.6298
 362  277.4529
 363  222.2766
 364  119.8971
 365  70.2147
 366  79.23888
 367  0.2348986
 368  65.75943
 369  163.5337
 370  -66.9521
 371  -20.60258
 372  66.95665
 373  175.3748
 374  219.8711
 375  170.7993
 376  73.43153
 377  -35.22123
 378  92.17594
 379  79.20779
 380  34.14235
 381  30.51447
 382  -3.143229
 383  101.1771
 384  125.7202
 385  162.9043
 386  163.4928
 387  115.8186
 388  71.71107
 389  100.1963
 390  55.05726
 391  -28.9822
 392  168.7274
 393  94.88721
 394  155.1075
 395  121.1647
 396  147.3072
 397  43.83862
 398  81.46249
 399  70.36985
 400  98.04023
 401  158.1441
 402  134.889
 403  167.1745
 404  318.5903
 405  268.6827
 406  64.0053
 407  181.9921
 408  107.7682
 409  34.37017
 410  23.46544
 411  70.90411
 412  209.5858
 413  217.9843
 414  121.0545
 415  39.13395
 416  71.72345
 417  214.7007
 418  135.2083
 419  148.8228
 420  332.2357
 421  252.647
 422  90.62003
 423  45.13104
 424  86.31426
 425  165.8211
 426  168.5606
 427  218.4429
 428  219.987
 429  115.7959
 430  105.3049
 431  188.968
 432  191.474
 433  114.2983
 434  108.0384
 435  184.4968
 436  230.8139
 437  267.8011
 438  183.8845
 439  107.2862
 440  161.4391
 441  118.8583
 442  98.30654
 443  48.10382
 444  169.1016
 445  168.0373
 446  225.0921
 447  141.3694
 448  237.8069
 449  295.3509
 450  8.732236
 451  -19.57023
 452  14.82802
 453  1.586966
 454  -1.022721
 455  110.7165
 456  216.1076
 457  239.3548
 458  237.6602
 459  131.1679
 460  150.3334
 461  115.3401
 462  45.98285
 463  101.8213
 464  174.0223
 465  277.9288
 466  231.2891
 467  227.6863
 468  247.4276
 469  187.6056
 470  169.804
 471  118.0232
 472  154.9538
 473  15.16636
 474  144.8332
 475  -24.55547
 476  15.5846
 477  36.46724
 478  98.78879
 479  95.57114
 480  154.3455
 481  264.1658
 482  205.1007
 483  231.4961
 484  84.94248
 485  77.16533
 486  165.4871
 487  162.4864
 488  138.4574
 489  182.7841
 490  49.6056
 491  88.17341
 492  29.69682
 493  94.9294
 494  -3.030605
 495  63.43422
 496  146.0921
 497  9.896952
 498  151.1093
 499  211.152
 500  188.013
 501  147.0817
 502  131.5993
 503  91.43753
 504  102.6221
 505  207.1178
 506  176.1996
 507  297.5379
 508  376.4927
 509  658.5822
 510  755.4216
 511  769.574
