# Input file       =  1187503992.109945_cleaned.dat
# Candidate        =  PSR_0332+5434
# Telescope        =  AR
# Epoch_topo       =  57988.259387846585
# Epoch_bary       =  N/A
# T_sample         =  0.002
# Data Folded      =  7340032
# Data Avg         =  0.0272029389338319
# Data StdDev      =  3.0346033506929  
# Profile Bins     =  512
# Profile Avg      =  389.896371926099 
# Profile StdDev   =  363.342273377569 
# Reduced chi-sqr  =  1.324
# Prob(Noise)      <  1.17e-06   (~4.7 sigma)
# P_topo (ms)      =  714.463908139553  +/- 0.00013
# P'_topo (s/s)    =  -0                +/- 6.86e-11
# P''_topo (s/s^2) =  0                 +/- 3.03e-14
# P_bary (ms)      =  N/A
# P'_bary (s/s)    =  N/A
# P''_bary (s/s^2) =  N/A
# P_orb (s)        =  N/A
# asin(i)/c (s)    =  N/A
# eccentricity     =  N/A
# w (rad)          =  N/A
# T_peri           =  N/A
######################################################
   0  140.0901
   1  352.9668
   2  352.5158
   3  271.2494
   4  123.391
   5  78.00134
   6  -54.6598
   7  311.9039
   8  52.99319
   9  79.2609
  10  319.9226
  11  -41.48856
  12  446.6584
  13  534.1313
  14  755.9706
  15  464.9961
  16  378.245
  17  704.8605
  18  721.4216
  19  614.8337
  20  649.6285
  21  792.0908
  22  536.5312
  23  209.7561
  24  201.6421
  25  457.1599
  26  800.2192
  27  411.2909
  28  381.1098
  29  661.3223
  30  666.8832
  31  500.0208
  32  559.0002
  33  566.9265
  34  399.3231
  35  1060.436
  36  1102.44
  37  816.9689
  38  695.8851
  39  463.4659
  40  548.0007
  41  791.9929
  42  856.4643
  43  503.3326
  44  79.02193
  45  279.7431
  46  542.0047
  47  331.4873
  48  243.5056
  49  82.73458
  50  56.40017
  51  79.60449
  52  314.193
  53  195.0728
  54  304.4285
  55  422.8816
  56  357.0298
  57  230.7137
  58  173.2896
  59  84.18417
  60  131.5481
  61  229.1461
  62  409.7663
  63  467.228
  64  433.5121
  65  331.1622
  66  480.0351
  67  537.4423
  68  209.2095
  69  285.0261
  70  526.001
  71  506.0823
  72  388.0773
  73  488.4058
  74  196.9156
  75  574.4706
  76  315.7944
  77  -31.83193
  78  353.9156
  79  478.9349
  80  698.3254
  81  480.9554
  82  195.1726
  83  287.0846
  84  133.386
  85  287.3127
  86  403.938
  87  373.8165
  88  612.6205
  89  316.6984
  90  88.41057
  91  300.3845
  92  483.2359
  93  -72.60514
  94  -64.48486
  95  19.42066
  96  -96.49909
  97  156.4952
  98  370.6655
  99  116.5947
 100  321.5322
 101  770.9766
 102  795.2413
 103  87.76199
 104  -33.37702
 105  418.5195
 106  738.0221
 107  557.5733
 108  279.774
 109  26.46898
 110  318.9617
 111  456.7252
 112  349.7043
 113  220.3983
 114  92.4669
 115  370.0576
 116  390.3445
 117  293.6956
 118  441.7038
 119  524.4482
 120  413.472
 121  215.5343
 122  228.3751
 123  557.2075
 124  536.8629
 125  488.9013
 126  473.4777
 127  367.2154
 128  579.1827
 129  678.4117
 130  453.6954
 131  186.6154
 132  440.9029
 133  548.1409
 134  611.5417
 135  208.948
 136  272.7688
 137  638.8546
 138  337.1378
 139  38.10861
 140  -239.7903
 141  83.58459
 142  341.6239
 143  252.1269
 144  180.9041
 145  428.0447
 146  534.4869
 147  290.8113
 148  250.2196
 149  632.9568
 150  152.9023
 151  -193.0552
 152  315.25
 153  279.8352
 154  188.5795
 155  316.2132
 156  331.1337
 157  187.2067
 158  534.0914
 159  411.9407
 160  53.43433
 161  55.52255
 162  272.1992
 163  272.3561
 164  168.7732
 165  511.3383
 166  415.0449
 167  279.5378
 168  412.2861
 169  337.988
 170  527.3605
 171  420.0048
 172  94.7466
 173  467.9431
 174  341.3908
 175  41.50869
 176  48.9929
 177  217.3724
 178  290.3349
 179  576.3551
 180  281.1269
 181  266.7197
 182  149.9964
 183  51.82902
 184  455.0586
 185  546.3471
 186  592.6384
 187  360.4297
 188  68.56247
 189  135.6247
 190  236.4369
 191  76.04307
 192  -370.9572
 193  -244.364
 194  44.82758
 195  214.9047
 196  79.93615
 197  543.5
 198  490.882
 199  298.7636
 200  60.35625
 201  -124.7064
 202  407.9072
 203  73.56029
 204  313.3691
 205  107.8424
 206  233.8886
 207  322.5137
 208  -274.9203
 209  -243.0782
 210  -75.73986
 211  426.3369
 212  854.8373
 213  125.1043
 214  208.8557
 215  187.294
 216  308.1664
 217  142.1376
 218  354.205
 219  337.7617
 220  556.5076
 221  414.3614
 222  372.1889
 223  304.7207
 224  536.4824
 225  538.1233
 226  255.454
 227  476.7814
 228  447.1825
 229  617.1401
 230  363.7227
 231  95.19102
 232  172.4984
 233  166.8908
 234  182.2635
 235  545.3864
 236  606.8831
 237  844.2968
 238  744.8433
 239  134.0163
 240  454.5378
 241  523.0811
 242  544.8909
 243  396.5193
 244  266.7329
 245  651.9905
 246  554.0143
 247  213.629
 248  534.3475
 249  953.9698
 250  733.5506
 251  107.004
 252  228.7701
 253  347.1851
 254  295.6603
 255  332.2782
 256  468.1872
 257  768.285
 258  757.9671
 259  729.4336
 260  867.4664
 261  939.0674
 262  831.2491
 263  359.2762
 264  285.334
 265  541.0384
 266  127.3403
 267  401.7566
 268  260.1215
 269  377.3454
 270  690.5772
 271  306.6316
 272  302.3463
 273  321.5096
 274  -138.8234
 275  -63.18304
 276  403.7021
 277  828.9126
 278  812.3896
 279  499.3025
 280  741.5557
 281  541.0842
 282  380.8971
 283  379.8584
 284  310.6261
 285  832.4675
 286  748.8629
 287  462.1891
 288  -0.08964214
 289  -219.9504
 290  197.1087
 291  148.3387
 292  42.99244
 293  516.3425
 294  529.6114
 295  687.1605
 296  767.6447
 297  160.907
 298  116.4329
 299  766.1738
 300  423.65
 301  864.3798
 302  223.8752
 303  227.5863
 304  298.4297
 305  598.9382
 306  1198.524
 307  682.1787
 308  245.3364
 309  355.2686
 310  687.4355
 311  551.0584
 312  537.7094
 313  501.2403
 314  442.8464
 315  305.9349
 316  696.993
 317  574.1573
 318  499.5245
 319  -139.2315
 320  202.9659
 321  477.0289
 322  661.9403
 323  215.3668
 324  276.9546
 325  683.4287
 326  354.8237
 327  410.765
 328  772.4229
 329  498.6246
 330  472.631
 331  117.467
 332  650.6044
 333  858.9805
 334  252.3806
 335  377.6968
 336  219.1833
 337  160.3422
 338  357.3206
 339  862.4741
 340  847.648
 341  625.3046
 342  512.1117
 343  780.1395
 344  670.0355
 345  424.7784
 346  274.6705
 347  333.264
 348  333.5464
 349  218.3051
 350  549.9989
 351  578.1703
 352  237.6505
 353  713.1014
 354  949.9159
 355  1404.681
 356  1805.691
 357  1978.426
 358  2079.637
 359  1975.918
 360  1559.57
 361  1117.691
 362  326.0684
 363  -253.2666
 364  20.7978
 365  283.2943
 366  219.4051
 367  -51.43004
 368  216.6993
 369  541.0547
 370  206.7597
 371  599.6024
 372  889.0359
 373  1030.751
 374  615.5021
 375  307.6592
 376  542.4921
 377  404.7702
 378  328.9053
 379  200.5984
 380  48.61212
 381  524.5779
 382  753.6021
 383  649.521
 384  612.8768
 385  580.4775
 386  206.9595
 387  533.1656
 388  523.6825
 389  477.4675
 390  562.7512
 391  453.4633
 392  -79.58537
 393  293.3576
 394  171.1039
 395  333.1982
 396  389.1514
 397  359.411
 398  385.4306
 399  33.44635
 400  289.7248
 401  400.6451
 402  -13.85037
 403  244.7336
 404  854.1677
 405  861.5612
 406  571.8716
 407  533.675
 408  55.26108
 409  155.2537
 410  418.8831
 411  250.004
 412  456.5177
 413  425.9381
 414  873.1567
 415  259.9083
 416  117.5112
 417  544.7684
 418  707.6239
 419  371.9325
 420  -61.76991
 421  -99.44671
 422  199.2092
 423  214.2507
 424  391.1047
 425  365.6623
 426  24.15005
 427  21.33412
 428  515.1985
 429  776.782
 430  857.9017
 431  340.1597
 432  246.7179
 433  23.34195
 434  147.014
 435  652.5073
 436  285.8513
 437  -62.0122
 438  533.4528
 439  564.7734
 440  220.688
 441  454.9068
 442  565.2838
 443  273.4394
 444  393.7222
 445  610.3345
 446  503.0412
 447  368.1511
 448  486.7108
 449  515.0791
 450  66.09156
 451  -58.69085
 452  236.7849
 453  406.092
 454  440.2985
 455  -216.9713
 456  27.89728
 457  115.1152
 458  488.7262
 459  651.861
 460  348.9629
 461  199.9398
 462  220.1745
 463  49.71737
 464  61.81816
 465  19.95897
 466  401.0561
 467  564.6424
 468  235.2923
 469  -86.8007
 470  208.9269
 471  780.7454
 472  1265.899
 473  687.2686
 474  365.302
 475  390.0314
 476  140.9706
 477  70.83906
 478  -66.2362
 479  364.0625
 480  480.5621
 481  244.5051
 482  366.7403
 483  581.0727
 484  551.3314
 485  544.0922
 486  328.5705
 487  595.9465
 488  617.8909
 489  371.7023
 490  417.7587
 491  456.2607
 492  182.5029
 493  90.4588
 494  140.8363
 495  -113.3424
 496  432.7347
 497  632.9651
 498  955.786
 499  791.85
 500  900.2945
 501  408.4205
 502  89.00631
 503  220.3219
 504  278.1585
 505  671.1065
 506  707.6835
 507  -74.40847
 508  39.60268
 509  -24.37925
 510  -117.4612
 511  379.2376
