# Input file       =  1187818549.106852_cleaned.dat
# Candidate        =  PSR_0332+5434
# Telescope        =  AR
# Epoch_topo       =  57991.900093829303
# Epoch_bary       =  N/A
# T_sample         =  0.002
# Data Folded      =  7143424
# Data Avg         =  0.00712994866067453
# Data StdDev      =  1.00011208089785 
# Profile Bins     =  512
# Profile Avg      =  99.4819006533365 
# Profile StdDev   =  118.131823318869 
# Reduced chi-sqr  =  1.472
# Prob(Noise)      <  1.73e-11   (~6.6 sigma)
# P_topo (ms)      =  714.463347258484  +/- 0.000266
# P'_topo (s/s)    =  -0                +/- 1.44e-10
# P''_topo (s/s^2) =  0                 +/- 6.54e-14
# P_bary (ms)      =  N/A
# P'_bary (s/s)    =  N/A
# P''_bary (s/s^2) =  N/A
# P_orb (s)        =  N/A
# asin(i)/c (s)    =  N/A
# eccentricity     =  N/A
# w (rad)          =  N/A
# T_peri           =  N/A
######################################################
   0  108.8978
   1  178.3843
   2  243.1769
   3  170.4828
   4  34.19783
   5  61.94709
   6  21.97815
   7  190.7361
   8  216.3062
   9  162.567
  10  67.11197
  11  243.502
  12  120.62
  13  148.0326
  14  190.9011
  15  101.1976
  16  6.487016
  17  123.6685
  18  239.8129
  19  241.7105
  20  146.3561
  21  178.4765
  22  140.6291
  23  82.44936
  24  45.26942
  25  118.1276
  26  23.98421
  27  20.50469
  28  192.989
  29  298.5185
  30  224.5336
  31  182.9458
  32  87.38417
  33  71.76768
  34  135.5175
  35  130.2852
  36  67.14781
  37  129.1517
  38  227.4765
  39  102.4673
  40  52.81233
  41  106.0418
  42  84.5234
  43  115.4024
  44  54.24765
  45  135.8947
  46  74.44141
  47  -2.806181
  48  60.62388
  49  108.8018
  50  -2.496436
  51  133.7111
  52  165.7166
  53  163.0815
  54  194.8003
  55  155.6312
  56  -0.06894884
  57  30.17708
  58  38.31557
  59  74.50117
  60  107.2508
  61  122.1236
  62  111.3725
  63  130.5686
  64  23.21871
  65  75.25809
  66  109.0384
  67  63.88982
  68  29.18656
  69  142.6027
  70  125.6103
  71  72.88091
  72  144.2954
  73  50.3647
  74  72.71188
  75  134.1434
  76  128.0625
  77  100.5206
  78  23.08919
  79  102.4475
  80  63.56897
  81  27.98496
  82  157.5346
  83  163.7039
  84  148.1737
  85  220.9792
  86  211.9208
  87  137.5438
  88  97.72114
  89  154.2667
  90  89.03166
  91  187.0244
  92  74.16354
  93  -131.1205
  94  -66.62911
  95  -135.3127
  96  -120.6603
  97  -37.71728
  98  -73.09183
  99  52.76987
 100  79.76788
 101  195.3414
 102  69.55736
 103  152.3117
 104  36.42733
 105  -46.65977
 106  -99.72912
 107  -81.60754
 108  59.79799
 109  -16.77469
 110  75.0246
 111  217.4899
 112  189.6445
 113  15.55355
 114  113.8755
 115  75.90765
 116  118.6318
 117  124.0687
 118  101.9955
 119  -3.074591
 120  -100.882
 121  11.07089
 122  275.6178
 123  190.2002
 124  -19.04921
 125  43.33992
 126  46.82653
 127  -60.26273
 128  -5.3773
 129  58.81252
 130  127.456
 131  101.2669
 132  84.95634
 133  55.64899
 134  30.19956
 135  92.59859
 136  126.8
 137  130.9469
 138  275.8409
 139  147.0276
 140  91.01543
 141  88.93384
 142  39.19788
 143  42.07508
 144  151.3779
 145  150.7261
 146  109.0116
 147  164.2846
 148  165.1194
 149  88.46289
 150  20.7872
 151  -12.22375
 152  -5.812096
 153  7.737844
 154  -54.0612
 155  -133.5161
 156  -56.34889
 157  71.73695
 158  135.925
 159  89.41688
 160  162.0799
 161  235.4297
 162  227.0882
 163  100.7129
 164  71.00031
 165  165.8452
 166  104.6047
 167  115.6939
 168  112.692
 169  122.909
 170  35.15809
 171  108.8271
 172  163.8991
 173  95.18933
 174  76.17031
 175  13.30515
 176  -19.07964
 177  105.4766
 178  177.1252
 179  79.40041
 180  60.95581
 181  221.621
 182  161.7885
 183  -4.796704
 184  35.19054
 185  173.578
 186  129.1247
 187  124.4489
 188  128.4444
 189  69.57034
 190  153.9329
 191  194.0224
 192  114.9383
 193  131.6122
 194  122.851
 195  97.75592
 196  27.39925
 197  54.76141
 198  101.8479
 199  76.30847
 200  162.9148
 201  67.34556
 202  95.70341
 203  171.103
 204  65.32791
 205  20.24302
 206  115.084
 207  130.967
 208  158.2579
 209  86.23144
 210  163.8258
 211  228.9169
 212  -1.19934
 213  68.91801
 214  115.9895
 215  156.4516
 216  122.6076
 217  66.62293
 218  162.3641
 219  88.66478
 220  204.2055
 221  174.3424
 222  92.36578
 223  151.0015
 224  179.3904
 225  144.1998
 226  -23.84336
 227  -24.27799
 228  -11.67332
 229  78.22419
 230  38.39257
 231  62.40416
 232  77.55053
 233  -94.68134
 234  -9.21912
 235  196.3715
 236  102.8253
 237  -20.00083
 238  60.15355
 239  167.8284
 240  90.08098
 241  145.8351
 242  -45.03025
 243  0.6129882
 244  64.47687
 245  108.3887
 246  88.71253
 247  27.26681
 248  23.29616
 249  63.04881
 250  200.3918
 251  198.7129
 252  84.99242
 253  107.7555
 254  186.4009
 255  71.04891
 256  101.9543
 257  174.9597
 258  144.7081
 259  82.99188
 260  157.3725
 261  149.8691
 262  70.52489
 263  185.6277
 264  164.6026
 265  81.15376
 266  -25.93442
 267  15.3711
 268  187.7101
 269  238.4425
 270  249.6943
 271  225.0369
 272  94.67992
 273  78.82
 274  51.64028
 275  194.7102
 276  197.1726
 277  122.8465
 278  143.2584
 279  280.2793
 280  121.0942
 281  159.1337
 282  121.6211
 283  64.49472
 284  58.89511
 285  34.48629
 286  -16.38131
 287  119.2362
 288  -28.2465
 289  36.08467
 290  102.1731
 291  47.40768
 292  26.60804
 293  116.6024
 294  159.2306
 295  109.0508
 296  15.74265
 297  160.5391
 298  204.4463
 299  9.029708
 300  38.65134
 301  -11.59156
 302  -59.15677
 303  -28.56414
 304  158.6675
 305  185.5248
 306  82.35117
 307  -6.268982
 308  89.90907
 309  -6.496122
 310  -66.5554
 311  97.72416
 312  99.97623
 313  117.7269
 314  59.61285
 315  35.43531
 316  88.48718
 317  -6.869076
 318  -22.1056
 319  138.6469
 320  64.06539
 321  9.353385
 322  -79.37132
 323  117.6296
 324  145.9068
 325  57.48427
 326  106.1266
 327  260.2606
 328  202.691
 329  246.8469
 330  379.2615
 331  514.0501
 332  689.4795
 333  781.7167
 334  773.0335
 335  649.2615
 336  530.5605
 337  351.8541
 338  174.5022
 339  100.9228
 340  48.95021
 341  85.02207
 342  11.86486
 343  7.877657
 344  0.7850325
 345  20.25939
 346  132.1933
 347  230.8221
 348  326.3482
 349  294.0994
 350  201.9353
 351  158.5214
 352  93.0498
 353  -23.69006
 354  18.33071
 355  53.4638
 356  154.8231
 357  143.7746
 358  148.5885
 359  167.381
 360  13.08432
 361  130.8291
 362  190.1639
 363  178.188
 364  3.036556
 365  97.19717
 366  156.8558
 367  85.1592
 368  18.34456
 369  75.05792
 370  15.63963
 371  109.1015
 372  214.1708
 373  -28.81495
 374  37.81246
 375  76.16895
 376  95.10729
 377  -5.094972
 378  -4.97698
 379  18.49723
 380  -7.720174
 381  13.4226
 382  27.06074
 383  51.55308
 384  29.3054
 385  -41.32008
 386  148.6777
 387  231.3676
 388  99.99982
 389  -38.74609
 390  48.69492
 391  38.82851
 392  63.4104
 393  99.48696
 394  237.6802
 395  164.0527
 396  -93.99742
 397  15.86075
 398  92.83332
 399  -37.76085
 400  -22.38294
 401  -46.19832
 402  -156.314
 403  -2.242532
 404  109.2153
 405  112.5561
 406  -21.23777
 407  12.94129
 408  84.87832
 409  32.15839
 410  -23.24168
 411  63.89249
 412  108.8723
 413  124.2694
 414  -0.9891905
 415  0.1599477
 416  13.15136
 417  120.8
 418  209.7391
 419  80.88339
 420  78.54215
 421  16.30896
 422  111.1329
 423  45.51213
 424  -8.70002
 425  232.3005
 426  169.5079
 427  43.80354
 428  111.7651
 429  253.6038
 430  97.85364
 431  90.20029
 432  192.1561
 433  84.63436
 434  83.28388
 435  56.60295
 436  155.762
 437  225.193
 438  201.9646
 439  101.5457
 440  56.48848
 441  24.53134
 442  -107.3605
 443  40.26572
 444  122.8519
 445  163.4541
 446  180.8664
 447  -18.84272
 448  88.50719
 449  50.18208
 450  134.4637
 451  293.2177
 452  122.3563
 453  193.6154
 454  252.3888
 455  26.79222
 456  -29.41141
 457  51.01953
 458  -29.9847
 459  -9.677873
 460  54.71104
 461  8.424459
 462  -49.39656
 463  63.61522
 464  -62.78109
 465  -24.36022
 466  64.23763
 467  181.5879
 468  145.2984
 469  91.02396
 470  34.37247
 471  205.8884
 472  190.1093
 473  53.75539
 474  12.30762
 475  97.22487
 476  -1.892173
 477  35.31325
 478  22.93811
 479  54.61546
 480  87.14155
 481  75.88945
 482  131.018
 483  74.44252
 484  116.5635
 485  139.0608
 486  234.8037
 487  196.8196
 488  7.718521
 489  52.28882
 490  209.6323
 491  119.2515
 492  96.19112
 493  77.06504
 494  22.6264
 495  142.1529
 496  170.473
 497  -22.86792
 498  92.18392
 499  198.1442
 500  113.4927
 501  28.22943
 502  31.70033
 503  209.4778
 504  172.8437
 505  189.1602
 506  117.4187
 507  -4.866913
 508  242.3175
 509  258.2328
 510  259.2947
 511  135.3782
