# Input file       =  1187848054.111043_cleaned.dat
# Candidate        =  PSR_0332+5434
# Telescope        =  AR
# Epoch_topo       =  57992.241586933371
# Epoch_bary       =  N/A
# T_sample         =  0.002
# Data Folded      =  7340032
# Data Avg         =  0.0357523593795901
# Data StdDev      =  3.03334337879959 
# Profile Bins     =  512
# Profile Avg      =  512.475992843455 
# Profile StdDev   =  363.191413117034 
# Reduced chi-sqr  =  1.316
# Prob(Noise)      <  1.97e-06   (~4.6 sigma)
# P_topo (ms)      =  714.463686894058  +/- 0.000383
# P'_topo (s/s)    =  -0                +/- 2.02e-10
# P''_topo (s/s^2) =  0                 +/- 8.92e-14
# P_bary (ms)      =  N/A
# P'_bary (s/s)    =  N/A
# P''_bary (s/s^2) =  N/A
# P_orb (s)        =  N/A
# asin(i)/c (s)    =  N/A
# eccentricity     =  N/A
# w (rad)          =  N/A
# T_peri           =  N/A
######################################################
   0  756.1492
   1  744.0715
   2  319.4125
   3  142.311
   4  230.1074
   5  111.9201
   6  363.3983
   7  377.6228
   8  440.7951
   9  531.9232
  10  452.8385
  11  535.1642
  12  590.0356
  13  355.6407
  14  237.7989
  15  842.318
  16  791.8615
  17  919.0536
  18  723.6752
  19  660.6422
  20  799.8206
  21  274.6389
  22  335.1483
  23  114.1569
  24  531.264
  25  943.2913
  26  650.5074
  27  958.7108
  28  806.967
  29  726.6603
  30  427.9106
  31  240.6737
  32  489.0708
  33  828.9818
  34  647.7356
  35  829.6018
  36  666.8001
  37  372.457
  38  334.7396
  39  433.1479
  40  725.1176
  41  439.4411
  42  525.6371
  43  682.5128
  44  507.3333
  45  534.4009
  46  336.6888
  47  -70.55455
  48  429.8489
  49  485.0203
  50  438.2764
  51  210.4841
  52  655.4822
  53  649.1185
  54  917.4537
  55  655.0492
  56  571.4634
  57  486.0979
  58  527.1417
  59  548.9993
  60  177.8115
  61  577.0811
  62  554.2131
  63  393.8745
  64  378.8326
  65  -1.594303
  66  126.5105
  67  289.5276
  68  346.1474
  69  493.9463
  70  828.3386
  71  283.0493
  72  456.3485
  73  745.9459
  74  909.0681
  75  488.8029
  76  667.4354
  77  603.0891
  78  595.531
  79  170.1729
  80  154.8309
  81  365.5516
  82  403.9333
  83  689.7873
  84  617.6684
  85  801.2709
  86  800.4387
  87  410.508
  88  592.5523
  89  957.7718
  90  965.0016
  91  613.2808
  92  871.0812
  93  754.4088
  94  584.3876
  95  1003.475
  96  909.7321
  97  656.3027
  98  411.8281
  99  955.2399
 100  815.258
 101  433.0349
 102  967.1221
 103  651.7983
 104  645.9366
 105  534.8939
 106  678.0124
 107  862.068
 108  846.4995
 109  815.5488
 110  536.0192
 111  886.6145
 112  661.171
 113  713.4037
 114  505.7204
 115  553.905
 116  517.565
 117  433.1539
 118  256.8987
 119  764.8214
 120  881.7886
 121  634.9298
 122  769.3054
 123  490.8725
 124  360.6708
 125  693.0704
 126  883.607
 127  911.1183
 128  242.3458
 129  474.1873
 130  286.9817
 131  552.0342
 132  468.1044
 133  767.6334
 134  457.8376
 135  608.9421
 136  532.852
 137  572.9451
 138  505.7115
 139  722.1477
 140  644.2072
 141  892.3484
 142  848.176
 143  672.2955
 144  692.5173
 145  544.164
 146  290.0295
 147  573.2869
 148  561.9291
 149  414.1807
 150  662.0773
 151  768.2117
 152  746.5106
 153  243.3053
 154  227.0281
 155  740.5604
 156  635.7391
 157  293.8651
 158  518.7726
 159  492.7149
 160  764.9106
 161  906.5735
 162  868.275
 163  723.2986
 164  462.3088
 165  332.2147
 166  747.9774
 167  881.0828
 168  891.4343
 169  806.866
 170  741.3043
 171  1143.276
 172  767.2878
 173  146.5549
 174  270.4137
 175  842.9102
 176  538.7603
 177  566.6715
 178  389.481
 179  658.7566
 180  734.105
 181  978.9431
 182  783.4843
 183  656.8253
 184  552.7242
 185  365.0708
 186  667.1924
 187  736.0833
 188  847.698
 189  588.1922
 190  154.7343
 191  -45.6776
 192  238.8878
 193  677.1186
 194  253.3243
 195  454.0587
 196  506.0003
 197  248.356
 198  256.3423
 199  90.84182
 200  126.8386
 201  -16.12415
 202  -38.08914
 203  448.8062
 204  52.1959
 205  -63.42619
 206  104.7318
 207  216.3105
 208  149.3376
 209  296.3221
 210  263.7604
 211  245.3678
 212  756.3871
 213  719.1622
 214  519.1522
 215  366.7027
 216  269.4132
 217  100.5457
 218  -65.34126
 219  262.8228
 220  286.3493
 221  410.7707
 222  463.4608
 223  543.4437
 224  541.7297
 225  69.06206
 226  139.4158
 227  316.9616
 228  400.8661
 229  351.592
 230  304.8268
 231  781.9201
 232  482.611
 233  392.0559
 234  562.1332
 235  641.7173
 236  793.0042
 237  391.8887
 238  611.0035
 239  662.7235
 240  345.9959
 241  542.9686
 242  426.7384
 243  607.9401
 244  689.1828
 245  858.8782
 246  459.568
 247  398.4323
 248  627.0048
 249  902.364
 250  542.7866
 251  256.2665
 252  415.218
 253  313.0001
 254  317.2453
 255  511.578
 256  655.0575
 257  930.8135
 258  373.2868
 259  261.4921
 260  347.9377
 261  315.2206
 262  98.91258
 263  334.7101
 264  518.4713
 265  535.4054
 266  -94.07595
 267  434.6506
 268  600.4355
 269  411.3714
 270  109.0003
 271  124.8633
 272  28.84889
 273  471.4175
 274  423.9319
 275  335.1651
 276  509.876
 277  664.6647
 278  478.8571
 279  247.008
 280  451.974
 281  135.948
 282  61.7282
 283  330.5262
 284  521.8694
 285  822.2783
 286  779.1254
 287  927.61
 288  669.9066
 289  386.0797
 290  373.4187
 291  583.5084
 292  332.2068
 293  156.88
 294  183.8454
 295  663.6761
 296  1061.969
 297  785.7202
 298  745.8478
 299  536.6232
 300  437.1364
 301  421.2314
 302  643.0385
 303  600.3412
 304  523.724
 305  1176.244
 306  931.7183
 307  1005.393
 308  598.2223
 309  429.2175
 310  531.1644
 311  626.4847
 312  694.7394
 313  839.884
 314  879.0932
 315  630.1631
 316  843.5976
 317  1247.848
 318  1151.325
 319  743.4374
 320  1190.224
 321  1059.131
 322  1112.675
 323  738.3118
 324  578.764
 325  520.6661
 326  257.0444
 327  88.49473
 328  411.5225
 329  737.2742
 330  536.9926
 331  262.8707
 332  261.304
 333  196.8034
 334  111.141
 335  109.5843
 336  605.0996
 337  605.5754
 338  708.1803
 339  501.0914
 340  388.6599
 341  341.9518
 342  442.3285
 343  290.5668
 344  222.0593
 345  523.277
 346  277.9274
 347  -159.3532
 348  253.7754
 349  510.5872
 350  349.2444
 351  463.4966
 352  401.3178
 353  296.7288
 354  194.9994
 355  -184.054
 356  -130.3528
 357  105.681
 358  367.5244
 359  351.7111
 360  44.76307
 361  433.1729
 362  405.1856
 363  451.1154
 364  504.0719
 365  278.6838
 366  350.5128
 367  566.3426
 368  621.8709
 369  833.116
 370  603.8207
 371  191.9808
 372  193.5044
 373  221.6521
 374  451.5969
 375  1057.567
 376  627.4023
 377  423.7406
 378  493.6677
 379  568.3152
 380  733.8894
 381  462.8332
 382  830.5378
 383  485.7351
 384  404.5083
 385  736.2593
 386  666.7739
 387  514.476
 388  269.5719
 389  501.8867
 390  740.1813
 391  280.5931
 392  642.5081
 393  504.632
 394  542.7971
 395  353.585
 396  475.8318
 397  478.5716
 398  171.8642
 399  409.9969
 400  767.293
 401  478.628
 402  375.238
 403  167.3377
 404  432.7891
 405  675.1618
 406  355.8319
 407  307.3794
 408  599.0171
 409  257.2534
 410  184.6153
 411  -9.759417
 412  -213.4701
 413  194.0093
 414  464.9631
 415  456.0516
 416  491.1888
 417  655.1337
 418  506.6487
 419  -106.6351
 420  497.6888
 421  625.0186
 422  347.5713
 423  115.2211
 424  342.2941
 425  167.9368
 426  -112.6522
 427  141.8411
 428  418.3741
 429  158.0865
 430  -205.0326
 431  104.9275
 432  87.3195
 433  234.5947
 434  431.1405
 435  168.5725
 436  167.1779
 437  344.7834
 438  513.4703
 439  631.6982
 440  243.9946
 441  400.2571
 442  141.7648
 443  444.9398
 444  301.8262
 445  533.7341
 446  570.9326
 447  939.0146
 448  844.5192
 449  772.4079
 450  720.3593
 451  781.2951
 452  894.4521
 453  610.5496
 454  182.6788
 455  307.1529
 456  485.2727
 457  -12.4577
 458  382.8759
 459  995.2036
 460  868.0959
 461  742.9734
 462  673.2163
 463  615.6949
 464  651.3135
 465  697.3956
 466  573.382
 467  1100.809
 468  1032.43
 469  1675.097
 470  2477.332
 471  2259.433
 472  2008.01
 473  1291.688
 474  1195.085
 475  706.0098
 476  368.4225
 477  257.052
 478  551.7838
 479  152.0773
 480  346.872
 481  627.0885
 482  663.446
 483  584.3608
 484  200.622
 485  295.6331
 486  711.2122
 487  651.4387
 488  513.873
 489  184.8107
 490  -176.41
 491  127.6209
 492  571.3921
 493  615.0552
 494  377.0593
 495  498.6779
 496  793.6078
 497  452.681
 498  508.2359
 499  619.6205
 500  206.8687
 501  33.43023
 502  503.3964
 503  518.3439
 504  514.2476
 505  582.4905
 506  649.2836
 507  498.4262
 508  106.238
 509  230.4162
 510  169.9602
 511  511.0031
