# Input file       =  1187215416.107602-PSRB0329-2ms-sampling-dd.dat
# Candidate        =  PSR_0332+5434
# Telescope        =  AR
# Epoch_topo       =  57984.919387819464
# Epoch_bary       =  N/A
# T_sample         =  0.002
# Data Folded      =  7208960
# Data Avg         =  7.1145635687414e-10
# Data StdDev      =  5.8586781717193  
# Profile Bins     =  512
# Profile Avg      =  0.00546621873872771
# Profile StdDev   =  695.185923095761 
# Reduced chi-sqr  =  0.736
# Prob(Noise)      <  1   (~0.0 sigma)
# P_topo (ms)      =  714.463933802778  +/- 0.000494
# P'_topo (s/s)    =  -0                +/- 2.66e-10
# P''_topo (s/s^2) =  0                 +/- 1.19e-13
# P_bary (ms)      =  N/A
# P'_bary (s/s)    =  N/A
# P''_bary (s/s^2) =  N/A
# P_orb (s)        =  N/A
# asin(i)/c (s)    =  N/A
# eccentricity     =  N/A
# w (rad)          =  N/A
# T_peri           =  N/A
######################################################
   0  -186.8918
   1  -67.60902
   2  -325.6898
   3  -438.7958
   4  -156.2469
   5  -342.9884
   6  -210.323
   7  -251.285
   8  -620.5984
   9  -455.8961
  10  -800.6418
  11  -199.1105
  12  -248.707
  13  -2.254938
  14  88.31023
  15  -170.3787
  16  -219.8437
  17  -341.5652
  18  -27.8823
  19  64.02891
  20  74.76664
  21  -91.82399
  22  -217.4461
  23  115.9421
  24  440.519
  25  323.1228
  26  184.59
  27  89.70535
  28  -189.6665
  29  -216.8112
  30  -132.4995
  31  -416.441
  32  -725.9412
  33  -334.0923
  34  21.79726
  35  136.0759
  36  -545.9212
  37  -954.0388
  38  -315.0994
  39  -194.8568
  40  -16.13703
  41  -155.0511
  42  67.80308
  43  -183.1322
  44  -731.4001
  45  49.95359
  46  184.8547
  47  119.361
  48  -90.34928
  49  68.41465
  50  4.425594
  51  13.64811
  52  172.4806
  53  27.82245
  54  231.6089
  55  309.8294
  56  247.9911
  57  80.06763
  58  -234.0258
  59  411.0636
  60  544.0528
  61  -44.17859
  62  -125.1367
  63  157.7852
  64  229.8008
  65  112.3368
  66  64.1029
  67  116.8578
  68  94.26041
  69  107.0618
  70  -71.56362
  71  52.65651
  72  -326.0104
  73  -160.321
  74  -163.386
  75  -127.6824
  76  -10.93902
  77  -87.56146
  78  194.2242
  79  -44.7092
  80  98.0971
  81  520.161
  82  470.7903
  83  -93.08524
  84  -56.0401
  85  286.6065
  86  192.7404
  87  78.7673
  88  27.38963
  89  130.3492
  90  -121.422
  91  -443.6999
  92  86.63542
  93  134.4904
  94  -402.8026
  95  -494.8616
  96  -223.3376
  97  3.954504
  98  3.395783
  99  -212.3765
 100  155.5098
 101  -0.3946729
 102  -306.0701
 103  -424.221
 104  -805.1293
 105  -290.3197
 106  42.6426
 107  265.0937
 108  -184.9879
 109  -359.5766
 110  -31.715
 111  208.3872
 112  276.1386
 113  -0.7142835
 114  102.3628
 115  75.21282
 116  241.5592
 117  227.2072
 118  -15.60314
 119  227.9246
 120  593.0211
 121  155.9367
 122  656.122
 123  378.4645
 124  271.5265
 125  -112.5326
 126  -96.31696
 127  -123.1242
 128  -636.0847
 129  -337.2497
 130  -189.9331
 131  -368.5133
 132  -637.0673
 133  -394.4606
 134  -56.13167
 135  -22.88547
 136  105.6975
 137  -181.6501
 138  -92.69818
 139  99.63344
 140  323.5887
 141  911.7398
 142  1099.566
 143  1923.599
 144  1574.987
 145  1140.515
 146  616.9797
 147  -31.94423
 148  202.5365
 149  350.5762
 150  82.61667
 151  -56.50862
 152  -394.4374
 153  -411.2966
 154  -347.9529
 155  63.51705
 156  103.0866
 157  -470.4738
 158  -174.0822
 159  -118.1999
 160  -333.1118
 161  -1019.737
 162  -283.4515
 163  56.22852
 164  -55.2312
 165  -188.1466
 166  -182.5232
 167  21.27653
 168  -226.0424
 169  -223.2469
 170  -260.8918
 171  -193.1004
 172  187.4343
 173  239.6596
 174  166.7176
 175  -237.8831
 176  -208.0756
 177  -290.3154
 178  -418.4361
 179  -329.9918
 180  -226.7054
 181  -206.406
 182  -336.4783
 183  -322.9519
 184  11.48595
 185  -135.0931
 186  -142.1422
 187  -95.11378
 188  -247.0545
 189  -284.9633
 190  -466.5042
 191  -286.5833
 192  -293.5529
 193  -244.119
 194  -615.783
 195  -1099.581
 196  -711.0032
 197  -506.6476
 198  -171.9759
 199  -180.7732
 200  -374.3137
 201  -506.3148
 202  -398.7101
 203  -195.8842
 204  -397.7183
 205  -648.872
 206  -473.6248
 207  -349.6275
 208  57.58712
 209  133.2067
 210  42.35953
 211  1.790318
 212  -499.1995
 213  -191.0354
 214  -26.32739
 215  110.4321
 216  2.540764
 217  -236.557
 218  -402.5789
 219  -862.3997
 220  -596.4872
 221  -53.85787
 222  243.9641
 223  251.3431
 224  -230.1371
 225  -121.0145
 226  -844.0443
 227  -527.9582
 228  -566.1498
 229  -242.6336
 230  38.39894
 231  -442.0192
 232  -196.4007
 233  -137.2141
 234  -119.2222
 235  197.7475
 236  158.1096
 237  105.9541
 238  78.56149
 239  -191.06
 240  -51.73481
 241  244.1686
 242  553.4462
 243  343.1762
 244  445.6465
 245  543.3644
 246  404.364
 247  1275.714
 248  1575.299
 249  1939.874
 250  1995.634
 251  996.8467
 252  716.7728
 253  771.8453
 254  2259.532
 255  2182.361
 256  1962.379
 257  990.0151
 258  355.3604
 259  434.06
 260  -61.15875
 261  -126.2699
 262  -75.90566
 263  56.21767
 264  -152.8891
 265  -150.9066
 266  305.4485
 267  306.2655
 268  34.09045
 269  546.9629
 270  347.8123
 271  26.10517
 272  110.9307
 273  573.2743
 274  523.5857
 275  72.34377
 276  125.5459
 277  456.2433
 278  621.7536
 279  312.4765
 280  440.1295
 281  597.3805
 282  802.4688
 283  665.6476
 284  416.3694
 285  576.4413
 286  232.8602
 287  252.2859
 288  370.644
 289  421.6786
 290  144.3533
 291  96.29251
 292  236.0584
 293  349.915
 294  337.774
 295  505.9655
 296  433.9199
 297  299.1334
 298  -0.08171539
 299  -96.00208
 300  -298.2002
 301  -194.5974
 302  500.9929
 303  212.7573
 304  225.2021
 305  45.55801
 306  -334.6309
 307  105.6039
 308  -314.5747
 309  220.96
 310  219.6783
 311  478.7953
 312  396.4823
 313  -66.65164
 314  519.1732
 315  261.2151
 316  375.1416
 317  404.2763
 318  453.3393
 319  459.0299
 320  398.4695
 321  983.9948
 322  168.0802
 323  -83.21577
 324  101.6216
 325  -279.708
 326  90.59137
 327  169.8612
 328  332.2556
 329  484.032
 330  106.7462
 331  108.4143
 332  109.6745
 333  114.3655
 334  -135.0618
 335  39.75057
 336  558.7892
 337  160.9789
 338  -86.8227
 339  -137.041
 340  -241.1992
 341  70.85322
 342  -459.5977
 343  -147.7257
 344  181.6035
 345  164.9717
 346  113.7481
 347  382.8338
 348  171.7166
 349  75.1657
 350  177.9804
 351  407.0362
 352  34.65868
 353  -441.13
 354  -155.959
 355  238.5657
 356  419.0387
 357  427.3535
 358  651.5311
 359  237.3978
 360  -3.425845
 361  -8.433569
 362  275.3643
 363  328.9278
 364  25.24045
 365  334.0862
 366  -234.9554
 367  -154.8768
 368  -426.3202
 369  6.436521
 370  280.8275
 371  -656.2481
 372  -644.1835
 373  -827.374
 374  -976.7369
 375  -911.1402
 376  -96.9809
 377  126.3861
 378  27.86266
 379  105.1404
 380  20.3385
 381  -211.4702
 382  -728.054
 383  -564.8052
 384  -325.5341
 385  27.25504
 386  78.50388
 387  -118.9565
 388  179.7698
 389  -132.0099
 390  -290.0581
 391  -246.3413
 392  -445.1779
 393  -286.0714
 394  -364.7161
 395  -15.10868
 396  -27.15817
 397  -131.1882
 398  196.4608
 399  -17.85333
 400  -159.6033
 401  -525.6683
 402  -261.7785
 403  39.41197
 404  58.79542
 405  117.2617
 406  134.1971
 407  -187.1106
 408  -733.567
 409  -617.3206
 410  -198.6095
 411  -257.8454
 412  -122.8758
 413  -1.054953
 414  -312.9664
 415  -465.7043
 416  -639.338
 417  -525.3245
 418  -174.5667
 419  -458.2672
 420  -185.7665
 421  62.87095
 422  92.82523
 423  172.4926
 424  -483.8199
 425  -352.8602
 426  -807.2024
 427  -131.4288
 428  -416.6023
 429  -358.8601
 430  283.3493
 431  -44.22003
 432  406.4056
 433  556.1727
 434  899.8896
 435  941.8504
 436  85.98655
 437  167.7244
 438  553.4574
 439  1311.287
 440  986.1866
 441  760.3551
 442  218.118
 443  111.5909
 444  107.0546
 445  -199.7595
 446  -472.2696
 447  -427.2609
 448  -711.1426
 449  -736.0502
 450  -493.7145
 451  57.61946
 452  -107.7923
 453  -414.5636
 454  -3.365495
 455  -285.6399
 456  -130.9918
 457  48.57203
 458  161.8833
 459  -295.7846
 460  -583.7474
 461  -114.9487
 462  -346.3159
 463  -221.9781
 464  -194.9236
 465  90.17136
 466  61.24166
 467  -383.1713
 468  -416.3714
 469  -107.5799
 470  -104.6271
 471  -283.7894
 472  -20.12626
 473  14.09674
 474  -132.0903
 475  -431.4474
 476  -138.2606
 477  -218.3799
 478  -287.504
 479  -175.8647
 480  90.4143
 481  -130.9096
 482  -237.6716
 483  123.2918
 484  104.2555
 485  17.16553
 486  -369.3641
 487  -366.3348
 488  -592.3863
 489  -428.0094
 490  -125.0997
 491  -64.55495
 492  13.81553
 493  -353.3127
 494  -130.1635
 495  -327.1758
 496  -355.9056
 497  -144.4088
 498  109.0446
 499  180.8841
 500  -256.1522
 501  -62.51101
 502  -62.56688
 503  -17.43315
 504  -259.37
 505  205.4122
 506  104.5916
 507  -551.2592
 508  -308.3838
 509  223.3838
 510  43.34274
 511  -201.1877
