# Input file       =  1187589586.114317_cleaned.dat
# Candidate        =  PSR_0332+5434
# Telescope        =  AR
# Epoch_topo       =  57989.250059193480
# Epoch_bary       =  N/A
# T_sample         =  0.002
# Data Folded      =  7340032
# Data Avg         =  0.0111693246310875
# Data StdDev      =  3.19398096786487 
# Profile Bins     =  512
# Profile Avg      =  160.313628572677 
# Profile StdDev   =  382.425039412063 
# Reduced chi-sqr  =  1.236
# Prob(Noise)      <  0.000207   (~3.5 sigma)
# P_topo (ms)      =  714.4638160598    +/- 0.00018
# P'_topo (s/s)    =  -0                +/- 9.5e-11
# P''_topo (s/s^2) =  0                 +/- 4.19e-14
# P_bary (ms)      =  N/A
# P'_bary (s/s)    =  N/A
# P''_bary (s/s^2) =  N/A
# P_orb (s)        =  N/A
# asin(i)/c (s)    =  N/A
# eccentricity     =  N/A
# w (rad)          =  N/A
# T_peri           =  N/A
######################################################
   0  166.2417
   1  -371.1875
   2  177.3565
   3  146.5301
   4  396.1095
   5  125.8355
   6  75.38766
   7  409.7295
   8  292.436
   9  118.6492
  10  260.1783
  11  121.6778
  12  160.073
  13  -113.9438
  14  -232.6883
  15  -521.4216
  16  -682.894
  17  -537.1499
  18  -226.0337
  19  -8.675327
  20  647.3387
  21  -24.42269
  22  -125.6083
  23  111.2144
  24  -151.9008
  25  -106.7505
  26  154.1771
  27  80.69518
  28  -310.5311
  29  -387.5904
  30  438.2719
  31  129.5625
  32  -118.4012
  33  441.6256
  34  463.2832
  35  339.401
  36  -233.022
  37  35.00015
  38  84.5882
  39  28.39199
  40  103.9924
  41  284.1024
  42  -79.06508
  43  -94.02758
  44  77.73401
  45  386.7414
  46  -44.57692
  47  -40.50538
  48  -91.69852
  49  146.5632
  50  351.4934
  51  910.8701
  52  644.4589
  53  496.1908
  54  29.42281
  55  -47.86368
  56  48.13129
  57  21.69256
  58  -277.1969
  59  88.17579
  60  315.3935
  61  60.51725
  62  -99.59968
  63  122.8085
  64  404.4869
  65  609.659
  66  449.3555
  67  341.0995
  68  -3.530291
  69  -78.52432
  70  134.3335
  71  365.255
  72  129.0695
  73  420.458
  74  472.1147
  75  230.5198
  76  -171.1118
  77  -398.6348
  78  30.4724
  79  97.09084
  80  -60.8555
  81  362.0687
  82  -7.851209
  83  86.22081
  84  -391.3833
  85  -287.2785
  86  119.3908
  87  70.45747
  88  -119.7433
  89  -504.4243
  90  -456.5851
  91  -247.737
  92  43.46347
  93  123.4557
  94  159.4161
  95  38.71247
  96  -66.33158
  97  56.35483
  98  43.47651
  99  -4.362799
 100  472.6964
 101  271.8115
 102  27.51335
 103  231.5958
 104  268.9659
 105  388.16
 106  394.699
 107  30.10782
 108  172.8094
 109  170.545
 110  507.8201
 111  79.42635
 112  158.0309
 113  91.93865
 114  616.0182
 115  360.0491
 116  419.0978
 117  301.2245
 118  336.0506
 119  397.9388
 120  236.7447
 121  13.39482
 122  520.8874
 123  320.9718
 124  404.2065
 125  395.0986
 126  89.32034
 127  -148.6427
 128  -148.7348
 129  376.8171
 130  550.5163
 131  334.5509
 132  69.65268
 133  493.0373
 134  312.8165
 135  308.9328
 136  454.2337
 137  395.0836
 138  208.9343
 139  225.9857
 140  293.9222
 141  536.5776
 142  212.1343
 143  252.4361
 144  314.0136
 145  105.9219
 146  181.085
 147  259.9104
 148  -41.09524
 149  -420.2342
 150  -156.325
 151  26.10316
 152  -99.57484
 153  161.8901
 154  183.725
 155  451.8857
 156  -260.1529
 157  67.54066
 158  588.4598
 159  186.6256
 160  331.2508
 161  -68.25259
 162  60.38346
 163  98.69993
 164  248.942
 165  524.8519
 166  242.4079
 167  405.9334
 168  603.5767
 169  299.303
 170  378.9755
 171  -120.7809
 172  110.0913
 173  106.606
 174  23.05994
 175  -251.6836
 176  111.6403
 177  318.6926
 178  545.1124
 179  40.71531
 180  -132.309
 181  -7.867647
 182  104.1016
 183  87.27787
 184  46.58975
 185  -91.04729
 186  107.6722
 187  426.1048
 188  534.8187
 189  344.84
 190  783.1375
 191  905.611
 192  819.029
 193  351.1103
 194  254.7153
 195  254.4598
 196  33.3728
 197  113.193
 198  334.862
 199  437.8216
 200  561.7104
 201  562.6639
 202  668.7366
 203  199.9397
 204  24.20033
 205  -168.2724
 206  84.36322
 207  331.89
 208  472.5735
 209  569.0314
 210  436.7125
 211  518.8219
 212  499.8156
 213  138.3245
 214  90.62863
 215  120.4408
 216  764.8252
 217  654.4891
 218  -3.803487
 219  183.6901
 220  555.7842
 221  478.6518
 222  -76.68757
 223  102.1705
 224  156.7302
 225  -124.1751
 226  -65.97154
 227  118.8441
 228  -415.1379
 229  -203.9208
 230  -23.11846
 231  320.6657
 232  177.1056
 233  -24.71228
 234  -322.9799
 235  -7.130721
 236  205.6082
 237  315.644
 238  -123.5286
 239  -367.7861
 240  -93.13727
 241  353.3672
 242  -220.8556
 243  199.8296
 244  101.3762
 245  76.32292
 246  -19.32736
 247  403.9831
 248  483.5401
 249  -239.8253
 250  -487.1708
 251  7.155825
 252  -248.0708
 253  -185.4174
 254  39.15165
 255  228.0139
 256  509.1916
 257  -3.562153
 258  -279.02
 259  -83.68827
 260  483.4692
 261  113.8699
 262  113.5336
 263  -8.583788
 264  171.4029
 265  272.1631
 266  605.0045
 267  456.877
 268  49.57385
 269  -128.5512
 270  20.41345
 271  26.10876
 272  -35.11539
 273  152.6918
 274  333.36
 275  361.2932
 276  -117.5468
 277  -237.2268
 278  -73.4
 279  458.1037
 280  305.5255
 281  333.9464
 282  423.8882
 283  410.192
 284  158.7872
 285  424.2115
 286  -27.15098
 287  114.4758
 288  374.0513
 289  -223.7656
 290  -145.6612
 291  494.2354
 292  400.8459
 293  59.33807
 294  -451.6947
 295  -83.9046
 296  -25.70702
 297  56.48498
 298  330.3837
 299  203.521
 300  325.1832
 301  207.613
 302  221.0431
 303  37.37783
 304  -45.07655
 305  -406.7211
 306  -228.7655
 307  -421.6715
 308  -217.7219
 309  127.2217
 310  -25.32815
 311  -260.9336
 312  9.393818
 313  41.20232
 314  117.5418
 315  473.9299
 316  265.1821
 317  119.4259
 318  197.6552
 319  685.8443
 320  52.24621
 321  -103.2026
 322  116.6334
 323  397.6822
 324  -94.8524
 325  -113.4956
 326  -221.5421
 327  233.0051
 328  349.0698
 329  403.23
 330  173.5614
 331  51.03905
 332  219.6152
 333  93.11036
 334  146.2144
 335  -105.5635
 336  -611.1942
 337  -516.8421
 338  -78.76548
 339  -0.5920881
 340  -31.24377
 341  -26.80846
 342  215.3183
 343  123.4284
 344  147.3799
 345  119.538
 346  82.42492
 347  127.1717
 348  454.0078
 349  9.442228
 350  36.67994
 351  -57.17313
 352  171.4654
 353  732.756
 354  184.9365
 355  -258.6221
 356  -185.999
 357  -29.79001
 358  -109.2111
 359  -93.89117
 360  75.9427
 361  -103.7678
 362  -109.4834
 363  -97.35006
 364  362.7125
 365  443.729
 366  440.278
 367  62.32131
 368  209.9282
 369  465.4598
 370  305.5193
 371  36.45633
 372  216.8857
 373  68.09219
 374  369.2688
 375  150.9901
 376  -172.185
 377  -14.11268
 378  -107.4269
 379  318.4169
 380  516.6316
 381  125.1058
 382  152.9719
 383  246.9832
 384  7.262746
 385  25.84074
 386  87.7354
 387  370.8858
 388  449.028
 389  470.1995
 390  -63.29415
 391  -405.1833
 392  35.83941
 393  189.5261
 394  205.6112
 395  206.222
 396  267.5388
 397  345.6088
 398  -198.8425
 399  -75.08691
 400  101.8675
 401  402.9209
 402  186.0852
 403  265.6025
 404  -23.56544
 405  249.4579
 406  -9.458014
 407  -53.87922
 408  158.0173
 409  245.0096
 410  245.0441
 411  205.7589
 412  -96.03632
 413  13.00579
 414  150.0692
 415  334.8089
 416  397.8126
 417  -151.1419
 418  63.90167
 419  -7.433106
 420  120.4445
 421  109.1919
 422  45.95255
 423  163.1861
 424  49.24577
 425  -163.7176
 426  -209.669
 427  -284.1467
 428  175.7696
 429  21.84092
 430  242.9631
 431  251.7401
 432  -142.5785
 433  -128.7428
 434  199.6184
 435  216.873
 436  267.7577
 437  192.0633
 438  899.6248
 439  661.2667
 440  189.6564
 441  -345.5054
 442  271.4745
 443  306.3435
 444  603.6809
 445  281.1745
 446  484.4113
 447  704.6572
 448  378.7603
 449  3.188061
 450  -54.83643
 451  221.1448
 452  327.3444
 453  -8.947868
 454  -42.69952
 455  -56.66496
 456  -49.75805
 457  -178.7483
 458  -82.32088
 459  391.2868
 460  546.1828
 461  516.5746
 462  234.5614
 463  20.58662
 464  -61.89118
 465  -185.7458
 466  7.619999
 467  68.1783
 468  -5.819768
 469  -379.1598
 470  -327.7953
 471  304.8288
 472  -157.8283
 473  92.91946
 474  253.5882
 475  37.95602
 476  150.713
 477  297.7708
 478  487.4754
 479  670.9972
 480  561.3887
 481  261.1404
 482  157.9405
 483  371.3489
 484  321.3453
 485  469.5404
 486  442.7817
 487  110.0115
 488  183.8862
 489  361.0164
 490  23.21929
 491  400.5092
 492  823.279
 493  1129.182
 494  1749.865
 495  2293.385
 496  1986.582
 497  1523.126
 498  748.5786
 499  124.7533
 500  21.22946
 501  371.6471
 502  158.6276
 503  -42.31039
 504  197.1518
 505  512.7327
 506  344.9814
 507  200.8327
 508  335.9011
 509  446.1362
 510  392.7219
 511  406.1609
