# Input file       =  1187129238.101036-PSRB0329-2ms-sampling-dd.dat
# Candidate        =  PSR_0332+5434
# Telescope        =  AR
# Epoch_topo       =  57983.921957187915
# Epoch_bary       =  N/A
# T_sample         =  0.002
# Data Folded      =  7208960
# Data Avg         =  2.31069531509164e-09
# Data StdDev      =  7.91318218766382 
# Profile Bins     =  512
# Profile Avg      =  0.0102143656669668
# Profile StdDev   =  938.971676292236 
# Reduced chi-sqr  =  0.627
# Prob(Noise)      <  1   (~0.0 sigma)
# P_topo (ms)      =  714.464087938302  +/- 0.000245
# P'_topo (s/s)    =  -0                +/- 1.32e-10
# P''_topo (s/s^2) =  0                 +/- 5.91e-14
# P_bary (ms)      =  N/A
# P'_bary (s/s)    =  N/A
# P''_bary (s/s^2) =  N/A
# P_orb (s)        =  N/A
# asin(i)/c (s)    =  N/A
# eccentricity     =  N/A
# w (rad)          =  N/A
# T_peri           =  N/A
######################################################
   0  -732.463
   1  129.685
   2  389.2212
   3  439.7664
   4  512.6191
   5  607.7368
   6  411.7738
   7  152.7172
   8  875.9679
   9  370.0116
  10  -194.5698
  11  -157.9126
  12  286.2156
  13  495.101
  14  973.6831
  15  741.8566
  16  499.9933
  17  95.24427
  18  -48.10771
  19  106.0008
  20  610.8207
  21  388.3596
  22  -180.4462
  23  -335.2479
  24  -1168.499
  25  -1515.55
  26  -368.811
  27  271.9494
  28  943.1542
  29  1044.161
  30  660.2439
  31  154.2567
  32  91.18571
  33  62.2192
  34  -239.0264
  35  -11.43918
  36  -143.43
  37  59.51258
  38  632.1933
  39  271.1711
  40  -324.6042
  41  -347.9196
  42  -260.8978
  43  -221.3392
  44  148.622
  45  -39.43533
  46  -413.0789
  47  -733.2252
  48  -544.4557
  49  -151.8424
  50  142.7893
  51  -347.4425
  52  -74.1641
  53  -46.68695
  54  -480.7773
  55  -307.4648
  56  -309.7945
  57  14.42677
  58  -427.7486
  59  -80.44846
  60  91.86904
  61  870.7938
  62  1102.053
  63  715.995
  64  504.6217
  65  -30.04093
  66  235.2309
  67  139.6494
  68  572.6494
  69  191.4745
  70  125.2219
  71  176.9211
  72  -105.5891
  73  352.0611
  74  862.0712
  75  844.8765
  76  110.3396
  77  -519.051
  78  -82.6222
  79  96.48685
  80  -134.6291
  81  404.1252
  82  770.3665
  83  1150.178
  84  358.3275
  85  -194.6882
  86  150.9166
  87  177.0924
  88  169.6754
  89  102.0164
  90  264.989
  91  51.71029
  92  155.7997
  93  -39.8677
  94  -183.4006
  95  73.34666
  96  -149.6417
  97  -502.1149
  98  -667.0349
  99  -0.734304
 100  -45.53711
 101  189.8307
 102  -421.0178
 103  -678.5842
 104  -967.2598
 105  -849.8661
 106  -1190.872
 107  -912.8622
 108  -138.3763
 109  -140.1975
 110  449.3501
 111  213.9552
 112  -227.9026
 113  -792.8597
 114  -719.0802
 115  -603.6648
 116  -833.5994
 117  -1276.271
 118  -676.1237
 119  323.6381
 120  -273.9227
 121  -737.4994
 122  -687.3939
 123  -82.01698
 124  301.2433
 125  -28.16695
 126  43.99009
 127  -349.6431
 128  -209.5352
 129  -607.6757
 130  -857.6219
 131  -866.8109
 132  -989.8176
 133  -351.0312
 134  30.15777
 135  -411.5503
 136  -633.1319
 137  -385.528
 138  -56.37223
 139  -650.8802
 140  -550.4566
 141  -189.7697
 142  -1193.415
 143  -1082.411
 144  -178.8814
 145  -313.8606
 146  -58.89159
 147  27.22133
 148  249.6522
 149  -588.7957
 150  -526.9794
 151  -683.9669
 152  -241.5279
 153  -141.0741
 154  -193.2165
 155  218.8214
 156  -82.08338
 157  25.56883
 158  260.9018
 159  334.1371
 160  499.9961
 161  529.2828
 162  195.3641
 163  311.4436
 164  771.7057
 165  1452.425
 166  1455.378
 167  1228.141
 168  1607.193
 169  1283.198
 170  1101.182
 171  240.3505
 172  62.53613
 173  136.1617
 174  153.2673
 175  232.9204
 176  -306.5828
 177  521.551
 178  -164.3003
 179  -170.0465
 180  -616.567
 181  -535.7016
 182  269.0803
 183  119.0004
 184  258.9308
 185  752.4874
 186  1245.64
 187  859.2123
 188  1016.774
 189  1384.303
 190  1175.747
 191  674.6057
 192  466.5734
 193  586.7892
 194  602.3218
 195  541.7803
 196  64.52733
 197  220.692
 198  -213.8624
 199  -425.5457
 200  -172.7374
 201  19.30137
 202  -344.9582
 203  -784.0268
 204  -796.4
 205  -898.3004
 206  -203.4835
 207  -469.9024
 208  330.8288
 209  -254.4913
 210  -713.6432
 211  -845.949
 212  -318.17
 213  -392.1827
 214  745.6277
 215  1518.573
 216  1003.888
 217  1447.88
 218  1786.843
 219  1474.481
 220  846.1927
 221  603.6569
 222  1537.977
 223  935.7007
 224  811.5961
 225  387.0571
 226  -298.1998
 227  -53.89155
 228  137.3185
 229  -4.272763
 230  566.9737
 231  679.6259
 232  301.4205
 233  188.0362
 234  -23.4249
 235  -94.50801
 236  -735.8222
 237  -256.7541
 238  -356.5947
 239  531.1716
 240  231.9208
 241  -105.7137
 242  77.59046
 243  -464.0601
 244  -171.4081
 245  -447.8163
 246  -663.1647
 247  -638.739
 248  293.0887
 249  927.3375
 250  977.2578
 251  604.8756
 252  501.5923
 253  -466.8884
 254  -1091.915
 255  -611.4272
 256  -412.9319
 257  -332.8452
 258  -300.6644
 259  56.78267
 260  -88.70802
 261  76.62137
 262  130.1078
 263  639.5372
 264  1095.132
 265  497.8237
 266  750.0822
 267  171.3273
 268  18.74306
 269  -181.8066
 270  -147.4165
 271  388.1167
 272  39.4715
 273  263.224
 274  -366.4297
 275  -387.2568
 276  -203.5992
 277  -424.7415
 278  -296.9132
 279  -693.9894
 280  -163.1295
 281  -39.56601
 282  186.2537
 283  -17.35232
 284  240.1203
 285  314.278
 286  -452.4771
 287  -614.2032
 288  -75.3624
 289  -268.69
 290  -180.0927
 291  -288.9623
 292  595.7189
 293  189.6699
 294  21.6936
 295  352.5799
 296  172.1369
 297  388.594
 298  -430.9719
 299  -318.1801
 300  360.519
 301  19.60926
 302  160.8504
 303  -43.72829
 304  603.0244
 305  109.6307
 306  285.1305
 307  -97.44216
 308  297.06
 309  -230.1833
 310  -631.1542
 311  -461.3169
 312  154.4085
 313  442.2675
 314  923.6417
 315  857.0707
 316  133.6214
 317  -214.0553
 318  -383.3934
 319  -876.6315
 320  -931.2426
 321  350.225
 322  1060.802
 323  492.9944
 324  650.3697
 325  769.0812
 326  1013.503
 327  865.1968
 328  375.1835
 329  35.32624
 330  -24.27903
 331  736.0508
 332  939.8942
 333  908.431
 334  136.891
 335  101.674
 336  150.0493
 337  544.2808
 338  624.2234
 339  346.7727
 340  396.075
 341  316.4862
 342  316.987
 343  238.6308
 344  164.5459
 345  206.6033
 346  242.1985
 347  436.351
 348  318.2923
 349  -372.0606
 350  -238.7811
 351  -651.8149
 352  -938.5101
 353  -854.128
 354  -594.3431
 355  -326.0822
 356  -868.0876
 357  -405.4177
 358  -151.3972
 359  315.8595
 360  446.9256
 361  -8.646253
 362  346.0126
 363  -285.4225
 364  344.2316
 365  525.8232
 366  673.7691
 367  371.7192
 368  -169.0185
 369  229.9737
 370  376.5915
 371  102.7415
 372  -319.0924
 373  -191.8268
 374  -271.7891
 375  -896.8353
 376  -1198.147
 377  -1278.839
 378  -1346.335
 379  -618.6448
 380  -141.5618
 381  -297.5979
 382  -662.3686
 383  -1168.574
 384  -530.4246
 385  -1003.446
 386  -1080.364
 387  -1366.965
 388  -755.9862
 389  -521.6332
 390  -675.7083
 391  -147.4095
 392  -355.6631
 393  -352.2731
 394  -477.6766
 395  -70.90301
 396  91.382
 397  208.8448
 398  404.9149
 399  843.0618
 400  792.1
 401  -116.249
 402  -162.3163
 403  -672.3604
 404  -592.4655
 405  -269.0642
 406  -320.1223
 407  -271.5366
 408  -166.2368
 409  -297.5049
 410  -853.4186
 411  -1070.86
 412  -1015.346
 413  -2.568277
 414  -363.5071
 415  41.0523
 416  -64.41132
 417  -68.76606
 418  -372.5838
 419  -409.1988
 420  31.63821
 421  321.8138
 422  392.6629
 423  -47.62044
 424  380.0291
 425  -430.7925
 426  -325.6892
 427  -365.5614
 428  -506.0797
 429  -36.51598
 430  -224.7565
 431  123.0372
 432  2.701903
 433  -61.61647
 434  -62.51826
 435  -54.57971
 436  -119.6463
 437  -327.7665
 438  -806.9592
 439  -365.5768
 440  -334.0015
 441  -486.5185
 442  -376.9094
 443  -667.5488
 444  -470.791
 445  -54.67715
 446  336.9314
 447  45.56425
 448  -184.5064
 449  -32.42882
 450  12.8674
 451  440.1387
 452  -331.6775
 453  -372.2167
 454  197.5253
 455  312.7548
 456  444.1117
 457  466.401
 458  42.06767
 459  -665.3061
 460  -490.9991
 461  -417.9574
 462  3.538491
 463  120.561
 464  -40.43289
 465  288.3511
 466  765.5972
 467  120.0442
 468  -263.1183
 469  -589.3494
 470  -757.3649
 471  -535.2924
 472  -292.8651
 473  -53.41096
 474  21.31041
 475  169.778
 476  120.231
 477  -150.3728
 478  -619.0002
 479  -725.9443
 480  -440.3036
 481  -364.8534
 482  -42.01549
 483  63.23022
 484  311.5519
 485  46.73842
 486  -151.0939
 487  166.2745
 488  -9.94652
 489  187.7403
 490  216.8543
 491  447.1802
 492  97.05622
 493  -413.2148
 494  -643.2123
 495  91.70033
 496  343.8607
 497  -148.4838
 498  -56.34547
 499  955.5236
 500  192.5067
 501  156.4861
 502  151.9477
 503  84.33719
 504  479.9188
 505  89.23463
 506  221.7406
 507  90.85311
 508  81.41476
 509  87.75102
 510  -150.5273
 511  -129.5926
