# Input file       =  1187489097.112756_cleaned.dat
# Candidate        =  PSR_0332+5434
# Telescope        =  AR
# Epoch_topo       =  57988.086992045784
# Epoch_bary       =  N/A
# T_sample         =  0.002
# Data Folded      =  7340032
# Data Avg         =  0.059176694191203
# Data StdDev      =  2.88740940291519 
# Profile Bins     =  256
# Profile Avg      =  1695.78402657223 
# Profile StdDev   =  488.919501653957 
# Reduced chi-sqr  =  1.654
# Prob(Noise)      <  2.34e-10   (~6.2 sigma)
# P_topo (ms)      =  714.463582538436  +/- 0.000175
# P'_topo (s/s)    =  -0                +/- 9.22e-11
# P''_topo (s/s^2) =  0                 +/- 4.07e-14
# P_bary (ms)      =  N/A
# P'_bary (s/s)    =  N/A
# P''_bary (s/s^2) =  N/A
# P_orb (s)        =  N/A
# asin(i)/c (s)    =  N/A
# eccentricity     =  N/A
# w (rad)          =  N/A
# T_peri           =  N/A
######################################################
   0  1982.647
   1  1776.066
   2  1479.945
   3  1954.913
   4  1475.604
   5  1693.81
   6  1688.622
   7  1328.521
   8  2183.706
   9  1659.581
  10  1953.434
  11  1016.481
  12  1486.725
  13  979.952
  14  1368.422
  15  1079.761
  16  633.9924
  17  1228.771
  18  971.4482
  19  1290.833
  20  1795.008
  21  2111.584
  22  1302.572
  23  993.3974
  24  1273.065
  25  861.9474
  26  856.645
  27  835.0375
  28  1116.936
  29  1200.582
  30  598.2315
  31  688.6718
  32  1461.744
  33  1931.323
  34  1334.682
  35  1608.287
  36  1610.913
  37  1907.301
  38  1544.336
  39  2470.643
  40  1918.315
  41  2289.276
  42  1083.081
  43  1300.616
  44  1521.373
  45  1508.536
  46  2149.065
  47  1469.764
  48  2028.962
  49  2590.279
  50  2333.161
  51  1631.646
  52  1962.122
  53  2315.368
  54  2220.713
  55  2209.378
  56  2471.913
  57  1630.501
  58  1268.627
  59  1468.632
  60  1285.719
  61  1677.234
  62  2075.341
  63  2158.337
  64  1752.928
  65  1844.306
  66  1900.156
  67  2270.622
  68  2067.853
  69  2298.188
  70  1910.338
  71  983.3214
  72  937.3102
  73  1603.88
  74  1842.122
  75  2056.152
  76  1294.109
  77  1714.433
  78  2109.492
  79  2213.919
  80  1925.117
  81  1914.943
  82  1598.531
  83  1751.193
  84  1986.91
  85  1846.223
  86  1972.674
  87  1406.022
  88  1821.431
  89  2089.367
  90  1568.531
  91  1885.226
  92  2490.125
  93  2417.461
  94  2253.202
  95  1808.389
  96  1789.164
  97  1585.754
  98  2024.246
  99  2525.567
 100  2062.888
 101  1441.968
 102  1876.262
 103  2135.477
 104  1856.192
 105  1660.906
 106  2441.244
 107  2038.612
 108  1619.008
 109  1388.964
 110  1671.589
 111  1274.806
 112  817.3881
 113  1731.41
 114  1785.531
 115  1629.385
 116  1349.232
 117  1164.481
 118  1410.126
 119  1883.069
 120  1840.267
 121  2024.701
 122  1856.336
 123  1789.471
 124  1730.359
 125  1965.327
 126  1116.108
 127  1532.358
 128  1370.081
 129  1489.05
 130  1369.132
 131  1393.27
 132  1901.145
 133  717.8032
 134  1007.062
 135  1611.933
 136  1571.298
 137  1172.172
 138  1461.416
 139  1090.418
 140  1252.03
 141  1672.572
 142  2130.261
 143  2287.283
 144  2036.266
 145  1295.924
 146  2083.718
 147  1243.323
 148  1092.762
 149  918.1547
 150  1545.605
 151  1854.425
 152  1881.58
 153  1920.713
 154  1506.73
 155  621.4681
 156  1825.602
 157  1651.29
 158  1507.211
 159  1909.43
 160  3317.425
 161  4368.161
 162  5217.406
 163  3935.791
 164  2484.946
 165  2011.827
 166  2158.845
 167  1808.114
 168  2480.766
 169  2023.611
 170  1801.841
 171  2169.496
 172  1870.54
 173  1391.096
 174  635.5404
 175  1498.286
 176  1260.847
 177  1595.697
 178  1862.334
 179  1257.312
 180  1070.245
 181  1884.819
 182  1474.043
 183  587.1946
 184  1460.649
 185  1940.917
 186  1388.628
 187  1339.049
 188  918.3677
 189  1365.594
 190  1282.726
 191  997.0554
 192  1384.732
 193  1393.968
 194  1952.572
 195  1431.529
 196  1826.559
 197  1865.923
 198  1665.984
 199  2172.375
 200  2743.352
 201  1969.967
 202  2089.033
 203  1363.356
 204  1972.102
 205  1269.984
 206  936.1404
 207  2186.026
 208  1972.882
 209  1695.115
 210  1544.22
 211  2330.337
 212  1675.554
 213  1676.187
 214  1675.114
 215  1651.142
 216  1760.853
 217  1585.817
 218  1847.454
 219  1331.63
 220  1432.524
 221  1652.288
 222  2529.927
 223  2403.746
 224  1724.188
 225  2054.85
 226  2081.776
 227  2028.188
 228  1877.557
 229  1931.51
 230  2133.647
 231  2014.975
 232  1538.024
 233  1715.245
 234  638.5808
 235  1135.964
 236  1599.454
 237  965.0826
 238  1529.868
 239  1485.304
 240  1444.982
 241  1451.103
 242  1859.681
 243  1075.341
 244  1278.853
 245  1772.372
 246  671.4458
 247  2082.241
 248  1635.489
 249  2230.994
 250  1459.224
 251  1850.763
 252  1611.544
 253  1511.101
 254  2126.923
 255  1508.978
