# Input file       =  1187043050.110137_cleaned.dat
# Candidate        =  PSR_0332+5434
# Telescope        =  AR
# Epoch_topo       =  57982.924410996959
# Epoch_bary       =  N/A
# T_sample         =  0.002
# Data Folded      =  7208960
# Data Avg         =  0.232021490372294
# Data StdDev      =  5.71731015129138 
# Profile Bins     =  256
# Profile Avg      =  6533.72379889655 
# Profile StdDev   =  959.418475905189 
# Reduced chi-sqr  =  0.450
# Prob(Noise)      <  1   (~0.0 sigma)
# P_topo (ms)      =  714.464259647741  +/- 0.000129
# P'_topo (s/s)    =  -0                +/- 6.94e-11
# P''_topo (s/s^2) =  0                 +/- 3.12e-14
# P_bary (ms)      =  N/A
# P'_bary (s/s)    =  N/A
# P''_bary (s/s^2) =  N/A
# P_orb (s)        =  N/A
# asin(i)/c (s)    =  N/A
# eccentricity     =  N/A
# w (rad)          =  N/A
# T_peri           =  N/A
######################################################
   0  6742.228
   1  6523.491
   2  6598.958
   3  5971.397
   4  5872.719
   5  5820.464
   6  6656.773
   7  7196.149
   8  6106.848
   9  6260.358
  10  7084.939
  11  6224.847
  12  5944.679
  13  6727.562
  14  5619.142
  15  6779.728
  16  6109.515
  17  6451.34
  18  6221.495
  19  6617.255
  20  5828.298
  21  5962.146
  22  6911.405
  23  7354.048
  24  6293.452
  25  6158.917
  26  6511.097
  27  7383.355
  28  6865.191
  29  6136.305
  30  6224.118
  31  6849.765
  32  7538.001
  33  7331.087
  34  5922.191
  35  6085.583
  36  6781.486
  37  6230.773
  38  5328.118
  39  6572.002
  40  6780.383
  41  7118.032
  42  6071.199
  43  5895.245
  44  6244.655
  45  6508.086
  46  6432.815
  47  6016.383
  48  6392.626
  49  6667.43
  50  6352.974
  51  5477.081
  52  6507.28
  53  6811.028
  54  6619.928
  55  6509.534
  56  6911.37
  57  6250.785
  58  5986.959
  59  6304.973
  60  6958.889
  61  7356.019
  62  6174.806
  63  6340.038
  64  6784.261
  65  6741.254
  66  7117.42
  67  6632.061
  68  6359.962
  69  6409.803
  70  6755.214
  71  5701.427
  72  6325.359
  73  7120.259
  74  6436.82
  75  6383.387
  76  6832.464
  77  6519.225
  78  6030.14
  79  5393.488
  80  6402.246
  81  6439.622
  82  6281.994
  83  6140.608
  84  5347.477
  85  6885.816
  86  7161.018
  87  7321.006
  88  6010.817
  89  6183.296
  90  7225.159
  91  6363.959
  92  5882.013
  93  5931.859
  94  6833.855
  95  4996.576
  96  6677.007
  97  6038.799
  98  6553.267
  99  6295.903
 100  6656.595
 101  6233.385
 102  6895.612
 103  6918.241
 104  6175.766
 105  6119.165
 106  6043.619
 107  6475.717
 108  6683.776
 109  6354.083
 110  6131.631
 111  6069.358
 112  5943.91
 113  6562.66
 114  6628.352
 115  5708.859
 116  6441.785
 117  6270.956
 118  7450.208
 119  6027.519
 120  6490.973
 121  6001.39
 122  6903.102
 123  7597.436
 124  6893.369
 125  6075.74
 126  5994.812
 127  6604.994
 128  6458.742
 129  6247.094
 130  5741.578
 131  7141.771
 132  6333.269
 133  6232.676
 134  6339.089
 135  6922.031
 136  6898.618
 137  5911.469
 138  5975.706
 139  6610.116
 140  7291.907
 141  6683.541
 142  6664.631
 143  6255.165
 144  6578.301
 145  6357.139
 146  6589.345
 147  6226.065
 148  6622.607
 149  6759.229
 150  6266.786
 151  6941.444
 152  7276.47
 153  6550.07
 154  6435.508
 155  7334.451
 156  7203.344
 157  6877.091
 158  7067.005
 159  6613.235
 160  7361.125
 161  9104.247
 162  9857.513
 163  7461.096
 164  7151.683
 165  6308.477
 166  6920.675
 167  6268.33
 168  6949.099
 169  7038.346
 170  6157.761
 171  5561.46
 172  7370.596
 173  7653.24
 174  6414.045
 175  6245.283
 176  7308.409
 177  7242.796
 178  6193.411
 179  6466.969
 180  6387.022
 181  6585.658
 182  5878.472
 183  5991.639
 184  6407.875
 185  6409.387
 186  6463.198
 187  5896.745
 188  6842.998
 189  6729.282
 190  6894.689
 191  6235.043
 192  6812.047
 193  7069.766
 194  6209.48
 195  6129.335
 196  6204.633
 197  6991.113
 198  6153.983
 199  6348.433
 200  6972.617
 201  6374.059
 202  5267.738
 203  7059.481
 204  6920.805
 205  6830.549
 206  6568.242
 207  6150.166
 208  6594.899
 209  6883.081
 210  7222.89
 211  5979.091
 212  5916.051
 213  6595.467
 214  7103.11
 215  6427.292
 216  6081.256
 217  6262.546
 218  6696.415
 219  6432.343
 220  6301.045
 221  6411.787
 222  6424.493
 223  6303.084
 224  6382.5
 225  6463.417
 226  6693.569
 227  6868.25
 228  6370.387
 229  6858.673
 230  7772.516
 231  6796.517
 232  7573.156
 233  6566.654
 234  6404.712
 235  5872.482
 236  7505.791
 237  7211.262
 238  7174.901
 239  6923.601
 240  5762.753
 241  7289.571
 242  7543.42
 243  6746.64
 244  6016.807
 245  6718.481
 246  7099.463
 247  6806.789
 248  6274.921
 249  5319.764
 250  6116.543
 251  6678.986
 252  6059.78
 253  5926.531
 254  6594.047
 255  6027.455
