# Input file       =  1187503992.109945-PSRB0329-2ms-sampling-dd.dat
# Candidate        =  PSR_0332+5434
# Telescope        =  AR
# Epoch_topo       =  57988.259387846585
# Epoch_bary       =  N/A
# T_sample         =  0.002
# Data Folded      =  7340032
# Data Avg         =  5.33357725911494e-10
# Data StdDev      =  5.07073673565502 
# Profile Bins     =  512
# Profile Avg      =  -0.11224827496773
# Profile StdDev   =  607.134706027187 
# Reduced chi-sqr  =  0.734
# Prob(Noise)      <  1   (~0.0 sigma)
# P_topo (ms)      =  714.463908139553  +/- 8.83e-05
# P'_topo (s/s)    =  -0                +/- 4.66e-11
# P''_topo (s/s^2) =  0                 +/- 2.06e-14
# P_bary (ms)      =  N/A
# P'_bary (s/s)    =  N/A
# P''_bary (s/s^2) =  N/A
# P_orb (s)        =  N/A
# asin(i)/c (s)    =  N/A
# eccentricity     =  N/A
# w (rad)          =  N/A
# T_peri           =  N/A
######################################################
   0  -241.0206
   1  -210.3427
   2  -346.8274
   3  -491.9796
   4  -910.3978
   5  -752.3917
   6  -768.5584
   7  -204.4068
   8  -76.23423
   9  69.84525
  10  100.2502
  11  -703.1559
  12  -564.6104
  13  -560.1838
  14  -303.743
  15  -329.4901
  16  -63.68528
  17  143.3481
  18  193.5536
  19  4.496462
  20  -125.3873
  21  -117.5744
  22  -383.218
  23  -452.8188
  24  -285.3473
  25  209.0505
  26  575.7586
  27  195.863
  28  -177.0931
  29  -56.77267
  30  -82.24351
  31  -338.0098
  32  110.4353
  33  123.0347
  34  64.02518
  35  567.287
  36  312.5009
  37  -47.99653
  38  -184.8103
  39  -377.5051
  40  -169.4443
  41  217.939
  42  476.1017
  43  162.418
  44  -435.3983
  45  -290.559
  46  -320.2426
  47  -447.6185
  48  -302.0922
  49  -220.209
  50  -93.02877
  51  -240.7154
  52  -154.8846
  53  -206.3361
  54  -322.8524
  55  -73.77879
  56  -105.9612
  57  -145.7672
  58  -112.7103
  59  -306.6406
  60  -406.8222
  61  -407.8685
  62  -86.00474
  63  -56.63399
  64  73.29813
  65  50.33596
  66  444.201
  67  562.0781
  68  -151.5565
  69  43.14886
  70  345.228
  71  46.92059
  72  73.39897
  73  180.9883
  74  207.8932
  75  261.3946
  76  -23.182
  77  -195.7956
  78  9.716664
  79  9.063728
  80  227.6779
  81  254.6315
  82  -53.92752
  83  53.51117
  84  -215.0952
  85  -62.11128
  86  -226.4686
  87  -431.8127
  88  -169.761
  89  -174.4411
  90  -237.0569
  91  287.16
  92  499.3079
  93  -545.3008
  94  -518.1152
  95  -683.3844
  96  -435.7348
  97  67.34034
  98  265.3987
  99  188.3578
 100  160.3897
 101  247.7864
 102  241.2422
 103  -308.237
 104  -274.0344
 105  -102.0864
 106  395.3186
 107  421.2766
 108  155.127
 109  -354.7221
 110  -177.7957
 111  -56.26306
 112  -477.0862
 113  -635.0116
 114  -312.0171
 115  358.4974
 116  318.7365
 117  206.8309
 118  265.9518
 119  111.2787
 120  -421.584
 121  -524.5571
 122  -372.321
 123  249.4827
 124  407.3567
 125  294.2415
 126  313.9795
 127  -313.7194
 128  -419.6266
 129  52.75946
 130  237.1565
 131  53.38344
 132  364.2144
 133  498.4466
 134  465.4499
 135  -234.011
 136  -110.6428
 137  419.0008
 138  162.6981
 139  -148.4772
 140  -512.623
 141  -198.998
 142  -54.73843
 143  -35.96368
 144  155.5953
 145  390.4559
 146  282.861
 147  -52.02176
 148  125.5333
 149  356.574
 150  -78.82432
 151  -427.0378
 152  -45.62665
 153  -200.8314
 154  -344.537
 155  67.17315
 156  83.08971
 157  -77.87272
 158  256.7993
 159  264.2549
 160  -195.8815
 161  -345.5347
 162  -136.2485
 163  174.886
 164  203.1037
 165  539.7689
 166  377.8929
 167  -61.90144
 168  -71.01874
 169  -149.76
 170  235.453
 171  221.5048
 172  -100.2937
 173  166.7062
 174  -99.00887
 175  -594.1138
 176  -449.3623
 177  22.48788
 178  81.46393
 179  457.7364
 180  243.0302
 181  -35.23528
 182  -127.6046
 183  -211.7552
 184  141.4742
 185  193.1024
 186  240.1455
 187  -181.9457
 188  -489.6519
 189  -305.5203
 190  -163.0455
 191  6.592812
 192  -578.7735
 193  -298.6939
 194  -435.6357
 195  -200.3756
 196  -39.0189
 197  386.0388
 198  360.0949
 199  113.8105
 200  -29.76824
 201  -536.3431
 202  240.1786
 203  -25.10845
 204  86.23797
 205  -124.0881
 206  184.4626
 207  11.71407
 208  -815.5956
 209  -772.0124
 210  -687.6797
 211  64.76209
 212  506.0742
 213  -189.4184
 214  19.72094
 215  -178.1423
 216  -173.2383
 217  -232.1368
 218  250.062
 219  81.76733
 220  277.0055
 221  217.744
 222  25.09573
 223  -249.7533
 224  14.20301
 225  424.0119
 226  140.2449
 227  349.3308
 228  258.5173
 229  629.9745
 230  303.4807
 231  -156.8305
 232  40.74275
 233  210.4351
 234  232.3069
 235  514.598
 236  713.8288
 237  843.4402
 238  640.6805
 239  -50.69721
 240  230.909
 241  142.4461
 242  245.4615
 243  388.5379
 244  361.6003
 245  280.1053
 246  395.0428
 247  251.1386
 248  291.0912
 249  391.4823
 250  374.7352
 251  9.696102
 252  -3.787222
 253  126.6422
 254  117.4029
 255  -26.53326
 256  -214.8122
 257  62.64227
 258  388.41
 259  409.5292
 260  644.9679
 261  935.9062
 262  1108.027
 263  632.5391
 264  83.47584
 265  319.996
 266  -57.83316
 267  232.3431
 268  222.0434
 269  706.4822
 270  833.5251
 271  335.4706
 272  124.1512
 273  136.021
 274  -336.0364
 275  -531.9537
 276  164.6097
 277  592.2695
 278  705.9689
 279  440.9082
 280  726.0023
 281  444.4338
 282  -119.9951
 283  -62.38294
 284  33.65211
 285  693.5838
 286  465.7419
 287  302.8993
 288  -135.6936
 289  -795.3654
 290  -588.261
 291  -325.2859
 292  -130.1589
 293  152.7929
 294  262.4774
 295  449.8018
 296  517.4078
 297  -244.1422
 298  -271.2024
 299  523.0718
 300  247.6573
 301  974.1649
 302  190.7583
 303  421.9439
 304  108.9448
 305  567.7933
 306  1218.803
 307  633.5109
 308  228.2409
 309  421.6965
 310  685.2848
 311  333.4532
 312  103.1985
 313  140.5403
 314  240.9104
 315  163.7965
 316  356.6325
 317  180.4006
 318  347.141
 319  -461.1381
 320  -21.04752
 321  188.8163
 322  240.2268
 323  -405.7183
 324  -328.876
 325  460.4789
 326  26.36139
 327  56.89561
 328  460.6505
 329  112.1409
 330  156.4027
 331  -344.6618
 332  242.1186
 333  561.0446
 334  -17.6813
 335  264.2336
 336  169.8557
 337  -84.95431
 338  21.40256
 339  580.8002
 340  542.3593
 341  395.3249
 342  26.20298
 343  424.1868
 344  222.8461
 345  3.128836
 346  77.26489
 347  148.3644
 348  -43.24922
 349  -412.2081
 350  -117.0643
 351  -97.70357
 352  -342.2628
 353  345.4399
 354  713.0413
 355  1118.106
 356  1338.704
 357  1212.848
 358  1232.841
 359  1233.131
 360  965.701
 361  626.3087
 362  42.54233
 363  -596.4349
 364  -652.6015
 365  -289.8195
 366  -336.8101
 367  -237.173
 368  89.70955
 369  206.7092
 370  -315.5071
 371  -70.29583
 372  186.9655
 373  388.9171
 374  167.0694
 375  8.466122
 376  54.02906
 377  -120.9369
 378  -197.1432
 379  -417.1005
 380  -423.7185
 381  50.05206
 382  187.4931
 383  79.86258
 384  -12.29682
 385  -40.21358
 386  -392.9533
 387  -11.59741
 388  3.342552
 389  -160.7889
 390  -79.06277
 391  -181.8359
 392  -665.0131
 393  -470.3155
 394  -490.8633
 395  -233.6499
 396  -194.1272
 397  -194.4154
 398  -143.0916
 399  -452.4092
 400  -133.8195
 401  35.5651
 402  -463.4758
 403  -293.0453
 404  226.2788
 405  389.6044
 406  178.7642
 407  116.2213
 408  -370.5284
 409  -166.5562
 410  37.57286
 411  -245.6017
 412  56.38904
 413  58.61367
 414  134.7998
 415  -539.3749
 416  -615.8456
 417  -296.0323
 418  48.27506
 419  -63.66841
 420  -529.8907
 421  -632.0877
 422  -489.8293
 423  -620.3105
 424  -480.4944
 425  -618.0316
 426  -801.5433
 427  -716.5197
 428  34.06585
 429  575.5923
 430  638.2319
 431  -112.6123
 432  -255.5974
 433  -532.3596
 434  -612.9709
 435  -22.83044
 436  -213.4685
 437  -466.359
 438  301.4976
 439  538.5231
 440  -32.44563
 441  27.20947
 442  -85.05177
 443  -533.0464
 444  -446.7093
 445  -74.31606
 446  44.54705
 447  88.65369
 448  56.88762
 449  -9.646434
 450  -360.6809
 451  -639.9476
 452  -479.2488
 453  -173.3503
 454  17.61432
 455  -757.8653
 456  -606.0787
 457  -550.5129
 458  -350.6077
 459  -166.0388
 460  -473.5768
 461  -310.476
 462  -399.9249
 463  -441.3094
 464  -278.6871
 465  -496.5594
 466  24.03556
 467  -58.01434
 468  -249.3083
 469  -654.5074
 470  -465.4398
 471  518.8353
 472  930.3601
 473  348.1957
 474  -212.912
 475  -332.8286
 476  -574.9543
 477  -669.3992
 478  -731.2386
 479  -39.72758
 480  166.4775
 481  -291.6775
 482  -336.9279
 483  -46.61568
 484  -267.2317
 485  -147.2875
 486  -308.4342
 487  100.6692
 488  184.6171
 489  -273.1923
 490  10.40327
 491  3.642676
 492  -300.5226
 493  -452.1236
 494  -386.758
 495  -371.5594
 496  57.62001
 497  96.95953
 498  520.6998
 499  178.6238
 500  378.2496
 501  38.6832
 502  -196.1221
 503  59.33215
 504  254.6092
 505  560.6732
 506  301.9343
 507  -548.5091
 508  -557.1111
 509  -549.3087
 510  -503.1007
 511  -26.00898
