# Input file       =  1187675783.136082_cleaned.dat
# Candidate        =  PSR_0332+5434
# Telescope        =  AR
# Epoch_topo       =  57990.247709908355
# Epoch_bary       =  N/A
# T_sample         =  0.002
# Data Folded      =  7340032
# Data Avg         =  0.0351077486286937
# Data StdDev      =  3.24230953024617 
# Profile Bins     =  256
# Profile Avg      =  1006.22963765828 
# Profile StdDev   =  549.014060193666 
# Reduced chi-sqr  =  1.492
# Prob(Noise)      <  5.63e-07   (~4.9 sigma)
# P_topo (ms)      =  714.463756727323  +/- 0.000432
# P'_topo (s/s)    =  -0                +/- 2.28e-10
# P''_topo (s/s^2) =  0                 +/- 1.01e-13
# P_bary (ms)      =  N/A
# P'_bary (s/s)    =  N/A
# P''_bary (s/s^2) =  N/A
# P_orb (s)        =  N/A
# asin(i)/c (s)    =  N/A
# eccentricity     =  N/A
# w (rad)          =  N/A
# T_peri           =  N/A
######################################################
   0  512.6305
   1  1702.367
   2  1383.946
   3  562.3221
   4  858.4583
   5  918.8902
   6  525.348
   7  401.9252
   8  682.3899
   9  1023.485
  10  1714.091
  11  2321.695
  12  948.0786
  13  1550.418
  14  439.3742
  15  937.2397
  16  192.6759
  17  1483.244
  18  1035.774
  19  1149.461
  20  572.4127
  21  346.5314
  22  471.3405
  23  -3.363898
  24  446.3996
  25  615.2068
  26  1265.757
  27  649.8187
  28  675.536
  29  1516.79
  30  1030.213
  31  1130.385
  32  865.6103
  33  1123.826
  34  643.327
  35  878.0182
  36  -164.0256
  37  353.0338
  38  1217.272
  39  1651.593
  40  1491.798
  41  1288.139
  42  1704.143
  43  1644.92
  44  1255.45
  45  1217.336
  46  1039.87
  47  1713.056
  48  769.5273
  49  823.4216
  50  915.9931
  51  1917.272
  52  470.7465
  53  1467.131
  54  1490.951
  55  1049.315
  56  1818.126
  57  1006.756
  58  261.3038
  59  562.2216
  60  762.9825
  61  851.0474
  62  1459.814
  63  1104.306
  64  966.5253
  65  891.9279
  66  140.2663
  67  261.3701
  68  411.9417
  69  1469.91
  70  511.4417
  71  891.6082
  72  1439.763
  73  1711.728
  74  1093.45
  75  825.9041
  76  969.0625
  77  1280.963
  78  2135.95
  79  1445.429
  80  821.194
  81  723.1776
  82  1256.437
  83  1055.952
  84  400.217
  85  947.5323
  86  1047.421
  87  510.4274
  88  1246.023
  89  726.0961
  90  1512.489
  91  1070.827
  92  276.4836
  93  1028.871
  94  1013.096
  95  1455.245
  96  1082.528
  97  382.1865
  98  1232.68
  99  1321.96
 100  918.8519
 101  982.3293
 102  823.1605
 103  513.4678
 104  337.6631
 105  904.3781
 106  840.2565
 107  1342.401
 108  843.3574
 109  988.5158
 110  1219.306
 111  1682.154
 112  985.1249
 113  1697.64
 114  394.0186
 115  1071.708
 116  912.15
 117  1312.115
 118  1875.613
 119  1372.346
 120  1038.563
 121  1612.931
 122  1358.889
 123  585.9969
 124  1366.81
 125  923.3548
 126  1502.249
 127  570.5805
 128  850.6856
 129  1811.621
 130  672.2491
 131  841.3146
 132  1341.581
 133  823.0137
 134  1260.663
 135  1222.182
 136  1770.747
 137  1256.105
 138  133.4991
 139  435.1139
 140  1252.9
 141  896.3956
 142  767.5624
 143  1378.948
 144  567.8183
 145  840.5392
 146  42.16668
 147  570.0095
 148  577.2262
 149  1397.264
 150  1432.333
 151  1133.79
 152  2231.959
 153  1332.36
 154  1579.575
 155  1594.146
 156  1529.67
 157  2351.84
 158  2036.106
 159  2138.52
 160  2861.578
 161  4677.963
 162  3754.911
 163  1839.109
 164  1600.98
 165  1904.918
 166  859.2413
 167  679.3146
 168  1079.05
 169  875.8127
 170  1088.37
 171  430.1398
 172  442.7593
 173  969.0756
 174  571.14
 175  254.5396
 176  628.4064
 177  943.6792
 178  492.6287
 179  789.5132
 180  925.8704
 181  787.8394
 182  679.7323
 183  1428.812
 184  885.8341
 185  1003.232
 186  15.59448
 187  1155.477
 188  882.0994
 189  921.7079
 190  1150.744
 191  1661.249
 192  1398.931
 193  1862.177
 194  1674.196
 195  1926.017
 196  961.1115
 197  1174.203
 198  1063.157
 199  1120.507
 200  622.2028
 201  938.2584
 202  1064.615
 203  231.862
 204  -54.22367
 205  -341.9621
 206  990.577
 207  -335.4723
 208  455.073
 209  1328.318
 210  38.20432
 211  251.7117
 212  304.5901
 213  845.0209
 214  846.3394
 215  1058.289
 216  795.3101
 217  965.149
 218  502.2669
 219  918.4645
 220  1414.107
 221  887.754
 222  858.7816
 223  1621.048
 224  1659.805
 225  759.257
 226  787.5731
 227  387.436
 228  693.1431
 229  1148.786
 230  1526.204
 231  704.3473
 232  642.9573
 233  549.8262
 234  926.5456
 235  770.348
 236  1475.856
 237  1066.064
 238  278.1212
 239  1198.792
 240  766.5385
 241  1103.579
 242  607.7028
 243  798.4158
 244  182.316
 245  673.1014
 246  570.5163
 247  806.8436
 248  349.5085
 249  840.0735
 250  607.2623
 251  1015.938
 252  317.9776
 253  320.2535
 254  781.5047
 255  331.2433
