# Input file       =  1187660879.113576_cleaned.dat
# Candidate        =  PSR_0332+5434
# Telescope        =  AR
# Epoch_topo       =  57990.075209647868
# Epoch_bary       =  N/A
# T_sample         =  0.002
# Data Folded      =  7340032
# Data Avg         =  0.0111890540368002
# Data StdDev      =  1.00006421505909 
# Profile Bins     =  512
# Profile Avg      =  160.449833036413 
# Profile StdDev   =  119.740725040772 
# Reduced chi-sqr  =  1.291
# Prob(Noise)      <  8.96e-06   (~4.3 sigma)
# P_topo (ms)      =  714.463430460268  +/- 0.0002
# P'_topo (s/s)    =  -0                +/- 1.06e-10
# P''_topo (s/s^2) =  0                 +/- 4.66e-14
# P_bary (ms)      =  N/A
# P'_bary (s/s)    =  N/A
# P''_bary (s/s^2) =  N/A
# P_orb (s)        =  N/A
# asin(i)/c (s)    =  N/A
# eccentricity     =  N/A
# w (rad)          =  N/A
# T_peri           =  N/A
######################################################
   0  936.1617
   1  745.9747
   2  539.7679
   3  275.6965
   4  251.0841
   5  248.7434
   6  178.4811
   7  276.7767
   8  269.7701
   9  92.9668
  10  71.36824
  11  158.0984
  12  248.2545
  13  345.9778
  14  304.1926
  15  241.7577
  16  264.0039
  17  124.8937
  18  94.87769
  19  235.7389
  20  211.3898
  21  29.81329
  22  141.6141
  23  255.7933
  24  226.1719
  25  134.2857
  26  171.7205
  27  71.71074
  28  57.45013
  29  18.93202
  30  18.3394
  31  106.4184
  32  265.8752
  33  78.32
  34  62.48162
  35  108.798
  36  54.07399
  37  172.1278
  38  137.6934
  39  115.0004
  40  21.3562
  41  176.455
  42  269.4984
  43  270.9653
  44  116.0711
  45  227.9263
  46  168.3689
  47  179.6758
  48  106.9817
  49  106.5364
  50  194.5595
  51  63.6788
  52  100.6993
  53  92.93544
  54  98.05529
  55  226.0288
  56  184.3601
  57  119.3049
  58  174.0037
  59  124.8139
  60  231.9626
  61  278.4863
  62  123.137
  63  118.0898
  64  195.8961
  65  177.5547
  66  270.5256
  67  218.4362
  68  79.63792
  69  100.7275
  70  93.83694
  71  136.5851
  72  117.7682
  73  62.57041
  74  95.52654
  75  77.85634
  76  229.1703
  77  268.716
  78  349.1648
  79  249.2765
  80  165.7628
  81  173.4287
  82  121.1375
  83  242.8421
  84  263.5236
  85  206.6145
  86  106.2275
  87  106.9
  88  222.0318
  89  181.0944
  90  56.36027
  91  85.33567
  92  194.6477
  93  211.1147
  94  246.0766
  95  238.2326
  96  118.217
  97  82.97378
  98  178.5239
  99  112.466
 100  142.2727
 101  109.7631
 102  153.8578
 103  180.5124
 104  131.1119
 105  197.7812
 106  175.048
 107  220.4862
 108  176.1519
 109  94.23769
 110  260.7769
 111  284.775
 112  242.9694
 113  112.1819
 114  116.754
 115  210.4267
 116  160.0977
 117  191.7652
 118  144.6839
 119  211.8337
 120  211.5486
 121  97.16448
 122  3.249585
 123  123.3099
 124  244.9142
 125  122.4777
 126  54.21773
 127  98.15317
 128  86.9795
 129  187.0229
 130  188.7413
 131  152.138
 132  191.1011
 133  94.88302
 134  11.09839
 135  228.8676
 136  222.1987
 137  230.2303
 138  195.3846
 139  168.6161
 140  164.9533
 141  280.1494
 142  207.6103
 143  113.6382
 144  85.72968
 145  231.9973
 146  294.2648
 147  168.278
 148  177.1373
 149  186.5
 150  197.5848
 151  183.5573
 152  124.1184
 153  70.19153
 154  117.9661
 155  69.27343
 156  70.08386
 157  150.8696
 158  235.1372
 159  169.3653
 160  24.32673
 161  -1.847422
 162  195.0312
 163  89.77602
 164  21.35074
 165  205.4768
 166  219.7964
 167  219.5721
 168  51.34922
 169  -43.597
 170  91.26804
 171  137.2331
 172  175.5867
 173  262.939
 174  210.7482
 175  233.3546
 176  214.4442
 177  141.065
 178  173.7065
 179  127.2064
 180  212.2912
 181  149.9269
 182  190.2564
 183  208.9482
 184  180.0523
 185  109.3893
 186  146.1044
 187  178.7614
 188  125.2187
 189  88.28407
 190  158.4623
 191  164.833
 192  47.97395
 193  92.7348
 194  118.0735
 195  141.7548
 196  210.3411
 197  125.7881
 198  223.4015
 199  140.5424
 200  163.9877
 201  181.5588
 202  194.4376
 203  245.7728
 204  187.3893
 205  194.0288
 206  100.2315
 207  72.049
 208  171.7254
 209  138.4583
 210  184.5913
 211  115.8862
 212  106.0022
 213  205.8075
 214  70.9859
 215  273.7064
 216  290.2627
 217  164.738
 218  140.6292
 219  166.2774
 220  208.436
 221  220.1381
 222  190.8045
 223  244.2417
 224  101.2871
 225  87.64845
 226  234.8659
 227  157.2377
 228  113.1789
 229  210.0163
 230  300.8393
 231  242.4846
 232  241.4206
 233  225.3269
 234  251.3234
 235  106.9756
 236  66.79439
 237  160.5125
 238  169.4107
 239  234.9991
 240  147.0587
 241  252.0092
 242  265.0847
 243  195.2466
 244  263.2522
 245  55.35714
 246  145.2239
 247  224.3765
 248  177.1153
 249  127.0041
 250  90.53075
 251  135.3136
 252  112.5132
 253  113.5565
 254  226.6679
 255  167.0568
 256  115.998
 257  191.0208
 258  213.0172
 259  241.4316
 260  250.7508
 261  201.3141
 262  246.3667
 263  124.82
 264  112.3812
 265  -27.88177
 266  -26.73195
 267  90.15595
 268  210.6808
 269  275.1703
 270  312.3861
 271  126.3286
 272  -33.59202
 273  -101.0783
 274  75.22286
 275  188.3364
 276  69.8406
 277  112.6666
 278  -12.60825
 279  14.69622
 280  132.289
 281  141.2736
 282  116.4899
 283  121.3523
 284  250.7315
 285  349.9433
 286  59.84666
 287  2.263483
 288  52.10225
 289  143.975
 290  102.5831
 291  165.1512
 292  165.3824
 293  162.2848
 294  188.8327
 295  98.33134
 296  -127.8856
 297  -71.09418
 298  136.5527
 299  181.0271
 300  120.8659
 301  22.10169
 302  111.12
 303  236.2145
 304  183.438
 305  169.6623
 306  191.0817
 307  304.8122
 308  274.5876
 309  143.7558
 310  175.1333
 311  227.6368
 312  212.1833
 313  196.1581
 314  217.5712
 315  250.8909
 316  99.20407
 317  171.0462
 318  266.3515
 319  410.2244
 320  350.2029
 321  159.9365
 322  175.7691
 323  238.66
 324  267.6874
 325  127.271
 326  40.58048
 327  88.90511
 328  26.1205
 329  28.88123
 330  112.9968
 331  114.5074
 332  157.1879
 333  139.6593
 334  125.5454
 335  145.8755
 336  204.7853
 337  144.2655
 338  -2.666399
 339  -50.95242
 340  5.797163
 341  172.4273
 342  188.7725
 343  179.9704
 344  264.9037
 345  113.0821
 346  92.1104
 347  199.202
 348  315.9826
 349  287.2244
 350  108.2915
 351  105.5821
 352  162.9057
 353  126.1307
 354  171.4212
 355  181.1964
 356  101.1058
 357  70.35497
 358  142.5518
 359  210.1057
 360  251.8409
 361  127.688
 362  62.58113
 363  258.0825
 364  131.8389
 365  216.2233
 366  163.3495
 367  214.0072
 368  68.11233
 369  93.40798
 370  115.7825
 371  161.3872
 372  89.86633
 373  125.1156
 374  12.91317
 375  20.5979
 376  147.9085
 377  116.434
 378  122.9203
 379  162.9068
 380  109.0885
 381  99.69051
 382  83.99572
 383  100.137
 384  127.8014
 385  56.56059
 386  63.37785
 387  181.3247
 388  198.7335
 389  271.6732
 390  151.5147
 391  105.4764
 392  87.07446
 393  142.7064
 394  217.3578
 395  161.3105
 396  136.4169
 397  175.0709
 398  228.5937
 399  151.1514
 400  88.58535
 401  301.4279
 402  239.3668
 403  213.4292
 404  188.581
 405  171.6913
 406  123.0968
 407  121.4
 408  58.50881
 409  9.009244
 410  120.1804
 411  126.6893
 412  126.6633
 413  112.8362
 414  207.8892
 415  188.3683
 416  147.8609
 417  108.5246
 418  216.1383
 419  218.8279
 420  185.0745
 421  182.8116
 422  178.6136
 423  182.39
 424  312.4522
 425  260.9675
 426  272.9742
 427  186.5664
 428  86.93311
 429  75.6423
 430  215.4729
 431  197.1781
 432  48.46247
 433  89.76437
 434  244.2081
 435  202.9658
 436  137.0072
 437  188.426
 438  115.5464
 439  80.65868
 440  28.47869
 441  37.86597
 442  -35.25338
 443  66.61118
 444  203.4312
 445  178.3933
 446  201.2108
 447  36.2677
 448  -157.73
 449  106.9196
 450  267.1604
 451  123.5091
 452  146.1689
 453  120.4554
 454  70.30926
 455  118.6953
 456  188.3725
 457  213.4092
 458  154.0672
 459  98.86146
 460  51.59481
 461  166.6793
 462  69.84873
 463  158.4284
 464  59.47971
 465  224.9014
 466  147.8159
 467  -23.45974
 468  -59.35679
 469  164.2919
 470  263.3794
 471  220.0799
 472  209.0688
 473  268.2067
 474  201.0618
 475  29.90543
 476  127.219
 477  249.6636
 478  258.5551
 479  185.7912
 480  134.2096
 481  131.098
 482  170.3674
 483  168.5498
 484  33.63945
 485  99.86053
 486  118.2412
 487  190.751
 488  202.1638
 489  109.2597
 490  193.6444
 491  131.6754
 492  108.3454
 493  100.8098
 494  124.9296
 495  187.1105
 496  253.5293
 497  152.2334
 498  175.2779
 499  74.36518
 500  19.18773
 501  -65.6729
 502  204.6385
 503  248.6032
 504  148.0641
 505  232.7611
 506  274.0489
 507  339.0836
 508  250.8031
 509  490.2173
 510  628.0894
 511  737.1025
