# Input file       =  1187072595.109421_cleaned.dat
# Candidate        =  PSR_0332+5434
# Telescope        =  AR
# Epoch_topo       =  57983.266367007185
# Epoch_bary       =  N/A
# T_sample         =  0.002
# Data Folded      =  7340032
# Data Avg         =  0.0143408627426716
# Data StdDev      =  1.00004435282392 
# Profile Bins     =  512
# Profile Avg      =  205.63162934086  
# Profile StdDev   =  119.738346875046 
# Reduced chi-sqr  =  1.295
# Prob(Noise)      <  7.13e-06   (~4.3 sigma)
# P_topo (ms)      =  714.464545670094  +/- 0.000187
# P'_topo (s/s)    =  -0                +/- 9.86e-11
# P''_topo (s/s^2) =  0                 +/- 4.35e-14
# P_bary (ms)      =  N/A
# P'_bary (s/s)    =  N/A
# P''_bary (s/s^2) =  N/A
# P_orb (s)        =  N/A
# asin(i)/c (s)    =  N/A
# eccentricity     =  N/A
# w (rad)          =  N/A
# T_peri           =  N/A
######################################################
   0  193.3863
   1  153.77
   2  158.2072
   3  150.7475
   4  292.9664
   5  264.7292
   6  109.4125
   7  35.77182
   8  148.5585
   9  181.5255
  10  10.76149
  11  89.20303
  12  236.5918
  13  178.8165
  14  261.184
  15  279.2757
  16  106.5832
  17  317.7613
  18  215.7005
  19  61.12093
  20  124.5647
  21  226.6737
  22  291.3778
  23  211.9002
  24  298.1906
  25  359.9859
  26  138.4525
  27  127.8578
  28  148.4769
  29  62.63546
  30  61.56879
  31  20.66719
  32  66.43686
  33  213.3944
  34  300.9288
  35  159.9911
  36  159.5755
  37  214.5794
  38  171.94
  39  122.189
  40  107.1927
  41  286.6031
  42  230.7912
  43  293.3268
  44  263.114
  45  302.5169
  46  303.3465
  47  341.037
  48  352.3096
  49  325.6675
  50  266.9966
  51  266.6996
  52  292.865
  53  252.2938
  54  215.0918
  55  217.3458
  56  262.2805
  57  224.7874
  58  310.5489
  59  395.0451
  60  370.7302
  61  385.2363
  62  230.545
  63  244.3459
  64  370.0866
  65  263.7166
  66  232.6195
  67  185.1983
  68  206.1937
  69  235.2382
  70  208.3779
  71  238.7061
  72  135.3359
  73  125.9174
  74  148.0304
  75  191.1698
  76  228.329
  77  178.8086
  78  145.2199
  79  213.4037
  80  279.5489
  81  276.6977
  82  375.6923
  83  210.3678
  84  213.612
  85  323.9583
  86  201.0235
  87  143.0814
  88  282.1389
  89  296.8546
  90  313.676
  91  248.6569
  92  253.6676
  93  204.0075
  94  216.3517
  95  273.0001
  96  218.2596
  97  234.4398
  98  297.7765
  99  261.8
 100  138.2445
 101  190.8918
 102  268.6989
 103  233.3661
 104  161.6526
 105  141.3937
 106  189.5332
 107  197.3588
 108  338.6692
 109  361.4951
 110  208.7891
 111  103.0915
 112  169.2168
 113  182.9798
 114  231.9648
 115  353.2764
 116  246.2236
 117  81.8293
 118  116.4083
 119  315.1103
 120  341.7053
 121  162.7935
 122  271.9171
 123  232.034
 124  186.4014
 125  288.0747
 126  316.5836
 127  326.5359
 128  338.3606
 129  234.4654
 130  257.388
 131  127.6934
 132  132.7102
 133  209.3433
 134  253.1969
 135  378.1085
 136  297.5649
 137  236.8337
 138  271.2572
 139  171.7625
 140  252.5182
 141  222.7319
 142  382.8839
 143  420.4245
 144  287.39
 145  129.8055
 146  158.727
 147  154.9235
 148  154.1368
 149  183.6678
 150  267.533
 151  82.12814
 152  64.81329
 153  285.4651
 154  105.0095
 155  68.21532
 156  97.04682
 157  82.12321
 158  113.369
 159  225.0295
 160  334.9253
 161  292.0583
 162  81.90917
 163  102.5665
 164  186.9162
 165  226.693
 166  214.5934
 167  90.00313
 168  159.2562
 169  123.4825
 170  134.2543
 171  205.7506
 172  234.685
 173  293.9973
 174  273.2744
 175  124.6159
 176  122.488
 177  195.7137
 178  268.4993
 179  201.9916
 180  211.9081
 181  160.7828
 182  201.3443
 183  295.2892
 184  209.8731
 185  219.1178
 186  88.05636
 187  228.4333
 188  270.2284
 189  254.1198
 190  231.49
 191  212.194
 192  177.1713
 193  167.2952
 194  224.1738
 195  178.5591
 196  98.0059
 197  198.5987
 198  204.1828
 199  227.2008
 200  302.4261
 201  288.11
 202  296.8253
 203  284.4947
 204  260.2726
 205  274.4959
 206  214.9253
 207  240.9666
 208  257.2883
 209  172.5825
 210  165.055
 211  257.7651
 212  225.463
 213  335.6306
 214  358.7119
 215  367.7895
 216  146.9956
 217  156.4939
 218  293.9091
 219  325.2014
 220  266.5999
 221  173.2129
 222  156.3355
 223  171.174
 224  162.2184
 225  57.26857
 226  217.5999
 227  227.1496
 228  233.0173
 229  226.9921
 230  121.4926
 231  177.2253
 232  221.9269
 233  22.90055
 234  126.6796
 235  199.7232
 236  242.605
 237  197.5849
 238  318.6397
 239  254.4605
 240  64.80968
 241  -84.6014
 242  48.60215
 243  217.1033
 244  239.4103
 245  119.6441
 246  70.63538
 247  142.1586
 248  227.6434
 249  142.5825
 250  171.3658
 251  118.4137
 252  192.8042
 253  247.9448
 254  178.567
 255  138.8492
 256  279.5413
 257  214.6557
 258  144.164
 259  196.9739
 260  212.0894
 261  34.5095
 262  231.8892
 263  370.7982
 264  289.3369
 265  244.8926
 266  224.1447
 267  241.1608
 268  240.8839
 269  309.1179
 270  280.3156
 271  203.0777
 272  298.436
 273  341.4275
 274  188.1382
 275  262.0052
 276  348.4563
 277  434.3674
 278  276.8219
 279  320.6763
 280  301.909
 281  279.7348
 282  365.2006
 283  378.244
 284  263.5567
 285  293.7402
 286  247.5631
 287  237.7408
 288  261.1069
 289  187.9941
 290  87.47282
 291  149.8608
 292  281.9394
 293  294.7349
 294  215.0654
 295  296.7961
 296  280.5573
 297  222.3819
 298  229.8659
 299  197.8512
 300  281.8828
 301  176.8124
 302  269.2569
 303  473.0947
 304  303.1979
 305  62.94084
 306  106.0331
 307  175.5152
 308  92.41575
 309  171.6586
 310  172.3389
 311  213.2365
 312  100.0482
 313  156.5797
 314  208.9473
 315  170.0222
 316  81.58337
 317  56.188
 318  272.6129
 319  182.4955
 320  208.8223
 321  310.311
 322  307.2572
 323  104.0317
 324  99.75884
 325  127.2422
 326  194.0074
 327  123.638
 328  179.2572
 329  342.3709
 330  332.4733
 331  282.2792
 332  176.3382
 333  179.9568
 334  241.028
 335  283.0824
 336  420.3542
 337  608.119
 338  644.265
 339  689.3903
 340  757.5128
 341  612.3696
 342  308.0706
 343  248.5522
 344  239.6235
 345  198.0894
 346  274.9475
 347  200.9317
 348  253.7547
 349  216.0245
 350  257.3209
 351  337.1987
 352  268.0236
 353  247.2807
 354  279.5244
 355  266.3749
 356  301.367
 357  198.3763
 358  252.8065
 359  262.3416
 360  141.3963
 361  250.8457
 362  348.8914
 363  324.5215
 364  326.5554
 365  177.9562
 366  180.8394
 367  168.2041
 368  12.8017
 369  99.85683
 370  83.94681
 371  169.7517
 372  197.2844
 373  165.185
 374  233.2827
 375  116.6733
 376  123.2702
 377  143.625
 378  153.7644
 379  119.5324
 380  73.36736
 381  164.7864
 382  153.4176
 383  151.6165
 384  185.9936
 385  59.78082
 386  102.5621
 387  125.6583
 388  99.201
 389  116.4745
 390  202.1732
 391  142.8765
 392  87.47672
 393  151.1831
 394  116.2817
 395  168.1242
 396  183.6803
 397  170.4591
 398  49.43063
 399  227.7313
 400  272.0931
 401  287.5496
 402  151.7481
 403  42.50136
 404  99.49335
 405  44.60852
 406  32.43132
 407  159.4962
 408  196.8555
 409  -50.86833
 410  99.01654
 411  208.7274
 412  74.66393
 413  -15.16893
 414  51.68274
 415  162.756
 416  196.661
 417  251.907
 418  201.9438
 419  122.5886
 420  119.3547
 421  -18.22009
 422  126.9706
 423  106.4716
 424  155.3078
 425  141.843
 426  100.9087
 427  161.8234
 428  78.40883
 429  68.86961
 430  195.1454
 431  230.902
 432  161.8818
 433  26.36216
 434  -48.25069
 435  -7.973887
 436  44.58692
 437  127.672
 438  171.2463
 439  130.7643
 440  184.4096
 441  76.0904
 442  64.97952
 443  102.607
 444  38.38011
 445  33.89972
 446  84.54701
 447  187.6067
 448  85.02688
 449  137.8509
 450  154.6615
 451  204.9342
 452  200.0521
 453  135.8643
 454  133.8703
 455  147.958
 456  60.69008
 457  118.176
 458  217.3604
 459  92.33836
 460  74.55391
 461  117.1541
 462  165.9482
 463  222.4563
 464  215.7193
 465  180.3935
 466  148.8483
 467  188.9469
 468  193.7513
 469  101.5212
 470  180.2941
 471  202.1185
 472  203.3148
 473  65.95903
 474  2.001409
 475  119.4906
 476  287.3903
 477  231.6128
 478  264.3913
 479  219.7921
 480  260.5864
 481  222.7139
 482  125.4711
 483  158.3233
 484  283.6075
 485  210.7122
 486  182.9946
 487  184.8839
 488  231.4498
 489  144.9771
 490  71.19157
 491  215.4772
 492  244.1912
 493  181.0542
 494  267.2609
 495  397.3934
 496  258.2531
 497  104.6226
 498  170.987
 499  277.1776
 500  326.0498
 501  337.357
 502  364.3084
 503  191.8497
 504  192.3283
 505  202.2825
 506  179.1404
 507  193.1458
 508  276.0882
 509  281.3972
 510  373.6494
 511  303.9106
