# Input file       =  1187402369.104908-PSRB0329-2ms-sampling-dd.dat
# Candidate        =  PSR_0332+5434
# Telescope        =  AR
# Epoch_topo       =  57987.083195658655
# Epoch_bary       =  N/A
# T_sample         =  0.002
# Data Folded      =  7340032
# Data Avg         =  -3.46876828984549e-11
# Data StdDev      =  2.96043658744354 
# Profile Bins     =  512
# Profile Avg      =  0.213620761203517
# Profile StdDev   =  354.462061615487 
# Reduced chi-sqr  =  1.094
# Prob(Noise)      <  0.0695   (~1.5 sigma)
# P_topo (ms)      =  714.463673264046  +/- 0.000188
# P'_topo (s/s)    =  -0                +/- 9.94e-11
# P''_topo (s/s^2) =  0                 +/- 4.39e-14
# P_bary (ms)      =  N/A
# P'_bary (s/s)    =  N/A
# P''_bary (s/s^2) =  N/A
# P_orb (s)        =  N/A
# asin(i)/c (s)    =  N/A
# eccentricity     =  N/A
# w (rad)          =  N/A
# T_peri           =  N/A
######################################################
   0  -311.5717
   1  -88.54572
   2  -183.4363
   3  -362.6487
   4  -67.62175
   5  -140.6509
   6  -205.1207
   7  -33.39853
   8  -139.5522
   9  -103.7045
  10  291.1875
  11  -166.2404
  12  -372.4951
  13  -317.2656
  14  -162.2144
  15  -349.7651
  16  -505.3531
  17  -440.5414
  18  -382.3194
  19  -18.70695
  20  -141.967
  21  31.21905
  22  259.2549
  23  323.6095
  24  -139.817
  25  -463.9995
  26  -352.7824
  27  -309.3185
  28  -94.31688
  29  -352.3151
  30  -356.5309
  31  63.59113
  32  -87.07491
  33  -355.9062
  34  -726.2708
  35  -686.0128
  36  -668.5688
  37  -349.4132
  38  -310.0496
  39  -208.4135
  40  -63.26935
  41  -42.89633
  42  -424.6595
  43  -556.332
  44  -408.2992
  45  32.3952
  46  -219.9206
  47  -3.39661
  48  -71.30874
  49  186.0159
  50  396.1214
  51  143.8681
  52  261.249
  53  -32.54398
  54  -88.71197
  55  158.5348
  56  261.097
  57  -23.50484
  58  166.1757
  59  -77.73099
  60  -41.60089
  61  58.01969
  62  -180.5774
  63  -197.2975
  64  -301.4573
  65  -338.7648
  66  -201.6306
  67  103.0231
  68  -244.2979
  69  -478.7161
  70  -320.9835
  71  314.5066
  72  119.7178
  73  201.6064
  74  204.7062
  75  34.59843
  76  -175.696
  77  39.35429
  78  151.6876
  79  40.1963
  80  215.4827
  81  287.0462
  82  385.8504
  83  424.7872
  84  332.7687
  85  449.5292
  86  171.6886
  87  419.4989
  88  595.905
  89  378.8752
  90  158.2927
  91  4.711951
  92  53.02673
  93  -123.9747
  94  -159.1289
  95  -119.8548
  96  316.7242
  97  348.0926
  98  220.3004
  99  203.6922
 100  33.03117
 101  -267.7104
 102  9.585894
 103  207.1104
 104  227.9736
 105  -227.3517
 106  193.916
 107  424.8137
 108  217.1045
 109  14.21909
 110  -281.494
 111  -51.56286
 112  145.542
 113  31.51454
 114  -28.22778
 115  -47.72305
 116  50.42991
 117  66.0877
 118  143.0186
 119  438.7115
 120  511.2054
 121  149.6351
 122  451.2287
 123  110.4585
 124  56.27797
 125  92.36233
 126  264.5791
 127  168.9867
 128  186.1064
 129  -0.3253543
 130  -269.2215
 131  40.03951
 132  -195.0562
 133  -30.3563
 134  -151.6688
 135  -305.5722
 136  172.5128
 137  -18.63246
 138  -9.874464
 139  352.0753
 140  150.5256
 141  -242.7021
 142  -107.7115
 143  -107.1814
 144  56.28505
 145  140.5146
 146  54.64993
 147  42.06296
 148  -90.7345
 149  -320.6432
 150  -120.3466
 151  7.732079
 152  202.8445
 153  282.0301
 154  -117.6479
 155  131.3953
 156  -99.09702
 157  -21.5291
 158  7.352541
 159  -24.69038
 160  -99.5939
 161  -9.973331
 162  99.26821
 163  -81.88172
 164  -169.2952
 165  -496.7173
 166  -217.0057
 167  -147.02
 168  10.34133
 169  249.2853
 170  400.9271
 171  486.6245
 172  47.88744
 173  -43.34597
 174  88.09803
 175  440.186
 176  355.3678
 177  -237.7214
 178  -113.5544
 179  125.7262
 180  241.2102
 181  180.5609
 182  372.6782
 183  151.8628
 184  -130.9343
 185  163.6731
 186  301.6343
 187  161.0708
 188  661.9655
 189  603.7719
 190  690.4183
 191  368.0534
 192  46.21027
 193  -88.03696
 194  -87.97731
 195  261.1257
 196  428.1345
 197  150.0872
 198  -15.9868
 199  202.0454
 200  336.6738
 201  299.8724
 202  36.73495
 203  -252.9081
 204  -63.35942
 205  92.88716
 206  -77.47966
 207  -375.8775
 208  -297.833
 209  202.3853
 210  300.2415
 211  72.63654
 212  49.77197
 213  211.064
 214  100.2657
 215  590.3281
 216  968.5203
 217  1165.223
 218  1388.041
 219  1297.148
 220  1067.665
 221  211.2053
 222  122.7711
 223  159.4491
 224  368.9137
 225  546.8422
 226  396.041
 227  134.5375
 228  365.8889
 229  118.1015
 230  174.2094
 231  347.9275
 232  79.00473
 233  193.2143
 234  87.36469
 235  22.86941
 236  -44.25668
 237  19.53339
 238  -397.8517
 239  -116.6577
 240  135.2729
 241  32.89898
 242  7.39566
 243  -264.5161
 244  -22.79043
 245  166.4525
 246  139.5308
 247  99.66939
 248  -249.2707
 249  76.11305
 250  307.4797
 251  242.6047
 252  -7.978043
 253  -223.8355
 254  -22.89799
 255  241.0078
 256  -127.4225
 257  -102.045
 258  155.3779
 259  20.32958
 260  41.81749
 261  285.4051
 262  55.63465
 263  62.92461
 264  276.7867
 265  246.7363
 266  339.0385
 267  24.89801
 268  -365.4041
 269  -672.1878
 270  -519.5124
 271  -176.048
 272  354.082
 273  137.4313
 274  -193.5866
 275  -287.0603
 276  -549.5193
 277  -407.881
 278  -87.67287
 279  88.1381
 280  107.2284
 281  -105.2556
 282  149.2609
 283  198.7689
 284  24.66893
 285  47.73838
 286  138.1321
 287  62.50158
 288  142.0184
 289  289.3466
 290  241.6404
 291  -102.1959
 292  -8.842746
 293  50.1231
 294  -220.0465
 295  -270.242
 296  -122.9341
 297  -212.1745
 298  -367.1517
 299  -2.120034
 300  -234.2599
 301  -50.202
 302  -83.93457
 303  -477.3332
 304  -121.637
 305  -30.39376
 306  -198.395
 307  104.8946
 308  138.1426
 309  489.4906
 310  316.5735
 311  -353.7777
 312  -557.3094
 313  -294.6206
 314  -239.3015
 315  -303.3821
 316  -38.31505
 317  330.9251
 318  178.4555
 319  75.41564
 320  -55.94725
 321  -257.287
 322  -153.5457
 323  -134.4012
 324  219.2352
 325  68.67649
 326  -69.07592
 327  -98.87148
 328  -37.74021
 329  262.2583
 330  -50.97948
 331  -300.582
 332  -206.1675
 333  94.47793
 334  -84.27982
 335  48.6094
 336  -204.6566
 337  -68.08357
 338  36.14194
 339  -104.0434
 340  -35.84641
 341  -95.32356
 342  -241.6812
 343  190.8619
 344  301.6745
 345  143.5615
 346  144.2363
 347  119.8239
 348  89.9847
 349  316.0519
 350  262.779
 351  210.2918
 352  -35.31818
 353  335.3373
 354  268.0033
 355  150.0987
 356  -84.94438
 357  -64.20285
 358  177.4949
 359  303.8992
 360  373.7477
 361  6.011293
 362  -141.8389
 363  -290.4057
 364  -568.2514
 365  -236.9947
 366  -108.2204
 367  198.1041
 368  134.2858
 369  -76.13342
 370  -346.8836
 371  -111.8857
 372  155.7751
 373  27.17406
 374  -184.6746
 375  -321.8124
 376  -135.963
 377  77.50833
 378  -296.3812
 379  -612.5376
 380  -461.3259
 381  -453.6544
 382  -206.8021
 383  -326.6445
 384  -274.8897
 385  149.7016
 386  -73.3115
 387  32.6286
 388  -60.8092
 389  -264.2883
 390  224.0518
 391  180.3395
 392  102.4014
 393  9.584456
 394  119.4535
 395  248.8724
 396  49.22776
 397  -193.4387
 398  -390.5057
 399  -224.6017
 400  162.2733
 401  17.66537
 402  -127.4172
 403  208.431
 404  40.60932
 405  -83.56716
 406  -220.7845
 407  -77.54446
 408  121.3627
 409  23.91857
 410  7.284494
 411  30.59871
 412  -39.48423
 413  48.22828
 414  -250.1002
 415  38.17926
 416  350.2726
 417  67.24955
 418  -14.85071
 419  194.8837
 420  60.2794
 421  -61.27638
 422  -56.83819
 423  -70.5491
 424  -58.0613
 425  -38.89785
 426  -63.14072
 427  -146.124
 428  35.43314
 429  -105.3534
 430  -103.4283
 431  -118.3533
 432  27.54665
 433  129.3024
 434  -88.42609
 435  343.332
 436  83.25658
 437  -130.3821
 438  -412.7764
 439  -230.5663
 440  -197.4042
 441  -32.75589
 442  -150.3237
 443  -465.5197
 444  -134.2812
 445  -207.8729
 446  -213.1557
 447  -343.501
 448  191.1635
 449  591.4193
 450  166.5117
 451  -109.9576
 452  -90.31157
 453  82.57517
 454  36.36927
 455  191.0087
 456  157.0883
 457  -190.6914
 458  117.4995
 459  135.0706
 460  132.2822
 461  -25.22743
 462  -253.6458
 463  -287.1298
 464  -377.625
 465  -586.627
 466  -326.2321
 467  -201.3873
 468  -153.2453
 469  -229.9224
 470  -322.6475
 471  -418.8358
 472  -65.25262
 473  98.74567
 474  81.22374
 475  262.7107
 476  36.56465
 477  -285.2963
 478  -264.8414
 479  -622.1219
 480  -240.2923
 481  -67.44357
 482  107.8845
 483  162.1438
 484  94.42821
 485  347.9803
 486  108.2698
 487  -125.2581
 488  -333.8459
 489  -219.9392
 490  -184.7329
 491  -150.6354
 492  86.01484
 493  285.996
 494  144.0878
 495  152.8732
 496  65.09403
 497  -393.8256
 498  -155.5754
 499  -165.3091
 500  139.3583
 501  139.8957
 502  37.50322
 503  178.3617
 504  -116.0047
 505  -387.4954
 506  -466.2151
 507  -654.0984
 508  -281.9914
 509  -5.30532
 510  -21.10576
 511  -128.7607
