# Input file       =  1187316220.114877_cleaned.dat
# Candidate        =  PSR_0332+5434
# Telescope        =  AR
# Epoch_topo       =  57986.086100866632
# Epoch_bary       =  N/A
# T_sample         =  0.002
# Data Folded      =  7340032
# Data Avg         =  0.000381385481367533
# Data StdDev      =  2.23983300413089 
# Profile Bins     =  1024
# Profile Avg      =  2.75538385300625 
# Profile StdDev   =  189.633315431841 
# Reduced chi-sqr  =  1.411
# Prob(Noise)      <  6.02e-17   (~8.3 sigma)
# P_topo (ms)      =  714.463789248723  +/- 0.000163
# P'_topo (s/s)    =  -0                +/- 8.58e-11
# P''_topo (s/s^2) =  0                 +/- 3.79e-14
# P_bary (ms)      =  N/A
# P'_bary (s/s)    =  N/A
# P''_bary (s/s^2) =  N/A
# P_orb (s)        =  N/A
# asin(i)/c (s)    =  N/A
# eccentricity     =  N/A
# w (rad)          =  N/A
# T_peri           =  N/A
######################################################
   0  84.25584
   1  76.51226
   2  84.20965
   3  162.0183
   4  215.5847
   5  91.6541
   6  101.716
   7  24.09411
   8  1.534624
   9  -38.37278
  10  24.67369
  11  106.7161
  12  121.2364
  13  54.48536
  14  -35.19147
  15  -133.1035
  16  -111.3431
  17  -64.85983
  18  11.288
  19  21.37451
  20  32.66957
  21  -2.133075
  22  12.05686
  23  -45.75174
  24  -28.31947
  25  -143.4739
  26  -150.6935
  27  -44.99284
  28  57.98207
  29  79.75414
  30  24.64441
  31  4.159696
  32  -10.5614
  33  -47.03513
  34  -86.97396
  35  -176.915
  36  -142.488
  37  -88.94432
  38  -25.40075
  39  -1.555265
  40  -25.54835
  41  -24.28457
  42  26.70277
  43  128.4882
  44  164.9827
  45  42.556
  46  -135.6982
  47  -165.1773
  48  -103.6566
  49  -27.34101
  50  35.32809
  51  79.4122
  52  89.62305
  53  30.62541
  54  -134.256
  55  -193.5483
  56  -145.537
  57  58.12771
  58  67.49029
  59  61.89269
  60  50.97165
  61  98.11507
  62  39.70443
  63  90.28152
  64  113.3663
  65  19.30907
  66  -136.1073
  67  -178.3495
  68  -91.27493
  69  -57.00974
  70  -118.303
  71  -34.7617
  72  -3.406136
  73  121.8844
  74  24.04801
  75  13.18631
  76  -9.365268
  77  82.979
  78  166.4665
  79  75.46539
  80  -67.44074
  81  -107.2419
  82  -50.1226
  83  39.02138
  84  4.455534
  85  -122.2938
  86  -181.4281
  87  -137.7095
  88  -80.88172
  89  -70.06576
  90  -63.99541
  91  -6.901336
  92  100.6672
  93  110.2246
  94  41.60691
  95  -12.83151
  96  -18.84888
  97  -37.49169
  98  -177.1291
  99  -178.5034
 100  -116.3399
 101  71.72913
 102  144.6847
 103  172.5125
 104  146.7547
 105  145.6533
 106  70.76824
 107  8.775703
 108  -22.05918
 109  17.50166
 110  91.20692
 111  81.1862
 112  91.65797
 113  22.49409
 114  102.0936
 115  107.8169
 116  67.13158
 117  -50.22341
 118  -113.0477
 119  -10.77176
 120  46.2888
 121  113.3968
 122  52.69578
 123  69.63618
 124  96.19217
 125  118.645
 126  27.06262
 127  76.45565
 128  -11.78349
 129  -18.80292
 130  -18.06534
 131  26.13787
 132  43.51367
 133  -77.86337
 134  -72.71165
 135  -112.25
 136  -78.64339
 137  -69.22235
 138  -40.62523
 139  -39.10611
 140  -9.021218
 141  55.06388
 142  101.4053
 143  70.38337
 144  84.28845
 145  61.16501
 146  144.0332
 147  136.2937
 148  117.5585
 149  40.98015
 150  5.985609
 151  36.83278
 152  -48.86224
 153  -63.49002
 154  -87.03078
 155  -17.91954
 156  -78.24308
 157  -13.0447
 158  -34.14955
 159  80.75194
 160  59.50742
 161  108.1406
 162  -12.48319
 163  -92.52457
 164  -76.59207
 165  -56.18052
 166  -54.98806
 167  -97.90875
 168  -29.72781
 169  41.43277
 170  77.55583
 171  21.82695
 172  4.333314
 173  -50.54408
 174  -5.617384
 175  31.35555
 176  -12.03423
 177  -47.85944
 178  -165.0817
 179  -44.62679
 180  70.35433
 181  151.6736
 182  140.7763
 183  178.351
 184  197.5392
 185  135.1581
 186  -70.58988
 187  -170.4477
 188  -192.475
 189  -50.73319
 190  31.99366
 191  26.40801
 192  38.29443
 193  -7.8941
 194  46.82333
 195  45.49251
 196  89.93284
 197  15.3389
 198  -129.7127
 199  -194.5512
 200  -158.4093
 201  -114.5072
 202  -28.00964
 203  66.5739
 204  130.6076
 205  83.6247
 206  -16.03361
 207  -67.12427
 208  -36.80519
 209  59.78917
 210  74.00826
 211  79.77769
 212  -15.87409
 213  12.03338
 214  -38.85568
 215  -53.20787
 216  -187.5541
 217  -105.398
 218  -90.74493
 219  -92.03485
 220  -122.8178
 221  -29.3063
 222  60.18367
 223  -51.48847
 224  -134.1895
 225  -121.6937
 226  -28.95751
 227  -36.86637
 228  43.92812
 229  66.67017
 230  43.68561
 231  33.07584
 232  77.89276
 233  159.3505
 234  110.6718
 235  58.41195
 236  6.404212
 237  -16.27509
 238  -8.964349
 239  -60.75714
 240  -25.41554
 241  12.91271
 242  40.08889
 243  -12.25721
 244  -48.58367
 245  -67.28468
 246  -59.21008
 247  -45.52208
 248  9.49312
 249  46.58894
 250  11.72757
 251  -1.440018
 252  11.29035
 253  47.25663
 254  27.5332
 255  -128.9234
 256  -224.115
 257  -261.1327
 258  -114.7494
 259  -108.0694
 260  -83.52096
 261  -100.7906
 262  -42.50705
 263  -37.13263
 264  114.0467
 265  167.4459
 266  143.6414
 267  -18.88009
 268  -5.620975
 269  31.30633
 270  121.231
 271  35.43395
 272  -10.05418
 273  -112.7634
 274  -152.2096
 275  -175.2321
 276  -141.0245
 277  -46.8871
 278  -35.25167
 279  -46.19825
 280  -86.40734
 281  -154.4178
 282  -118.6124
 283  -59.01855
 284  57.81656
 285  12.26879
 286  -5.731744
 287  -21.02272
 288  29.01649
 289  -21.95348
 290  -60.14375
 291  -38.7325
 292  -1.398298
 293  -30.85867
 294  -107.5002
 295  -103.4902
 296  -24.31586
 297  100.5031
 298  145.6498
 299  82.4496
 300  97.81433
 301  119.7325
 302  129.2001
 303  90.33144
 304  54.14797
 305  34.12059
 306  30.36014
 307  92.81327
 308  72.57253
 309  -34.27928
 310  -165.3662
 311  -136.9548
 312  -22.59823
 313  107.4187
 314  140.4308
 315  18.04938
 316  -150.5105
 317  -145.5086
 318  -107.8741
 319  51.67218
 320  0.4924871
 321  5.417606
 322  -135.7546
 323  -108.1814
 324  -99.10613
 325  -24.8557
 326  -29.14373
 327  30.06367
 328  -8.022406
 329  -34.39333
 330  -78.82471
 331  -118.3665
 332  -60.54501
 333  40.26009
 334  28.20292
 335  -50.67522
 336  -20.73333
 337  11.4442
 338  52.6101
 339  68.14062
 340  154.7682
 341  208.3366
 342  92.65034
 343  40.01404
 344  -2.055452
 345  46.49556
 346  26.97382
 347  93.65233
 348  113.9507
 349  -7.43365
 350  -38.79371
 351  -16.90306
 352  13.50638
 353  -98.96162
 354  -78.92065
 355  -46.15194
 356  12.16781
 357  0.2623594
 358  -25.25239
 359  -66.07605
 360  -68.08078
 361  -57.84642
 362  -111.1763
 363  -116.4556
 364  -73.49289
 365  1.000756
 366  -42.47578
 367  -69.78503
 368  -98.15067
 369  -35.62408
 370  -64.80024
 371  -35.63805
 372  -40.5309
 373  -58.08829
 374  -33.96516
 375  -2.270373
 376  45.12453
 377  -52.0454
 378  -84.77847
 379  -104.9019
 380  -64.31178
 381  -62.08641
 382  -20.23252
 383  10.08029
 384  18.84171
 385  -50.82101
 386  -22.21489
 387  -52.88552
 388  -0.2143986
 389  -41.45838
 390  5.852102
 391  31.09593
 392  -103.5543
 393  -173.1113
 394  -209.6976
 395  -119.3765
 396  -221.4101
 397  -214.0082
 398  -122.5128
 399  113.2262
 400  125.8821
 401  112.0906
 402  74.09639
 403  92.54157
 404  114.7631
 405  94.01746
 406  28.30278
 407  12.08225
 408  13.85344
 409  40.75153
 410  36.06586
 411  49.79335
 412  -8.146297
 413  -107.8422
 414  -65.07866
 415  2.936035
 416  45.71344
 417  2.727207
 418  -7.40638
 419  16.93447
 420  50.01154
 421  58.47258
 422  48.77911
 423  14.54189
 424  -34.95
 425  -26.20467
 426  -80.41495
 427  -94.26638
 428  -87.04552
 429  -68.59789
 430  -101.4299
 431  -105.953
 432  -88.76054
 433  -43.72211
 434  23.82202
 435  164.8184
 436  147.1696
 437  42.41798
 438  -141.4841
 439  -145.0552
 440  -52.56443
 441  -15.45181
 442  -69.93189
 443  -63.98101
 444  -57.65773
 445  -53.33196
 446  -93.39195
 447  -74.1107
 448  -163.7821
 449  -203.946
 450  -146.6242
 451  -29.25866
 452  -71.83873
 453  -6.233832
 454  -19.73611
 455  73.13647
 456  29.95441
 457  -17.93483
 458  -38.28126
 459  -13.32124
 460  95.51505
 461  62.16936
 462  58.10818
 463  -19.63887
 464  5.84818
 465  -61.94493
 466  -43.1416
 467  -45.02875
 468  94.45374
 469  258.3908
 470  306.2065
 471  236.0768
 472  62.77312
 473  -2.446037
 474  -119.2541
 475  -140.0764
 476  -156.4219
 477  -59.92554
 478  19.31854
 479  132.9158
 480  209.1092
 481  286.2184
 482  245.2371
 483  213.2872
 484  83.69871
 485  120.4412
 486  171.4696
 487  151.1225
 488  -22.08676
 489  -171.9092
 490  -158.4563
 491  -40.95024
 492  -62.08799
 493  12.75339
 494  74.16415
 495  70.20221
 496  -1.740091
 497  -67.58595
 498  -28.62527
 499  33.74831
 500  38.83508
 501  72.15437
 502  65.47672
 503  94.93828
 504  73.52928
 505  10.13772
 506  -16.47137
 507  -38.97026
 508  56.74489
 509  43.673
 510  -35.59878
 511  -91.99157
 512  -42.55037
 513  24.80916
 514  -0.09881273
 515  -25.3282
 516  55.09182
 517  127.031
 518  84.08868
 519  22.21046
 520  51.77108
 521  51.74144
 522  35.54116
 523  -45.95177
 524  14.4995
 525  11.44353
 526  51.31883
 527  97.24146
 528  61.36576
 529  -43.62421
 530  -136.476
 531  -79.55599
 532  58.61264
 533  125.128
 534  62.00489
 535  -65.28759
 536  -148.5615
 537  -106.6043
 538  -37.62001
 539  -67.67246
 540  -118.9587
 541  -128.0209
 542  -80.74877
 543  -11.75226
 544  32.17974
 545  4.486782
 546  -20.62846
 547  -71.4584
 548  4.018505
 549  -34.51101
 550  -114.2018
 551  -168.6678
 552  -164.878
 553  -25.84289
 554  33.53848
 555  84.98125
 556  96.47037
 557  70.64068
 558  15.98512
 559  -67.09598
 560  -80.7009
 561  -33.74516
 562  59.59352
 563  19.77134
 564  -15.48594
 565  -37.50114
 566  -10.72402
 567  -59.49977
 568  -85.57549
 569  -38.75579
 570  -23.73284
 571  -29.37953
 572  -94.87879
 573  -99.26992
 574  -161.879
 575  -199.1693
 576  -112.4305
 577  -84.80464
 578  -37.03262
 579  -111.3197
 580  12.30017
 581  14.75311
 582  -74.38447
 583  -117.43
 584  -24.28753
 585  48.14764
 586  112.6531
 587  159.0901
 588  108.3393
 589  -25.51233
 590  -104.5467
 591  -48.02601
 592  -4.906621
 593  2.528162
 594  -9.667411
 595  -9.614705
 596  -68.33985
 597  -14.90107
 598  91.39099
 599  83.40155
 600  94.68808
 601  138.6971
 602  245.5764
 603  253.3034
 604  173.7608
 605  122.9348
 606  6.177548
 607  -38.00897
 608  -71.2164
 609  9.180346
 610  -22.55197
 611  -34.165
 612  -107.7673
 613  -8.880737
 614  25.27089
 615  97.35002
 616  -31.91115
 617  -58.21553
 618  -96.08194
 619  -79.77629
 620  -101.7087
 621  -78.10878
 622  26.35371
 623  112.1533
 624  149.8103
 625  155.2336
 626  73.84595
 627  -72.35071
 628  -119.6557
 629  -33.92138
 630  74.53939
 631  157.8861
 632  271.8003
 633  392.0837
 634  401.487
 635  300.5488
 636  234.6794
 637  166.3465
 638  168.5175
 639  176.9625
 640  249.7954
 641  427.1499
 642  530.8205
 643  686.7978
 644  753.8042
 645  773.3502
 646  802.1422
 647  805.5709
 648  871.6044
 649  705.717
 650  527.6844
 651  519.2295
 652  539.2866
 653  524.8396
 654  372.4413
 655  287.373
 656  227.6099
 657  182.8467
 658  91.00808
 659  31.98897
 660  -46.79126
 661  -26.05068
 662  -77.77061
 663  -103.8047
 664  -93.29928
 665  -87.37392
 666  -59.57337
 667  -81.47646
 668  -92.9634
 669  -87.21744
 670  -60.41241
 671  -61.38107
 672  -7.025131
 673  56.34753
 674  153.6856
 675  70.30351
 676  -12.27763
 677  -108.9671
 678  -41.57
 679  20.65837
 680  135.9308
 681  23.66151
 682  -32.86958
 683  -147.0619
 684  -177.9785
 685  -225.7371
 686  -226.6358
 687  -199.8741
 688  -146.9004
 689  51.45518
 690  129.0994
 691  78.68019
 692  120.9285
 693  90.30544
 694  138.5827
 695  -27.1586
 696  -45.17746
 697  -61.31861
 698  -47.67073
 699  5.869051
 700  -58.77423
 701  -76.92103
 702  -59.7886
 703  -71.3317
 704  6.274297
 705  -37.21024
 706  -67.08581
 707  -218.3815
 708  -267.2276
 709  -238.755
 710  -127.4662
 711  -80.04716
 712  -107.9222
 713  -120.1973
 714  6.528209
 715  52.91038
 716  10.46055
 717  -124.3288
 718  -95.19465
 719  -57.98012
 720  -51.27863
 721  -107.1945
 722  -185.0526
 723  -182.5629
 724  -192.5133
 725  -91.49587
 726  -110.9224
 727  -63.76758
 728  -89.83011
 729  -29.27304
 730  3.047162
 731  63.67447
 732  102.9034
 733  77.86207
 734  19.81962
 735  -34.1176
 736  -109.9001
 737  -112.3516
 738  -136.4766
 739  -109.6017
 740  -80.6383
 741  1.23038
 742  52.73578
 743  84.42453
 744  115.9403
 745  221.9329
 746  260.9657
 747  285.997
 748  167.8873
 749  -42.2936
 750  -51.58718
 751  100.9395
 752  248.7985
 753  248.3369
 754  159.6476
 755  160.3215
 756  88.89732
 757  75.27686
 758  41.30258
 759  95.78007
 760  146.753
 761  145.6481
 762  35.38251
 763  -15.41571
 764  -9.248728
 765  41.9004
 766  0.6297792
 767  -24.42764
 768  -130.3839
 769  -164.9883
 770  -218.3056
 771  -109.8157
 772  -58.90599
 773  22.50545
 774  -38.95045
 775  -95.91241
 776  -56.29144
 777  -90.39861
 778  -41.83867
 779  -106.9512
 780  -64.84129
 781  -78.69752
 782  -95.85343
 783  -82.96532
 784  -129.0548
 785  -78.23594
 786  -55.51809
 787  9.219082
 788  38.10324
 789  6.965425
 790  -10.84379
 791  -3.446061
 792  83.5523
 793  126.1693
 794  101.9702
 795  13.84206
 796  -46.9116
 797  -107.4652
 798  -37.40336
 799  -45.47845
 800  -62.35996
 801  9.688168
 802  170.0508
 803  219.8667
 804  138.724
 805  96.96421
 806  18.95048
 807  -1.818578
 808  -17.68433
 809  -24.42976
 810  105.7814
 811  119.1616
 812  261.3585
 813  180.3515
 814  224.6724
 815  123.6964
 816  16.11961
 817  -21.40467
 818  78.1331
 819  55.70237
 820  56.93838
 821  40.86215
 822  89.62691
 823  30.14667
 824  76.14647
 825  20.27648
 826  59.78157
 827  43.98386
 828  19.74481
 829  -95.98383
 830  -138.5603
 831  -21.37719
 832  14.90116
 833  -73.73038
 834  -107.9901
 835  -127.9382
 836  -22.36251
 837  44.14389
 838  -6.994868
 839  -108.734
 840  -207.7044
 841  -156.2631
 842  -124.7034
 843  70.40731
 844  185.5871
 845  174.2406
 846  77.87902
 847  26.47088
 848  -25.939
 849  -106.4223
 850  -138.4171
 851  -115.9942
 852  8.725127
 853  -7.652082
 854  -75.64508
 855  -128.0205
 856  -126.9993
 857  -26.65432
 858  7.172335
 859  -6.045361
 860  -47.29373
 861  -69.45905
 862  16.80849
 863  117.4335
 864  102.9823
 865  61.4234
 866  13.37307
 867  115.9455
 868  101.4358
 869  68.27481
 870  52.65205
 871  89.56811
 872  69.15074
 873  33.09168
 874  11.25933
 875  41.99276
 876  18.4373
 877  65.44717
 878  73.67664
 879  140.942
 880  132.7327
 881  108.7961
 882  -16.27524
 883  -122.8561
 884  -164.3246
 885  -117.964
 886  -2.377095
 887  39.12449
 888  17.17143
 889  -61.79989
 890  -95.35486
 891  -104.4278
 892  -52.11459
 893  -93.99777
 894  -67.1584
 895  -74.32874
 896  -45.12359
 897  -55.49125
 898  -45.44795
 899  -103.7884
 900  -149.0505
 901  -216.1124
 902  -207.1517
 903  -185.5116
 904  -250.3873
 905  -215.2743
 906  -120.2899
 907  51.68314
 908  104.2885
 909  132.0772
 910  70.71617
 911  80.96109
 912  110.0148
 913  115.5507
 914  76.89124
 915  -21.94135
 916  -42.18083
 917  -120.9413
 918  -118.1668
 919  -127.2345
 920  -94.0639
 921  -29.90714
 922  -81.27868
 923  -58.9278
 924  -99.76698
 925  -64.22696
 926  -85.21196
 927  -80.47766
 928  9.537381
 929  21.33046
 930  -0.07596949
 931  3.070896
 932  22.3936
 933  62.64198
 934  29.82913
 935  -6.564564
 936  -85.74452
 937  -113.9765
 938  -126.2935
 939  -63.43111
 940  -51.67942
 941  -107.5674
 942  -243.8783
 943  -215.7887
 944  -207.4571
 945  -139.3538
 946  -138.6582
 947  0.9909198
 948  100.5282
 949  71.59325
 950  -6.658047
 951  -169.3613
 952  -166.0998
 953  -181.313
 954  -114.0588
 955  -46.98332
 956  58.81651
 957  80.59011
 958  36.74971
 959  -51.67401
 960  -54.95981
 961  -99.01501
 962  -55.95019
 963  -43.73531
 964  58.09344
 965  -47.25095
 966  -59.92878
 967  -154.9488
 968  -72.49372
 969  -69.56979
 970  -21.36483
 971  -24.02283
 972  -31.92015
 973  -24.41949
 974  6.400493
 975  36.09153
 976  37.31418
 977  11.35686
 978  -67.72759
 979  -47.46926
 980  52.30974
 981  154.4515
 982  109.6077
 983  16.81412
 984  -10.66454
 985  84.56363
 986  58.98278
 987  5.88802
 988  111.8448
 989  155.8505
 990  141.0381
 991  -23.77223
 992  87.68444
 993  220.1477
 994  235.6247
 995  195.119
 996  82.53475
 997  63.07878
 998  -32.73405
 999  -64.47807
1000  -98.47002
1001  -109.4657
1002  -195.06
1003  -244.0886
1004  -169.1264
1005  -93.75147
1006  -105.4205
1007  -95.13171
1008  -41.28638
1009  -64.04065
1010  -144.724
1011  -129.3182
1012  -68.53767
1013  -65.07952
1014  -69.81818
1015  -11.06209
1016  0.804218
1017  67.11932
1018  194.376
1019  190.3598
1020  76.00964
1021  -40.28555
1022  -65.65451
1023  26.86226
