# Input file       =  1187660879.113576_cleaned.dat
# Candidate        =  PSR_0332+5434
# Telescope        =  AR
# Epoch_topo       =  57990.075209647868
# Epoch_bary       =  N/A
# T_sample         =  0.002
# Data Folded      =  7340032
# Data Avg         =  0.0281162253741059
# Data StdDev      =  2.45733381461807 
# Profile Bins     =  512
# Profile Avg      =  403.209208341407 
# Profile StdDev   =  294.224039015523 
# Reduced chi-sqr  =  1.244
# Prob(Noise)      <  0.000135   (~3.6 sigma)
# P_topo (ms)      =  714.463431463742  +/- 0.000226
# P'_topo (s/s)    =  -0                +/- 1.19e-10
# P''_topo (s/s^2) =  0                 +/- 5.26e-14
# P_bary (ms)      =  N/A
# P'_bary (s/s)    =  N/A
# P''_bary (s/s^2) =  N/A
# P_orb (s)        =  N/A
# asin(i)/c (s)    =  N/A
# eccentricity     =  N/A
# w (rad)          =  N/A
# T_peri           =  N/A
######################################################
   0  464.0315
   1  583.8181
   2  469.106
   3  269.7502
   4  329.9439
   5  473.0078
   6  309.7481
   7  265.6944
   8  352.9751
   9  444.0797
  10  134.0434
  11  198.6203
  12  260.1378
  13  319.8843
  14  481.7418
  15  268.2364
  16  535.1102
  17  407.9133
  18  412.2853
  19  354.26
  20  428.4754
  21  622.772
  22  539.9511
  23  461.5964
  24  340.0147
  25  174.1758
  26  468.6206
  27  383.4926
  28  473.6671
  29  296.9955
  30  241.7708
  31  490.9742
  32  232.5998
  33  573.4672
  34  748.9814
  35  453.9846
  36  337.9204
  37  339.6589
  38  484.5053
  39  519.367
  40  503.4778
  41  629.1545
  42  370.7708
  43  194.1794
  44  563.3083
  45  435.8711
  46  296.9009
  47  501.9803
  48  711.2578
  49  610.4127
  50  617.8281
  51  557.0848
  52  598.9174
  53  324.4443
  54  155.2874
  55  371.7191
  56  425.8083
  57  601.0435
  58  443.0269
  59  596.0202
  60  715.3414
  61  499.4854
  62  662.9561
  63  166.8435
  64  266.3696
  65  521.6791
  66  432.4188
  67  378.1551
  68  245.9592
  69  383.856
  70  328.5736
  71  239.0095
  72  548.2696
  73  437.3236
  74  245.2972
  75  401.7022
  76  590.7686
  77  595.2312
  78  693.8358
  79  483.3918
  80  692.7507
  81  375.1496
  82  286.7258
  83  -11.26526
  84  -74.4706
  85  226.2124
  86  528.8315
  87  635.0137
  88  767.0952
  89  457.9265
  90  -5.950068
  91  -166.492
  92  129.8275
  93  467.897
  94  154.4847
  95  320.8356
  96  -4.460315
  97  8.186856
  98  325.4749
  99  403.5106
 100  312.6531
 101  310.2279
 102  564.8565
 103  875.3082
 104  257.2086
 105  33.82846
 106  118.1217
 107  333.9726
 108  261.1433
 109  422.882
 110  417.4935
 111  351.0142
 112  511.4103
 113  314.3663
 114  -234.9214
 115  -249.3025
 116  251.9359
 117  390.5432
 118  325.5491
 119  82.22057
 120  277.3117
 121  594.6754
 122  516.8428
 123  456.2904
 124  510.7323
 125  750.3248
 126  754.1021
 127  382.0254
 128  390.0759
 129  484.7247
 130  548.9581
 131  500.8431
 132  530.1145
 133  606.6503
 134  315.9872
 135  360.9728
 136  629.2413
 137  965.9254
 138  921.3529
 139  453.3646
 140  458.1651
 141  536.2576
 142  702.7405
 143  392.4
 144  52.07911
 145  238.1757
 146  100.5066
 147  81.20205
 148  254.2181
 149  286.5804
 150  354.2966
 151  418.5374
 152  431.5682
 153  387.9742
 154  480.6889
 155  373.3563
 156  -10.43247
 157  -96.90505
 158  15.15776
 159  409.0856
 160  468.1127
 161  402.9547
 162  647.4313
 163  267.2866
 164  203.7121
 165  439.8098
 166  790.0755
 167  767.7719
 168  319.0832
 169  187.4308
 170  423.1762
 171  351.6727
 172  366.6688
 173  490.3809
 174  293.8739
 175  175.5061
 176  345.3996
 177  529.9252
 178  627.0139
 179  359.8512
 180  107.3331
 181  604.3919
 182  364.2382
 183  545.3187
 184  462.8967
 185  555.1937
 186  275.3049
 187  157.8839
 188  252.3286
 189  461.9799
 190  260.4772
 191  333.966
 192  78.25957
 193  54.17278
 194  393.7276
 195  345.123
 196  357.8869
 197  426.6593
 198  315.4832
 199  273.39
 200  225.8932
 201  287.9341
 202  331.5463
 203  259.9011
 204  165.6973
 205  422.6773
 206  523.2426
 207  727.393
 208  459.8626
 209  290.7777
 210  299.8375
 211  358.9965
 212  573.0591
 213  440.105
 214  347.7784
 215  388.1855
 216  604.6299
 217  437.1675
 218  236.4094
 219  663.8354
 220  658.5104
 221  513.6633
 222  424.6852
 223  420.2828
 224  342.8779
 225  349.9182
 226  235.7433
 227  -6.207428
 228  277.026
 229  265.7938
 230  275.6198
 231  231.5357
 232  512.8732
 233  508.689
 234  406.4455
 235  311.0747
 236  483.2138
 237  602.0396
 238  435.3499
 239  444.4915
 240  426.7349
 241  432.0896
 242  808.0246
 243  669.9323
 244  612.902
 245  495.8632
 246  284.1854
 247  205.2729
 248  480.6127
 249  531.7556
 250  155.8836
 251  189.7913
 252  554.1887
 253  549.0179
 254  353.985
 255  446.2954
 256  310.6252
 257  190.2197
 258  84.66099
 259  145.0711
 260  -67.46165
 261  120.834
 262  470.8862
 263  470.9724
 264  471.7192
 265  232.8954
 266  -372.185
 267  125.9317
 268  651.1356
 269  359.0211
 270  327.6929
 271  333.1611
 272  201.6574
 273  345.116
 274  468.3878
 275  503.9888
 276  365.2428
 277  267.2413
 278  90.07534
 279  402.4206
 280  185.2408
 281  452.2825
 282  151.2731
 283  541.9408
 284  469.423
 285  -49.73821
 286  -144.9683
 287  308.7874
 288  696.3195
 289  545.3015
 290  526.0233
 291  562.2639
 292  535.2589
 293  56.37963
 294  305.8093
 295  579.6021
 296  646.5255
 297  465.9148
 298  393.3422
 299  300.5396
 300  379.0831
 301  423.5368
 302  138.7115
 303  261.9318
 304  264.2828
 305  438.1797
 306  539.543
 307  267.9592
 308  453.0848
 309  353.7804
 310  301.1879
 311  235.0311
 312  262.4893
 313  435.5198
 314  619.5182
 315  397.9485
 316  432.7591
 317  195.9082
 318  64.20725
 319  -182.6945
 320  375.3609
 321  597.3621
 322  303.1644
 323  500.924
 324  633.8588
 325  779.1331
 326  598.1434
 327  1060.245
 328  1467.003
 329  1644.738
 330  2198.42
 331  1914.989
 332  1399.677
 333  756.4642
 334  569.7614
 335  612.5899
 336  385.8447
 337  597.316
 338  684.8705
 339  341.3409
 340  151.5947
 341  397.1112
 342  569.5698
 343  855.1032
 344  780.2551
 345  619.0144
 346  646.5938
 347  360.4241
 348  212.7562
 349  566.4875
 350  625.8303
 351  104.9341
 352  337.1049
 353  620.9216
 354  613.8265
 355  318.5851
 356  404.5206
 357  249.4087
 358  84.94526
 359  65.00628
 360  2.332317
 361  231.148
 362  554.7401
 363  206.9349
 364  67.05634
 365  256.1712
 366  161.3219
 367  400.7469
 368  301.7499
 369  229.4716
 370  -4.163744
 371  380.2104
 372  624.3765
 373  661.7479
 374  271.2887
 375  576.3973
 376  440.904
 377  448.0256
 378  273.031
 379  244.5569
 380  490.2039
 381  262.1577
 382  275.3041
 383  314.3035
 384  171.9958
 385  502.3958
 386  442.3069
 387  324.7043
 388  491.6425
 389  340.6662
 390  575.2839
 391  675.2955
 392  340.4518
 393  254.4427
 394  488.1256
 395  432.9956
 396  665.3758
 397  614.6934
 398  220.3202
 399  224.2508
 400  256.6526
 401  310.2581
 402  332.0316
 403  205.061
 404  297.6647
 405  247.2286
 406  539.5236
 407  693.9807
 408  808.7352
 409  687.5482
 410  406.0737
 411  452.5476
 412  261.941
 413  572.7323
 414  698.2901
 415  537.4048
 416  269.5873
 417  266.1523
 418  536.4217
 419  495.4093
 420  132.5849
 421  203.4814
 422  499.3065
 423  552.0296
 424  639.442
 425  566.5604
 426  275.7365
 427  226.8459
 428  466.4166
 429  273.5179
 430  307.172
 431  284.9807
 432  412.9332
 433  463.6364
 434  376.4021
 435  471.1827
 436  408.7292
 437  544.1038
 438  529.7341
 439  269.9182
 440  618.7481
 441  816.0155
 442  651.8513
 443  361.7469
 444  278.1684
 445  533.7482
 446  401.5347
 447  514.5285
 448  354.1191
 449  526.7371
 450  622.739
 451  329.6832
 452  59.30806
 453  306.1787
 454  556.8696
 455  394.3508
 456  113.7152
 457  183.6137
 458  140.4873
 459  429.8294
 460  446.5717
 461  418.1786
 462  477.3983
 463  306.8223
 464  -47.24064
 465  490.6074
 466  555.3381
 467  568.4075
 468  531.199
 469  428.1423
 470  370.7211
 471  672.4048
 472  567.1755
 473  333.893
 474  275.4545
 475  549.3694
 476  774.1516
 477  422.8219
 478  507.8136
 479  459.787
 480  490.4519
 481  418.4843
 482  328.4985
 483  146.1219
 484  358.5613
 485  243.5208
 486  149.6203
 487  273.8703
 488  513.3089
 489  483.7906
 490  100.7853
 491  -16.00962
 492  428.9046
 493  311.0273
 494  -6.579234
 495  464.904
 496  528.7539
 497  554.4866
 498  229.124
 499  -85.68066
 500  178.4016
 501  334.4267
 502  389.932
 503  656.8146
 504  570.6005
 505  580.6931
 506  572.9602
 507  318.6108
 508  501.6411
 509  371.2918
 510  501.8738
 511  423.4685
