# Input file       =  1187919303.11137_cleaned.dat
# Candidate        =  PSR_0332+5434
# Telescope        =  AR
# Epoch_topo       =  57993.066228140859
# Epoch_bary       =  N/A
# T_sample         =  0.002
# Data Folded      =  7340032
# Data Avg         =  0.0056126169796453
# Data StdDev      =  1.00003540494257 
# Profile Bins     =  512
# Profile Avg      =  80.5445955502575 
# Profile StdDev   =  119.737275518043 
# Reduced chi-sqr  =  1.775
# Prob(Noise)      <  1.53e-24   (~10.2 sigma)
# P_topo (ms)      =  714.463344323321  +/- 0.000154
# P'_topo (s/s)    =  -0                +/- 8.12e-11
# P''_topo (s/s^2) =  0                 +/- 3.58e-14
# P_bary (ms)      =  N/A
# P'_bary (s/s)    =  N/A
# P''_bary (s/s^2) =  N/A
# P_orb (s)        =  N/A
# asin(i)/c (s)    =  N/A
# eccentricity     =  N/A
# w (rad)          =  N/A
# T_peri           =  N/A
######################################################
   0  274.5253
   1  158.9901
   2  -18.55742
   3  -41.93277
   4  75.87442
   5  -5.248876
   6  92.77104
   7  50.01559
   8  261.7268
   9  193.149
  10  122.3215
  11  79.61237
  12  133.4832
  13  117.3308
  14  116.7962
  15  -5.428483
  16  116.0819
  17  42.10162
  18  -9.33849
  19  90.51924
  20  211.819
  21  151.164
  22  63.42733
  23  53.02001
  24  159.7014
  25  42.4359
  26  252.6223
  27  203.7995
  28  44.83621
  29  -1.931171
  30  -14.10703
  31  182.5296
  32  163.8057
  33  59.98622
  34  11.98265
  35  17.01745
  36  100.8068
  37  80.05881
  38  243.7379
  39  260.9404
  40  58.29488
  41  145.367
  42  160.1431
  43  60.31143
  44  89.61108
  45  31.73165
  46  110.6058
  47  -3.739755
  48  3.851989
  49  106.6876
  50  14.98605
  51  -49.04392
  52  4.824964
  53  164.8286
  54  242.9862
  55  165.1734
  56  86.56965
  57  111.9527
  58  75.56879
  59  38.96503
  60  -33.69417
  61  1.549895
  62  -34.27361
  63  -56.34139
  64  28.88973
  65  163.0208
  66  -34.04005
  67  -40.33701
  68  87.52011
  69  46.97993
  70  28.53251
  71  79.04077
  72  94.51538
  73  179.0889
  74  284.8939
  75  121.9346
  76  115.9615
  77  251.7179
  78  267.6313
  79  137.5692
  80  142.3724
  81  292.7612
  82  566.2003
  83  763.6066
  84  927.535
  85  847.8604
  86  757.4893
  87  788.0355
  88  443.8853
  89  -17.80121
  90  -136.5966
  91  44.21805
  92  190.9086
  93  -18.01975
  94  -12.7213
  95  -17.65316
  96  110.0334
  97  212.7163
  98  219.4017
  99  144.7158
 100  94.01039
 101  89.24314
 102  244.2036
 103  204.4308
 104  144.3288
 105  -47.05134
 106  -149.8521
 107  -120.4091
 108  -46.31249
 109  63.1316
 110  221.5534
 111  101.4616
 112  63.55914
 113  125.5443
 114  146.8155
 115  51.1217
 116  111.502
 117  130.4729
 118  216.3093
 119  222.954
 120  123.7293
 121  -9.73103
 122  -18.67938
 123  185.7158
 124  241.9987
 125  96.13126
 126  111.2818
 127  115.8621
 128  22.05724
 129  69.15294
 130  96.19083
 131  17.34513
 132  -70.88692
 133  -53.12098
 134  119.286
 135  130.1307
 136  83.53752
 137  173.6132
 138  73.73106
 139  117.4205
 140  39.50179
 141  -35.95144
 142  -3.359233
 143  -74.35517
 144  176.0436
 145  210.1061
 146  73.49334
 147  160.7915
 148  37.42278
 149  -105.7249
 150  -113.2517
 151  34.67521
 152  228.2949
 153  52.00409
 154  33.98349
 155  37.29739
 156  2.71833
 157  3.16821
 158  95.42705
 159  69.52419
 160  -43.44621
 161  -94.46111
 162  46.06158
 163  165.3027
 164  99.15377
 165  171.6383
 166  122.6891
 167  57.39919
 168  174.0263
 169  229.4271
 170  243.5282
 171  153.8348
 172  127.0189
 173  27.53065
 174  96.83597
 175  230.2182
 176  58.15117
 177  60.91987
 178  -31.23291
 179  -37.51102
 180  81.256
 181  69.35524
 182  67.03094
 183  88.75782
 184  83.09496
 185  89.84995
 186  28.51651
 187  -5.889827
 188  60.49905
 189  95.53255
 190  189.73
 191  25.76909
 192  117.8217
 193  181.2404
 194  -7.986399
 195  92.72092
 196  188.0735
 197  74.68378
 198  69.20483
 199  31.78426
 200  140.0893
 201  30.45992
 202  107.2662
 203  270.6527
 204  122.7456
 205  100.8011
 206  20.70505
 207  59.12509
 208  138.8567
 209  -24.31917
 210  -23.00598
 211  75.85056
 212  136.199
 213  100.0378
 214  -21.1465
 215  -64.27026
 216  -1.181785
 217  13.61154
 218  -25.47319
 219  59.46919
 220  -33.27775
 221  60.8392
 222  39.94089
 223  138.4141
 224  115.6291
 225  75.33262
 226  -3.204538
 227  45.24201
 228  31.89461
 229  -44.68346
 230  -32.61127
 231  132.3363
 232  68.02579
 233  73.47456
 234  24.67698
 235  109.6281
 236  -61.2626
 237  -31.56311
 238  44.70727
 239  236.3944
 240  210.8585
 241  66.54998
 242  -21.21211
 243  11.32891
 244  119.7685
 245  154.9531
 246  -26.74506
 247  106.3051
 248  27.1976
 249  -15.73382
 250  98.66049
 251  135.8447
 252  169.6072
 253  223.9839
 254  103.5396
 255  65.52988
 256  78.42166
 257  78.19041
 258  183.6104
 259  -40.39182
 260  -0.2745246
 261  102.0462
 262  95.18862
 263  178.4226
 264  8.414739
 265  49.68915
 266  55.77834
 267  -27.34622
 268  45.13337
 269  54.32068
 270  89.87274
 271  10.34131
 272  211.6153
 273  124.4737
 274  62.6967
 275  40.78063
 276  73.95744
 277  31.17733
 278  28.5685
 279  90.09623
 280  32.93633
 281  47.38522
 282  72.20057
 283  53.25658
 284  -18.76241
 285  15.79092
 286  -3.553727
 287  58.49665
 288  74.15178
 289  58.93068
 290  42.95771
 291  93.32956
 292  -49.42343
 293  28.68652
 294  70.49157
 295  -31.84742
 296  -134.6367
 297  -49.34045
 298  156.7293
 299  199.8951
 300  32.36141
 301  -25.15642
 302  132.3738
 303  206.4625
 304  189.6979
 305  71.22858
 306  107.0272
 307  70.62664
 308  38.26359
 309  126.0946
 310  155.3721
 311  -12.39282
 312  -116.5957
 313  -75.68289
 314  43.07398
 315  122.5937
 316  47.73668
 317  -22.69248
 318  -39.06287
 319  101.9936
 320  26.89483
 321  80.71301
 322  57.9313
 323  25.62453
 324  -2.916124
 325  23.71996
 326  43.14309
 327  156.7918
 328  9.491425
 329  11.24668
 330  35.83445
 331  125.5308
 332  25.59157
 333  82.91107
 334  152.6113
 335  100.8844
 336  76.45497
 337  172.958
 338  112.9727
 339  -52.30571
 340  134.7515
 341  52.49844
 342  157.077
 343  68.53102
 344  138.0439
 345  128.6834
 346  126.6937
 347  72.18852
 348  -149.5951
 349  -115.8802
 350  4.53535
 351  34.24702
 352  30.46776
 353  236.0204
 354  216.7187
 355  62.91914
 356  -125.9342
 357  -112.8121
 358  36.33508
 359  4.31117
 360  32.74463
 361  208.6136
 362  174.5379
 363  71.92875
 364  25.98128
 365  -14.71664
 366  -141.9715
 367  72.16964
 368  187.5465
 369  143.5538
 370  -9.51405
 371  -73.89356
 372  -53.69251
 373  -46.67255
 374  113.7924
 375  130.9135
 376  -50.12732
 377  -15.88704
 378  -17.50502
 379  -54.2611
 380  43.27377
 381  43.76444
 382  64.1005
 383  79.67724
 384  88.66546
 385  92.04253
 386  137.0515
 387  125.4731
 388  43.421
 389  -9.778649
 390  25.49156
 391  167.018
 392  188.0698
 393  64.18643
 394  -25.64024
 395  22.12218
 396  159.3412
 397  74.09651
 398  191.7081
 399  92.50693
 400  -72.83522
 401  26.77152
 402  77.41216
 403  179.884
 404  153.5223
 405  63.42284
 406  53.06208
 407  25.54686
 408  94.55054
 409  29.69906
 410  22.59697
 411  80.72706
 412  136.9787
 413  58.89611
 414  -45.15641
 415  -13.22505
 416  207.8382
 417  78.94054
 418  -44.25752
 419  34.55016
 420  96.58394
 421  138.5318
 422  137.7956
 423  44.98553
 424  -59.65367
 425  -70.31396
 426  40.48388
 427  35.06515
 428  72.84521
 429  33.17228
 430  -57.31927
 431  -166.8167
 432  -28.33416
 433  69.77408
 434  118.9837
 435  115.977
 436  78.0597
 437  207.9147
 438  133.6913
 439  108.1718
 440  120.1005
 441  107.5933
 442  -9.420403
 443  19.86853
 444  89.05537
 445  98.91348
 446  162.3159
 447  -40.27035
 448  35.33837
 449  16.37838
 450  120.2639
 451  -57.22194
 452  -46.11877
 453  60.7282
 454  44.24284
 455  -28.46186
 456  169.7583
 457  165.3685
 458  76.77352
 459  75.39182
 460  188.14
 461  137.6057
 462  282.0939
 463  253.3647
 464  162.9175
 465  172.6254
 466  176.3987
 467  39.65097
 468  146.7764
 469  83.2265
 470  131.7348
 471  96.03154
 472  41.00775
 473  136.8621
 474  -68.36241
 475  102.0319
 476  164.6046
 477  136.6368
 478  98.79443
 479  20.81149
 480  38.30088
 481  100.4926
 482  72.21205
 483  147.5448
 484  -5.766531
 485  -100.4315
 486  -63.03642
 487  8.281242
 488  -12.11055
 489  95.88059
 490  -51.02473
 491  -65.51304
 492  86.646
 493  207.3258
 494  119.0649
 495  -75.34634
 496  59.42492
 497  162.4647
 498  -40.14779
 499  -56.33515
 500  3.888322
 501  82.69792
 502  80.47292
 503  70.83377
 504  140.7216
 505  167.9832
 506  167.4143
 507  107.9099
 508  103.5473
 509  143.0355
 510  138.6205
 511  190.1154
