# Input file       =  1187402369.104908_cleaned.dat
# Candidate        =  PSR_0332+5434
# Telescope        =  AR
# Epoch_topo       =  57987.083195658655
# Epoch_bary       =  N/A
# T_sample         =  0.002
# Data Folded      =  7340032
# Data Avg         =  0.0425852439096031
# Data StdDev      =  2.50408719684126 
# Profile Bins     =  512
# Profile Avg      =  610.502063661931 
# Profile StdDev   =  299.821963429989 
# Reduced chi-sqr  =  1.178
# Prob(Noise)      <  0.00339   (~2.7 sigma)
# P_topo (ms)      =  714.463673264046  +/- 0.000165
# P'_topo (s/s)    =  -0                +/- 8.72e-11
# P''_topo (s/s^2) =  0                 +/- 3.85e-14
# P_bary (ms)      =  N/A
# P'_bary (s/s)    =  N/A
# P''_bary (s/s^2) =  N/A
# P_orb (s)        =  N/A
# asin(i)/c (s)    =  N/A
# eccentricity     =  N/A
# w (rad)          =  N/A
# T_peri           =  N/A
######################################################
   0  598.3425
   1  700.8555
   2  548.3454
   3  424.6403
   4  727.9041
   5  568.0714
   6  552.2936
   7  641.1378
   8  567.8746
   9  609.4757
  10  1056.002
  11  697.7743
  12  388.0765
  13  465.1318
  14  589.562
  15  383.6397
  16  331.0499
  17  506.5139
  18  473.4813
  19  741.0219
  20  664.9953
  21  723.3963
  22  906.9204
  23  1013.623
  24  583.5134
  25  310.6223
  26  451.0403
  27  529.2016
  28  651.6679
  29  428.0461
  30  417.8353
  31  769.5604
  32  590.7271
  33  365.5711
  34  88.86784
  35  173.935
  36  208.1529
  37  537.1972
  38  508.4919
  39  545.4485
  40  568.8427
  41  721.03
  42  392.6073
  43  250.4917
  44  394.6021
  45  765.1081
  46  446.6021
  47  678.385
  48  550.3903
  49  765.6231
  50  856.2201
  51  717.6627
  52  846.9629
  53  615.3219
  54  560.5884
  55  833.8535
  56  963.6865
  57  673.0591
  58  776.0407
  59  534.2268
  60  491.4564
  61  561.292
  62  438.2934
  63  515.2516
  64  374.9464
  65  239.4297
  66  395.6629
  67  749.537
  68  407.4499
  69  114.0031
  70  302.7224
  71  847.9305
  72  594.4227
  73  624.2112
  74  764.0207
  75  641.3439
  76  376.813
  77  584.2627
  78  675.7195
  79  539.109
  80  684.5411
  81  720.1575
  82  831.4047
  83  933.161
  84  806.6608
  85  875.2891
  86  559.5008
  87  914.0666
  88  1188.45
  89  886.4146
  90  604.4029
  91  444.6653
  92  494.2554
  93  425.7306
  94  429.0946
  95  454.6161
  96  845.9147
  97  903.2382
  98  733.7946
  99  665.5897
 100  450.9474
 101  207.1437
 102  509.4138
 103  663.6911
 104  655.683
 105  269.3611
 106  765.3793
 107  1020.196
 108  786.8157
 109  522.7787
 110  166.2448
 111  434.3379
 112  610.9366
 113  469.5967
 114  365.6906
 115  348.8654
 116  514.8997
 117  631.2366
 118  757.657
 119  1104.957
 120  1146.658
 121  807.9922
 122  1122.947
 123  787.0486
 124  733.6516
 125  609.393
 126  772.2808
 127  666.2063
 128  710.7858
 129  517.6689
 130  317.1932
 131  631.0659
 132  335.6668
 133  495.9554
 134  430.6357
 135  292.9795
 136  701.9264
 137  526.0168
 138  481.9389
 139  731.5906
 140  611.4683
 141  360.3212
 142  472.2178
 143  415.8561
 144  610.8839
 145  675.5259
 146  418.6878
 147  504.8464
 148  413.6656
 149  313.0528
 150  476.6167
 151  592.7692
 152  805.5778
 153  929.5817
 154  526.7906
 155  691.3926
 156  423.4335
 157  480.7469
 158  420.0749
 159  300.7428
 160  285.4329
 161  414.04
 162  467.3038
 163  363.487
 164  366.9754
 165  173.8378
 166  340.3727
 167  416.2484
 168  644.9105
 169  892.6604
 170  1017.804
 171  1073.948
 172  539.7715
 173  421.273
 174  527.2709
 175  894.7418
 176  840.6884
 177  311.3717
 178  468.5626
 179  783.1585
 180  780.7377
 181  668.8909
 182  788.8249
 183  593.0122
 184  326.1893
 185  632.0392
 186  768.9562
 187  550.7126
 188  803.0126
 189  614.4482
 190  711.0214
 191  619.7177
 192  394.9247
 193  466.1106
 194  477.164
 195  763.6552
 196  883.8595
 197  462.4508
 198  294.7338
 199  625.2893
 200  1028.775
 201  934.9084
 202  579.9714
 203  235.6359
 204  524.5821
 205  676.2807
 206  534.8116
 207  279.5588
 208  356.4652
 209  900.5383
 210  973.0154
 211  739.8384
 212  742.144
 213  742.4073
 214  623.4901
 215  1095.676
 216  1468.463
 217  1686.71
 218  1938.438
 219  1803.032
 220  1494.505
 221  731.7458
 222  643.7719
 223  738.6045
 224  825.5183
 225  1055.96
 226  912.2528
 227  759.9363
 228  983.3854
 229  583.8456
 230  688.6083
 231  836.7018
 232  622.5925
 233  694.4589
 234  658.4948
 235  565.2783
 236  378.8488
 237  462.0763
 238  121.6629
 239  405.2943
 240  631.974
 241  685.9391
 242  760.4042
 243  477.6112
 244  672.0025
 245  792.1255
 246  752.1959
 247  646.5072
 248  246.3199
 249  615.8552
 250  778.6305
 251  832.2971
 252  644.637
 253  482.419
 254  556.85
 255  693.0933
 256  401.9704
 257  443.0931
 258  661.2532
 259  599.5486
 260  667.807
 261  894.1931
 262  613.5748
 263  611.3343
 264  723.9231
 265  644.5048
 266  841.1357
 267  703.9438
 268  292.1824
 269  -44.12871
 270  -20.2709
 271  317.1586
 272  920.3967
 273  768.3463
 274  541.1335
 275  355.4772
 276  136.3186
 277  382.4097
 278  709.5448
 279  728.5637
 280  708.6714
 281  528.4998
 282  628.0241
 283  729.3204
 284  585.7047
 285  721.8021
 286  789.3326
 287  630.9711
 288  823.6129
 289  960.5887
 290  923.3882
 291  575.0845
 292  634.3206
 293  601.2712
 294  394.7498
 295  308.6729
 296  457.1315
 297  404.1952
 298  254.8012
 299  567.9059
 300  477.9827
 301  693.7147
 302  574.6014
 303  162.0878
 304  494.4212
 305  455.6281
 306  248.3197
 307  516.7139
 308  574.1831
 309  997.7855
 310  951.6938
 311  309.032
 312  170.7414
 313  474.6563
 314  489.2023
 315  411.3693
 316  654.8182
 317  991.3154
 318  844.2916
 319  726.0566
 320  641.6199
 321  404.089
 322  509.3521
 323  620.8311
 324  908.0128
 325  711.2444
 326  551.966
 327  667.418
 328  535.0374
 329  845.6166
 330  668.1347
 331  549.777
 332  622.4627
 333  803.9028
 334  585.545
 335  703.9463
 336  456.5661
 337  517.6146
 338  704.5731
 339  568.0507
 340  662.893
 341  743.7859
 342  572.3179
 343  947.8223
 344  1000.052
 345  935.8914
 346  893.5686
 347  790.9263
 348  812.6288
 349  880.3637
 350  864.9478
 351  674.3134
 352  528.8879
 353  883.9637
 354  988.6559
 355  746.7512
 356  461.7202
 357  514.0417
 358  833.4455
 359  1094.562
 360  1110.983
 361  720.1906
 362  541.8055
 363  384.3403
 364  216.1292
 365  528.3693
 366  688.7585
 367  996.8513
 368  911.4017
 369  655.7005
 370  219.9978
 371  491.1751
 372  757.5233
 373  564.0284
 374  343.4975
 375  301.5941
 376  615.9797
 377  801.3778
 378  424.8198
 379  111.781
 380  374.2526
 381  483.6221
 382  587.7395
 383  426.7068
 384  463.2904
 385  698.7459
 386  473.3453
 387  776.3895
 388  801.2557
 389  569.6393
 390  972.0052
 391  828.3334
 392  704.3643
 393  544.482
 394  713.983
 395  757.9031
 396  600.7018
 397  440.3841
 398  308.4967
 399  371.1518
 400  683.9286
 401  671.8647
 402  555.3201
 403  964.408
 404  781.2546
 405  532.2172
 406  454.6882
 407  526.1912
 408  735.1288
 409  484.4126
 410  471.0338
 411  588.4797
 412  644.6069
 413  769.8087
 414  498.2295
 415  774.9918
 416  1038.775
 417  709.4158
 418  700.5195
 419  809.2004
 420  632.7333
 421  553.5894
 422  511.0825
 423  486.567
 424  530.9132
 425  614.1613
 426  614.6275
 427  476.9634
 428  725.5932
 429  628.3313
 430  677.1163
 431  641.3822
 432  650.0001
 433  673.7651
 434  403.1776
 435  940.3854
 436  683.6282
 437  482.7114
 438  309.6849
 439  497.0105
 440  542.6161
 441  567.1391
 442  553.6027
 443  387.6465
 444  558.8402
 445  478.3844
 446  423.8694
 447  231.7437
 448  714.9586
 449  1080.654
 450  657.8912
 451  473.0581
 452  525.9562
 453  606.8869
 454  646.5057
 455  801.5729
 456  887.9996
 457  479.2438
 458  777.2368
 459  751.5518
 460  653.2021
 461  457.7914
 462  308.0944
 463  244.6009
 464  246.9272
 465  165.0319
 466  424.7025
 467  478.6756
 468  596.947
 469  538.9678
 470  362.994
 471  235.9974
 472  577.6808
 473  639.8987
 474  567.011
 475  749.5056
 476  584.6199
 477  257.6117
 478  358.4425
 479  109.1562
 480  476.6614
 481  644.0623
 482  712.4997
 483  743.7532
 484  721.926
 485  1060.181
 486  677.8932
 487  513.3979
 488  328.109
 489  450.3461
 490  530.7802
 491  530.4888
 492  654.8292
 493  734.6795
 494  679.9751
 495  658.7516
 496  594.754
 497  189.1846
 498  479.5057
 499  413.1484
 500  731.9819
 501  767.9066
 502  659.1033
 503  784.1653
 504  541.2262
 505  349.5006
 506  322.4043
 507  142.0611
 508  522.0075
 509  850.5137
 510  757.3264
 511  613.7629
