# Input file       =  1187732385.107513_cleaned.dat
# Candidate        =  PSR_0332+5434
# Telescope        =  AR
# Epoch_topo       =  57990.902825318437
# Epoch_bary       =  N/A
# T_sample         =  0.002
# Data Folded      =  7143424
# Data Avg         =  0.0277053302946113
# Data StdDev      =  1.0002415078789  
# Profile Bins     =  512
# Profile Avg      =  386.528485423322 
# Profile StdDev   =  118.147111050664 
# Reduced chi-sqr  =  1.442
# Prob(Noise)      <  1.97e-10   (~6.3 sigma)
# P_topo (ms)      =  714.463377942251  +/- 0.000351
# P'_topo (s/s)    =  -0                +/- 1.9e-10
# P''_topo (s/s^2) =  0                 +/- 8.62e-14
# P_bary (ms)      =  N/A
# P'_bary (s/s)    =  N/A
# P''_bary (s/s^2) =  N/A
# P_orb (s)        =  N/A
# asin(i)/c (s)    =  N/A
# eccentricity     =  N/A
# w (rad)          =  N/A
# T_peri           =  N/A
######################################################
   0  1149.57
   1  953.6312
   2  844.6132
   3  648.9321
   4  459.4792
   5  502.4881
   6  493.5716
   7  468.2173
   8  471.4658
   9  616.0169
  10  481.8333
  11  346.8473
  12  413.0761
  13  432.1488
  14  512.213
  15  597.4889
  16  506.5335
  17  481.7501
  18  446.8713
  19  353.1331
  20  310.3812
  21  432.7078
  22  283.307
  23  352.7148
  24  297.4074
  25  305.9801
  26  515.6058
  27  527.3894
  28  400.3409
  29  380.2773
  30  396.8017
  31  376.983
  32  354.0258
  33  270.5061
  34  265.5982
  35  400.385
  36  391.4353
  37  325.6345
  38  345.2942
  39  273.9203
  40  382.9214
  41  532.1678
  42  450.8515
  43  306.307
  44  415.4301
  45  422.6495
  46  286.6193
  47  399.7491
  48  392.2253
  49  454.9605
  50  476.4969
  51  316.0822
  52  357.7281
  53  482.5434
  54  435.6479
  55  282.4364
  56  445.3019
  57  507.6202
  58  359.2547
  59  293.0482
  60  372.5413
  61  342.9012
  62  371.9565
  63  413.0102
  64  425.3405
  65  366.151
  66  465.0461
  67  383.0837
  68  368.6723
  69  398.8756
  70  390.9175
  71  313.5446
  72  448.5495
  73  356.5986
  74  404.7364
  75  400.7529
  76  428.52
  77  441.9466
  78  428.7431
  79  498.3105
  80  288.118
  81  285.1737
  82  288.5009
  83  276.6562
  84  302.3824
  85  338.2816
  86  306.0351
  87  419.7322
  88  362.276
  89  518.5065
  90  584.8304
  91  568.2856
  92  331.2543
  93  449.4568
  94  438.794
  95  392.7186
  96  409.2054
  97  541.6998
  98  504.9355
  99  288.8239
 100  348.7295
 101  451.8236
 102  325.5725
 103  286.2632
 104  397.2066
 105  487.992
 106  251.502
 107  411.6305
 108  506.1841
 109  400.9977
 110  446.8165
 111  465.146
 112  364.0807
 113  224.7929
 114  321.3629
 115  318.9048
 116  410.6607
 117  436.1618
 118  376.9507
 119  374.0639
 120  355.542
 121  412.6877
 122  416.0951
 123  321.7837
 124  304.6526
 125  342.7465
 126  349.5619
 127  400.9509
 128  397.0198
 129  450.4187
 130  424.7101
 131  391.6362
 132  418.133
 133  472.9074
 134  397.6894
 135  230.0344
 136  219.8044
 137  406.3879
 138  478.7592
 139  428.8313
 140  269.8894
 141  393.8131
 142  475.2605
 143  396.3943
 144  378.9633
 145  474.7486
 146  478.9722
 147  444.2674
 148  356.1933
 149  370.8571
 150  383.0388
 151  495.9196
 152  551.7222
 153  469.3882
 154  335.4861
 155  347.9769
 156  396.3808
 157  519.3294
 158  381.6027
 159  268.5786
 160  330.467
 161  230.2452
 162  237.0211
 163  225.6601
 164  351.4737
 165  452.5446
 166  399.6225
 167  383.1544
 168  355.0428
 169  368.0326
 170  388.4923
 171  339.9565
 172  386.3263
 173  356.2013
 174  365.9118
 175  399.9033
 176  288.3404
 177  340.0209
 178  428.7077
 179  558.1411
 180  468.0598
 181  393.6344
 182  397.7199
 183  325.8514
 184  472.0073
 185  502.5971
 186  474.3259
 187  318.1154
 188  442.3766
 189  412.6121
 190  475.2494
 191  393.5988
 192  326.7922
 193  311.9381
 194  303.5398
 195  428.6828
 196  311.1106
 197  308.7983
 198  312.6832
 199  312.3046
 200  316.3002
 201  286.2218
 202  319.8704
 203  275.2234
 204  303.9735
 205  292.6084
 206  260.5194
 207  219.9894
 208  283.9695
 209  310.9387
 210  349.2769
 211  483.2602
 212  466.7622
 213  476.7154
 214  366.8674
 215  371.593
 216  471.4152
 217  369.7016
 218  317.4855
 219  415.3531
 220  459.6354
 221  438.9281
 222  431.7376
 223  425.8619
 224  391.0049
 225  311.1664
 226  424.4069
 227  449.2048
 228  325.6826
 229  368.9633
 230  366.3853
 231  292.686
 232  352.7107
 233  440.2393
 234  446.3521
 235  463.785
 236  355.3624
 237  535.9414
 238  478.4759
 239  361.8527
 240  435.3156
 241  449.5339
 242  376.1622
 243  241.0187
 244  310.5513
 245  448.1797
 246  391.0378
 247  338.8289
 248  411.1659
 249  377.6583
 250  306.5172
 251  206.6163
 252  184.9367
 253  263.2659
 254  463.3849
 255  332.6184
 256  392.6574
 257  389.3328
 258  434.0039
 259  454.7
 260  459.9966
 261  403.2052
 262  411.0299
 263  457.6951
 264  450.6635
 265  493.5659
 266  489.2877
 267  447.4538
 268  323.6407
 269  196.9509
 270  472.6763
 271  553.4692
 272  451.8511
 273  323.7274
 274  361.0292
 275  320.8034
 276  256.2108
 277  436.9587
 278  520.4589
 279  414.5766
 280  286.101
 281  240.0894
 282  207.3984
 283  376.9622
 284  427.3268
 285  320.0632
 286  389.0262
 287  448.3188
 288  440.6948
 289  390.255
 290  356.3941
 291  383.562
 292  406.6137
 293  506.9167
 294  450.5163
 295  267.7985
 296  305.7555
 297  408.5457
 298  506.877
 299  383.114
 300  252.606
 301  385.8951
 302  290.2901
 303  311.6505
 304  376.3712
 305  467.497
 306  461.949
 307  278.1277
 308  296.4991
 309  384.8739
 310  410.947
 311  349.9554
 312  190.967
 313  371.7343
 314  471.8324
 315  336.9287
 316  368.7379
 317  426.3639
 318  350.2933
 319  401.0361
 320  418.2649
 321  361.6685
 322  377.5826
 323  313.8317
 324  326.8755
 325  433.227
 326  443.6285
 327  486.533
 328  407.2389
 329  199.2251
 330  333.5116
 331  489.6635
 332  514.473
 333  411.3924
 334  390.896
 335  424.8136
 336  303.3596
 337  273.4352
 338  257.0507
 339  275.0261
 340  414.1695
 341  312.7212
 342  247.8262
 343  374.5788
 344  456.4859
 345  392.4897
 346  378.4217
 347  327.5252
 348  277.2139
 349  230.3569
 350  331.6927
 351  385.9944
 352  326.7911
 353  368.5325
 354  454.8206
 355  438.1256
 356  378.8906
 357  350.9973
 358  345.351
 359  399.4667
 360  454.6803
 361  348.6584
 362  350.9813
 363  409.1083
 364  459.9255
 365  493.3023
 366  396.0686
 367  394.6914
 368  346.8312
 369  210.7124
 370  191.5155
 371  343.701
 372  374.6512
 373  228.6849
 374  249.738
 375  365.5026
 376  487.9186
 377  509.4147
 378  395.8279
 379  311.8141
 380  262.4579
 381  407.2875
 382  492.4846
 383  410.4763
 384  497.0673
 385  483.0297
 386  402.6387
 387  361.9364
 388  359.8381
 389  337.4185
 390  306.5771
 391  260.3228
 392  161.2608
 393  216.3927
 394  166.317
 395  285.993
 396  284.1678
 397  286.6815
 398  225.5711
 399  273.8117
 400  387.5703
 401  339.6193
 402  413.226
 403  491.5803
 404  412.6181
 405  312.0459
 406  371.6702
 407  332.7706
 408  337.739
 409  280.9359
 410  307.4979
 411  290.7046
 412  245.1254
 413  206.3975
 414  308.584
 415  388.3033
 416  382.187
 417  355.4827
 418  400.2642
 419  461.8191
 420  412.5514
 421  404.751
 422  354.3069
 423  405.3802
 424  405.567
 425  380.2149
 426  316.3666
 427  391.9046
 428  431.1438
 429  421.1576
 430  385.8877
 431  291.0719
 432  281.9868
 433  302.758
 434  337.3508
 435  443.4328
 436  388.998
 437  411.5901
 438  366.8323
 439  382.7234
 440  382.4349
 441  401.3148
 442  445.2808
 443  377.9799
 444  311.1476
 445  231.7269
 446  383.5716
 447  425.8353
 448  458.7491
 449  482.0204
 450  312.6161
 451  360.6436
 452  429.3442
 453  384.1597
 454  350.191
 455  277.463
 456  305.0962
 457  328.2025
 458  240.5387
 459  274.9908
 460  402.8413
 461  287.2446
 462  349.0809
 463  477.0419
 464  321.6872
 465  231.6122
 466  263.6581
 467  443.7108
 468  493.563
 469  354.9905
 470  357.3633
 471  363.8094
 472  347.7917
 473  254.4529
 474  218.3778
 475  194.8445
 476  180.1729
 477  281.4623
 478  415.4417
 479  420.9211
 480  357.4666
 481  398.3767
 482  495.1795
 483  402.2301
 484  363.2424
 485  307.4055
 486  420.0244
 487  497.2119
 488  474.9808
 489  421.143
 490  391.2531
 491  309.8746
 492  446.501
 493  371.6093
 494  471.6749
 495  414.3824
 496  538.5625
 497  480.4998
 498  283.7179
 499  390.8755
 500  443.3058
 501  457.0088
 502  389.9371
 503  442.2235
 504  509.5529
 505  553.3333
 506  546.186
 507  522.4988
 508  507.1176
 509  697.0232
 510  854.3923
 511  1124.92
