# Input file       =  1187559996.112759-PSRB0329-2ms-sampling-dd.dat
# Candidate        =  PSR_0332+5434
# Telescope        =  AR
# Epoch_topo       =  57988.907582323598
# Epoch_bary       =  N/A
# T_sample         =  0.002
# Data Folded      =  7208960
# Data Avg         =  4.41332302314614e-10
# Data StdDev      =  4.47114587308009 
# Profile Bins     =  512
# Profile Avg      =  0.00935641852696502
# Profile StdDev   =  530.54248415233  
# Reduced chi-sqr  =  0.802
# Prob(Noise)      <  1   (~0.0 sigma)
# P_topo (ms)      =  714.46349452096   +/- 0.000241
# P'_topo (s/s)    =  -0                +/- 1.3e-10
# P''_topo (s/s^2) =  0                 +/- 5.83e-14
# P_bary (ms)      =  N/A
# P'_bary (s/s)    =  N/A
# P''_bary (s/s^2) =  N/A
# P_orb (s)        =  N/A
# asin(i)/c (s)    =  N/A
# eccentricity     =  N/A
# w (rad)          =  N/A
# T_peri           =  N/A
######################################################
   0  -126.1612
   1  -283.4742
   2  -72.42933
   3  212.6697
   4  604.8404
   5  371.9948
   6  34.19866
   7  -1.773108
   8  -169.584
   9  -499.5733
  10  -150.2735
  11  152.7807
  12  64.50414
  13  147.0604
  14  338.4572
  15  359.8099
  16  172.7995
  17  43.85013
  18  349.0465
  19  762.5548
  20  707.3278
  21  474.3649
  22  346.2517
  23  659.3172
  24  551.9794
  25  579.1471
  26  228.9129
  27  235.5647
  28  505.1351
  29  515.0943
  30  376.166
  31  561.6833
  32  470.5001
  33  466.8927
  34  5.092769
  35  284.8387
  36  457.2235
  37  662.3342
  38  903.4636
  39  663.3793
  40  590.0698
  41  689.3736
  42  321.7158
  43  259.6198
  44  209.4742
  45  187.9675
  46  634.1696
  47  759.495
  48  692.1321
  49  549.2733
  50  531.9882
  51  396.6084
  52  412.9098
  53  320.6602
  54  469.568
  55  543.5244
  56  163.1493
  57  90.26396
  58  416.3114
  59  459.5706
  60  134.1759
  61  566.1828
  62  155.8144
  63  -237.4115
  64  42.20599
  65  75.22323
  66  329.5624
  67  449.5368
  68  78.67288
  69  89.50097
  70  -173.1585
  71  207.8075
  72  330.3412
  73  89.83147
  74  224.9015
  75  -20.60916
  76  134.6911
  77  -82.62582
  78  -298.4389
  79  -217.9859
  80  -85.31896
  81  129.0133
  82  -95.9499
  83  -579.074
  84  -451.951
  85  -578.0372
  86  -475.7651
  87  -316.5147
  88  -14.00594
  89  -161.3747
  90  -112.2084
  91  -96.63265
  92  -793.8974
  93  -824.6166
  94  -272.1869
  95  -70.3819
  96  194.9555
  97  -165.2953
  98  164.244
  99  -56.6398
 100  -207.485
 101  -273.5186
 102  -220.7346
 103  190.7324
 104  -164.8573
 105  -107.3619
 106  -171.7713
 107  -370.9582
 108  -424.3696
 109  -254.2121
 110  -22.40632
 111  113.0166
 112  -100.4731
 113  118.3871
 114  366.6419
 115  329.0092
 116  -279.2472
 117  -184.8041
 118  -45.02151
 119  -33.22328
 120  -24.34184
 121  -173.4292
 122  -395.5983
 123  -521.7067
 124  -519.9115
 125  -551.0506
 126  -108.8762
 127  -271.1819
 128  -110.613
 129  -121.9228
 130  99.50172
 131  -450.8929
 132  -287.4593
 133  -356.994
 134  -271.9323
 135  -94.02814
 136  194.6697
 137  52.97061
 138  104.7326
 139  -28.36264
 140  140.3498
 141  192.0048
 142  55.41354
 143  18.70602
 144  92.29629
 145  -208.4998
 146  -411.992
 147  37.67565
 148  202.0509
 149  152.7357
 150  -37.71551
 151  -87.25135
 152  -106.1367
 153  0.6038542
 154  98.44347
 155  83.06676
 156  132.5874
 157  138.2355
 158  -251.3162
 159  -252.856
 160  -273.8593
 161  -67.86318
 162  520.3276
 163  404.5919
 164  -25.73863
 165  -162.5909
 166  -156.8182
 167  -325.115
 168  -481.3142
 169  -607.2142
 170  -143.4007
 171  75.46468
 172  -77.65504
 173  -77.21806
 174  -58.01012
 175  -53.20663
 176  -161.7425
 177  -43.28117
 178  -115.5569
 179  -400.7912
 180  -238.87
 181  -160.6475
 182  47.15986
 183  -69.68659
 184  -183.9621
 185  -133.648
 186  -426.2648
 187  131.5874
 188  74.68926
 189  -163.8916
 190  -533.5135
 191  -446.1258
 192  -447.059
 193  -274.7763
 194  -371.8312
 195  37.90253
 196  59.81387
 197  77.99183
 198  -210.0001
 199  -399.8262
 200  -524.9484
 201  -496.291
 202  -58.75598
 203  30.71336
 204  -188.5046
 205  -340.7431
 206  -324.6678
 207  -337.1395
 208  -524.25
 209  -239.9928
 210  16.39496
 211  203.9798
 212  -227.5833
 213  -165.3429
 214  -139.0779
 215  -533.8311
 216  -237.3503
 217  -30.1446
 218  42.28676
 219  164.2104
 220  399.2686
 221  240.0697
 222  -30.46813
 223  -103.9416
 224  -89.59072
 225  -250.3621
 226  -308.3973
 227  -155.2354
 228  -334.881
 229  121.4631
 230  513.4692
 231  202.8834
 232  316.0718
 233  76.3843
 234  -64.81485
 235  119.9751
 236  -14.41685
 237  136.1799
 238  -11.87715
 239  576.392
 240  483.1613
 241  401.2942
 242  242.9668
 243  244.4331
 244  117.3129
 245  357.506
 246  114.2713
 247  -7.400425
 248  -83.32296
 249  -219.2092
 250  -269.2463
 251  3.16838
 252  378.3989
 253  323.744
 254  235.6741
 255  -252.2622
 256  -25.16539
 257  -230.3435
 258  -94.47987
 259  -254.9092
 260  -43.00248
 261  -139.8585
 262  3.787069
 263  -6.216577
 264  190.0042
 265  106.2677
 266  346.7118
 267  144.5853
 268  344.5878
 269  313.3893
 270  261.9856
 271  285.8231
 272  221.9965
 273  210.1099
 274  -252.1806
 275  -160.2628
 276  114.9114
 277  225.1026
 278  87.35785
 279  183.8019
 280  -159.38
 281  -159.8143
 282  -333.3846
 283  -411.6332
 284  -348.8504
 285  -138.564
 286  -172.2537
 287  215.9904
 288  -202.1768
 289  -614.0308
 290  -183.7981
 291  -115.7474
 292  -335.7769
 293  -871.5522
 294  -493.4919
 295  -35.43412
 296  -262.825
 297  -248.8477
 298  -47.13405
 299  104.492
 300  297.8302
 301  174.6308
 302  219.3026
 303  255.5154
 304  364.2224
 305  90.77822
 306  153.6381
 307  -20.42565
 308  84.16428
 309  -129.3477
 310  -486.7518
 311  -167.5548
 312  136.5574
 313  192.8337
 314  -55.12043
 315  -217.6667
 316  -580.9286
 317  -440.1078
 318  -228.2666
 319  103.3574
 320  86.57304
 321  -44.39914
 322  -159.1293
 323  -180.2055
 324  -305.6689
 325  -128.9943
 326  151.4035
 327  346.931
 328  -51.78897
 329  -107.2261
 330  -61.58858
 331  192.8938
 332  505.3332
 333  676.7478
 334  1220.721
 335  1607.12
 336  1417.182
 337  1393.192
 338  1381.86
 339  777.217
 340  180.9091
 341  207.1292
 342  144.1121
 343  -376.7514
 344  -191.5856
 345  -357.0927
 346  -602.5607
 347  -329.9629
 348  -363.2839
 349  -137.4411
 350  -190.8377
 351  -259.9458
 352  -291.5076
 353  -393.9649
 354  -478.1179
 355  -532.7872
 356  -475.8441
 357  -493.8864
 358  -519.2764
 359  -437.2111
 360  -488.2339
 361  -406.8211
 362  -238.6194
 363  -346.4132
 364  -526.1359
 365  7.394684
 366  31.51715
 367  -326.7394
 368  -150.0302
 369  205.7479
 370  -230.0287
 371  -47.26372
 372  33.97633
 373  -452.6165
 374  -504.482
 375  -236.0158
 376  -220.0619
 377  -171.4056
 378  107.94
 379  -127.8568
 380  -376.6823
 381  -418.9691
 382  101.3743
 383  -213.1284
 384  -289.7621
 385  -219.0652
 386  -357.3664
 387  -634.9734
 388  -860.9165
 389  -877.2793
 390  -734.0886
 391  -726.949
 392  -440.1232
 393  -299.7858
 394  -274.4072
 395  -399.8494
 396  -362.5872
 397  -533.5786
 398  -349.1684
 399  -157.7363
 400  -267.1027
 401  -120.6824
 402  -410.9616
 403  -497.041
 404  -129.5797
 405  -142.1294
 406  -387.9151
 407  -354.8369
 408  -401.6708
 409  -221.8525
 410  -466.2197
 411  193.9403
 412  155.2144
 413  283.3629
 414  102.7744
 415  46.05398
 416  1.680678
 417  -123.6329
 418  -137.3687
 419  -309.8949
 420  28.83228
 421  -188.1846
 422  -479.2017
 423  -511.9329
 424  -540.613
 425  -213.6308
 426  -351.6575
 427  -323.1388
 428  -465.2962
 429  -589.087
 430  -554.1255
 431  -90.65076
 432  -211.2663
 433  -43.01976
 434  340.2401
 435  413.035
 436  664.1097
 437  317.395
 438  -175.6601
 439  -357.4065
 440  -151.9576
 441  13.16499
 442  144.7656
 443  -147.0627
 444  46.33408
 445  252.0246
 446  191.9866
 447  155.4159
 448  60.44577
 449  367.4352
 450  203.5667
 451  234.8489
 452  50.79453
 453  114.6443
 454  275.4073
 455  80.04337
 456  -86.43865
 457  -57.20798
 458  66.64909
 459  -30.66373
 460  88.16543
 461  200.4318
 462  -237.9737
 463  -38.77065
 464  197.2472
 465  474.0565
 466  359.5435
 467  374.7718
 468  501.1616
 469  230.8707
 470  81.66162
 471  249.23
 472  359.9982
 473  438.4828
 474  201.0522
 475  413.8586
 476  668.3297
 477  244.1638
 478  38.34316
 479  116.176
 480  185.1938
 481  417.5428
 482  323.1503
 483  268.4198
 484  -88.13003
 485  239.2506
 486  185.1246
 487  183.3965
 488  548.0449
 489  448.0637
 490  236.7195
 491  -30.13206
 492  118.104
 493  367.0206
 494  143.8713
 495  439.0309
 496  414.5558
 497  303.4665
 498  76.48128
 499  -30.79519
 500  -68.69855
 501  268.9798
 502  131.4324
 503  161.9974
 504  272.7875
 505  347.4853
 506  149.0976
 507  32.00235
 508  60.95114
 509  231.7853
 510  329.4297
 511  114.3724
