# Input file       =  1187904722.109216-PSRB0329-2ms-sampling-dd.dat
# Candidate        =  PSR_0332+5434
# Telescope        =  AR
# Epoch_topo       =  57992.897466541850
# Epoch_bary       =  N/A
# T_sample         =  0.002
# Data Folded      =  7208960
# Data Avg         =  -6.16323199060165e-10
# Data StdDev      =  23.856112583475  
# Profile Bins     =  512
# Profile Avg      =  -0.0386668759563402
# Profile StdDev   =  2830.74665679282 
# Reduced chi-sqr  =  1.017
# Prob(Noise)      <  0.383   (~0.3 sigma)
# P_topo (ms)      =  714.463332680747  +/- 0.000125
# P'_topo (s/s)    =  -0                +/- 6.72e-11
# P''_topo (s/s^2) =  0                 +/- 3.02e-14
# P_bary (ms)      =  N/A
# P'_bary (s/s)    =  N/A
# P''_bary (s/s^2) =  N/A
# P_orb (s)        =  N/A
# asin(i)/c (s)    =  N/A
# eccentricity     =  N/A
# w (rad)          =  N/A
# T_peri           =  N/A
######################################################
   0  -807.3734
   1  -459.5049
   2  -142.3881
   3  -33.39014
   4  -252.3801
   5  -810.183
   6  -1330.295
   7  -903.0197
   8  -728.4171
   9  138.1154
  10  930.5976
  11  1838.99
  12  1487.655
  13  962.0165
  14  224.0008
  15  -363.7355
  16  -330.7738
  17  1561.245
  18  1822.753
  19  1531.699
  20  2107.076
  21  -440.8234
  22  -749.0203
  23  -1095.776
  24  -688.8047
  25  -1029.513
  26  -1238.022
  27  -1449.778
  28  -1977.018
  29  -2235.48
  30  -2089.528
  31  -836.7986
  32  -581.9565
  33  -476.7237
  34  -271.1412
  35  -1069.039
  36  -1473.497
  37  -2043.337
  38  -928.5427
  39  -308.3444
  40  -299.3578
  41  -820.3841
  42  -1431.43
  43  -2054.537
  44  -2155.666
  45  -2132.208
  46  -1795.699
  47  -1808.588
  48  -1958.379
  49  -2102.266
  50  -2046.751
  51  -2279.757
  52  -2236.221
  53  -2144.294
  54  -1875.129
  55  -2292.619
  56  -2439.801
  57  -2295.284
  58  -1999.855
  59  -1978.396
  60  -2053.442
  61  -2032.449
  62  -1922.793
  63  -2200.158
  64  -1999.951
  65  -2048.222
  66  -2306.344
  67  -2217.091
  68  -2023.879
  69  -2079.367
  70  -2081.178
  71  -2038.189
  72  -1750.409
  73  -1575.162
  74  -1818.039
  75  -1566.363
  76  -2040.43
  77  -1843.59
  78  -1760.221
  79  -2093.61
  80  -1884.185
  81  -2018.208
  82  -1801.326
  83  -1889.579
  84  -2352.277
  85  -2437.431
  86  -2272.829
  87  -2005.684
  88  -1880.35
  89  -1828.655
  90  -2035.045
  91  -1923.18
  92  -1759.124
  93  -2035.517
  94  -2021.844
  95  -2168.075
  96  -1949.019
  97  -2018.447
  98  -1776.716
  99  -1980.733
 100  -2151.91
 101  -2188.736
 102  -2121.16
 103  -2227.522
 104  -1973.944
 105  -2241.678
 106  -2236.507
 107  -2181.4
 108  -2258.152
 109  -2270.28
 110  -1763.402
 111  -1813.42
 112  -1959.829
 113  -1628.262
 114  -1934.23
 115  -2233.985
 116  -2273.941
 117  -1845.136
 118  -1816.817
 119  -1985.323
 120  -1903.33
 121  -1980.966
 122  -2253.764
 123  -2378.448
 124  -2283.085
 125  -2007.511
 126  -2000.71
 127  -2108.661
 128  -1504.522
 129  -1009.425
 130  -1308.097
 131  -921.3635
 132  -810.6955
 133  -1133.302
 134  -1385.954
 135  -1027.142
 136  1423.883
 137  2558.739
 138  3551.615
 139  3255.371
 140  1388.154
 141  -43.80334
 142  -569.1758
 143  2479.025
 144  4223.857
 145  4297.547
 146  2642.079
 147  887.1276
 148  -1498.242
 149  -1457.222
 150  -627.1804
 151  -635.9042
 152  624.3661
 153  677.5026
 154  636.2656
 155  -57.66345
 156  -144.6473
 157  427.2656
 158  1472.493
 159  3440.341
 160  1948.142
 161  261.7903
 162  123.0779
 163  520.9924
 164  585.6277
 165  1137.714
 166  2508.404
 167  2416.175
 168  1635.084
 169  1126.537
 170  -70.03242
 171  -329.3427
 172  1655.084
 173  3827.449
 174  4394.99
 175  3090.929
 176  1168.654
 177  418.2187
 178  656.5621
 179  990.3936
 180  631.3027
 181  236.0589
 182  -720.2311
 183  -709.932
 184  -1069.604
 185  -637.4312
 186  -875.9542
 187  -1063.796
 188  -958.5283
 189  -993.6365
 190  -1004.844
 191  -935.3889
 192  -641.8254
 193  -99.1591
 194  908.4479
 195  1646.896
 196  2091.167
 197  1319.828
 198  -976.3007
 199  -717.8597
 200  374.3098
 201  1884.659
 202  1856
 203  1285.791
 204  880.9092
 205  -1289.837
 206  -1722.118
 207  -1527.036
 208  -809.1356
 209  1.271653
 210  247.5933
 211  781.4637
 212  -456.6609
 213  -839.1406
 214  -747.1921
 215  361.5493
 216  76.35347
 217  477.9502
 218  443.3446
 219  -545.7504
 220  -1490.352
 221  -1550.81
 222  -957.3105
 223  -885.8986
 224  -313.4835
 225  -525.9908
 226  -915.2026
 227  -890.7264
 228  -748.2073
 229  -552.4356
 230  -307.25
 231  -137.4983
 232  -528.3981
 233  -764.6714
 234  -913.0588
 235  -1187.505
 236  -456.8398
 237  37.77984
 238  560.2677
 239  920.1785
 240  868.9554
 241  32.53954
 242  -477.2246
 243  18.90475
 244  693.9626
 245  524.5173
 246  1012.428
 247  1060.208
 248  -478.4296
 249  -110.6143
 250  172.2099
 251  1133.633
 252  1381.006
 253  1502.233
 254  1470.738
 255  413.9875
 256  100.5556
 257  -205.8606
 258  837.2408
 259  881.7921
 260  1317.211
 261  1126.607
 262  401.3374
 263  -403.4057
 264  -765.5094
 265  323.1975
 266  1135.294
 267  1481.56
 268  1505.114
 269  1517.271
 270  589.3479
 271  163.8972
 272  552.6729
 273  1836.004
 274  1993.05
 275  1823.283
 276  1004.64
 277  -14.28492
 278  -311.6883
 279  -132.7621
 280  315.2614
 281  594.5421
 282  1421.921
 283  754.6968
 284  279.1428
 285  -18.03414
 286  841.9884
 287  1034.859
 288  486.6037
 289  511.9832
 290  603.2469
 291  1392.157
 292  1256.542
 293  1483.624
 294  2066.558
 295  1776.96
 296  1587.788
 297  2364.3
 298  2203.202
 299  2590.589
 300  2288.49
 301  2607.757
 302  1874.953
 303  1021.899
 304  896.2878
 305  74.47573
 306  284.1429
 307  237.4333
 308  1274.345
 309  951.0679
 310  1363.251
 311  1213.371
 312  814.5222
 313  271.7845
 314  1695.624
 315  2099.493
 316  2380.347
 317  2380.734
 318  504.3576
 319  -321.3437
 320  -1224.944
 321  331.9941
 322  739.4623
 323  1549.435
 324  2080.095
 325  1536.177
 326  541.4398
 327  -1626.213
 328  -791.8015
 329  371.6193
 330  1729.639
 331  2069.581
 332  1382.489
 333  198.427
 334  -2351.123
 335  -955.6036
 336  578.7905
 337  2923.993
 338  3423.961
 339  3403.36
 340  2487.072
 341  -1178.817
 342  -830.1488
 343  657.0729
 344  3509.256
 345  4027.186
 346  3370.425
 347  1302.562
 348  -1210.102
 349  -1953.854
 350  -604.1704
 351  87.90343
 352  600.6311
 353  1141.474
 354  1.870441
 355  -1466.302
 356  -1917.516
 357  -290.9959
 358  556.7433
 359  738.2051
 360  427.2959
 361  -728.0842
 362  -1676.897
 363  -2138.118
 364  -1196.8
 365  256.4784
 366  1320.974
 367  1635.037
 368  1257.071
 369  75.25719
 370  -2039.072
 371  937.6597
 372  2107.549
 373  2899.204
 374  3326.863
 375  1526.943
 376  -6.096102
 377  -2251.719
 378  -598.8292
 379  630.9926
 380  2735.77
 381  3313.724
 382  2937.786
 383  1709.317
 384  -1580.215
 385  -681.5687
 386  683.5328
 387  4038.315
 388  3570.541
 389  3309.384
 390  1509.398
 391  -1322.813
 392  -1471.722
 393  -85.31543
 394  1232.247
 395  1856.742
 396  2006.64
 397  427.0793
 398  -1182.152
 399  -1665.135
 400  -231.0431
 401  1546.467
 402  2216.984
 403  1495.703
 404  -86.12297
 405  -1159.553
 406  -2420.137
 407  -534.8718
 408  61.70979
 409  609.1418
 410  806.6528
 411  6.770056
 412  -851.1426
 413  -2684.168
 414  115.0293
 415  1312.568
 416  2243.439
 417  1861.914
 418  331.5521
 419  -869.8522
 420  -2165.387
 421  -1016.163
 422  -791.6066
 423  -578.6557
 424  -925.6017
 425  -1228.708
 426  -1593.281
 427  -1939.206
 428  -1472.349
 429  -1232.584
 430  -820.0226
 431  -647.467
 432  -556.0331
 433  -1633.949
 434  -1872.957
 435  -1497.042
 436  -579.5488
 437  -638.8267
 438  -602.9153
 439  -725.9977
 440  -1855.215
 441  -1887.708
 442  -2003.212
 443  -2029.888
 444  -1721.692
 445  -1712.715
 446  -1963.579
 447  -1985.856
 448  -1817.407
 449  -1747.516
 450  -1531.924
 451  -1467.397
 452  -1280.824
 453  -1585.711
 454  -1517.818
 455  -1646.78
 456  -2043.694
 457  -1449.398
 458  -668.4985
 459  -149.5332
 460  -311.8471
 461  -728.761
 462  -1304.514
 463  -1698.759
 464  -988.6859
 465  -218.4889
 466  317.2897
 467  18.16647
 468  -138.0784
 469  -153.3251
 470  -1789.003
 471  -1184.166
 472  -468.5472
 473  -67.56416
 474  7.997919
 475  -241.5324
 476  -893.2701
 477  -1358.084
 478  -1277.229
 479  -1310.653
 480  -711.0696
 481  -435.0849
 482  -319.8994
 483  -262.2352
 484  -1455.174
 485  -1935.756
 486  -755.584
 487  316.7625
 488  428.9703
 489  5222.941
 490  7234.445
 491  9587.6
 492  10414.85
 493  8831.877
 494  5749.208
 495  -315.6558
 496  8785.95
 497  12030.06
 498  14070.17
 499  11499.59
 500  7431.887
 501  3588.818
 502  169.5509
 503  643.7376
 504  616.8998
 505  -24.36999
 506  -293.3714
 507  -10.9731
 508  -43.9228
 509  -991.8646
 510  -1073.159
 511  -1170.957
