# Input file       =  1187244965.110599-PSRB0329-2ms-sampling-dd.dat
# Candidate        =  PSR_0332+5434
# Telescope        =  AR
# Epoch_topo       =  57985.261390168969
# Epoch_bary       =  N/A
# T_sample         =  0.002
# Data Folded      =  7340032
# Data Avg         =  3.48741501760492e-10
# Data StdDev      =  4.89859173861333 
# Profile Bins     =  512
# Profile Avg      =  -0.0414841055041028
# Profile StdDev   =  586.523262834315 
# Reduced chi-sqr  =  0.690
# Prob(Noise)      <  1   (~0.0 sigma)
# P_topo (ms)      =  714.464233458237  +/- 0.000123
# P'_topo (s/s)    =  -0                +/- 6.48e-11
# P''_topo (s/s^2) =  0                 +/- 2.86e-14
# P_bary (ms)      =  N/A
# P'_bary (s/s)    =  N/A
# P''_bary (s/s^2) =  N/A
# P_orb (s)        =  N/A
# asin(i)/c (s)    =  N/A
# eccentricity     =  N/A
# w (rad)          =  N/A
# T_peri           =  N/A
######################################################
   0  1111.061
   1  855.513
   2  534.7785
   3  0.5005175
   4  -193.1723
   5  224.806
   6  -70.75252
   7  -304.811
   8  -262.9651
   9  -282.24
  10  -16.50232
  11  -157.9711
  12  169.2039
  13  97.39423
  14  -187.3463
  15  -732.2006
  16  -718.3546
  17  -670.7453
  18  -713.726
  19  -746.7144
  20  -785.1075
  21  -707.3026
  22  -431.9433
  23  -138.0675
  24  -574.2122
  25  -1017.215
  26  -738.2542
  27  -291.7612
  28  105.7366
  29  238.6967
  30  99.77253
  31  -275.6283
  32  -523.714
  33  -361.4203
  34  -188.6683
  35  170.9664
  36  -152.8407
  37  -49.17081
  38  -216.1527
  39  -94.28462
  40  -179.4445
  41  68.62738
  42  -44.70238
  43  -6.095727
  44  -31.73942
  45  -159.294
  46  -261.4128
  47  -90.33054
  48  86.92918
  49  -96.01372
  50  -314.9691
  51  -32.36464
  52  -321.7474
  53  -611.988
  54  -520.2179
  55  -243.3111
  56  -448.684
  57  -391.5813
  58  -294.5479
  59  -215.2297
  60  -253.5986
  61  5.604372
  62  -101.2302
  63  -250.4762
  64  -137.9945
  65  -67.75465
  66  -43.40374
  67  -641.693
  68  -417.3605
  69  20.64109
  70  568.7844
  71  283.1297
  72  6.564164
  73  -69.18142
  74  1.433584
  75  -603.0911
  76  -457.4497
  77  -120.2266
  78  -130.1831
  79  233.2851
  80  -44.306
  81  -407.6534
  82  -419.4647
  83  -566.8458
  84  -40.3037
  85  -487.1462
  86  -443.9999
  87  -375.8444
  88  144.7086
  89  167.8748
  90  -173.205
  91  -156.6193
  92  -268.1952
  93  -312.222
  94  -376.0602
  95  86.61068
  96  424.1622
  97  -68.69698
  98  49.09883
  99  -246.5005
 100  -398.8816
 101  -780.5427
 102  -88.37054
 103  -119.3543
 104  -365.5809
 105  -431.1663
 106  0.5078461
 107  -231.587
 108  -395.1089
 109  -193.2074
 110  -54.08702
 111  12.0915
 112  -103.9455
 113  -271.1259
 114  -110.208
 115  -168.7398
 116  32.47808
 117  34.52783
 118  -161.4467
 119  -408.8791
 120  -570.7374
 121  -504.1831
 122  -454.5228
 123  -63.3656
 124  -96.36035
 125  -256.02
 126  -226.8003
 127  -186.6136
 128  -278.4886
 129  -50.39744
 130  307.1876
 131  -126.4799
 132  -325.899
 133  -185.2437
 134  -183.0536
 135  197.8277
 136  349.9092
 137  43.89495
 138  -76.27077
 139  -176.7486
 140  163.0506
 141  139.7979
 142  28.40577
 143  -50.91048
 144  68.13966
 145  -101.2963
 146  -28.88984
 147  -371.8703
 148  -232.4889
 149  -211.0767
 150  -166.588
 151  -435.3824
 152  -500.2371
 153  -323.1447
 154  -554.0479
 155  -272.1158
 156  -199.7996
 157  -137.3762
 158  -188.1787
 159  -322.276
 160  -432.151
 161  -471.4478
 162  -160.0053
 163  -105.1118
 164  37.3237
 165  168.1632
 166  -143.8426
 167  28.88058
 168  -593.5245
 169  -132.7356
 170  -191.6603
 171  41.64775
 172  461.8451
 173  70.85548
 174  98.97421
 175  -481.0194
 176  -193.6357
 177  270.6761
 178  341.0697
 179  157.8834
 180  242.9411
 181  232.9458
 182  -218.3705
 183  -739.439
 184  -415.4639
 185  318.8289
 186  110.0506
 187  -142.1676
 188  -238.5525
 189  21.47554
 190  -187.8494
 191  11.22141
 192  -68.26145
 193  -150.5876
 194  -1.392295
 195  -264.0558
 196  -76.69695
 197  -83.02677
 198  -149.5001
 199  -14.62674
 200  -314.1221
 201  -234.2262
 202  -146.3651
 203  -402.226
 204  -152.1164
 205  -45.22923
 206  381.9414
 207  56.45478
 208  -343.7453
 209  -186.2913
 210  -414.9686
 211  -132.8801
 212  83.59269
 213  269.4666
 214  183.4409
 215  281.0389
 216  23.03677
 217  -729.4807
 218  -432.2542
 219  -153.07
 220  102.6222
 221  -171.2372
 222  98.7077
 223  286.9407
 224  13.15953
 225  181.039
 226  149.7064
 227  63.06368
 228  -159.0717
 229  -161.9989
 230  451.0578
 231  100.0331
 232  18.09233
 233  -147.6971
 234  -275.4981
 235  -325.6429
 236  -446.7866
 237  -244.9535
 238  301.7599
 239  493.9397
 240  262.5012
 241  155.0042
 242  -241.3729
 243  -466.7668
 244  -623.8259
 245  -278.9559
 246  471.3749
 247  547.0159
 248  554.303
 249  -29.67928
 250  -387.0484
 251  -683.0916
 252  -479.6219
 253  -27.88291
 254  335.7576
 255  385.5814
 256  162.8662
 257  244.0736
 258  292.127
 259  342.9705
 260  274.0981
 261  94.34259
 262  -252.1886
 263  -77.56702
 264  335.9254
 265  386.4082
 266  500.6743
 267  473.5743
 268  128.0406
 269  -161.4509
 270  -175.1004
 271  33.08216
 272  72.31382
 273  268.3213
 274  90.03067
 275  70.44579
 276  461.7538
 277  161.223
 278  21.55326
 279  228.0473
 280  630.7103
 281  518.0557
 282  29.70911
 283  56.69563
 284  -244.6046
 285  206.9341
 286  389.6411
 287  701.5678
 288  749.1334
 289  256.8893
 290  76.58928
 291  11.40843
 292  348.2541
 293  259.5145
 294  511.1425
 295  621.2858
 296  386.0356
 297  261.0746
 298  241.5023
 299  262.8036
 300  -143.6671
 301  -237.2666
 302  63.8786
 303  14.57095
 304  187.8174
 305  271.3785
 306  491.3814
 307  97.6312
 308  197.8845
 309  206.1244
 310  80.73978
 311  115.8092
 312  235.1458
 313  793.9102
 314  625.5043
 315  621.3056
 316  215.5202
 317  255.7974
 318  -314.1877
 319  -298.6053
 320  516.6806
 321  407.0666
 322  310.4574
 323  243.9005
 324  480.6491
 325  509.9368
 326  65.4221
 327  477.8402
 328  818.9841
 329  883.9672
 330  588.4892
 331  435.7729
 332  -69.67719
 333  -195.3889
 334  -76.202
 335  -36.2319
 336  154.082
 337  107.9218
 338  453.2632
 339  80.76495
 340  -45.78098
 341  63.5276
 342  -11.35339
 343  -84.01097
 344  36.29386
 345  266.8714
 346  228.6037
 347  552.7484
 348  297.2758
 349  411.1286
 350  517.6271
 351  307.1368
 352  277.709
 353  -130.7246
 354  -166.9407
 355  203.4555
 356  287.4537
 357  362.9854
 358  99.9062
 359  470.9472
 360  334.6431
 361  421.2107
 362  612.9157
 363  244.3464
 364  226.231
 365  70.13326
 366  5.965251
 367  80.69193
 368  4.021037
 369  70.26222
 370  76.96304
 371  -110.3763
 372  -366.6776
 373  88.60188
 374  102.7888
 375  100.2626
 376  -185.6833
 377  -209.6939
 378  -326.6334
 379  -491.7345
 380  -190.9609
 381  128.2223
 382  -68.80067
 383  83.30087
 384  256.2154
 385  163.3375
 386  150.9735
 387  261.2838
 388  261.8195
 389  545.5057
 390  451.3422
 391  437.8163
 392  218.796
 393  -103.6076
 394  -157.1446
 395  -198.9237
 396  413.0493
 397  186.8524
 398  -206.5118
 399  -422.5919
 400  -118.4675
 401  398.4402
 402  358.6419
 403  263.2603
 404  -417.4678
 405  -517.4018
 406  -336.7605
 407  -252.9085
 408  -141.9115
 409  301.3188
 410  481.6962
 411  -122.7894
 412  -49.93533
 413  -154.8357
 414  -324.0669
 415  2.960068
 416  87.14724
 417  109.4075
 418  315.9709
 419  566.9299
 420  -97.61032
 421  -454.1098
 422  -126.9849
 423  -88.47331
 424  244.0608
 425  463.8649
 426  44.77665
 427  -0.5500361
 428  166.9155
 429  73.47237
 430  -377.4225
 431  -206.1075
 432  73.05805
 433  -22.01352
 434  204.5539
 435  87.8698
 436  -221.4195
 437  -729.0696
 438  -809.125
 439  -212.8111
 440  626.4904
 441  766.5905
 442  654.7521
 443  112.014
 444  59.04694
 445  56.76127
 446  -94.92795
 447  319.2095
 448  302.601
 449  538.5865
 450  509.6799
 451  2.519952
 452  66.33363
 453  -282.7272
 454  -320.8785
 455  -477.5212
 456  307.7632
 457  765.3803
 458  682.6874
 459  262.0207
 460  112.0741
 461  -199.4607
 462  -537.0713
 463  -304.3094
 464  -291.6603
 465  -318.6433
 466  -402.8706
 467  -292.8462
 468  16.44149
 469  -18.76311
 470  223.2422
 471  45.75456
 472  -29.58254
 473  -157.0518
 474  36.82817
 475  11.77919
 476  -223.5765
 477  58.93071
 478  84.79096
 479  330.4186
 480  17.69313
 481  209.6195
 482  37.07289
 483  187.8469
 484  729.6704
 485  427.0165
 486  -246.7343
 487  -94.44601
 488  -110.4354
 489  36.51479
 490  156.5632
 491  504.0813
 492  211.1689
 493  -2.600148
 494  -123.5128
 495  -337.7425
 496  -507.6423
 497  -726.5226
 498  -629.613
 499  -147.9098
 500  72.67836
 501  -17.92363
 502  -237.1574
 503  -178.1954
 504  -23.42321
 505  22.70142
 506  155.9187
 507  598.8153
 508  933.2101
 509  1706.478
 510  1776.037
 511  1506.107
