# Input file       =  1187589586.114317_cleaned.dat
# Candidate        =  PSR_0332+5434
# Telescope        =  AR
# Epoch_topo       =  57989.250059193480
# Epoch_bary       =  N/A
# T_sample         =  0.002
# Data Folded      =  7340032
# Data Avg         =  0.00398296054016305
# Data StdDev      =  1.00002751784491 
# Profile Bins     =  512
# Profile Avg      =  57.1986189413354 
# Profile StdDev   =  119.736331171892 
# Reduced chi-sqr  =  1.288
# Prob(Noise)      <  1.08e-05   (~4.2 sigma)
# P_topo (ms)      =  714.4638160598    +/- 0.000188
# P'_topo (s/s)    =  -0                +/- 9.9e-11
# P''_topo (s/s^2) =  0                 +/- 4.37e-14
# P_bary (ms)      =  N/A
# P'_bary (s/s)    =  N/A
# P''_bary (s/s^2) =  N/A
# P_orb (s)        =  N/A
# asin(i)/c (s)    =  N/A
# eccentricity     =  N/A
# w (rad)          =  N/A
# T_peri           =  N/A
######################################################
   0  45.00074
   1  -101.7746
   2  100.7462
   3  60.53864
   4  136.4041
   5  84.7985
   6  62.08799
   7  139.1149
   8  81.99719
   9  21.98722
  10  71.3319
  11  49.12086
  12  67.67269
  13  -8.461276
  14  -63.41884
  15  -139.8262
  16  -205.0162
  17  -136.4521
  18  -51.00728
  19  0.1164458
  20  233.1409
  21  39.94841
  22  -47.81858
  23  33.91179
  24  -65.79364
  25  -61.6928
  26  26.12343
  27  21.375
  28  -91.43846
  29  -120.8191
  30  141.0776
  31  20.94487
  32  -61.75197
  33  113.3554
  34  128.8485
  35  108.1715
  36  -70.94938
  37  36.38883
  38  45.69547
  39  23.73094
  40  20.33977
  41  95.20716
  42  -9.989554
  43  -10.22324
  44  26.07162
  45  117.8831
  46  -19.84422
  47  -33.55396
  48  -17.83763
  49  51.23554
  50  83.27251
  51  288.2198
  52  225.8802
  53  169.7412
  54  5.721435
  55  -38.19777
  56  -10.72624
  57  -2.43202
  58  -91.75163
  59  10.6914
  60  102.557
  61  34.09714
  62  6.346303
  63  31.81018
  64  106.5311
  65  202.3042
  66  113.2699
  67  82.2063
  68  6.564282
  69  -10.66938
  70  51.89431
  71  124.1505
  72  27.46738
  73  125.545
  74  143.9939
  75  50.36808
  76  -44.16171
  77  -96.52222
  78  39.40354
  79  48.57202
  80  -7.2221
  81  131.9466
  82  22.78689
  83  56.38873
  84  -106.3198
  85  -68.98478
  86  101.248
  87  54.13919
  88  -4.208085
  89  -139.388
  90  -116.2865
  91  -74.77211
  92  -11.20588
  93  21.89708
  94  62.68756
  95  41.82807
  96  -33.60617
  97  -6.373013
  98  24.76675
  99  5.364156
 100  132.7285
 101  72.63842
 102  -1.449336
 103  84.94356
 104  86.91349
 105  116.7391
 106  141.9566
 107  1.619735
 108  56.29937
 109  84.3595
 110  190.5947
 111  46.77399
 112  54.4094
 113  45.54005
 114  186.0832
 115  137.3049
 116  138.7976
 117  92.00611
 118  110.7094
 119  139.5495
 120  103.7347
 121  -5.345323
 122  152.5501
 123  99.66943
 124  129.7315
 125  129.0199
 126  6.274569
 127  -49.22557
 128  -22.73389
 129  124.0102
 130  197.6464
 131  131.4626
 132  36.4566
 133  160.7691
 134  110.5991
 135  91.11684
 136  144.8461
 137  118.121
 138  62.39336
 139  73.34647
 140  111.6965
 141  156.1835
 142  71.20383
 143  102.446
 144  120.2132
 145  55.17121
 146  68.72026
 147  93.20556
 148  -14.80158
 149  -141.1644
 150  -50.12593
 151  13.69971
 152  -1.053714
 153  62.97869
 154  38.89867
 155  139.7103
 156  -61.1061
 157  33.25195
 158  182.0201
 159  72.52487
 160  115.5714
 161  -5.298597
 162  78.08224
 163  67.2382
 164  75.87598
 165  160.6573
 166  78.85118
 167  154.787
 168  207.028
 169  99.76934
 170  120.5292
 171  -26.26722
 172  76.42612
 173  59.28736
 174  42.42398
 175  -59.25197
 176  54.193
 177  127.5476
 178  189.5375
 179  35.08137
 180  -6.702344
 181  10.43591
 182  50.54088
 183  27.43458
 184  11.67434
 185  -1.038339
 186  55.22717
 187  161.4473
 188  182.3262
 189  119.2322
 190  227.6681
 191  282.625
 192  274.5351
 193  92.94417
 194  71.75661
 195  78.97086
 196  37.63963
 197  51.96658
 198  123.3597
 199  155.0688
 200  197.6646
 201  189.6261
 202  213.4989
 203  59.24336
 204  15.40696
 205  -43.66321
 206  36.51001
 207  120.9657
 208  143.2574
 209  183.312
 210  143.4868
 211  156.781
 212  163.616
 213  51.78123
 214  41.59049
 215  34.57998
 216  243.5722
 217  225.1113
 218  11.09273
 219  57.5578
 220  172.8908
 221  140.2596
 222  -12.47357
 223  33.62503
 224  61.92854
 225  -11.40185
 226  -6.323044
 227  42.4269
 228  -120.1653
 229  -67.66797
 230  5.164355
 231  97.1768
 232  78.46591
 233  -9.939127
 234  -109.5696
 235  -5.175032
 236  67.29742
 237  109.3649
 238  -29.79536
 239  -127.691
 240  -42.20001
 241  118.0625
 242  -59.52341
 243  73.48611
 244  54.05124
 245  70.23878
 246  6.155855
 247  125.1106
 248  161.9422
 249  -71.98257
 250  -151.6453
 251  7.836503
 252  -68.51176
 253  -24.01174
 254  48.31641
 255  94.33726
 256  218.4886
 257  59.7168
 258  -71.85924
 259  -7.458736
 260  168.3814
 261  42.17012
 262  62.82661
 263  13.58714
 264  71.14551
 265  90.86473
 266  176.7096
 267  127.0766
 268  23.02991
 269  -39.76802
 270  -24.65015
 271  -5.47322
 272  -12.96386
 273  52.36821
 274  93.3763
 275  114.0658
 276  -19.47724
 277  -72.80096
 278  -16.2429
 279  154.4847
 280  110.9968
 281  101.7205
 282  125.6313
 283  131.8094
 284  47.34819
 285  131.1529
 286  -17.83497
 287  36.28374
 288  134.9277
 289  -75.94974
 290  -46.5622
 291  143.6636
 292  119.8043
 293  46.1796
 294  -131.6616
 295  0.04684257
 296  33.47217
 297  45.54568
 298  110.3343
 299  62.7411
 300  86.33314
 301  64.69897
 302  98.63246
 303  42.06894
 304  18.3121
 305  -97.60262
 306  -77.97549
 307  -133.8391
 308  -43.88086
 309  59.57307
 310  -13.39513
 311  -90.05556
 312  -1.443306
 313  -0.8743642
 314  74.84693
 315  187.2938
 316  97.86341
 317  26.02294
 318  53.56621
 319  217.9518
 320  27.1185
 321  -28.52074
 322  42.68784
 323  131.3577
 324  -12.54318
 325  -7.94789
 326  -59.32835
 327  70.97911
 328  79.35426
 329  117.7767
 330  59.30843
 331  28.4006
 332  48.74132
 333  9.753697
 334  35.68746
 335  -14.85507
 336  -167.8862
 337  -160.2156
 338  -38.80476
 339  -9.369861
 340  -12.50928
 341  -26.14069
 342  51.30606
 343  17.27611
 344  50.66269
 345  49.67791
 346  38.27234
 347  62.82599
 348  128.7894
 349  -15.63908
 350  1.525402
 351  -31.07081
 352  44.9711
 353  244.3057
 354  60.27485
 355  -63.55227
 356  -33.82404
 357  4.179483
 358  -55.88065
 359  -34.45374
 360  39.59639
 361  19.15176
 362  11.76319
 363  -19.45988
 364  98.20049
 365  137.104
 366  151.2641
 367  21.3921
 368  44.14856
 369  148.0223
 370  97.1243
 371  3.913203
 372  92.05728
 373  58.79715
 374  147.6343
 375  52.39674
 376  -64.66235
 377  34.97237
 378  16.42912
 379  128.531
 380  151.6445
 381  39.87143
 382  40.79432
 383  88.18758
 384  10.39684
 385  17.59198
 386  -7.209671
 387  77.23649
 388  109.5296
 389  155.6826
 390  -18.92885
 391  -125.9525
 392  33.63523
 393  110.241
 394  97.21934
 395  90.83604
 396  108.363
 397  110.0955
 398  -59.60928
 399  0.1097325
 400  59.14682
 401  117.8873
 402  69.44264
 403  103.9168
 404  -23.02427
 405  62.5527
 406  -17.4266
 407  -19.06471
 408  41.08199
 409  81.47559
 410  63.37502
 411  47.92685
 412  -37.31216
 413  -20.89795
 414  31.40272
 415  122.8792
 416  158.4589
 417  -3.467937
 418  46.89234
 419  -11.67921
 420  31.2392
 421  35.67237
 422  21.66733
 423  47.19656
 424  35.80155
 425  -40.95003
 426  -24.30944
 427  -80.14809
 428  24.42836
 429  -27.93872
 430  81.57312
 431  74.31674
 432  -48.92341
 433  -25.96913
 434  69.18363
 435  77.14267
 436  108.0833
 437  61.69599
 438  261.5942
 439  182.1512
 440  49.05591
 441  -110.2628
 442  84.8531
 443  107.181
 444  184.3037
 445  98.27477
 446  194.6692
 447  262.2187
 448  112.8623
 449  -3.558237
 450  -27.1884
 451  85.56426
 452  106.2192
 453  -6.809913
 454  -15.54222
 455  -15.07481
 456  -4.966901
 457  -42.59851
 458  -17.80887
 459  110.6782
 460  190.626
 461  178.8633
 462  92.68728
 463  2.608089
 464  -48.86156
 465  -80.05972
 466  -4.891057
 467  57.18645
 468  34.32281
 469  -137.7036
 470  -112.8366
 471  98.39765
 472  -39.63095
 473  40.11113
 474  75.88039
 475  4.789442
 476  29.44388
 477  92.75309
 478  156.0767
 479  181.5397
 480  145.8014
 481  61.17115
 482  75.26124
 483  166.6171
 484  98.86455
 485  145.8911
 486  129.5459
 487  37.6607
 488  82.20959
 489  121.7153
 490  9.848264
 491  161.8253
 492  325.9025
 493  395.5058
 494  592.704
 495  762.8058
 496  637.8325
 497  506.5422
 498  259.702
 499  55.11171
 500  1.204019
 501  122.8689
 502  50.9054
 503  -28.87537
 504  68.46733
 505  164.4195
 506  116.1433
 507  74.41723
 508  118.0134
 509  144.0729
 510  143.0491
 511  133.4989
