# Input file       =  1187732385.107513_cleaned.dat
# Candidate        =  PSR_0332+5434
# Telescope        =  AR
# Epoch_topo       =  57990.902825318437
# Epoch_bary       =  N/A
# T_sample         =  0.002
# Data Folded      =  7143424
# Data Avg         =  0.170412691338885
# Data StdDev      =  3.5067708199153  
# Profile Bins     =  512
# Profile Avg      =  2377.56376238805 
# Profile StdDev   =  414.214805350712 
# Reduced chi-sqr  =  0.659
# Prob(Noise)      <  1   (~0.0 sigma)
# P_topo (ms)      =  714.463378738703  +/- 0.00015
# P'_topo (s/s)    =  -0                +/- 8.14e-11
# P''_topo (s/s^2) =  0                 +/- 3.69e-14
# P_bary (ms)      =  N/A
# P'_bary (s/s)    =  N/A
# P''_bary (s/s^2) =  N/A
# P_orb (s)        =  N/A
# asin(i)/c (s)    =  N/A
# eccentricity     =  N/A
# w (rad)          =  N/A
# T_peri           =  N/A
######################################################
   0  2169.808
   1  2148.66
   2  1999.674
   3  2084.066
   4  1958.417
   5  1920.394
   6  2184.065
   7  2346.69
   8  2305.693
   9  2232.214
  10  2311.115
  11  2379.012
  12  2319.649
  13  2413.153
  14  2346.924
  15  2203.999
  16  2336.294
  17  2437.12
  18  2281.84
  19  2181.039
  20  2385.855
  21  2450.346
  22  2319.32
  23  2255.005
  24  1999.062
  25  2091.7
  26  2138.393
  27  2346.363
  28  2339.728
  29  2372.688
  30  2282.352
  31  2283.959
  32  2337.805
  33  2434.348
  34  2526.887
  35  2305.758
  36  2297.504
  37  2080.597
  38  2320.769
  39  2548.335
  40  2474.017
  41  2572.676
  42  2273.224
  43  2244.709
  44  2366.776
  45  2306.952
  46  2343.414
  47  2418.505
  48  2356.024
  49  2315.863
  50  2270.499
  51  2019.016
  52  2624.959
  53  2353.37
  54  2470.571
  55  2592.758
  56  2395.022
  57  1978.034
  58  1831.295
  59  2137.012
  60  2428.574
  61  2455.504
  62  2471.899
  63  2534.716
  64  2398.635
  65  2093.545
  66  1984
  67  1888.992
  68  1955.445
  69  2050.137
  70  2422.337
  71  2575.299
  72  2455.964
  73  2498.633
  74  2731.98
  75  2259.692
  76  2240.885
  77  2148.325
  78  2352.249
  79  2543.161
  80  2672.487
  81  2515.136
  82  2363.068
  83  2255.673
  84  2428.393
  85  2412.318
  86  2650.477
  87  2566.125
  88  2616.581
  89  2691.031
  90  2163.781
  91  2316.367
  92  2535.701
  93  2411.086
  94  2247.583
  95  2466.822
  96  2620.344
  97  2738.629
  98  2804.078
  99  2699.392
 100  2613.255
 101  2957.623
 102  3266.861
 103  3769.492
 104  4106.652
 105  3731.701
 106  3439.183
 107  3107.23
 108  2630.1
 109  2628.479
 110  3024.097
 111  2675.421
 112  2639.819
 113  2820.347
 114  2867.742
 115  2360.087
 116  2637.017
 117  2730.199
 118  2600.228
 119  2941.238
 120  2755.76
 121  2646.369
 122  2660.87
 123  2433.057
 124  2318.157
 125  2489.263
 126  2375.439
 127  2257.827
 128  2393.573
 129  2227.865
 130  2646.74
 131  2888.916
 132  2470.281
 133  2238.68
 134  2291.467
 135  2373.208
 136  2365.813
 137  2206.521
 138  2046.147
 139  2404.175
 140  2351.463
 141  2038.449
 142  2191.802
 143  2139.182
 144  2452.591
 145  2770.392
 146  2776.048
 147  2073.365
 148  2273.908
 149  2474.537
 150  2290.584
 151  2382.715
 152  2522.172
 153  2603.315
 154  2739.121
 155  2337.861
 156  1997.792
 157  2368.268
 158  2489.603
 159  2227.333
 160  2405.398
 161  2704.568
 162  2362.862
 163  2126.629
 164  2153.69
 165  2311.788
 166  2142.695
 167  2386.188
 168  2535.303
 169  2319.894
 170  2402.526
 171  2406.474
 172  2222.434
 173  2335.09
 174  2235.69
 175  2115.318
 176  2302.911
 177  2337.529
 178  2325.922
 179  2570.189
 180  2591.023
 181  2541.803
 182  2473.299
 183  2512.418
 184  2332.936
 185  2159.478
 186  2209.308
 187  2316.243
 188  2288.245
 189  2314.07
 190  2084.387
 191  2386.614
 192  2291.51
 193  2459.678
 194  2884.682
 195  3025.884
 196  2391.827
 197  2421.879
 198  2487.299
 199  2337.608
 200  2267.921
 201  2487.211
 202  2827.393
 203  2408.898
 204  2357.054
 205  2603.125
 206  2606.39
 207  2174.846
 208  2140.43
 209  2560.482
 210  2282.901
 211  2423.189
 212  2687.037
 213  2582.181
 214  2386.458
 215  2468.46
 216  2427.599
 217  2098.911
 218  2306.158
 219  2232.8
 220  2472.608
 221  2515.722
 222  2269.803
 223  2255.129
 224  2296.06
 225  2461.087
 226  2517.771
 227  2353.339
 228  2321.693
 229  2318.927
 230  2294.907
 231  2238.387
 232  2352.677
 233  2389.983
 234  2462.51
 235  2496.586
 236  2520.41
 237  2581.248
 238  2407.742
 239  2119.018
 240  1938.857
 241  2342.231
 242  2577.024
 243  2491.561
 244  2111.568
 245  2172.139
 246  2599.889
 247  2486.791
 248  2340.787
 249  2624.067
 250  2650.881
 251  2548.805
 252  2366.905
 253  2342.357
 254  2382.568
 255  2507.97
 256  2511.846
 257  2481.043
 258  2252.124
 259  2246.471
 260  2415.156
 261  2690.782
 262  2592.144
 263  2239.393
 264  2301.947
 265  1932.695
 266  2025.925
 267  2136.134
 268  2308.928
 269  2593.531
 270  2644.753
 271  2556.779
 272  2412.186
 273  2168.274
 274  2129.346
 275  2205.815
 276  2286.584
 277  2414.737
 278  2602.623
 279  2443.257
 280  2084.634
 281  2131.905
 282  2294.104
 283  2759.856
 284  2507.473
 285  2453.896
 286  2447.684
 287  2366.377
 288  2470.004
 289  2694.677
 290  2699.803
 291  2223.273
 292  2328.919
 293  2285.233
 294  2559.268
 295  2524.081
 296  2364.992
 297  2378.528
 298  2303.034
 299  2416.072
 300  2461.74
 301  2437.682
 302  2244.753
 303  2250.553
 304  2203.579
 305  2163.905
 306  2183.006
 307  2199.483
 308  2109.089
 309  2110.934
 310  2076.646
 311  2060.444
 312  2281.74
 313  2446.169
 314  2301.728
 315  2583.73
 316  2591.198
 317  2585.438
 318  2306.496
 319  2271.935
 320  2536.214
 321  2482.768
 322  2060.977
 323  2225.659
 324  2497.855
 325  2512.67
 326  2520.338
 327  2550.357
 328  2573.9
 329  2301.676
 330  2362.503
 331  2632.129
 332  2276.666
 333  2214.866
 334  2334.083
 335  2227.232
 336  2219.94
 337  2403.85
 338  2493.618
 339  2605.323
 340  2189.142
 341  2425.508
 342  2694.119
 343  2525.989
 344  2608.601
 345  2639.435
 346  2356.249
 347  2019.859
 348  2005.391
 349  2343.563
 350  2580.351
 351  2290.196
 352  2471.906
 353  2471.963
 354  2267.937
 355  1986.022
 356  1903.108
 357  2014.674
 358  2366.731
 359  2307.505
 360  2377.116
 361  2343.679
 362  2289.293
 363  2275.875
 364  2654.887
 365  2508.97
 366  2428.689
 367  2623.044
 368  2506.13
 369  2606.597
 370  2593.02
 371  2564.4
 372  2366.882
 373  1934.537
 374  2207.15
 375  2768.63
 376  2487.787
 377  2250.054
 378  2354.549
 379  2447.361
 380  2095.802
 381  2221.815
 382  2633.792
 383  2468.882
 384  2297.002
 385  2008.964
 386  2149.753
 387  2213.005
 388  2462.031
 389  2363.781
 390  2190.029
 391  2333.451
 392  2281.857
 393  2399.622
 394  2312.432
 395  2311.788
 396  2368.118
 397  2560.994
 398  2642.378
 399  2120.992
 400  2068.059
 401  2191.527
 402  2474.923
 403  2473.753
 404  2005.072
 405  2206.591
 406  2045.309
 407  2066.326
 408  2420.24
 409  2574.789
 410  2686.247
 411  2213.667
 412  2103.911
 413  2313.161
 414  2393.45
 415  2357.652
 416  1953.308
 417  2183.891
 418  2494.489
 419  2445.841
 420  2241.136
 421  2514.635
 422  2361.986
 423  2269.7
 424  2350.258
 425  2197.814
 426  2431.197
 427  2442.187
 428  2400.788
 429  2376.69
 430  2395.815
 431  2420.209
 432  2484.063
 433  2088.622
 434  2219.114
 435  2403.901
 436  2641.34
 437  2582.425
 438  2344.895
 439  2486.651
 440  2279.967
 441  2034.633
 442  2109.883
 443  1978.174
 444  2304.846
 445  2262.269
 446  2002.511
 447  2216.47
 448  2552.324
 449  2604.183
 450  2470.206
 451  2277.322
 452  2290.471
 453  2071.772
 454  2142.697
 455  2269.602
 456  2284.617
 457  2349.129
 458  2367.38
 459  2412.889
 460  2332.433
 461  2236.914
 462  2366.784
 463  2531.297
 464  2559.303
 465  2372.695
 466  2102.509
 467  2362.832
 468  2496.45
 469  2677.701
 470  2601.523
 471  2520.621
 472  2363.688
 473  1948.849
 474  1901.492
 475  2255.328
 476  2342.896
 477  2171.729
 478  2023.479
 479  2180.954
 480  2363.388
 481  2653.988
 482  2602.943
 483  2527.323
 484  2237.219
 485  2320.291
 486  2578.644
 487  2311.082
 488  2240.921
 489  2507.692
 490  2546.331
 491  2302.427
 492  2503.49
 493  2330.007
 494  2181.602
 495  2032.001
 496  1705.896
 497  2020.77
 498  2005.797
 499  2115.947
 500  2220.529
 501  2274.891
 502  2212.07
 503  1945.041
 504  2288.572
 505  2156.031
 506  2224.305
 507  2398.07
 508  2484.133
 509  2175.613
 510  2186.946
 511  2523.205
