# Input file       =  1187675783.136082_cleaned.dat
# Candidate        =  PSR_0332+5434
# Telescope        =  AR
# Epoch_topo       =  57990.247709908355
# Epoch_bary       =  N/A
# T_sample         =  0.002
# Data Folded      =  7340032
# Data Avg         =  0.0351077486286937
# Data StdDev      =  3.24230953024617 
# Profile Bins     =  512
# Profile Avg      =  503.11481882761  
# Profile StdDev   =  388.211564929701 
# Reduced chi-sqr  =  1.274
# Prob(Noise)      <  2.47e-05   (~4.1 sigma)
# P_topo (ms)      =  714.463756859182  +/- 0.000425
# P'_topo (s/s)    =  -0                +/- 2.24e-10
# P''_topo (s/s^2) =  0                 +/- 9.9e-14
# P_bary (ms)      =  N/A
# P'_bary (s/s)    =  N/A
# P''_bary (s/s^2) =  N/A
# P_orb (s)        =  N/A
# asin(i)/c (s)    =  N/A
# eccentricity     =  N/A
# w (rad)          =  N/A
# T_peri           =  N/A
######################################################
   0  405.7914
   1  532.4279
   2  432.6804
   3  410.884
   4  843.5714
   5  853.0631
   6  813.4064
   7  423.3929
   8  574.9052
   9  953.1565
  10  691.3013
  11  123.7886
  12  290.5639
  13  508.1165
  14  598.953
  15  687.2963
  16  178.3312
  17  525.3253
  18  874.8801
  19  1174.737
  20  628.9862
  21  496.1347
  22  926.4089
  23  631.2578
  24  371.5727
  25  804.7755
  26  835.5134
  27  713.6047
  28  605.6328
  29  251.54
  30  364.6721
  31  776.7704
  32  562.9456
  33  415.8935
  34  529.612
  35  829.6366
  36  679.9191
  37  474.0597
  38  17.46531
  39  247.7475
  40  685.545
  41  1002.276
  42  789.7493
  43  369.7783
  44  259.7485
  45  248.605
  46  640.9681
  47  704.4803
  48  608.5721
  49  388.9692
  50  456.9781
  51  699.7941
  52  545.3416
  53  549.2281
  54  707.2233
  55  924.3442
  56  855.1746
  57  701.1384
  58  496.5843
  59  91.28006
  60  41.27315
  61  16.33103
  62  459.3872
  63  768.2408
  64  449.4255
  65  467.8707
  66  429.8491
  67  263.1011
  68  537.8474
  69  727.9956
  70  629.4489
  71  257.8608
  72  297.0888
  73  562.0063
  74  261.3003
  75  -39.73408
  76  82.34592
  77  324.4587
  78  254.8221
  79  177.4739
  80  441.2604
  81  660.499
  82  746.7619
  83  711.321
  84  710.8762
  85  420.4186
  86  744.4226
  87  1271.547
  88  964.6946
  89  734.6384
  90  536.0906
  91  701.5824
  92  929.7222
  93  961.2919
  94  577.294
  95  565.6643
  96  1038.462
  97  1266.171
  98  1071.146
  99  967.6426
 100  1058.151
 101  867.8156
 102  1327.258
 103  1343.58
 104  1556.045
 105  2335.108
 106  2373.547
 107  2085.758
 108  1555.02
 109  948.4824
 110  882.8616
 111  904.1519
 112  696.2373
 113  978.2368
 114  923.5898
 115  660.3444
 116  144.3452
 117  298.0778
 118  395.8371
 119  507.6175
 120  574.284
 121  259.9132
 122  649.0729
 123  634.254
 124  397.6843
 125  217.4733
 126  207.3278
 127  142.1947
 128  314.4753
 129  279.0178
 130  716.9995
 131  376.748
 132  152.8906
 133  28.04393
 134  252.1388
 135  432.9666
 136  172.1927
 137  334.2372
 138  646.3172
 139  441.728
 140  -6.511431
 141  481.5626
 142  327.4624
 143  479.2692
 144  469.976
 145  362.3357
 146  435.9526
 147  389.0455
 148  274.0182
 149  798.1526
 150  660.4499
 151  641.3867
 152  190.4264
 153  577.9777
 154  422.1606
 155  -159.8926
 156  224.0853
 157  618.1323
 158  511.5561
 159  345.4284
 160  566.4269
 161  495.3237
 162  412.3198
 163  453.3231
 164  719.9401
 165  905.4504
 166  748.6521
 167  554.2645
 168  855.2101
 169  811.9109
 170  1069.186
 171  854.2847
 172  818.27
 173  1009.191
 174  922.1311
 175  664.8443
 176  244.7584
 177  595.0441
 178  582.4731
 179  448.6157
 180  642.3279
 181  597.4155
 182  517.586
 183  495.6799
 184  58.36109
 185  296.998
 186  721.4744
 187  754.8524
 188  221.4231
 189  28.57101
 190  215.5434
 191  -160.4407
 192  126.6927
 193  -97.70744
 194  -264.1999
 195  419.0734
 196  598.6785
 197  -126.1788
 198  -253.775
 199  125.8763
 200  393.5811
 201  592.1731
 202  729.952
 203  -1.561887
 204  22.25042
 205  195.9174
 206  61.31021
 207  292.1281
 208  -27.66724
 209  253.3838
 210  652.7723
 211  515.6001
 212  294.7325
 213  344.742
 214  734.0411
 215  404.947
 216  388.2335
 217  450.104
 218  524.1994
 219  271.8942
 220  218.9102
 221  387.8934
 222  549.1059
 223  646.2999
 224  772.8699
 225  283.548
 226  623.2469
 227  631.9655
 228  188.5087
 229  954.119
 230  679.7406
 231  963.9948
 232  698.3323
 233  286.058
 234  463.6239
 235  396.8109
 236  358.3721
 237  160.3952
 238  234.4881
 239  322.4982
 240  386.1944
 241  468.3936
 242  715.3661
 243  894.8791
 244  595.337
 245  309.3185
 246  373.9463
 247  414.8376
 248  212.118
 249  -48.24989
 250  667.1191
 251  559.9887
 252  322.809
 253  352.4591
 254  422.1642
 255  673.3885
 256  853.7236
 257  780.17
 258  183.1936
 259  -43.86802
 260  366.6426
 261  468.059
 262  776.3651
 263  389.296
 264  365.6258
 265  583.6433
 266  495.2119
 267  196.5046
 268  415.0987
 269  483.4593
 270  311.7388
 271  193.5437
 272  -15.81486
 273  404.8282
 274  255.8269
 275  159.1095
 276  444.6895
 277  259.0224
 278  523.9924
 279  -0.6308528
 280  376.7598
 281  473.109
 282  342.1935
 283  183.7065
 284  439.2704
 285  584.8824
 286  404.0389
 287  -21.86481
 288  371.7014
 289  297.1467
 290  12.13731
 291  437.3921
 292  306.0833
 293  44.7639
 294  310.0845
 295  162.7736
 296  385.1095
 297  799.455
 298  923.0273
 299  781.5515
 300  573.386
 301  465.8124
 302  83.55531
 303  444.8814
 304  422.5721
 305  410.7419
 306  517.3679
 307  331.9204
 308  153.9344
 309  119.9342
 310  291.3148
 311  242.381
 312  475.8828
 313  670.0522
 314  339.3637
 315  636.8859
 316  1176.924
 317  1409.847
 318  817.2787
 319  417.5548
 320  534.4182
 321  800.1047
 322  750.2722
 323  333.4284
 324  65.34819
 325  448.3003
 326  509.4669
 327  92.89156
 328  89.88593
 329  496.2162
 330  1053.936
 331  569.1642
 332  417.5295
 333  536.3196
 334  611.1518
 335  182.7613
 336  380.9406
 337  141.6507
 338  191.1464
 339  349.7158
 340  115.4109
 341  71.68099
 342  -79.06061
 343  361.3521
 344  73.48536
 345  84.83768
 346  598.2145
 347  813.262
 348  400.358
 349  203.2008
 350  470.8083
 351  393.3636
 352  272.9288
 353  592.4016
 354  998.2764
 355  824.4719
 356  118.0187
 357  571.1927
 358  570.5635
 359  327.1903
 360  559.2997
 361  552.0549
 362  569.3085
 363  436.3932
 364  181.5122
 365  306.6067
 366  580.923
 367  -116.0235
 368  -65.70896
 369  19.75566
 370  382.1152
 371  497.6824
 372  738.5975
 373  867.8717
 374  780.5079
 375  887.1929
 376  572.381
 377  453.548
 378  889.1703
 379  874.0873
 380  827.2944
 381  906.0008
 382  742.4319
 383  821.8204
 384  387.8585
 385  689.3687
 386  516.6034
 387  514.6873
 388  590.2587
 389  1132.123
 390  507.6691
 391  418.2115
 392  342.8453
 393  453.4219
 394  384.665
 395  258.944
 396  712.8305
 397  1133.823
 398  736.9182
 399  83.0766
 400  381.5764
 401  742.9465
 402  759.3696
 403  864.2368
 404  592.3094
 405  382.7369
 406  717.3853
 407  1034.82
 408  748.1721
 409  543.8831
 410  429.1483
 411  139.1308
 412  98.2225
 413  140.8872
 414  474.4515
 415  323.609
 416  435.5461
 417  425.6375
 418  422.3171
 419  681.9678
 420  797.0768
 421  725.535
 422  336.3712
 423  453.3579
 424  546.2812
 425  604.1861
 426  233.4245
 427  28.75689
 428  136.0065
 429  131.8374
 430  124.4211
 431  172.8656
 432  270.9709
 433  692.6073
 434  783.6083
 435  218.3957
 436  278.3413
 437  417.7738
 438  494.0186
 439  784.572
 440  661.3134
 441  868.0329
 442  832.5489
 443  430.562
 444  660.0485
 445  357.3234
 446  450.9948
 447  414.5797
 448  582.7667
 449  585.6848
 450  719.0178
 451  1034.768
 452  1101.599
 453  738.8023
 454  698.9048
 455  608.8127
 456  128.827
 457  238.7771
 458  544.8115
 459  728.1528
 460  513.8785
 461  538.4179
 462  486.4786
 463  212.3954
 464  212.1081
 465  591.6358
 466  363.0625
 467  699.3627
 468  326.2859
 469  155.7268
 470  373.8485
 471  654.8469
 472  580.249
 473  105.5941
 474  682.2689
 475  1052.652
 476  394.3672
 477  507.3611
 478  561.995
 479  7.508737
 480  272.5446
 481  317.132
 482  765.0855
 483  555.3083
 484  435.1487
 485  774.9506
 486  678.4655
 487  616.0463
 488  426.4813
 489  2.146548
 490  423.4187
 491  564.1022
 492  656.1353
 493  701.7784
 494  597.465
 495  367.5629
 496  578.6877
 497  535.986
 498  428.7533
 499  423.4746
 500  399.9203
 501  233.3405
 502  294.7137
 503  277.8774
 504  5.105315
 505  351.4105
 506  604.7083
 507  253.2529
 508  593.5731
 509  538.6301
 510  819.6039
 511  422.9131
