# Input file       =  1187244965.110599_cleaned.dat
# Candidate        =  PSR_0332+5434
# Telescope        =  AR
# Epoch_topo       =  57985.261390168969
# Epoch_bary       =  N/A
# T_sample         =  0.002
# Data Folded      =  7340032
# Data Avg         =  0.0308916507742001
# Data StdDev      =  2.50484127456814 
# Profile Bins     =  512
# Profile Avg      =  442.832808532751 
# Profile StdDev   =  299.912251445892 
# Reduced chi-sqr  =  1.310
# Prob(Noise)      <  2.88e-06   (~4.5 sigma)
# P_topo (ms)      =  714.464233294967  +/- 0.000297
# P'_topo (s/s)    =  -0                +/- 1.57e-10
# P''_topo (s/s^2) =  0                 +/- 6.92e-14
# P_bary (ms)      =  N/A
# P'_bary (s/s)    =  N/A
# P''_bary (s/s^2) =  N/A
# P_orb (s)        =  N/A
# asin(i)/c (s)    =  N/A
# eccentricity     =  N/A
# w (rad)          =  N/A
# T_peri           =  N/A
######################################################
   0  441.0881
   1  486.9037
   2  681.3756
   3  676.0179
   4  746.8801
   5  339.1398
   6  512.2744
   7  609.6431
   8  367.4673
   9  580.9319
  10  268.6513
  11  279.5933
  12  415.9978
  13  248.6048
  14  551.3378
  15  524.2836
  16  415.1395
  17  283.5102
  18  453.2093
  19  495.4614
  20  476.1101
  21  438.0569
  22  526.7712
  23  410.9307
  24  215.3071
  25  419.2397
  26  179.8967
  27  265.3049
  28  510.2947
  29  358.6172
  30  -131.4608
  31  27.78503
  32  416.7076
  33  418.6028
  34  103.1221
  35  485.3874
  36  450.1311
  37  310.0092
  38  338.1667
  39  506.5354
  40  366.4977
  41  115.6139
  42  217.1275
  43  562.5707
  44  161.0491
  45  271.329
  46  196.5403
  47  393.6965
  48  354.7417
  49  238.416
  50  364.0963
  51  487.6301
  52  562.6373
  53  526.9083
  54  521.1126
  55  361.4207
  56  197.0437
  57  0.4033646
  58  310.8166
  59  747.1187
  60  607.0405
  61  607.8989
  62  145.4581
  63  -27.01051
  64  -173.4859
  65  157.7044
  66  299.7663
  67  522.6927
  68  259.6812
  69  276.9742
  70  494.1548
  71  436.4442
  72  520.7499
  73  412.4894
  74  332.8385
  75  14.74228
  76  355.3575
  77  397.076
  78  533.7672
  79  609.5616
  80  635.5493
  81  598.5878
  82  416.1371
  83  511.7192
  84  496.2069
  85  656.1303
  86  729.7065
  87  492.348
  88  645.7458
  89  849.2691
  90  597.2361
  91  403.9019
  92  707.1815
  93  644.6418
  94  638.9436
  95  453.5952
  96  473.6269
  97  360.3377
  98  634.906
  99  546.8402
 100  565.3887
 101  647.4604
 102  527.0807
 103  307.7947
 104  604.3514
 105  488.5417
 106  647.2302
 107  436.3789
 108  465.1224
 109  177.513
 110  132.4012
 111  432.809
 112  422.5403
 113  200.1597
 114  263.0974
 115  439.8367
 116  332.1379
 117  446.361
 118  523.2106
 119  567.8718
 120  331.551
 121  532.5368
 122  670.3892
 123  695.4125
 124  590.2028
 125  604.4789
 126  702.6695
 127  733.2383
 128  643.8733
 129  673.3256
 130  466.5574
 131  -3.790002
 132  186.7259
 133  631.8892
 134  251.3191
 135  264.4012
 136  433.1259
 137  944.1584
 138  846.2394
 139  214.7958
 140  793.787
 141  876.5941
 142  674.1956
 143  621.9196
 144  579.282
 145  195.2271
 146  387.794
 147  422.7534
 148  541.9812
 149  254.3929
 150  352.611
 151  638.1773
 152  330.2705
 153  516.8227
 154  540.0142
 155  334.1367
 156  283.5038
 157  468.1531
 158  465.0021
 159  531.3568
 160  708.3479
 161  547.0546
 162  787.7552
 163  794.7199
 164  717.2213
 165  485.7587
 166  174.8003
 167  270.3365
 168  505.8995
 169  512.3542
 170  395.3835
 171  264.7776
 172  447.4576
 173  519.0771
 174  555.2551
 175  539.4004
 176  372.8805
 177  510.3287
 178  390.0099
 179  392.1406
 180  400.1777
 181  287.9495
 182  416.6181
 183  450.1612
 184  286.4895
 185  353.4728
 186  484.2713
 187  428.8558
 188  346.2097
 189  149.8178
 190  268.1653
 191  155.6062
 192  188.7315
 193  300.2515
 194  467.0636
 195  251.3392
 196  577.3695
 197  452.4316
 198  519.3848
 199  495.569
 200  397.815
 201  371.2894
 202  475.5462
 203  763.2206
 204  748.5624
 205  478.8614
 206  302.6782
 207  118.4228
 208  176.9416
 209  597.6627
 210  649.5211
 211  126.9863
 212  89.47912
 213  377.7706
 214  648.5301
 215  489.9572
 216  259.6602
 217  -85.37943
 218  95.92273
 219  196.1449
 220  294.9159
 221  236.0624
 222  832.3101
 223  729.6055
 224  270.1951
 225  394.4704
 226  373.7734
 227  298.9361
 228  652.1027
 229  773.5568
 230  404.804
 231  549.6299
 232  561.4218
 233  86.75069
 234  106.1485
 235  311.0352
 236  402.3648
 237  560.7684
 238  523.4357
 239  165.2621
 240  517.5541
 241  602.4001
 242  459.211
 243  83.84831
 244  442.7153
 245  468.6581
 246  312.8326
 247  609.902
 248  239.6093
 249  97.80355
 250  -236.6569
 251  -19.70077
 252  499.6651
 253  676.5496
 254  538.7844
 255  346.3818
 256  378.1723
 257  404.7845
 258  351.2331
 259  365.996
 260  572.3909
 261  478.3447
 262  698.9698
 263  545.152
 264  320.0011
 265  428.9616
 266  334.6881
 267  190.0654
 268  -30.9529
 269  676.3251
 270  880.8206
 271  723.9935
 272  475.099
 273  593.0068
 274  210.4635
 275  367.4471
 276  466.5121
 277  456.7938
 278  372.4664
 279  132.9989
 280  270.3413
 281  508.1978
 282  562.8033
 283  513.1385
 284  362.332
 285  461.8943
 286  386.402
 287  282.0428
 288  324.6503
 289  254.9473
 290  141.2199
 291  443.1637
 292  533.7393
 293  342.8088
 294  394.236
 295  349.0176
 296  443.3935
 297  649.2881
 298  387.6815
 299  43.53207
 300  515.7504
 301  543.5687
 302  837.4571
 303  562.0063
 304  579.099
 305  364.6302
 306  401.999
 307  438.0037
 308  407.1065
 309  468.1041
 310  142.0012
 311  191.9045
 312  256.1738
 313  487.4442
 314  354.2557
 315  353.6552
 316  686.7915
 317  859.0764
 318  822.2283
 319  670.4406
 320  1067.335
 321  1379.33
 322  2122.885
 323  2202.445
 324  2073.851
 325  1738.515
 326  1284.966
 327  793.2132
 328  402.3038
 329  389.2157
 330  621.5806
 331  377.6107
 332  499.0017
 333  453.9617
 334  370.1118
 335  271.4664
 336  311.5423
 337  577.2425
 338  735.7709
 339  495.1972
 340  210.2171
 341  335.131
 342  430.9888
 343  487.7532
 344  176.0273
 345  218.9783
 346  22.71187
 347  566.2859
 348  620.2654
 349  302.9452
 350  296.8291
 351  448.9891
 352  689.7136
 353  680.1231
 354  630.0494
 355  531.9488
 356  125.4933
 357  255.253
 358  621.4576
 359  737.8482
 360  767.5541
 361  521.88
 362  458.967
 363  367.0494
 364  449.337
 365  509.0048
 366  577.1068
 367  421.9845
 368  522.4847
 369  628.3527
 370  638.5729
 371  310.3957
 372  591.7001
 373  514.1594
 374  304.4436
 375  282.6112
 376  654.4938
 377  435.5678
 378  6.367352
 379  195.1039
 380  375.2129
 381  227.1118
 382  277.181
 383  428.8873
 384  649.8671
 385  533.8906
 386  603.9669
 387  211.7872
 388  102.9261
 389  199.4309
 390  332.0795
 391  354.113
 392  20.84761
 393  -29.8274
 394  527.874
 395  712.5448
 396  296.956
 397  109.7644
 398  498.3958
 399  597.0436
 400  -3.1427
 401  400.5389
 402  437.8302
 403  508.7197
 404  639.4132
 405  387.5995
 406  353.2828
 407  207.4801
 408  167.9335
 409  501.4295
 410  317.8769
 411  265.9865
 412  446.8505
 413  620.1651
 414  562.9452
 415  289.9706
 416  708.4613
 417  552.7535
 418  423.4287
 419  126.6423
 420  531.9299
 421  524.916
 422  90.72359
 423  250.8379
 424  306.3498
 425  42.20828
 426  54.83017
 427  508.9928
 428  210.0774
 429  124.1677
 430  239.3418
 431  624.0931
 432  453.3964
 433  387.4221
 434  534.2255
 435  447.8394
 436  519.2906
 437  361.4899
 438  465.2675
 439  444.481
 440  242.2332
 441  453.6734
 442  570.2874
 443  284.2201
 444  450.2872
 445  262.5602
 446  206.5439
 447  180.3409
 448  454.5092
 449  360.8033
 450  252.9955
 451  497.2078
 452  577.6219
 453  542.7045
 454  689.0995
 455  733.0549
 456  213.353
 457  263.4768
 458  347.396
 459  382.1773
 460  734.4231
 461  612.3408
 462  168.9583
 463  156.7126
 464  213.9972
 465  745.0206
 466  664.5621
 467  597.0515
 468  629.5297
 469  538.6628
 470  499.1851
 471  512.818
 472  202.9092
 473  472.186
 474  519.1144
 475  509.6655
 476  252.1647
 477  486.2401
 478  460.5736
 479  334.3378
 480  557.8962
 481  410.4583
 482  570.4221
 483  552.5411
 484  428.4106
 485  116.171
 486  387.1364
 487  382.1106
 488  425.2371
 489  534.6982
 490  510.2216
 491  744.0843
 492  640.223
 493  231.6318
 494  445.4344
 495  256.8002
 496  448.3739
 497  682.6755
 498  587.8008
 499  607.1673
 500  282.4611
 501  618.2704
 502  786.4709
 503  663.7152
 504  489.5017
 505  603.4144
 506  459.1444
 507  69.29408
 508  -244.758
 509  272.2487
 510  727.8009
 511  634.0217
