# Input file       =  1187489097.112756_cleaned.dat
# Candidate        =  PSR_0332+5434
# Telescope        =  AR
# Epoch_topo       =  57988.086992045784
# Epoch_bary       =  N/A
# T_sample         =  0.002
# Data Folded      =  7340032
# Data Avg         =  0.0104982649557409
# Data StdDev      =  1.00030517353187 
# Profile Bins     =  512
# Profile Avg      =  150.332882637872 
# Profile StdDev   =  119.769575730358 
# Reduced chi-sqr  =  1.771
# Prob(Noise)      <  2.35e-24   (~10.1 sigma)
# P_topo (ms)      =  714.463581669524  +/- 0.000158
# P'_topo (s/s)    =  -0                +/- 8.35e-11
# P''_topo (s/s^2) =  0                 +/- 3.69e-14
# P_bary (ms)      =  N/A
# P'_bary (s/s)    =  N/A
# P''_bary (s/s^2) =  N/A
# P_orb (s)        =  N/A
# asin(i)/c (s)    =  N/A
# eccentricity     =  N/A
# w (rad)          =  N/A
# T_peri           =  N/A
######################################################
   0  868.1058
   1  959.4738
   2  853.9346
   3  564.4222
   4  433.8188
   5  255.0238
   6  134.5418
   7  228.119
   8  221.051
   9  232.922
  10  259.4293
  11  102.608
  12  188.6595
  13  271.2488
  14  175.6872
  15  150.9828
  16  157.613
  17  146.0072
  18  305.8931
  19  231.4977
  20  178.2108
  21  131.4576
  22  69.69178
  23  90.07253
  24  -57.0258
  25  -88.47146
  26  81.19601
  27  165.82
  28  247.4192
  29  50.7669
  30  37.2719
  31  212.6483
  32  251.9013
  33  217.9867
  34  58.51399
  35  155.8954
  36  -32.35297
  37  100.0918
  38  246.5435
  39  194.4093
  40  174.9067
  41  111.762
  42  -5.659651
  43  -89.57494
  44  -7.973589
  45  171.9924
  46  205.524
  47  172.6372
  48  127.7363
  49  -7.446415
  50  15.27709
  51  154.4289
  52  74.3934
  53  7.78676
  54  10.93934
  55  25.273
  56  24.60571
  57  105.0383
  58  123.2152
  59  -28.34267
  60  72.54004
  61  100.9987
  62  205.7442
  63  52.72389
  64  148.0966
  65  200.3194
  66  137.1628
  67  75.87505
  68  72.39981
  69  172.1108
  70  118.9019
  71  188.6603
  72  207.0058
  73  125.7264
  74  86.27047
  75  258.2953
  76  422.0146
  77  296.2537
  78  130.9742
  79  176.7655
  80  224.2154
  81  235.5511
  82  61.80626
  83  77.45209
  84  195.0578
  85  206.5413
  86  104.4099
  87  63.97234
  88  -6.748847
  89  16.77313
  90  85.73788
  91  305.7315
  92  301.3635
  93  188.8366
  94  88.97372
  95  148.1779
  96  128.5499
  97  65.433
  98  205.1719
  99  231.4175
 100  198.0341
 101  88.79565
 102  118.8668
 103  149.18
 104  165.3934
 105  137.5031
 106  130
 107  139.6084
 108  173.4634
 109  173.733
 110  239.9268
 111  152.0909
 112  107.2496
 113  217.9147
 114  210.9776
 115  98.14632
 116  81.76875
 117  135.0196
 118  182.7004
 119  113.3506
 120  260.0339
 121  320.8247
 122  167.3258
 123  272.3251
 124  110.3294
 125  102.4202
 126  220.9445
 127  145.0968
 128  200.1333
 129  153.3436
 130  193.17
 131  228.0916
 132  170.4069
 133  126.248
 134  259.742
 135  152.2071
 136  78.44718
 137  278.2286
 138  223.4122
 139  159.5133
 140  59.07931
 141  45.69264
 142  203.8252
 143  95.43758
 144  -17.08234
 145  -14.31484
 146  22.31104
 147  65.00037
 148  68.3593
 149  140.103
 150  115.0634
 151  55.56237
 152  168.0432
 153  136.0682
 154  96.9768
 155  59.55878
 156  101.1365
 157  96.34174
 158  16.11783
 159  148.464
 160  188.2823
 161  238.8613
 162  89.29946
 163  -36.04228
 164  -31.99601
 165  66.9083
 166  178.4413
 167  206.2029
 168  98.72643
 169  -72.82726
 170  14.66496
 171  322.0727
 172  229.0554
 173  174.6257
 174  295.2733
 175  297.7424
 176  80.95118
 177  83.39457
 178  174.8081
 179  143.9682
 180  79.81816
 181  117.8118
 182  131.2175
 183  74.09879
 184  160.3492
 185  264.2993
 186  213.0142
 187  42.72288
 188  177.2403
 189  191.0851
 190  203.1656
 191  173.0023
 192  78.71294
 193  65.30768
 194  173.4033
 195  207.9888
 196  172.6763
 197  68.03864
 198  132.5491
 199  99.3347
 200  222.8972
 201  115.0476
 202  133.41
 203  52.37443
 204  124.3202
 205  195.5597
 206  136.6813
 207  24.03981
 208  148.8055
 209  209.3207
 210  -3.355267
 211  -3.377251
 212  62.17031
 213  98.72945
 214  42.31558
 215  20.70182
 216  40.69471
 217  130.3992
 218  101.4323
 219  70.43856
 220  -27.78857
 221  -65.07649
 222  69.36913
 223  78.988
 224  52.09848
 225  -10.2955
 226  82.37147
 227  89.57865
 228  7.557758
 229  149.7729
 230  104.3226
 231  226.3499
 232  39.30198
 233  42.43888
 234  96.20471
 235  -13.38176
 236  46.04091
 237  25.68627
 238  -26.54267
 239  27.48728
 240  54.87006
 241  1.68534
 242  -21.0068
 243  9.679571
 244  32.93128
 245  52.46186
 246  140.8443
 247  77.60546
 248  -92.06869
 249  -0.8570828
 250  -26.8966
 251  30.62186
 252  102.5313
 253  140.9305
 254  184.4559
 255  224.4566
 256  28.64944
 257  31.66143
 258  199.1712
 259  101.5639
 260  54.75463
 261  119.8705
 262  256.2119
 263  108.7255
 264  34.06705
 265  81.51959
 266  253.6012
 267  297.4072
 268  167.6905
 269  177.4155
 270  228.0793
 271  293.7494
 272  130.8932
 273  -42.6439
 274  192.1751
 275  43.90238
 276  88.96483
 277  132.4295
 278  128.5828
 279  114.1417
 280  219.3333
 281  302.82
 282  111.8309
 283  72.79831
 284  166.7379
 285  237.8313
 286  271.5419
 287  334.733
 288  332.0591
 289  270.3952
 290  223.405
 291  142.2761
 292  170.2956
 293  193.2451
 294  180.4902
 295  249.5145
 296  301.1546
 297  255.4436
 298  109.2863
 299  272.5923
 300  282.8163
 301  325.5674
 302  225.929
 303  110.7799
 304  19.77679
 305  131.1446
 306  151.1272
 307  225.9669
 308  160.9082
 309  106.8893
 310  200.3336
 311  160.8753
 312  119.003
 313  230.2269
 314  267.1248
 315  270.4753
 316  178.4047
 317  130.825
 318  199.9463
 319  189.982
 320  260.103
 321  183.4445
 322  295.1737
 323  280.9691
 324  247.4296
 325  187.3652
 326  234.8167
 327  281.0268
 328  206.6184
 329  185.7101
 330  69.52113
 331  -27.0765
 332  15.99119
 333  28.21966
 334  139.1408
 335  188.0361
 336  190.8072
 337  231.4796
 338  256.735
 339  240.1807
 340  145.7394
 341  103.4771
 342  117.1249
 343  224.6864
 344  213.0394
 345  256.3015
 346  294.8355
 347  288.0945
 348  332.6004
 349  180.4469
 350  149.7828
 351  221.7441
 352  181.8631
 353  124.5154
 354  119.4303
 355  188.105
 356  188.2731
 357  253.7157
 358  268.0209
 359  167.9387
 360  269.6261
 361  234.1298
 362  107.9778
 363  97.10712
 364  188.1533
 365  217.5153
 366  162.7293
 367  329.8075
 368  254.6779
 369  166.8366
 370  243.4272
 371  203.358
 372  211.9187
 373  268.1044
 374  339.1166
 375  266.2737
 376  204.0438
 377  281.6642
 378  245.8018
 379  150.6843
 380  94.33469
 381  221.7024
 382  197.9474
 383  87.73598
 384  143.4872
 385  182.8803
 386  290.845
 387  287.7214
 388  159.7104
 389  242.1789
 390  180.5849
 391  62.65157
 392  12.14182
 393  191.3637
 394  188.104
 395  205.3845
 396  277.5674
 397  258.5478
 398  131.9543
 399  145.0714
 400  198.9375
 401  271.2953
 402  308.5767
 403  204.0126
 404  120.4734
 405  135.0511
 406  -14.44084
 407  59.66695
 408  212.7678
 409  128.2426
 410  75.33885
 411  60.91283
 412  -26.92142
 413  -9.863092
 414  52.87666
 415  158.6057
 416  162.6205
 417  157.6725
 418  176.2178
 419  118.6193
 420  65.03657
 421  64.25435
 422  37.72513
 423  25.93315
 424  76.04546
 425  109.2544
 426  153.944
 427  234.535
 428  201.169
 429  125.0403
 430  181.7011
 431  151.591
 432  137.1913
 433  176.0096
 434  233.2849
 435  180.5432
 436  173.2028
 437  206.3477
 438  241.8664
 439  211.2624
 440  135.4743
 441  96.47547
 442  28.01269
 443  225.3284
 444  166.9674
 445  49.92691
 446  64.01512
 447  53.87295
 448  151.5744
 449  26.2682
 450  4.456307
 451  88.81379
 452  184.11
 453  214.2109
 454  52.46625
 455  -38.44889
 456  -42.29441
 457  55.71272
 458  60.65636
 459  152.8325
 460  135.1048
 461  106.75
 462  64.09352
 463  39.36218
 464  164.3288
 465  90.93356
 466  45.07014
 467  -46.8926
 468  26.33139
 469  62.67136
 470  104.9837
 471  184.6688
 472  228.034
 473  226.1192
 474  265.7961
 475  253.4343
 476  254.6994
 477  198.0832
 478  107.4702
 479  30.19365
 480  192.0346
 481  192.8676
 482  90.39128
 483  44.84093
 484  151.6216
 485  64.47517
 486  -45.6115
 487  47.86054
 488  98.02571
 489  89.4925
 490  50.41401
 491  161.2501
 492  164.0725
 493  165.0786
 494  219.0608
 495  244.6752
 496  166.1562
 497  124.6756
 498  42.61001
 499  -61.35375
 500  3.484001
 501  174.2242
 502  188.7037
 503  176.8677
 504  108.4683
 505  134.3381
 506  191.9094
 507  222.99
 508  257.078
 509  514.3918
 510  707.8198
 511  738.3251
