# Input file       =  1187402369.104908_cleaned.dat
# Candidate        =  PSR_0332+5434
# Telescope        =  AR
# Epoch_topo       =  57987.083195658655
# Epoch_bary       =  N/A
# T_sample         =  0.002
# Data Folded      =  7340032
# Data Avg         =  0.0105548691835965
# Data StdDev      =  1.0002549286715  
# Profile Bins     =  512
# Profile Avg      =  151.314607660587 
# Profile StdDev   =  119.763559760664 
# Reduced chi-sqr  =  1.274
# Prob(Noise)      <  2.57e-05   (~4.0 sigma)
# P_topo (ms)      =  714.463673264046  +/- 0.000177
# P'_topo (s/s)    =  -0                +/- 9.36e-11
# P''_topo (s/s^2) =  0                 +/- 4.13e-14
# P_bary (ms)      =  N/A
# P'_bary (s/s)    =  N/A
# P''_bary (s/s^2) =  N/A
# P_orb (s)        =  N/A
# asin(i)/c (s)    =  N/A
# eccentricity     =  N/A
# w (rad)          =  N/A
# T_peri           =  N/A
######################################################
   0  112.593
   1  189.3926
   2  142.7269
   3  93.2987
   4  225.7415
   5  186.879
   6  142.35
   7  149.2313
   8  128.2556
   9  134.5476
  10  325.1489
  11  149.0341
  12  34.77034
  13  64.51888
  14  129.553
  15  53.49704
  16  40.01935
  17  97.1555
  18  109.0998
  19  191.6075
  20  132.1604
  21  162.7122
  22  239.6601
  23  326.5015
  24  143.31
  25  37.59399
  26  83.87112
  27  86.44081
  28  168.8976
  29  76.60789
  30  84.0087
  31  222.8142
  32  141.5823
  33  32.38102
  34  -98.16025
  35  -30.65332
  36  18.21774
  37  152.9705
  38  119.245
  39  105.2509
  40  149.916
  41  188.9294
  42  51.25407
  43  -11.57181
  44  53.837
  45  202.9519
  46  51.91598
  47  167.0405
  48  109.6299
  49  218.3179
  50  259.2928
  51  182.0121
  52  265.4511
  53  177.4157
  54  130.6966
  55  256.1826
  56  296.8866
  57  169.3761
  58  185.2248
  59  98.60779
  60  126.4702
  61  166.8804
  62  90.75629
  63  124.9083
  64  72.98632
  65  16.72765
  66  76.01675
  67  240.7059
  68  77.31596
  69  -58.40246
  70  33.75955
  71  238.7622
  72  139.3464
  73  156.2769
  74  196.2616
  75  142.443
  76  43.38036
  77  134.7886
  78  175.5245
  79  124.0535
  80  189.813
  81  195.6777
  82  228.8101
  83  255.0719
  84  188.9792
  85  244.8214
  86  123.1895
  87  247.9812
  88  354.597
  89  244.5362
  90  159.6654
  91  115.8353
  92  151.4295
  93  101.6277
  94  77.46196
  95  66.81056
  96  210.4099
  97  237.309
  98  190.5101
  99  158.7142
 100  67.99316
 101  -19.03105
 102  99.20464
 103  157.6905
 104  146.3481
 105  -23.66091
 106  203.6057
 107  302.5805
 108  219.3342
 109  165.3748
 110  -3.864499
 111  97.26759
 112  190.9999
 113  98.85477
 114  33.24577
 115  40.68541
 116  102.945
 117  116.2533
 118  153.9318
 119  311.2214
 120  340.4655
 121  209.9274
 122  359.5456
 123  215.0926
 124  197.2701
 125  152.4422
 126  222.4161
 127  176.9553
 128  214.0878
 129  133.5444
 130  27.6463
 131  132.2355
 132  44.24942
 133  121.1306
 134  68.83167
 135  -2.243576
 136  156.8799
 137  71.77238
 138  69.0063
 139  190.4577
 140  162.3488
 141  35.81535
 142  119.9622
 143  119.7594
 144  166.7437
 145  192.5419
 146  95.64185
 147  131.2573
 148  74.24187
 149  35.26849
 150  92.7668
 151  156.8508
 152  269.5694
 153  348.3799
 154  141.0928
 155  202.7042
 156  83.10005
 157  91.45982
 158  74.44975
 159  46.80709
 160  25.64386
 161  51.4283
 162  124.1142
 163  110.3282
 164  85.77937
 165  30.66978
 166  96.35995
 167  106.3444
 168  194.6721
 169  305.2687
 170  325.0928
 171  320.9012
 172  121.9872
 173  87.27193
 174  124.8623
 175  278.2156
 176  265.2249
 177  43.39291
 178  138.7595
 179  239.9636
 180  224.0988
 181  178.0387
 182  246.2435
 183  179.0472
 184  40.85748
 185  150.281
 186  230.2095
 187  142.1471
 188  233.8661
 189  130.8311
 190  199.663
 191  157.9408
 192  69.23818
 193  121.9817
 194  118.2218
 195  185.0682
 196  227.4448
 197  73.23293
 198  4.006613
 199  146.5614
 200  309.2191
 201  277.9237
 202  171.6787
 203  54.26827
 204  158.7927
 205  193.6044
 206  141.5804
 207  64.54839
 208  100.7513
 209  338.0602
 210  349.6441
 211  234.9299
 212  223.5942
 213  252.0964
 214  160.3343
 215  362.5778
 216  555.0903
 217  656.6884
 218  766.6716
 219  701.5825
 220  559.6129
 221  213.8016
 222  168.3812
 223  197.9611
 224  232.6499
 225  306.4758
 226  253.8801
 227  187.8551
 228  258.2961
 229  126.4563
 230  151.903
 231  232.9402
 232  172.2283
 233  203.4809
 234  207.1951
 235  137.8512
 236  80.76772
 237  116.7788
 238  -26.08566
 239  70.98686
 240  191.8801
 241  216.4264
 242  200.6334
 243  98.02537
 244  155.3373
 245  223.6401
 246  220.3873
 247  155.8604
 248  16.81113
 249  180.0326
 250  186.6214
 251  218.396
 252  141.6662
 253  54.42113
 254  80.43532
 255  167.4948
 256  10.07984
 257  34.56964
 258  143.0104
 259  131.4042
 260  163.0185
 261  264.4689
 262  157.8804
 263  149.5175
 264  208.0237
 265  175.2898
 266  252.0024
 267  174.9792
 268  14.7544
 269  -84.47303
 270  -88.9025
 271  46.42958
 272  282.8531
 273  204.0862
 274  106.9794
 275  49.90468
 276  -11.031
 277  49.4345
 278  171.7829
 279  193.1809
 280  194.8393
 281  103.3794
 282  146.1372
 283  189.9026
 284  133.0082
 285  193.4854
 286  201.2489
 287  151.0079
 288  218.7902
 289  289.0498
 290  275.9361
 291  129.4264
 292  138.5416
 293  141.6449
 294  55.18063
 295  24.05917
 296  89.64526
 297  57.68974
 298  -34.50035
 299  99.99277
 300  85.43101
 301  144.0549
 302  120.8646
 303  -49.65684
 304  66.98869
 305  33.21983
 306  -56.48952
 307  74.91571
 308  108.7117
 309  274.0413
 310  281.4488
 311  27.11543
 312  -48.56979
 313  103.4289
 314  95.51246
 315  59.60234
 316  163.0629
 317  288.909
 318  261.6797
 319  196.8098
 320  177.2809
 321  49.18126
 322  86.28223
 323  130.9772
 324  236.9605
 325  183.2246
 326  134.2962
 327  189.8286
 328  153.5799
 329  285.5507
 330  181.8952
 331  108.7348
 332  167.3302
 333  283.0548
 334  169.581
 335  201.8534
 336  92.125
 337  119.4283
 338  175.0522
 339  125.914
 340  175.1605
 341  218.2293
 342  100.7061
 343  247.1283
 344  246.5976
 345  259.5527
 346  258.9609
 347  194.5326
 348  217.6566
 349  243.9423
 350  234.148
 351  150.9187
 352  76.19362
 353  236.8952
 354  273.5806
 355  190.6517
 356  73.41399
 357  92.09041
 358  220.8146
 359  326.9398
 360  353.2004
 361  221.2827
 362  156.1566
 363  83.01112
 364  -4.009958
 365  127.8385
 366  188.1585
 367  295.3434
 368  269.4152
 369  199.5612
 370  27.02929
 371  132.2089
 372  209.0455
 373  154.786
 374  70.36456
 375  28.18895
 376  139.1938
 377  206.6168
 378  65.62258
 379  -33.08532
 380  86.33604
 381  115.3119
 382  165.7064
 383  80.92661
 384  89.91924
 385  224.3906
 386  101.5538
 387  190.2043
 388  205.1674
 389  93.19997
 390  259.4443
 391  225.6975
 392  173.5585
 393  115.6805
 394  167.6213
 395  177.9805
 396  118.2368
 397  30.38593
 398  -24.51959
 399  31.04549
 400  182.229
 401  183.315
 402  152.0922
 403  306.2654
 404  202.9996
 405  117.4229
 406  92.48173
 407  109.1375
 408  177.2029
 409  76.36657
 410  52.59719
 411  95.99289
 412  145.8221
 413  217.5176
 414  108.6959
 415  197.6649
 416  290.0752
 417  174.401
 418  188.0869
 419  222.6591
 420  150.4176
 421  97.43198
 422  110.4833
 423  100.5976
 424  133.3596
 425  169.6541
 426  172.7736
 427  128.5112
 428  226.5892
 429  168.6887
 430  175.1882
 431  174.3496
 432  166.5343
 433  151.2953
 434  54.44445
 435  280.8428
 436  171.69
 437  119.3172
 438  54.54289
 439  116.6473
 440  135.2336
 441  159.6635
 442  163.2449
 443  79.87226
 444  146.9966
 445  91.36051
 446  76.29437
 447  9.502971
 448  202.5799
 449  347.4637
 450  171.722
 451  85.4805
 452  136.4699
 453  190.6432
 454  189.5244
 455  255.3848
 456  302.7633
 457  125.1
 458  227.2037
 459  200.176
 460  181.9081
 461  95.46714
 462  21.55328
 463  24.37633
 464  10.0773
 465  -32.13902
 466  64.26216
 467  93.19099
 468  146.0441
 469  115.2851
 470  55.73319
 471  23.95893
 472  159.4332
 473  205.16
 474  165.9555
 475  200.8041
 476  117.9986
 477  -12.11858
 478  76.29285
 479  -38.92496
 480  138.8314
 481  196.781
 482  216.7357
 483  209.004
 484  193.3209
 485  331.2155
 486  185.3975
 487  133.7463
 488  45.29184
 489  95.3775
 490  136.5184
 491  123.0908
 492  181.0707
 493  233.4575
 494  192.4944
 495  150.6542
 496  116.74
 497  -29.73352
 498  121.7438
 499  60.53538
 500  193.3528
 501  214.7628
 502  159.6337
 503  238.1044
 504  148.1533
 505  39.15429
 506  22.08931
 507  -43.62538
 508  105.8301
 509  242.9003
 510  225.2769
 511  126.7297
