# Input file       =  1187904722.109216_cleaned.dat
# Candidate        =  PSR_0332+5434
# Telescope        =  AR
# Epoch_topo       =  57992.897466541850
# Epoch_bary       =  N/A
# T_sample         =  0.002
# Data Folded      =  7143424
# Data Avg         =  0.0106293043797916
# Data StdDev      =  1.00028405470243 
# Profile Bins     =  512
# Profile Avg      =  148.26411694157  
# Profile StdDev   =  118.152136621233 
# Reduced chi-sqr  =  1.412
# Prob(Noise)      <  2.18e-09   (~5.9 sigma)
# P_topo (ms)      =  714.463332584766  +/- 0.000291
# P'_topo (s/s)    =  -0                +/- 1.58e-10
# P''_topo (s/s^2) =  0                 +/- 7.16e-14
# P_bary (ms)      =  N/A
# P'_bary (s/s)    =  N/A
# P''_bary (s/s^2) =  N/A
# P_orb (s)        =  N/A
# asin(i)/c (s)    =  N/A
# eccentricity     =  N/A
# w (rad)          =  N/A
# T_peri           =  N/A
######################################################
   0  163.3387
   1  151.6811
   2  192.6018
   3  169.8197
   4  246.1199
   5  160.0522
   6  98.59696
   7  -25.91046
   8  51.12436
   9  172.3233
  10  135.1537
  11  217.9415
  12  192.8207
  13  70.35415
  14  42.56544
  15  208.0021
  16  120.6039
  17  102.2221
  18  66.39151
  19  99.25576
  20  171.3118
  21  140.3287
  22  213.7171
  23  86.02522
  24  119.1315
  25  114.8597
  26  160.1704
  27  130.9655
  28  122.5901
  29  109.8441
  30  166.7197
  31  233.3646
  32  150.0375
  33  118.0816
  34  242.9672
  35  197.1064
  36  331.6659
  37  114.1824
  38  100.9942
  39  118.5007
  40  74.92943
  41  64.42466
  42  177.0172
  43  237.2513
  44  166.5534
  45  104.342
  46  201.604
  47  163.8526
  48  152.2796
  49  126.0406
  50  84.18144
  51  41.28085
  52  88.90262
  53  25.14723
  54  137.7845
  55  26.41404
  56  -7.011039
  57  56.16389
  58  182.2921
  59  233.13
  60  199.4277
  61  187.0404
  62  218.5462
  63  113.7957
  64  190.7939
  65  194.3399
  66  108.7998
  67  141.1428
  68  214.9547
  69  150.3427
  70  122.8474
  71  105.3512
  72  254.448
  73  276.3547
  74  91.55395
  75  217.1039
  76  59.96983
  77  126.5382
  78  218.1726
  79  104.7707
  80  180.0797
  81  70.1671
  82  118.8023
  83  116.1741
  84  -6.891225
  85  -51.66042
  86  24.98529
  87  177.1369
  88  239.2333
  89  152.7153
  90  107.443
  91  159.0143
  92  233.2998
  93  181.5572
  94  168.4649
  95  133.4847
  96  217.2202
  97  204.204
  98  314.8294
  99  194.3152
 100  134.8284
 101  172.8061
 102  270.3983
 103  265.9074
 104  329.8103
 105  129.5672
 106  96.54425
 107  138.307
 108  160.3147
 109  140.4416
 110  244.3485
 111  141.4949
 112  49.73534
 113  183.3733
 114  155.4039
 115  47.37854
 116  65.0375
 117  171.799
 118  173.7107
 119  114.1072
 120  165.3347
 121  167.514
 122  95.73952
 123  115.2916
 124  84.59463
 125  94.19558
 126  200.175
 127  124.9934
 128  243.2475
 129  263.5426
 130  136.6299
 131  283.8104
 132  373.0395
 133  274.5608
 134  178.5895
 135  146.0998
 136  103.8962
 137  183.2927
 138  234.6509
 139  130.395
 140  104.1323
 141  114.78
 142  145.3592
 143  219.098
 144  307.0945
 145  184.8426
 146  154.2735
 147  81.24189
 148  -18.03227
 149  60.53909
 150  199.2727
 151  29.1717
 152  113.8001
 153  200.7083
 154  218.528
 155  158.9052
 156  48.82279
 157  36.89138
 158  149.5482
 159  244.7174
 160  161.9931
 161  -27.4828
 162  182.3236
 163  163.6018
 164  60.4025
 165  134.215
 166  110.7853
 167  86.18228
 168  75.67371
 169  -19.92939
 170  -69.97236
 171  61.30574
 172  184.6606
 173  215.4538
 174  81.0308
 175  121.963
 176  142.9254
 177  95.43386
 178  247.1346
 179  306.4584
 180  165.2182
 181  97.31003
 182  117.3925
 183  241.2814
 184  192.2311
 185  253.9988
 186  313.6581
 187  276.7143
 188  239.5482
 189  150.2966
 190  193.9822
 191  177.9792
 192  285.9658
 193  84.6627
 194  75.56796
 195  9.056186
 196  90.9921
 197  164.1523
 198  223.047
 199  115.3878
 200  176.3082
 201  243.2213
 202  197.6315
 203  73.37486
 204  185.6246
 205  191.5548
 206  13.67741
 207  17.84201
 208  82.56432
 209  223.1484
 210  101.905
 211  295.145
 212  290.2363
 213  180.6572
 214  219.9922
 215  133.512
 216  108.8809
 217  183.2901
 218  141.0956
 219  110.7203
 220  -41.61547
 221  8.770481
 222  147.4798
 223  138.811
 224  344.5263
 225  253.3784
 226  155.7671
 227  242.7258
 228  207.375
 229  182.9249
 230  233.6833
 231  247.8032
 232  229.1639
 233  212.4741
 234  291.5992
 235  259.5679
 236  296.3798
 237  239.6445
 238  231.3585
 239  221.7808
 240  285.1914
 241  231.9642
 242  133.5709
 243  241.9446
 244  161.5817
 245  51.90777
 246  137.2747
 247  225.747
 248  220.9725
 249  370.1962
 250  479.1008
 251  693.0682
 252  729.4055
 253  800.6999
 254  783.2379
 255  595.597
 256  447.9558
 257  245.0891
 258  263.4085
 259  181.8997
 260  316.5211
 261  227.4092
 262  333.6935
 263  296.8618
 264  185.9215
 265  292.3707
 266  243.0523
 267  230.6361
 268  173.552
 269  325.7845
 270  329.981
 271  141.0255
 272  -5.705714
 273  104.9228
 274  105.2938
 275  154.9884
 276  107.5543
 277  210.0107
 278  142.3434
 279  -38.9856
 280  -17.2949
 281  104.6255
 282  85.59823
 283  169.6969
 284  195.9154
 285  139.043
 286  216.9078
 287  175.1208
 288  94.1683
 289  31.90361
 290  88.8275
 291  212.3621
 292  175.0848
 293  170.7634
 294  252.3751
 295  220.2122
 296  132.0757
 297  117.7418
 298  179.9197
 299  208.7816
 300  -1.410388
 301  46.52123
 302  157.3961
 303  93.60144
 304  3.803228
 305  14.27209
 306  52.07956
 307  -6.505666
 308  107.6075
 309  70.25469
 310  81.91335
 311  52.63902
 312  171.2681
 313  122.6067
 314  52.52324
 315  -69.17684
 316  124.2972
 317  67.62414
 318  -130.6139
 319  53.62332
 320  185.127
 321  64.82697
 322  81.3429
 323  140.1399
 324  133.5375
 325  191.4979
 326  242.4141
 327  109.1834
 328  -15.64324
 329  42.35008
 330  59.84715
 331  134.7217
 332  172.1439
 333  103.6712
 334  -21.10884
 335  -6.213625
 336  97.53522
 337  115.5053
 338  120.4297
 339  233.5844
 340  336.0949
 341  94.32796
 342  85.50347
 343  32.1195
 344  70.30461
 345  144.9319
 346  42.83567
 347  31.4909
 348  31.09446
 349  36.78085
 350  173.3398
 351  139.8224
 352  218.1405
 353  274.0408
 354  181.5844
 355  206.2747
 356  209.2624
 357  233.6541
 358  170.4531
 359  183.7301
 360  198.4272
 361  183.0267
 362  150.7018
 363  156.9339
 364  88.69073
 365  116.0764
 366  83.37249
 367  48.65221
 368  181.8367
 369  118.7786
 370  129.5133
 371  261.3628
 372  172.6014
 373  99.61869
 374  125.6429
 375  68.91589
 376  169.7594
 377  156.295
 378  132.4971
 379  100.4733
 380  82.03123
 381  108.128
 382  197.3913
 383  99.3662
 384  100.3492
 385  127.9612
 386  214.5894
 387  132.6682
 388  22.15806
 389  170.2274
 390  123.0351
 391  30.49172
 392  -89.78111
 393  -61.45006
 394  -64.03759
 395  75.70119
 396  217.5224
 397  206.597
 398  70.12395
 399  69.50488
 400  41.7314
 401  126.3848
 402  229.7274
 403  72.92322
 404  51.65824
 405  57.07567
 406  79.64452
 407  125.7353
 408  109.0604
 409  97.01984
 410  89.58137
 411  110.8549
 412  83.61897
 413  24.24551
 414  135.8174
 415  155.2866
 416  159.2579
 417  208.9358
 418  163.6481
 419  125.2204
 420  236.549
 421  268.1202
 422  154.7889
 423  189.2097
 424  38.91756
 425  90.71037
 426  207.3018
 427  201.2698
 428  232.2373
 429  172.6918
 430  66.4557
 431  90.83933
 432  126.0229
 433  52.57065
 434  196.1109
 435  167.3715
 436  104.7914
 437  146.6251
 438  200.49
 439  167.1599
 440  116.7732
 441  213.7119
 442  155.8754
 443  3.016208
 444  115.4474
 445  96.27997
 446  69.94141
 447  137.5579
 448  176.4735
 449  162.3121
 450  202.319
 451  118.2444
 452  125.7213
 453  63.41197
 454  119.1746
 455  158.7183
 456  61.67367
 457  -0.02939291
 458  88.94601
 459  181.0502
 460  116.0782
 461  64.06432
 462  27.92364
 463  19.27679
 464  -5.031179
 465  150.9375
 466  157.2069
 467  83.03909
 468  119.0319
 469  231.6739
 470  42.76841
 471  63.95816
 472  74.07363
 473  160.2425
 474  197.1702
 475  106.9618
 476  127.1584
 477  193.8707
 478  202.1093
 479  165.3947
 480  115.1171
 481  94.68122
 482  237.1839
 483  201.9001
 484  28.10827
 485  104.0045
 486  -1.274348
 487  158.6018
 488  234.8031
 489  139.589
 490  86.37961
 491  189.9166
 492  124.1929
 493  104.2435
 494  45.13621
 495  71.02975
 496  38.90336
 497  115.3092
 498  230.2843
 499  50.9722
 500  -82.85518
 501  -35.85791
 502  117.9557
 503  204.942
 504  297.5382
 505  171.8528
 506  224.2503
 507  262.1285
 508  187.4329
 509  36.19647
 510  125.6827
 511  238.8039
