# Input file       =  1187919303.11137_cleaned.dat
# Candidate        =  PSR_0332+5434
# Telescope        =  AR
# Epoch_topo       =  57993.066228140859
# Epoch_bary       =  N/A
# T_sample         =  0.002
# Data Folded      =  7340032
# Data Avg         =  0.0132420619681527
# Data StdDev      =  2.26386300636615 
# Profile Bins     =  512
# Profile Avg      =  190.05068166038  
# Profile StdDev   =  271.059191693253 
# Reduced chi-sqr  =  1.683
# Prob(Noise)      <  3.53e-20   (~9.1 sigma)
# P_topo (ms)      =  714.463344491543  +/- 0.00015
# P'_topo (s/s)    =  -0                +/- 7.9e-11
# P''_topo (s/s^2) =  0                 +/- 3.49e-14
# P_bary (ms)      =  N/A
# P'_bary (s/s)    =  N/A
# P''_bary (s/s^2) =  N/A
# P_orb (s)        =  N/A
# asin(i)/c (s)    =  N/A
# eccentricity     =  N/A
# w (rad)          =  N/A
# T_peri           =  N/A
######################################################
   0  148.6249
   1  121.4131
   2  177.6104
   3  95.94104
   4  25.90003
   5  228.0285
   6  157.632
   7  104.9015
   8  161.792
   9  176.6911
  10  26.44152
  11  65.04865
  12  -24.13668
  13  107.6513
  14  224.4594
  15  109.8179
  16  56.33393
  17  175.9802
  18  -78.02915
  19  16.18184
  20  137.2503
  21  -22.38268
  22  -296.1115
  23  -146.4646
  24  338.6213
  25  496.2702
  26  112.8744
  27  -60.57808
  28  256.48
  29  475.0582
  30  465.7155
  31  207.8451
  32  260.6599
  33  182.2451
  34  127.2515
  35  189.332
  36  315.8954
  37  24.86695
  38  -281.609
  39  -173.5299
  40  17.61494
  41  322.3064
  42  161.7552
  43  -17.14948
  44  -125.1258
  45  180.896
  46  103.2069
  47  164.0199
  48  159.6113
  49  84.73887
  50  -75.27995
  51  109.8803
  52  79.90815
  53  331.9799
  54  84.28828
  55  -2.823456
  56  108.1776
  57  294.9091
  58  222.9277
  59  120.7729
  60  351.3035
  61  189.4609
  62  159.1872
  63  331.1633
  64  349.7042
  65  -56.81868
  66  261.0857
  67  202.0188
  68  291.8701
  69  237.819
  70  259.5116
  71  328.4153
  72  222.547
  73  263.4106
  74  -272.8513
  75  -345.4217
  76  -49.55289
  77  90.22491
  78  29.28048
  79  437.1969
  80  520.94
  81  194.4598
  82  -175.8128
  83  -301.6382
  84  50.68343
  85  26.07673
  86  -25.90718
  87  464.3338
  88  469.1574
  89  274.71
  90  59.69937
  91  28.09184
  92  -311.553
  93  -11.9535
  94  448.5324
  95  345.3702
  96  58.54066
  97  -153.0467
  98  -107.3822
  99  -46.21886
 100  169.8728
 101  407.1059
 102  -68.59247
 103  -36.57824
 104  -19.44402
 105  -169.0351
 106  104.7091
 107  99.08468
 108  117.9954
 109  178.0734
 110  201.9389
 111  262.3286
 112  217.8751
 113  342.8302
 114  161.9727
 115  75.93112
 116  102.3138
 117  348.6211
 118  468.3946
 119  228.3352
 120  84.04755
 121  18.88948
 122  345.7247
 123  193.1052
 124  360.6981
 125  338.8712
 126  -125.7795
 127  -7.178569
 128  226.9768
 129  396.532
 130  419.121
 131  157.5445
 132  183.3891
 133  61.12782
 134  207.8125
 135  81.6196
 136  69.673
 137  134.1718
 138  297.2781
 139  163.5298
 140  -6.959486
 141  -71.67062
 142  477.4965
 143  276.1874
 144  -3.852344
 145  19.142
 146  238.3702
 147  290.0247
 148  382.2072
 149  164.2385
 150  -44.78444
 151  -202.4981
 152  25.96043
 153  18.81165
 154  141.6267
 155  86.65202
 156  -9.489573
 157  -365.2978
 158  -137.6615
 159  99.03318
 160  284.5229
 161  272.1896
 162  168.7688
 163  480.2944
 164  405.8482
 165  259.0512
 166  280.1743
 167  249.0104
 168  38.81251
 169  -35.79966
 170  181.0208
 171  146.1272
 172  422.9503
 173  0.4709449
 174  62.06431
 175  51.91545
 176  294.8437
 177  -66.24588
 178  -141.2712
 179  80.59699
 180  149.7389
 181  -87.10339
 182  285.4763
 183  454.554
 184  194.0703
 185  91.02277
 186  365.189
 187  284.9618
 188  540.6885
 189  579.7111
 190  398.6885
 191  358.9231
 192  493.6978
 193  91.14329
 194  285.8421
 195  216.4621
 196  292.1865
 197  279.1738
 198  122.5061
 199  381.9729
 200  -79.08511
 201  142.2865
 202  378.7006
 203  265.4425
 204  242.8397
 205  108.6544
 206  140.2895
 207  230.5696
 208  196.6137
 209  290.0163
 210  110.2289
 211  -242.9866
 212  -151.6107
 213  -42.50108
 214  -67.98322
 215  188.6734
 216  27.76669
 217  -148.1654
 218  98.41462
 219  420.5609
 220  331.5015
 221  -118.3656
 222  51.84826
 223  401.0056
 224  -27.36196
 225  -87.72839
 226  -1.229371
 227  197.9268
 228  222.9818
 229  89.88599
 230  316.5797
 231  363.1005
 232  367.9118
 233  255.5456
 234  227.7869
 235  278.1398
 236  260.566
 237  410.5901
 238  626.0657
 239  463.694
 240  57.07902
 241  -108.0621
 242  173.7885
 243  1.59493
 244  159.7596
 245  156.9316
 246  556.2062
 247  507.4067
 248  305.4902
 249  205.9176
 250  322.2296
 251  286.5495
 252  324.2701
 253  24.87783
 254  230.5514
 255  162.0763
 256  -21.07379
 257  89.64122
 258  467.5778
 259  403.9696
 260  174.1467
 261  160.0962
 262  314.2782
 263  129.9011
 264  455.2146
 265  592.6262
 266  140.885
 267  41.6284
 268  -56.94467
 269  302.8339
 270  401.36
 271  165.9106
 272  18.61649
 273  38.33027
 274  172.7767
 275  172.9458
 276  369.1529
 277  678.0356
 278  127.6424
 279  310.3046
 280  370.0237
 281  224.0683
 282  157.3186
 283  66.34978
 284  222.9304
 285  104.1162
 286  -44.95663
 287  234.3877
 288  112.3555
 289  -112.0757
 290  -26.83419
 291  239.8127
 292  595.7712
 293  403.6304
 294  218.5907
 295  205.8655
 296  189.2803
 297  142.2439
 298  -26.98297
 299  16.94786
 300  13.8738
 301  -100.1278
 302  -8.405347
 303  384.3885
 304  18.50123
 305  -200.1791
 306  150.1618
 307  113.5653
 308  11.80506
 309  124.2437
 310  223.9016
 311  351.9898
 312  648.4584
 313  369.3701
 314  256.6204
 315  550.6631
 316  635.5029
 317  349.1945
 318  258.1537
 319  586.3736
 320  1106.912
 321  1595.576
 322  1973.993
 323  1904.837
 324  1596.956
 325  1695.876
 326  1218.842
 327  79.79664
 328  -256.4339
 329  -9.089415
 330  480.4967
 331  6.753263
 332  -63.3654
 333  -52.95374
 334  168.9783
 335  449.45
 336  554.2948
 337  372.8187
 338  280.4605
 339  252.1768
 340  517.8471
 341  515.8976
 342  376.6025
 343  -18.53791
 344  -268.1062
 345  -282.757
 346  -40.39108
 347  25.15095
 348  518.742
 349  262.985
 350  216.6359
 351  316.6782
 352  403.5655
 353  135.1055
 354  231.43
 355  285.6329
 356  443.8308
 357  567.1699
 358  418.0363
 359  107.4689
 360  -61.53246
 361  359.794
 362  578.328
 363  291.9811
 364  197.3542
 365  301.5557
 366  112.1562
 367  140.3806
 368  224.2956
 369  135.218
 370  -139.0749
 371  -120.6014
 372  199.4946
 373  383.7714
 374  198.6027
 375  440.0915
 376  159.9
 377  204.3172
 378  185.688
 379  -16.6969
 380  52.52804
 381  -180.9573
 382  303.3027
 383  543.8815
 384  196.8465
 385  356.5448
 386  238.6587
 387  -186.8838
 388  -256.2014
 389  -93.19617
 390  488.2864
 391  230.8012
 392  68.88185
 393  134.1366
 394  39.53006
 395  -52.88629
 396  157.5996
 397  212.331
 398  -68.71809
 399  -217.175
 400  67.70915
 401  364.5514
 402  254.9199
 403  331.1833
 404  354.7326
 405  124.0706
 406  373.2472
 407  481.9895
 408  563.6342
 409  304.3644
 410  328.0963
 411  36.64754
 412  132.676
 413  500.3186
 414  214.4504
 415  117.1426
 416  21.29317
 417  -146.2753
 418  203.2001
 419  223.3454
 420  228.2187
 421  198.1797
 422  250.9312
 423  182.0958
 424  153.0817
 425  -0.04947241
 426  174.6582
 427  201.8452
 428  437.3221
 429  147.6078
 430  182.6648
 431  412.7216
 432  71.65749
 433  91.59854
 434  433.4165
 435  149.0483
 436  170.0531
 437  86.43113
 438  274.7662
 439  143.2701
 440  116.4656
 441  700.5281
 442  336.384
 443  217.5908
 444  54.69294
 445  125.5963
 446  333.2953
 447  -11.77184
 448  -113.567
 449  190.779
 450  287.6582
 451  293.1852
 452  -4.272644
 453  -118.1736
 454  -44.22837
 455  119.6037
 456  -107.8117
 457  269.5067
 458  -65.29785
 459  193.3134
 460  101.9045
 461  290.5974
 462  280.0551
 463  155.7773
 464  -4.403414
 465  15.67054
 466  135.5233
 467  -50.09208
 468  -116.1326
 469  287.8806
 470  227.6744
 471  198.5723
 472  70.19951
 473  265.9869
 474  -55.12681
 475  -159.1919
 476  -1.0026
 477  464.9127
 478  544.2598
 479  173.8815
 480  -57.52417
 481  -9.288704
 482  222.8855
 483  363.2976
 484  -51.51741
 485  174.6475
 486  169.1898
 487  -63.26495
 488  232.0543
 489  369.9147
 490  382.3565
 491  502.6213
 492  313.5022
 493  152.2232
 494  279.593
 495  81.16434
 496  364.7502
 497  -59.19477
 498  -87.81387
 499  199.5237
 500  206.1725
 501  457.6848
 502  156.7374
 503  59.58215
 504  192.8117
 505  -119.3849
 506  81.59079
 507  84.82277
 508  215.4378
 509  61.92435
 510  491.959
 511  384.0627
