# Input file       =  1187848054.111043_cleaned.dat
# Candidate        =  PSR_0332+5434
# Telescope        =  AR
# Epoch_topo       =  57992.241586933371
# Epoch_bary       =  N/A
# T_sample         =  0.002
# Data Folded      =  7340032
# Data Avg         =  0.0357523593795901
# Data StdDev      =  3.03334337879959 
# Profile Bins     =  256
# Profile Avg      =  1024.95198478353 
# Profile StdDev   =  513.630222167558 
# Reduced chi-sqr  =  1.494
# Prob(Noise)      <  5.09e-07   (~4.9 sigma)
# P_topo (ms)      =  714.463686892293  +/- 0.000372
# P'_topo (s/s)    =  -0                +/- 1.96e-10
# P''_topo (s/s^2) =  0                 +/- 8.66e-14
# P_bary (ms)      =  N/A
# P'_bary (s/s)    =  N/A
# P''_bary (s/s^2) =  N/A
# P_orb (s)        =  N/A
# asin(i)/c (s)    =  N/A
# eccentricity     =  N/A
# w (rad)          =  N/A
# T_peri           =  N/A
######################################################
   0  1103.741
   1  1324.673
   2  1265.448
   3  648.6652
   4  1134.396
   5  942.2559
   6  1537.916
   7  1695.871
   8  879.6623
   9  1424.937
  10  1773.193
  11  1729.765
  12  1351.311
  13  808.266
  14  1217.514
  15  959.5616
  16  1621.077
  17  1573.128
  18  994.6201
  19  1278.761
  20  1558.573
  21  269.98
  22  668.8465
  23  750.9067
  24  875.3105
  25  408.2439
  26  189.8197
  27  141.6207
  28  181.1978
  29  259.5295
  30  388.3168
  31  543.5096
  32  1304.263
  33  983.5693
  34  500.9583
  35  91.33248
  36  614.3873
  37  981.9451
  38  871.2981
  39  331.774
  40  749.8345
  41  890.1309
  42  1022.645
  43  1121.907
  44  1316.738
  45  1179.508
  46  895.1666
  47  933.8552
  48  1511.084
  49  993.8279
  50  1378.478
  51  1041.233
  52  744.7264
  53  780.5213
  54  1437.187
  55  844.1658
  56  678.1958
  57  314.3848
  58  1107.101
  59  201.5933
  60  1181.72
  61  345.587
  62  283.0829
  63  884.665
  64  1003.77
  65  858.9669
  66  692.9213
  67  240.6662
  68  1132.16
  69  1693.726
  70  1331.77
  71  872.4767
  72  592.1773
  73  569.8202
  74  1939.41
  75  1391.732
  76  873.1925
  77  1239.548
  78  1427.032
  79  2030.693
  80  1200.553
  81  1062.011
  82  1438.153
  83  1641.003
  84  1810.726
  85  2106.143
  86  2153.301
  87  1964.123
  88  1169.183
  89  503.4203
  90  906.9095
  91  962.9456
  92  498.9485
  93  233.9226
  94  1024.556
  95  1274.91
  96  777.2864
  97  833.0179
  98  572.4997
  99  395.4012
 100  542.1906
 101  794.7825
 102  811.2672
 103  183.3412
 104  -166.8139
 105  698.1077
 106  336.178
 107  892.9908
 108  886.2479
 109  797.7619
 110  1324.035
 111  995.3513
 112  411.31
 113  1162.833
 114  1293.51
 115  1035.409
 116  1284.387
 117  1400.277
 118  936.9995
 119  1319.669
 120  713.3938
 121  1130.052
 122  1065.581
 123  922.2011
 124  919.6539
 125  507.4678
 126  1336.465
 127  670.1122
 128  905.465
 129  749.2715
 130  1000.787
 131  270.2069
 132  -200.2492
 133  823.1027
 134  1085.661
 135  684.8631
 136  940.3664
 137  589.6183
 138  526.043
 139  -85.0291
 140  678.7618
 141  -155.4614
 142  261.3684
 143  668.735
 144  407.4067
 145  1120.972
 146  728.3555
 147  580.394
 148  747.439
 149  1327.051
 150  1684.797
 151  1508.776
 152  1615.792
 153  508.5639
 154  712.8448
 155  934.2216
 156  1710.206
 157  1364.518
 158  1310.311
 159  1461.905
 160  2372.579
 161  4677.1
 162  3731.111
 163  2121.55
 164  731.7989
 165  776.8508
 166  768.2798
 167  1277.261
 168  489.5138
 169  1335.241
 170  922.1528
 171  -117.0415
 172  1101.564
 173  824.256
 174  1339.658
 175  1058.36
 176  355.4878
 177  962.2453
 178  987.4318
 179  1259.634
 180  415.6637
 181  533.8039
 182  1475.232
 183  630.0688
 184  333.0952
 185  654.9556
 186  936.4608
 187  949.6594
 188  1047.587
 189  781.4653
 190  1727.78
 191  1492.153
 192  1279.248
 193  513.8688
 194  1206.14
 195  1510.785
 196  1665.322
 197  844.6799
 198  1105.816
 199  1432.313
 200  1234.828
 201  741.0451
 202  1196.57
 203  1093.194
 204  1079.157
 205  479.9809
 206  765.7675
 207  711.5863
 208  1161.565
 209  1631.539
 210  1087.967
 211  1036.063
 212  697.8508
 213  1054.65
 214  526.6332
 215  300.8241
 216  687.5642
 217  1324.629
 218  924.6312
 219  1563.726
 220  1190.082
 221  1003.489
 222  405.4805
 223  948.8041
 224  1304.011
 225  1420.282
 226  1311.739
 227  1762.206
 228  1664.492
 229  1383.562
 230  1730.483
 231  1170.883
 232  1475.488
 233  1638.54
 234  1143.565
 235  1426.274
 236  1733.542
 237  1340.478
 238  1460.658
 239  1063.473
 240  1050.14
 241  827.5535
 242  1598.118
 243  1393.341
 244  970.1663
 245  1761.951
 246  758.1077
 247  773.6705
 248  1217.299
 249  1103.656
 250  1184.592
 251  1122.292
 252  1407.4
 253  1621.294
 254  1368.895
 255  732.4102
