# Input file       =  1187761893.121302_cleaned.dat
# Candidate        =  PSR_0332+5434
# Telescope        =  AR
# Epoch_topo       =  57991.244353255810
# Epoch_bary       =  N/A
# T_sample         =  0.002
# Data Folded      =  7340032
# Data Avg         =  0.0443612593309289
# Data StdDev      =  3.28256979329844 
# Profile Bins     =  512
# Profile Avg      =  636.051080557073 
# Profile StdDev   =  393.032048470276 
# Reduced chi-sqr  =  1.360
# Prob(Noise)      <  1e-07   (~5.2 sigma)
# P_topo (ms)      =  714.463712720771  +/- 0.00027
# P'_topo (s/s)    =  -0                +/- 1.43e-10
# P''_topo (s/s^2) =  0                 +/- 6.3e-14
# P_bary (ms)      =  N/A
# P'_bary (s/s)    =  N/A
# P''_bary (s/s^2) =  N/A
# P_orb (s)        =  N/A
# asin(i)/c (s)    =  N/A
# eccentricity     =  N/A
# w (rad)          =  N/A
# T_peri           =  N/A
######################################################
   0  671.8462
   1  558.5884
   2  810.7213
   3  788.793
   4  1091.004
   5  958.2856
   6  732.3085
   7  215.6554
   8  524.7113
   9  675.4981
  10  838.3871
  11  554.606
  12  734.7316
  13  1216.683
  14  1241.681
  15  1293.754
  16  1275.83
  17  978.2388
  18  917.6357
  19  901.4003
  20  1134.839
  21  1248.307
  22  999.9745
  23  727.6092
  24  384.558
  25  598.8713
  26  792.6776
  27  364.181
  28  162.1802
  29  74.92964
  30  409.2133
  31  299.4301
  32  338.8356
  33  810.7205
  34  905.5255
  35  160.9216
  36  373.5865
  37  620.4293
  38  515.292
  39  675.6142
  40  856.5355
  41  629.4733
  42  567.9105
  43  607.5801
  44  349.3128
  45  277.3515
  46  786.0162
  47  1055.482
  48  803.8777
  49  896.4993
  50  909.2526
  51  668.1595
  52  348.448
  53  308.1249
  54  461.2382
  55  981.6996
  56  488.1205
  57  826.4604
  58  771.8705
  59  823.8702
  60  800.629
  61  510.9135
  62  289.1815
  63  334.5971
  64  687.1965
  65  459.4999
  66  950.9714
  67  1482.388
  68  1270.157
  69  1031.97
  70  750.0237
  71  1159.377
  72  1193.211
  73  1010.426
  74  1139.408
  75  1309.361
  76  850.2823
  77  764.3663
  78  841.4207
  79  1009.964
  80  1085.125
  81  839.9131
  82  671.7037
  83  853.2089
  84  823.1301
  85  729.7682
  86  770.4155
  87  958.4852
  88  773.5374
  89  1038.697
  90  872.1571
  91  467.4813
  92  428.0958
  93  845.8753
  94  1154.685
  95  494.412
  96  218.4415
  97  1037.345
  98  813.1412
  99  557.4299
 100  1199.352
 101  954.0596
 102  446.4192
 103  532.1724
 104  829.9995
 105  958.8354
 106  569.739
 107  486.6225
 108  746.3938
 109  579.3093
 110  731.7888
 111  551.7418
 112  276.0667
 113  349.6455
 114  449.4479
 115  613.435
 116  772.92
 117  519.7369
 118  351.0406
 119  420.7897
 120  780.0565
 121  579.8087
 122  513.2587
 123  293.8762
 124  393.205
 125  402.1149
 126  334.7262
 127  132.8144
 128  200.3721
 129  108.2186
 130  40.90089
 131  528.4012
 132  444.3099
 133  636.4609
 134  540.8053
 135  537.2248
 136  282.2757
 137  965.8805
 138  575.8959
 139  217.182
 140  476.7447
 141  638.6273
 142  1043.67
 143  712.4056
 144  730.964
 145  1161.88
 146  699.0259
 147  884.77
 148  947.0919
 149  1162.407
 150  1055.036
 151  526.0694
 152  286.8731
 153  949.6773
 154  1242.984
 155  1035.365
 156  955.4749
 157  834.2557
 158  1210.767
 159  1014.347
 160  650.7476
 161  1264.562
 162  1127.18
 163  1020.95
 164  765.4413
 165  368.2429
 166  634.7223
 167  1163.316
 168  1083.389
 169  872.492
 170  504.8497
 171  393.6783
 172  461.9963
 173  170.5047
 174  423.9453
 175  512.9751
 176  768.6666
 177  717.0696
 178  607.708
 179  308.3018
 180  627.6717
 181  288.8116
 182  369.4919
 183  500.2311
 184  126.3403
 185  476.5933
 186  672.6097
 187  357.2503
 188  83.7245
 189  507.1004
 190  75.85059
 191  -132.0666
 192  314.8149
 193  954.7872
 194  588.2841
 195  511.4012
 196  377.6581
 197  586.1092
 198  383.7376
 199  -105.0809
 200  -125.0527
 201  306.4479
 202  448.0977
 203  325.6854
 204  239.3555
 205  837.4088
 206  529.694
 207  605.6494
 208  929.1911
 209  856.5804
 210  252.5677
 211  88.97828
 212  239.4936
 213  347.3148
 214  723.0471
 215  795.4073
 216  863.4958
 217  802.0413
 218  1291.561
 219  1204.97
 220  475.3812
 221  118.4598
 222  171.5437
 223  259.1089
 224  245.1081
 225  685.795
 226  905.4255
 227  977.8679
 228  574.0893
 229  373.8016
 230  690.6356
 231  923.1121
 232  836.826
 233  873.6167
 234  465.1784
 235  354.8698
 236  557.2323
 237  736.5624
 238  510.9323
 239  882.5255
 240  712.553
 241  614.9415
 242  661.0692
 243  948.7982
 244  514.5437
 245  309.4395
 246  368.7853
 247  391.5993
 248  700.7799
 249  454.0042
 250  121.9949
 251  459.2533
 252  508.6638
 253  546.4789
 254  548.1741
 255  611.1008
 256  582.5406
 257  618.7203
 258  603.7622
 259  466.4471
 260  -33.72687
 261  316.4854
 262  1072.245
 263  414.4176
 264  433.4942
 265  189.5237
 266  612.5793
 267  581.2098
 268  260.1976
 269  393.1877
 270  87.40997
 271  -59.08785
 272  321.759
 273  505.9121
 274  350.5032
 275  547.5087
 276  420.4843
 277  603.4146
 278  442.269
 279  -7.41473
 280  286.8463
 281  493.4351
 282  252.9437
 283  447.0712
 284  85.15678
 285  301.0629
 286  567.9944
 287  969.9415
 288  1140.873
 289  707.568
 290  920.2051
 291  783.187
 292  573.6858
 293  1154.211
 294  616.0543
 295  165.5557
 296  568.8229
 297  335.9382
 298  326.7904
 299  640.7731
 300  709.832
 301  1154.289
 302  1118.815
 303  1269.429
 304  961.4163
 305  889.8857
 306  792.2468
 307  685.6385
 308  747.1062
 309  1169.428
 310  1289.21
 311  834.1148
 312  571.6691
 313  259.5371
 314  724.1379
 315  1180.545
 316  1038.03
 317  1125.953
 318  842.3885
 319  810.6761
 320  1227.667
 321  1608.089
 322  2457.954
 323  2187.325
 324  1650.155
 325  1294.838
 326  915.3984
 327  408.2194
 328  508.5857
 329  219.2785
 330  264.5175
 331  679.5275
 332  138.1843
 333  -43.18115
 334  359.6241
 335  565.4739
 336  243.438
 337  495.3862
 338  800.6881
 339  608.0086
 340  431.4641
 341  520.4562
 342  415.5016
 343  494.8794
 344  506.8185
 345  730.0643
 346  710.9203
 347  -75.74576
 348  563.7253
 349  525.2779
 350  877.1253
 351  669.7366
 352  742.5378
 353  830.1052
 354  857.8177
 355  442.574
 356  129.1725
 357  449.9043
 358  829.8695
 359  657.1848
 360  875.9891
 361  1023.533
 362  1027.532
 363  516.6885
 364  515.6138
 365  784.403
 366  641.7476
 367  483.2703
 368  713.7088
 369  840.0883
 370  978.5182
 371  675.7632
 372  574.9323
 373  1162.368
 374  1459.269
 375  1021.725
 376  759.3485
 377  877.7482
 378  974.4594
 379  711.8367
 380  680.4549
 381  120.9512
 382  335.4561
 383  698.6144
 384  1061.37
 385  865.3889
 386  542.9216
 387  601.9779
 388  297.1848
 389  426.8685
 390  205.6125
 391  356.8474
 392  291.6866
 393  712.1858
 394  427.2464
 395  -11.46177
 396  144.0106
 397  347.6255
 398  516.6317
 399  195.7464
 400  512.1041
 401  542.6625
 402  539.2917
 403  766.5756
 404  782.025
 405  726.4461
 406  876.4661
 407  557.6544
 408  237.0898
 409  701.6569
 410  816.6788
 411  572.9474
 412  691.5026
 413  817.7532
 414  338.4672
 415  499.5071
 416  368.8674
 417  188.7843
 418  232.627
 419  603.2238
 420  693.1557
 421  205.6949
 422  314.7639
 423  52.72702
 424  149.6982
 425  -30.10936
 426  187.2647
 427  367.841
 428  154.8473
 429  336.6387
 430  430.1469
 431  385.2047
 432  796.0088
 433  639.7686
 434  635.6241
 435  470.4024
 436  654.617
 437  580.8253
 438  629.8616
 439  744.9403
 440  878.9774
 441  771.5336
 442  174.1339
 443  335.9958
 444  871.8855
 445  1137.869
 446  1113.463
 447  873.6353
 448  1085.191
 449  758.093
 450  678.4664
 451  1198.754
 452  458.8464
 453  383.0645
 454  1037.537
 455  757.1988
 456  665.6647
 457  1132.997
 458  1146.886
 459  742.9902
 460  799.0541
 461  590.1197
 462  586.7077
 463  840.909
 464  1036.907
 465  893.5795
 466  1025.664
 467  890.282
 468  577.8275
 469  435.2412
 470  638.7662
 471  498.7924
 472  351.2546
 473  768.5897
 474  340.9045
 475  -29.43797
 476  373.4966
 477  411.0448
 478  259.7622
 479  521.0359
 480  838.6387
 481  749.6375
 482  -69.86989
 483  279.1472
 484  422.7654
 485  671.6273
 486  439.9569
 487  381.4059
 488  587.1543
 489  262.7653
 490  484.3651
 491  466.3314
 492  401.2354
 493  377.5414
 494  616.2858
 495  933.1903
 496  811.6262
 497  539.2765
 498  399.4693
 499  713.5749
 500  604.3852
 501  835.7708
 502  554.0957
 503  481.8939
 504  602.4018
 505  624.8797
 506  496.045
 507  403.6858
 508  790.8089
 509  1203.154
 510  1136.525
 511  533.9928
