# Input file       =  1187043050.110137_cleaned.dat
# Candidate        =  PSR_0332+5434
# Telescope        =  AR
# Epoch_topo       =  57982.924410996959
# Epoch_bary       =  N/A
# T_sample         =  0.002
# Data Folded      =  7208960
# Data Avg         =  0.0211783294367843
# Data StdDev      =  1.00019548589589 
# Profile Bins     =  512
# Profile Avg      =  298.190531114747 
# Profile StdDev   =  118.682371988816 
# Reduced chi-sqr  =  1.390
# Prob(Noise)      <  1.1e-08   (~5.6 sigma)
# P_topo (ms)      =  714.464259616978  +/- 0.000149
# P'_topo (s/s)    =  -0                +/- 8.02e-11
# P''_topo (s/s^2) =  0                 +/- 3.61e-14
# P_bary (ms)      =  N/A
# P'_bary (s/s)    =  N/A
# P''_bary (s/s^2) =  N/A
# P_orb (s)        =  N/A
# asin(i)/c (s)    =  N/A
# eccentricity     =  N/A
# w (rad)          =  N/A
# T_peri           =  N/A
######################################################
   0  160.5497
   1  340.0476
   2  340.0908
   3  237.2513
   4  188.6554
   5  174.2627
   6  273.4701
   7  223.1511
   8  233.9865
   9  314.9592
  10  339.1527
  11  306.3136
  12  401.5707
  13  463.4183
  14  372.6984
  15  323.239
  16  401.2718
  17  354.3585
  18  284.1368
  19  333.2335
  20  256.8557
  21  316.3043
  22  427.7215
  23  357.0732
  24  290.2283
  25  297.689
  26  309.685
  27  245.7446
  28  246.6637
  29  199.7148
  30  319.7227
  31  156.6214
  32  53.35248
  33  227.1182
  34  341.6642
  35  299.1776
  36  169.0445
  37  213.7718
  38  112.9957
  39  192.1941
  40  244.7628
  41  308.4009
  42  343.1195
  43  302.7284
  44  265.1346
  45  380.62
  46  416.2235
  47  253.2462
  48  306.5328
  49  317.8986
  50  179.5822
  51  208.4429
  52  175.8379
  53  290.1576
  54  179.1198
  55  250.7545
  56  189.2335
  57  196.9917
  58  346.2593
  59  451.7855
  60  244.928
  61  299.8308
  62  228.2536
  63  296.506
  64  289.2228
  65  191.0108
  66  231.0676
  67  296.0803
  68  332.9821
  69  166.8009
  70  328.4534
  71  338.7117
  72  18.7338
  73  239.8271
  74  324.153
  75  266.2591
  76  280.687
  77  369.7217
  78  341.4435
  79  304.9518
  80  172.1353
  81  192.9484
  82  358.3878
  83  377.4804
  84  343.3815
  85  184.7009
  86  319.2564
  87  338.6903
  88  364.4275
  89  439.7201
  90  251.9146
  91  233.8924
  92  206.0605
  93  234.9566
  94  286.6915
  95  264.7547
  96  260.6311
  97  284.827
  98  358.7797
  99  382.9005
 100  289.976
 101  283.9379
 102  239.8159
 103  135.1255
 104  306.2069
 105  301.3456
 106  243.6826
 107  295.9008
 108  356.8891
 109  246.4291
 110  274.197
 111  371.9623
 112  264.8293
 113  300.4238
 114  336.1763
 115  335.1721
 116  282.8706
 117  271.0789
 118  215.1393
 119  205.7434
 120  232.022
 121  230.7083
 122  391.0706
 123  329.5006
 124  282.204
 125  321.3239
 126  311.002
 127  298.8925
 128  283.8769
 129  305.2257
 130  367.9462
 131  354.5177
 132  323.8608
 133  208.4705
 134  206.8746
 135  309.3405
 136  227.4466
 137  275.4726
 138  399.3678
 139  267.598
 140  359.4276
 141  399.0728
 142  233.7059
 143  251.5082
 144  319.0303
 145  445.0798
 146  508.3459
 147  408.8472
 148  344.3534
 149  279.7928
 150  357.7048
 151  444.3826
 152  360.9413
 153  347.1023
 154  327.5634
 155  307.6287
 156  376.816
 157  370.1696
 158  510.1626
 159  373.1119
 160  309.9977
 161  441.5317
 162  548.4506
 163  778.4224
 164  867.1002
 165  978.7963
 166  1014.607
 167  797.1157
 168  561.4937
 169  447.4521
 170  357.7254
 171  267.9884
 172  315.2063
 173  309.8328
 174  348.9995
 175  403.2045
 176  323.5522
 177  259.173
 178  255.1501
 179  263.6295
 180  510.5465
 181  534.8158
 182  417.0169
 183  291.6808
 184  121.0703
 185  338.2768
 186  269.073
 187  310.0996
 188  383.8215
 189  449.5315
 190  384.636
 191  226.5285
 192  266.7682
 193  262.5819
 194  368.1454
 195  440.8214
 196  371.6897
 197  251.874
 198  224.6203
 199  257.0457
 200  263.0927
 201  330.733
 202  315.4416
 203  323.2841
 204  321.0832
 205  323.6464
 206  216.1968
 207  182.5343
 208  187.6504
 209  278.7447
 210  227.5791
 211  269.6979
 212  223.9522
 213  327.0566
 214  373.1663
 215  330.9648
 216  190.2422
 217  252.6249
 218  310.2681
 219  244.1451
 220  272.1744
 221  343.0257
 222  345.3
 223  422.9947
 224  299.2933
 225  141.2264
 226  354.0577
 227  465.6271
 228  399.95
 229  166.7674
 230  156.6472
 231  244.0488
 232  195.4708
 233  277.8405
 234  204.4865
 235  158.4333
 236  249.5232
 237  362.8333
 238  237.5403
 239  149.6208
 240  263.1643
 241  410.9093
 242  324.8613
 243  315.3814
 244  156.3307
 245  208.0748
 246  155.8988
 247  343.6789
 248  438.9388
 249  379.9602
 250  410.8502
 251  388.8865
 252  204.812
 253  264.0153
 254  340.7332
 255  336.7864
 256  330.7292
 257  274.7262
 258  394.83
 259  353.1376
 260  279.9098
 261  426.6118
 262  356.3967
 263  307.2731
 264  270.2484
 265  209.3878
 266  246.3029
 267  299.4278
 268  160.6817
 269  276.0231
 270  263.5866
 271  254.647
 272  298.0003
 273  204.7412
 274  275.6988
 275  243.0368
 276  235.8912
 277  289.0542
 278  258.2554
 279  227.1205
 280  295.7258
 281  336.6979
 282  193.8358
 283  129.2407
 284  220.2672
 285  374.9677
 286  290.0291
 287  168.0238
 288  195.7675
 289  265.0216
 290  350.7042
 291  371.6611
 292  294.5772
 293  209.3487
 294  307.7179
 295  417.9475
 296  279.0099
 297  290.86
 298  312.3222
 299  348.5848
 300  351.8198
 301  392.353
 302  337.2456
 303  334.5589
 304  285.7202
 305  370.4439
 306  388.2378
 307  433.9593
 308  286.4628
 309  213.007
 310  234.9898
 311  129.1782
 312  203.0788
 313  277.0489
 314  415.2133
 315  341.5923
 316  331.7148
 317  309.7132
 318  310.4794
 319  377.958
 320  424.7896
 321  334.0529
 322  246.8674
 323  450.1978
 324  519.7838
 325  368.1681
 326  385.7783
 327  341.8503
 328  403.3498
 329  399.2489
 330  355.7659
 331  323.5007
 332  253.2291
 333  256.3355
 334  259.3411
 335  234.9854
 336  203.8456
 337  250.2316
 338  333.0264
 339  270.1223
 340  110.3782
 341  175.4281
 342  238.3703
 343  235.6036
 344  237.6198
 345  231.8306
 346  254.9487
 347  268.8614
 348  216.7539
 349  162.1076
 350  270.3996
 351  119.4562
 352  176.6665
 353  209.1745
 354  196.4423
 355  231.6855
 356  330.8624
 357  389.8338
 358  237.7325
 359  226.4035
 360  186.5846
 361  214.4743
 362  169.8049
 363  254.9685
 364  254.067
 365  266.819
 366  309.1366
 367  339.7329
 368  433.9489
 369  255.2523
 370  212.9662
 371  263.2997
 372  340.5077
 373  442.9518
 374  429.7576
 375  364.687
 376  179.0519
 377  292.4686
 378  189.2504
 379  224.1361
 380  262.5145
 381  197.3101
 382  178.412
 383  308.157
 384  384.3755
 385  247.3615
 386  115.5309
 387  179.4772
 388  241.8128
 389  226.049
 390  213.6428
 391  180.9849
 392  215.4558
 393  346.6297
 394  249.9053
 395  259.5586
 396  281.5833
 397  307.8448
 398  246.3597
 399  324.2065
 400  252.9545
 401  168.3957
 402  213.3307
 403  342.828
 404  317.6801
 405  324.3476
 406  332.5702
 407  464.7674
 408  450.657
 409  288.5974
 410  276.4543
 411  291.0255
 412  311.1393
 413  280.9792
 414  261.2013
 415  190.004
 416  278.2965
 417  370.0768
 418  332.2196
 419  321.4361
 420  421.9038
 421  316.5423
 422  279.3004
 423  185.1603
 424  162.2076
 425  201.4128
 426  308.1159
 427  327.6925
 428  387.3967
 429  303.7974
 430  181.5663
 431  211.4587
 432  373.2976
 433  356.453
 434  249.2196
 435  375.3113
 436  429.933
 437  314.4613
 438  289.5659
 439  301.9415
 440  230.3085
 441  268.3929
 442  253.2161
 443  358.3881
 444  202.7168
 445  199.2391
 446  280.6785
 447  389.1482
 448  404.9942
 449  240.0928
 450  265.485
 451  208.2748
 452  276.5993
 453  239.3847
 454  249.9704
 455  237.9723
 456  155.3838
 457  190.5336
 458  261.3928
 459  248.7908
 460  353.991
 461  423.8813
 462  364.3041
 463  286.1251
 464  226.4027
 465  390.0576
 466  397.582
 467  249.4673
 468  144.1241
 469  194.3238
 470  233.3359
 471  292.6328
 472  271.0591
 473  256.0618
 474  466.6414
 475  514.9318
 476  482.4604
 477  390.1782
 478  228.2267
 479  293.1315
 480  289.2779
 481  332.5062
 482  353.7003
 483  281.5754
 484  277.5447
 485  350.5623
 486  460.5393
 487  357.7834
 488  345.0634
 489  319.036
 490  310.0778
 491  304.514
 492  266.7716
 493  239.8935
 494  306.8651
 495  277.9637
 496  148.8918
 497  84.44091
 498  201.2841
 499  245.5673
 500  354.9977
 501  327.4974
 502  298.5687
 503  359.6876
 504  306.719
 505  276.6571
 506  307.7036
 507  287.2659
 508  295.8454
 509  420.0051
 510  329.6644
 511  77.7822
