# Input file       =  1187761893.121302_cleaned.dat
# Candidate        =  PSR_0332+5434
# Telescope        =  AR
# Epoch_topo       =  57991.244353255810
# Epoch_bary       =  N/A
# T_sample         =  0.002
# Data Folded      =  7340032
# Data Avg         =  0.0443612593309289
# Data StdDev      =  3.28256979329844 
# Profile Bins     =  256
# Profile Avg      =  1272.10216111415 
# Profile StdDev   =  555.831253393944 
# Reduced chi-sqr  =  1.539
# Prob(Noise)      <  6.57e-08   (~5.3 sigma)
# P_topo (ms)      =  714.463712720771  +/- 0.000268
# P'_topo (s/s)    =  -0                +/- 1.42e-10
# P''_topo (s/s^2) =  0                 +/- 6.25e-14
# P_bary (ms)      =  N/A
# P'_bary (s/s)    =  N/A
# P''_bary (s/s^2) =  N/A
# P_orb (s)        =  N/A
# asin(i)/c (s)    =  N/A
# eccentricity     =  N/A
# w (rad)          =  N/A
# T_peri           =  N/A
######################################################
   0  1230.435
   1  1599.514
   2  2049.29
   3  947.9638
   4  1200.209
   5  1392.993
   6  1951.415
   7  2535.436
   8  2254.069
   9  1819.036
  10  2383.146
  11  1727.584
  12  983.4293
  13  1156.859
  14  237.1098
  15  708.6434
  16  1149.556
  17  1066.447
  18  994.0158
  19  1190.906
  20  1486.009
  21  1175.491
  22  626.6643
  23  1841.498
  24  1700.377
  25  1577.412
  26  656.5729
  27  1442.938
  28  1314.581
  29  1595.741
  30  1311.542
  31  623.7786
  32  1146.696
  33  2433.36
  34  2302.127
  35  1909.4
  36  2203.637
  37  2448.769
  38  1614.649
  39  1851.384
  40  1925.038
  41  1524.913
  42  1552.898
  43  1728.901
  44  1812.234
  45  1339.638
  46  1273.971
  47  1649.097
  48  1255.787
  49  1370.571
  50  2153.411
  51  978.5916
  52  1788.835
  53  1056.361
  54  1325.703
  55  1283.531
  56  625.7122
  57  1062.883
  58  1292.657
  59  771.8304
  60  1359.865
  61  807.1349
  62  795.3199
  63  467.5405
  64  308.5908
  65  569.3021
  66  1080.771
  67  1078.03
  68  1248.156
  69  793.0779
  70  1115.372
  71  1756.076
  72  1892.844
  73  1583.796
  74  2109.499
  75  1581.105
  76  1236.551
  77  2278.35
  78  1789.731
  79  2225.114
  80  1915.309
  81  2148.13
  82  1133.684
  83  1798.038
  84  1955.881
  85  898.528
  86  632.501
  87  936.9203
  88  1485.736
  89  916.0098
  90  916.4833
  91  869.723
  92  602.9336
  93  1029.86
  94  590.8249
  95  -56.21604
  96  1269.602
  97  1099.685
  98  963.7673
  99  278.6567
 100  181.3953
 101  773.783
 102  1076.764
 103  1135.343
 104  1785.772
 105  341.5459
 106  586.8083
 107  1518.454
 108  1665.537
 109  2496.531
 110  593.8411
 111  430.6526
 112  930.9031
 113  1883.293
 114  947.8909
 115  1613.748
 116  1710.443
 117  820.0482
 118  1293.795
 119  1393.458
 120  1327.495
 121  1609.867
 122  823.9832
 123  760.3846
 124  1154.784
 125  581.2482
 126  1055.143
 127  1159.275
 128  1201.261
 129  1070.209
 130  282.7585
 131  1486.662
 132  623.0178
 133  1193.789
 134  653.3853
 135  28.32213
 136  827.6711
 137  898.0119
 138  1023.899
 139  434.8543
 140  780.2814
 141  700.0149
 142  386.2197
 143  1537.936
 144  1848.441
 145  1703.392
 146  1727.897
 147  781.61
 148  904.7611
 149  967.5635
 150  1864.121
 151  2388.244
 152  1851.302
 153  1477.885
 154  1916.534
 155  2123.324
 156  831.2062
 157  1904.683
 158  2163.984
 159  1653.065
 160  2835.756
 161  4645.279
 162  2944.993
 163  1323.618
 164  727.8643
 165  944.0449
 166  95.00317
 167  925.0981
 168  738.8242
 169  1408.697
 170  951.9203
 171  910.381
 172  1236.883
 173  635.1746
 174  1089.003
 175  1546.862
 176  1572.643
 177  1300.392
 178  579.0768
 179  1487.054
 180  1899.522
 181  1544.221
 182  1300.017
 183  1125.018
 184  1553.797
 185  1654.281
 186  1737.3
 187  2480.994
 188  1637.097
 189  1686.296
 190  801.4061
 191  1034.07
 192  1926.759
 193  1144.9
 194  724.0533
 195  562.4599
 196  1003.872
 197  415.7847
 198  491.6361
 199  712.3781
 200  1054.767
 201  1305.867
 202  1508.471
 203  1434.12
 204  938.7467
 205  1389.626
 206  1509.256
 207  837.9744
 208  557.6517
 209  835.8508
 210  898.8506
 211  367.4909
 212  119.5889
 213  555.1057
 214  491.486
 215  815.3517
 216  1435.777
 217  1106.027
 218  1235.442
 219  1374.802
 220  1650.511
 221  510.1298
 222  2009.754
 223  1987.099
 224  1843.284
 225  1877.22
 226  841.9108
 227  1794.736
 228  1798.661
 229  1889.877
 230  1389.174
 231  1427.617
 232  1930.486
 233  1915.946
 234  1013.069
 235  1137.559
 236  1119.844
 237  311.4666
 238  784.5413
 239  780.7982
 240  1588.276
 241  209.2773
 242  1094.393
 243  821.3628
 244  849.9196
 245  950.6964
 246  778.7768
 247  1549.476
 248  1350.903
 249  1113.044
 250  1440.156
 251  1035.99
 252  1227.281
 253  899.7309
 254  1993.963
 255  1670.518
