# Input file       =  1187646230.105641_cleaned.dat
# Candidate        =  PSR_0332+5434
# Telescope        =  AR
# Epoch_topo       =  57989.905660944918
# Epoch_bary       =  N/A
# T_sample         =  0.002
# Data Folded      =  7208960
# Data Avg         =  -0.0275584761772984
# Data StdDev      =  2.76764311875299 
# Profile Bins     =  1024
# Profile Avg      =  -193.996767357882
# Profile StdDev   =  232.21828732203  
# Reduced chi-sqr  =  0.887
# Prob(Noise)      <  0.996   (~0.0 sigma)
# P_topo (ms)      =  714.463427404814  +/- 4.8e-05
# P'_topo (s/s)    =  -0                +/- 2.58e-11
# P''_topo (s/s^2) =  0                 +/- 1.16e-14
# P_bary (ms)      =  N/A
# P'_bary (s/s)    =  N/A
# P''_bary (s/s^2) =  N/A
# P_orb (s)        =  N/A
# asin(i)/c (s)    =  N/A
# eccentricity     =  N/A
# w (rad)          =  N/A
# T_peri           =  N/A
######################################################
   0  -355.6542
   1  -378.2104
   2  -302.0822
   3  -171.6325
   4  -89.59875
   5  -23.2835
   6  -211.3798
   7  -305.9939
   8  -241.4564
   9  -222.1816
  10  -356.8056
  11  -377.9392
  12  -284.9691
  13  -135.4396
  14  -236.6238
  15  -179.7202
  16  -174.4362
  17  -88.70517
  18  -119.7467
  19  -45.76107
  20  -82.18478
  21  -123.042
  22  -156.2108
  23  -180.0405
  24  -211.2608
  25  -299.0179
  26  -253.3428
  27  -262.1571
  28  -203.8107
  29  -176.5302
  30  -158.1682
  31  -204.4717
  32  -235.0325
  33  -135.1776
  34  -240.8743
  35  -302.0924
  36  -381.9368
  37  -367.3259
  38  -361.2264
  39  -258.3561
  40  -182.4257
  41  -240.053
  42  -278.6141
  43  -270.6703
  44  -326.2021
  45  -371.0892
  46  -388.0151
  47  -432.5251
  48  -470.4525
  49  -258.8486
  50  -74.72486
  51  -12.72445
  52  -85.79532
  53  -113.4871
  54  -127.424
  55  -327.3105
  56  -233.3325
  57  -172.3981
  58  -80.17121
  59  -174.8978
  60  -169.3591
  61  -220.3518
  62  -292.8619
  63  -202.6387
  64  -79.31956
  65  -56.56886
  66  -123.4869
  67  -237.6265
  68  -365.6086
  69  -429.186
  70  -245.464
  71  -136.3134
  72  -197.3774
  73  -360.8607
  74  -403.8247
  75  -439.5818
  76  -299.4311
  77  -279.6663
  78  -216.0285
  79  -255.8721
  80  -142.1254
  81  -42.79253
  82  -126.4067
  83  -97.36539
  84  35.80619
  85  222.0436
  86  45.17015
  87  12.33433
  88  -118.7915
  89  -202.2458
  90  -338.112
  91  -251.6828
  92  -101.6392
  93  -156.0526
  94  -73.50245
  95  -130.7805
  96  -111.6842
  97  -110.394
  98  -11.52998
  99  -51.94791
 100  -161.316
 101  -232.4961
 102  -176.9464
 103  -217.018
 104  -185.3651
 105  -253.6643
 106  -298.9057
 107  -334.2509
 108  -274.3429
 109  -245.3076
 110  -245.0619
 111  -190.7482
 112  -142.3458
 113  -184.7897
 114  -230.2065
 115  -245.4781
 116  -295.7321
 117  -229.1105
 118  -150.7056
 119  -158.9882
 120  -366.5801
 121  -385.2243
 122  -350.2494
 123  -256.8254
 124  -100.2613
 125  -100.0452
 126  -117.5384
 127  -283.5309
 128  -213.282
 129  -162.8662
 130  -181.1207
 131  -197.5372
 132  -153.5358
 133  -154.6344
 134  -207.7946
 135  -143.5559
 136  -42.37761
 137  -31.13974
 138  -95.61049
 139  -153.5561
 140  -309.4972
 141  -294.3503
 142  -232.9581
 143  -124.4963
 144  -210.1185
 145  -151.7005
 146  -176.1813
 147  -360.9791
 148  -519.4825
 149  -450.1144
 150  -260.7483
 151  -254.6051
 152  -241.4015
 153  -247.7891
 154  -302.6071
 155  -400.2664
 156  -370.6554
 157  -254.6746
 158  -127.7955
 159  -86.28771
 160  -98.53138
 161  -171.8633
 162  -221.9753
 163  -262.2166
 164  -255.0892
 165  -283.1135
 166  -226.5534
 167  -256.7482
 168  -212.3726
 169  -172.825
 170  -185.9397
 171  -344.276
 172  -365.4303
 173  -179.2448
 174  -130.5654
 175  -256.3259
 176  -392.7048
 177  -403.6362
 178  -395.9038
 179  -348.5961
 180  -304.148
 181  -329.2784
 182  -309.1314
 183  -172.6778
 184  -118.1589
 185  -163.7432
 186  -218.7576
 187  -175.9937
 188  -150.4912
 189  -94.72663
 190  -101.5665
 191  -262.6407
 192  -273.8244
 193  -269.0271
 194  -151.9214
 195  -188.3204
 196  -190.6527
 197  -164.8075
 198  -95.45604
 199  -110.96
 200  -74.37465
 201  -77.69331
 202  -72.90249
 203  2.743251
 204  13.35255
 205  -52.76416
 206  -234.7209
 207  -181.1335
 208  -117.9541
 209  -167.5865
 210  -119.5916
 211  -47.6855
 212  -34.52521
 213  -198.6902
 214  -182.667
 215  -175.9463
 216  -214.403
 217  -185.1583
 218  -112.8792
 219  -121.7642
 220  -216.6676
 221  -259.4124
 222  -210.4856
 223  -191.2112
 224  -173.4946
 225  -181.2438
 226  -167.5327
 227  -156.8629
 228  -135.3159
 229  -197.8401
 230  -137.0489
 231  -9.110344
 232  184.8268
 233  59.95302
 234  -114.1548
 235  -245.8733
 236  -292.2817
 237  -246.3525
 238  -169.3073
 239  -189.0365
 240  -140.5357
 241  -240.522
 242  -207.4271
 243  -287.18
 244  -173.8346
 245  -95.41374
 246  -88.21307
 247  -138.7545
 248  -152.5475
 249  -155.4557
 250  -125.1906
 251  -112.846
 252  -64.3447
 253  -122.2345
 254  -187.631
 255  -79.04586
 256  -15.72439
 257  -55.80194
 258  -192.0642
 259  -195.9035
 260  -247.8515
 261  -286.4669
 262  -209.937
 263  -266.3602
 264  -291.5355
 265  -264.6963
 266  -76.65452
 267  -68.70869
 268  -167.7457
 269  -127.0137
 270  -25.49562
 271  29.23377
 272  -33.57346
 273  -134.6166
 274  -293.6036
 275  -222.0514
 276  -125.7707
 277  -86.34995
 278  -187.3129
 279  -240.4128
 280  -215.2724
 281  -267.9043
 282  -167.3981
 283  -173.1062
 284  -256.5058
 285  -346.9065
 286  -199.2087
 287  -64.28054
 288  -87.78343
 289  -123.943
 290  -105.5394
 291  -130.4231
 292  -213.4178
 293  -243.0275
 294  -185.7883
 295  -128.7573
 296  -8.032409
 297  52.78146
 298  -48.37213
 299  -152.0721
 300  -175.8132
 301  -105.4404
 302  -66.84708
 303  -95.74802
 304  -85.99613
 305  -217.5616
 306  -214.9905
 307  -317.5251
 308  -252.8661
 309  -265.1794
 310  -257.3204
 311  -281.7632
 312  -273.2736
 313  -137.6632
 314  -26.97415
 315  -18.64244
 316  -59.75143
 317  -125.6865
 318  -177.6762
 319  -241.6231
 320  -218.2745
 321  -159.7635
 322  -213.2293
 323  -205.0055
 324  -285.5192
 325  -311.0573
 326  -385.1776
 327  -284.5003
 328  -303.6004
 329  -355.9196
 330  -312.7137
 331  -126.1684
 332  -95.94285
 333  -166.5252
 334  -89.01791
 335  -18.27573
 336  20.06555
 337  16.68378
 338  72.94485
 339  -25.27338
 340  -232.19
 341  -330.553
 342  -308.0439
 343  -231.1972
 344  -240.3396
 345  -168.2041
 346  -127.087
 347  -98.11349
 348  -104.1982
 349  -172.6567
 350  -175.7416
 351  -116.6743
 352  -33.52631
 353  -108.848
 354  -163.4162
 355  -97.79274
 356  -182.3533
 357  -258.2808
 358  -359.9874
 359  -234.1071
 360  -233.2487
 361  -85.58601
 362  -87.76373
 363  -121.1557
 364  -205.1179
 365  -217.4794
 366  -243.2222
 367  -297.3308
 368  -276.5655
 369  -297.6196
 370  -247.3788
 371  -143.3237
 372  -98.93427
 373  -85.72973
 374  -112.4216
 375  -126.7365
 376  -223.0971
 377  -309.1736
 378  -237.3833
 379  -174.4842
 380  -220.7586
 381  -195.8154
 382  -14.6626
 383  16.55491
 384  -59.69136
 385  -183.3265
 386  -150.1876
 387  -176.3923
 388  -149.7477
 389  -137.4699
 390  -177.1909
 391  -358.1217
 392  -336.8091
 393  -209.2339
 394  -176.1375
 395  -139.9595
 396  -199.0706
 397  -205.5421
 398  -248.7682
 399  -237.6914
 400  -146.1469
 401  -175.6382
 402  -41.39605
 403  35.9263
 404  -64.97272
 405  -163.9539
 406  -267.4755
 407  -303.9321
 408  -384.8775
 409  -365.1327
 410  -369.7711
 411  -445.2762
 412  -447.2217
 413  -291.652
 414  -202.8038
 415  -142.8365
 416  24.01044
 417  88.19615
 418  74.75293
 419  -18.94706
 420  -36.26336
 421  -168.284
 422  -359.1353
 423  -359.0589
 424  -284.7208
 425  -155.8985
 426  -6.323611
 427  -45.7028
 428  -110.5541
 429  -232.233
 430  -136.1488
 431  -178.8031
 432  -63.19474
 433  16.58269
 434  91.61523
 435  -48.69727
 436  -100.6041
 437  -229.9236
 438  -340.1399
 439  -277.909
 440  -145.2754
 441  -102.214
 442  -168.1311
 443  -93.1378
 444  -102.0842
 445  -225.4317
 446  -307.9006
 447  -115.7912
 448  -43.33029
 449  -68.95512
 450  -132.0751
 451  -41.77237
 452  -126.3046
 453  -177.6699
 454  -201.0484
 455  -202.8037
 456  -228.5632
 457  -155.9565
 458  -99.50111
 459  -154.8717
 460  -149.1732
 461  -153.7688
 462  -137.2848
 463  -237.8875
 464  -222.9959
 465  -290.3809
 466  -340.2749
 467  -265.3617
 468  -89.93491
 469  -147.557
 470  -198.8559
 471  -313.8184
 472  -280.2139
 473  -365.9851
 474  -276.3474
 475  -278.759
 476  -267.4619
 477  -315.5157
 478  -221.312
 479  -174.3516
 480  -230.3584
 481  -256.4042
 482  -225.491
 483  -321.3796
 484  -309.8692
 485  -296.0351
 486  -215.6662
 487  -204.2948
 488  -187.8043
 489  -226.0913
 490  -306.8217
 491  -224.0563
 492  -277.4132
 493  -230.9854
 494  -302.4231
 495  -223.5977
 496  -159.1284
 497  -114.6816
 498  25.59095
 499  -19.95994
 500  -49.6273
 501  -151.7157
 502  -202.9221
 503  -230.6057
 504  -325.35
 505  -359.0378
 506  -390.0366
 507  -354.8563
 508  -360.5894
 509  -372.4186
 510  -478.3593
 511  -538.4888
 512  -515.7906
 513  -455.3567
 514  -356.6351
 515  -261.1974
 516  -186.7865
 517  -256.5421
 518  -193.5616
 519  28.50727
 520  -9.452703
 521  -196.4946
 522  -363.6112
 523  -299.1543
 524  -340.4193
 525  -303.493
 526  -229.4825
 527  -187.9287
 528  -246.799
 529  -162.6921
 530  -171.6732
 531  -206.3533
 532  -298.32
 533  -208.8702
 534  -97.71241
 535  -93.59679
 536  -44.47527
 537  -143.6116
 538  -195.063
 539  -183.2559
 540  -127.7348
 541  -118.5942
 542  -208.8752
 543  -196.7469
 544  -199.4882
 545  -178.3403
 546  -180.2531
 547  -251.045
 548  -285.2567
 549  -310.43
 550  -174.6226
 551  -101.5919
 552  -132.5595
 553  -189.3325
 554  -220.1302
 555  -264.7352
 556  -309.1735
 557  -283.1914
 558  -221.0586
 559  -185.6053
 560  -227.7764
 561  -155.5818
 562  -139.362
 563  -78.85415
 564  -108.0293
 565  -181.5787
 566  -256.5391
 567  -349.145
 568  -434.5035
 569  -500.0781
 570  -399.7914
 571  -264.7001
 572  -221.619
 573  -147.0098
 574  -73.83788
 575  -125.0213
 576  -274.0142
 577  -263.5468
 578  -247.7683
 579  -277.9173
 580  -242.2812
 581  -148.8275
 582  -254.5933
 583  -291.2513
 584  -176.7475
 585  -48.23073
 586  -99.25338
 587  -259.395
 588  -303.8998
 589  -368.0843
 590  -348.5265
 591  -261.93
 592  -176.6258
 593  -187.8528
 594  -99.32346
 595  -142.7485
 596  -233.0516
 597  -286.5663
 598  -181.234
 599  -156.7586
 600  -294.2325
 601  -303.8822
 602  -259.4911
 603  -175.2253
 604  -94.58643
 605  -21.58821
 606  -22.58908
 607  -87.95538
 608  -43.65104
 609  -44.29339
 610  -140.8931
 611  -198.1893
 612  -156.0528
 613  -176.8
 614  -199.4314
 615  -142.2855
 616  32.46379
 617  -26.36038
 618  -65.97894
 619  -44.35088
 620  6.002094
 621  -55.32368
 622  -131.4844
 623  -171.0772
 624  -213.2408
 625  -145.4436
 626  -204.812
 627  -230.7173
 628  -270.4067
 629  -207.0943
 630  -239.763
 631  -186.6154
 632  -155.8898
 633  -126.8149
 634  -80.51141
 635  -44.7675
 636  -53.06085
 637  -88.84185
 638  -84.18771
 639  96.1683
 640  134.8579
 641  223.9641
 642  289.9612
 643  401.3714
 644  371.7374
 645  417.9731
 646  480.5661
 647  381.3412
 648  377.1939
 649  464.6469
 650  496.0509
 651  340.9522
 652  100.5479
 653  46.32017
 654  -112.9647
 655  -153.9918
 656  -132.0841
 657  -121.1056
 658  -265.3986
 659  -274.806
 660  -245.5656
 661  -186.8049
 662  -190.1541
 663  -147.2093
 664  -236.3473
 665  -347.1932
 666  -316.0294
 667  -201.2167
 668  -168.5398
 669  -227.7076
 670  -217.203
 671  -301.1143
 672  -274.6326
 673  -174.52
 674  -136.6408
 675  -143.1525
 676  -131.3527
 677  -20.47117
 678  -76.65125
 679  -111.9138
 680  -104.1625
 681  -141.3274
 682  -179.9333
 683  -157.8341
 684  -70.01318
 685  -110.9504
 686  -148.6672
 687  -139.8953
 688  -149.8572
 689  -172.8204
 690  -206.5583
 691  -233.942
 692  -299.6779
 693  -248.9563
 694  -238.3597
 695  -350.1718
 696  -400.4814
 697  -319.2158
 698  -182.7498
 699  -235.0103
 700  -207.327
 701  -279.0591
 702  -371.9871
 703  -329.3782
 704  -245.963
 705  -221.006
 706  -338.2703
 707  -271.5569
 708  -211.4588
 709  -137.4492
 710  -83.96938
 711  -8.692589
 712  -24.61058
 713  -145.6514
 714  -110.5597
 715  -218.5219
 716  -365.7538
 717  -527.6562
 718  -379.3305
 719  -329.1484
 720  -280.6599
 721  -280.8886
 722  -175.2421
 723  -194.0316
 724  -155.857
 725  -164.1587
 726  -137.8776
 727  -195.7283
 728  -125.81
 729  -195.5747
 730  -177.5135
 731  -180.6383
 732  -150.2194
 733  -153.8123
 734  -164.9409
 735  -124.0902
 736  -202.0963
 737  -215.1577
 738  -209.7467
 739  -165.8256
 740  -207.8726
 741  -259.7991
 742  -223.4657
 743  -244.4777
 744  -237.7014
 745  -213.4413
 746  -242.7175
 747  -320.3673
 748  -259.2486
 749  -206.1973
 750  -101.9623
 751  -81.96228
 752  -126.4591
 753  -243.6888
 754  -285.8542
 755  -102.8627
 756  -84.73253
 757  -96.47833
 758  -191.2173
 759  -356.9424
 760  -527.3707
 761  -543.4539
 762  -400.8601
 763  -299.7729
 764  -316.0521
 765  -212.7218
 766  -170.6214
 767  -227.0418
 768  -210.3891
 769  -104.8791
 770  -79.32796
 771  -203.4603
 772  -271.8095
 773  -246.2084
 774  -225.0993
 775  -240.3151
 776  -143.1342
 777  -168.7279
 778  -183.4812
 779  -164.7579
 780  -187.3168
 781  -288.2242
 782  -373.6165
 783  -249.7888
 784  -156.9598
 785  -84.12869
 786  -51.16091
 787  -87.04469
 788  -138.8394
 789  -122.9606
 790  -88.70949
 791  -191.42
 792  -258.6917
 793  -184.7831
 794  -139.3747
 795  -204.8456
 796  -209.0732
 797  -143.2852
 798  -108.8221
 799  -171.872
 800  -235.4035
 801  -249.4386
 802  -247.2914
 803  -304.879
 804  -338.3943
 805  -318.5607
 806  -138.6578
 807  -164.2454
 808  -152.8011
 809  -222.9282
 810  -208.0697
 811  -407.0302
 812  -496.6163
 813  -390.7307
 814  -175.2292
 815  -99.46021
 816  -70.21715
 817  -50.2326
 818  -88.87577
 819  -203.831
 820  -226.9826
 821  -259.093
 822  -236.9668
 823  -133.9018
 824  -95.23333
 825  -183.7158
 826  -257.9534
 827  -195.2494
 828  -168.0358
 829  -189.8153
 830  -180.3711
 831  -197.5629
 832  -275.1159
 833  -313.0727
 834  -245.6277
 835  -191.494
 836  -207.5407
 837  -281.5903
 838  -311.932
 839  -305.407
 840  -282.4884
 841  -303.8597
 842  -291.3365
 843  -305.08
 844  -136.7134
 845  -97.52499
 846  -167.9548
 847  -269.7285
 848  -241.9334
 849  -168.4262
 850  -165.1758
 851  -160.1544
 852  -210.7643
 853  -300.3744
 854  -294.3596
 855  -400.0117
 856  -380.7188
 857  -353.6326
 858  -194.1673
 859  -221.6696
 860  -169.0947
 861  -50.42078
 862  13.87975
 863  -189.9294
 864  -306.1304
 865  -278.5801
 866  -135.2475
 867  -116.2965
 868  -240.4696
 869  -423.5015
 870  -511.9718
 871  -288.928
 872  -165.7842
 873  -82.73888
 874  -133.6731
 875  -48.19668
 876  -92.70089
 877  -136.264
 878  -255.7167
 879  -297.9162
 880  -315.7221
 881  -231.6296
 882  -177.7347
 883  -261.7745
 884  -291.0532
 885  -281.4027
 886  -258.7859
 887  -284.1427
 888  -271.0341
 889  -236.1448
 890  -303.7438
 891  -346.7006
 892  -243.9919
 893  -172.3664
 894  -272.6384
 895  -303.1652
 896  -252.6863
 897  -124.1672
 898  -94.11974
 899  -101.0971
 900  -150.9939
 901  -151.7156
 902  -198.4046
 903  -216.0186
 904  -256.4635
 905  -239.177
 906  -239.3054
 907  -262.4091
 908  -398.1978
 909  -407.429
 910  -409.4154
 911  -330.9654
 912  -323.3795
 913  -307.8494
 914  -283.2576
 915  -248.89
 916  -177.7221
 917  -132.1628
 918  -229.2122
 919  -226.1248
 920  -211.5228
 921  -174.007
 922  -212.8166
 923  -155.2482
 924  -178.9926
 925  -219.4818
 926  -280.7553
 927  -106.9938
 928  -65.16868
 929  -168.8806
 930  -278.2499
 931  -308.2899
 932  -242.7722
 933  -212.6045
 934  -87.20374
 935  -171.7554
 936  -203.3455
 937  -248.078
 938  -211.6481
 939  -222.8101
 940  -242.2246
 941  -175.3288
 942  -172.9637
 943  -111.2225
 944  -173.3829
 945  -227.4621
 946  -257.6018
 947  -221.5685
 948  -220.9895
 949  -202.6068
 950  -202.716
 951  -272.3676
 952  -257.802
 953  -272.892
 954  -119.9664
 955  -206.2535
 956  -231.0277
 957  -234.2148
 958  -114.8117
 959  -94.45427
 960  -181.108
 961  -172.1121
 962  -215.1369
 963  -209.0699
 964  -152.7647
 965  -218.0767
 966  -218.686
 967  -227.2515
 968  -85.95027
 969  -238.3446
 970  -162.1872
 971  -141.2839
 972  -175.1409
 973  -267.8639
 974  -173.7874
 975  11.90272
 976  -81.38295
 977  -97.42435
 978  -202.4329
 979  -177.9388
 980  -316.2526
 981  -337.6758
 982  -307.9252
 983  -220.6147
 984  -179.073
 985  -201.8569
 986  -343.9967
 987  -374.2835
 988  -294.82
 989  -117.5798
 990  -157.6966
 991  -137.3121
 992  -80.498
 993  -189.4618
 994  -333.8326
 995  -374.706
 996  -344.1523
 997  -293.236
 998  -146.3637
 999  -56.12888
1000  -150.7503
1001  -305.5985
1002  -229.4923
1003  -256.7115
1004  -338.9351
1005  -299.077
1006  -129.0177
1007  -105.1787
1008  -225.2983
1009  -296.396
1010  -333.3681
1011  -317.721
1012  -261.9669
1013  -236.4969
1014  -368.9892
1015  -335.0634
1016  -314.6229
1017  -297.3252
1018  -388.1725
1019  -366.5747
1020  -414.9879
1021  -396.9804
1022  -346.9266
1023  -324.2618
