# Input file       =  1187818549.106852_cleaned.dat
# Candidate        =  PSR_0332+5434
# Telescope        =  AR
# Epoch_topo       =  57991.900093829303
# Epoch_bary       =  N/A
# T_sample         =  0.002
# Data Folded      =  7143424
# Data Avg         =  0.00657509823346844
# Data StdDev      =  2.82611355226455 
# Profile Bins     =  256
# Profile Avg      =  183.490487287502 
# Profile StdDev   =  472.087867434046 
# Reduced chi-sqr  =  1.131
# Prob(Noise)      <  0.0741   (~1.4 sigma)
# P_topo (ms)      =  714.463347210289  +/- 0.000339
# P'_topo (s/s)    =  -0                +/- 1.84e-10
# P''_topo (s/s^2) =  0                 +/- 8.35e-14
# P_bary (ms)      =  N/A
# P'_bary (s/s)    =  N/A
# P''_bary (s/s^2) =  N/A
# P_orb (s)        =  N/A
# asin(i)/c (s)    =  N/A
# eccentricity     =  N/A
# w (rad)          =  N/A
# T_peri           =  N/A
######################################################
   0  621.2055
   1  299.7866
   2  79.40102
   3  410.9606
   4  666.3258
   5  511.6121
   6  174.4726
   7  92.53552
   8  -169.6475
   9  882.1945
  10  288.4554
  11  192.5713
  12  655.2748
  13  581.1926
  14  297.9228
  15  110.574
  16  253.0262
  17  80.15203
  18  -332.2851
  19  398.5645
  20  383.5447
  21  232.8894
  22  217.5083
  23  -254.6429
  24  7.786877
  25  90.25294
  26  403.0675
  27  66.64291
  28  168.1241
  29  284.0318
  30  108.7762
  31  -120.4267
  32  373.6916
  33  48.59977
  34  39.36492
  35  14.24936
  36  521.5181
  37  708.0353
  38  232.8049
  39  457.9254
  40  359.1616
  41  -851.5508
  42  -712.9948
  43  -518.8981
  44  -126.4201
  45  172.0937
  46  324.8391
  47  -578.7197
  48  -548.1084
  49  -202.923
  50  665.967
  51  -207.8815
  52  176.5522
  53  176.8017
  54  -328.7186
  55  163.4509
  56  498.0331
  57  -163.1112
  58  -474.2779
  59  205.8715
  60  384.1177
  61  -73.68391
  62  201.2936
  63  658.6949
  64  373.7711
  65  47.35064
  66  80.37337
  67  320.8752
  68  373.2206
  69  262.2924
  70  -241.8831
  71  -220.815
  72  -704.8775
  73  -78.53381
  74  -8.788713
  75  813.3751
  76  35.75785
  77  306.5475
  78  233.7243
  79  268.3289
  80  93.20811
  81  400.9958
  82  -128.9155
  83  178.775
  84  158.2966
  85  723.8893
  86  -89.61295
  87  408.011
  88  445.6857
  89  198.3703
  90  510.8573
  91  300.674
  92  314.9968
  93  -130.3041
  94  83.74692
  95  -63.23425
  96  492.4684
  97  -117.1291
  98  451.4392
  99  302.0888
 100  501.0968
 101  116.7631
 102  491.3906
 103  284.6945
 104  337.0691
 105  572.1904
 106  317.2642
 107  231.8681
 108  -449.1204
 109  -67.65759
 110  8.739108
 111  -566.9346
 112  317.8095
 113  -415.0382
 114  327.436
 115  -92.99741
 116  -249.4681
 117  33.63769
 118  -65.96236
 119  -134.7815
 120  645.8912
 121  437.2982
 122  132.7476
 123  402.5937
 124  95.24974
 125  336.1068
 126  313.6716
 127  8.300024
 128  -40.79029
 129  690.9944
 130  815.6783
 131  161.7141
 132  200.3301
 133  407.1051
 134  805.9065
 135  454.0871
 136  65.69334
 137  -165.0661
 138  100.7099
 139  -191.4585
 140  32.10643
 141  84.06625
 142  147.2511
 143  422.4435
 144  18.04984
 145  -228.9651
 146  -153.8162
 147  876.7831
 148  95.93932
 149  -147.1542
 150  -191.3188
 151  239.4051
 152  71.78347
 153  -78.37364
 154  153.2442
 155  -409.7319
 156  -88.00357
 157  -79.35216
 158  762.4224
 159  1022.295
 160  2003.787
 161  3126.483
 162  2674.667
 163  1341.451
 164  287.7028
 165  -25.00596
 166  -396.068
 167  -153.3907
 168  883.5706
 169  894.3792
 170  477.8182
 171  -124.7149
 172  -27.12154
 173  316.7816
 174  300.3675
 175  235.0765
 176  295.4645
 177  216.3602
 178  210.4923
 179  -112.2303
 180  266.9649
 181  -114.0601
 182  72.85036
 183  -391.2579
 184  -256.1804
 185  -358.1293
 186  -97.38113
 187  -476.45
 188  822.9792
 189  -239.9844
 190  16.63019
 191  258.9203
 192  276.8599
 193  -103.4758
 194  -5.835112
 195  -675.3481
 196  -399.9782
 197  461.1039
 198  -239.3178
 199  -201.6417
 200  -147.0402
 201  186.004
 202  -404.4856
 203  132.0438
 204  226.976
 205  -19.09074
 206  -82.52515
 207  260.422
 208  210.5569
 209  666.4528
 210  338.6852
 211  136.2536
 212  83.84022
 213  649.1003
 214  215.6322
 215  -235.8575
 216  -210.8892
 217  435.9498
 218  1.259805
 219  11.56931
 220  691.2642
 221  726.2641
 222  -145.9861
 223  2.438208
 224  -140.3853
 225  -175.9156
 226  38.57146
 227  -230.3383
 228  447.2227
 229  59.24953
 230  568.9073
 231  56.15156
 232  -128.8389
 233  -124.3154
 234  99.58624
 235  88.44543
 236  158.0522
 237  404.5646
 238  713.5366
 239  -16.10195
 240  326.5913
 241  265.0881
 242  328.6124
 243  -185.9453
 244  370.1248
 245  -119.9987
 246  555.6288
 247  443.2975
 248  91.80988
 249  977.6102
 250  181.6002
 251  514.714
 252  528.8973
 253  -37.79089
 254  394.7912
 255  351.673
