# Input file       =  1187589586.114317_cleaned.dat
# Candidate        =  PSR_0332+5434
# Telescope        =  AR
# Epoch_topo       =  57989.250059193480
# Epoch_bary       =  N/A
# T_sample         =  0.002
# Data Folded      =  7340032
# Data Avg         =  0.0111693246310875
# Data StdDev      =  3.19398096786487 
# Profile Bins     =  512
# Profile Avg      =  160.313628567447 
# Profile StdDev   =  382.425039412063 
# Reduced chi-sqr  =  1.245
# Prob(Noise)      <  0.00013   (~3.7 sigma)
# P_topo (ms)      =  714.463815990671  +/- 0.000173
# P'_topo (s/s)    =  -0                +/- 9.14e-11
# P''_topo (s/s^2) =  0                 +/- 4.04e-14
# P_bary (ms)      =  N/A
# P'_bary (s/s)    =  N/A
# P''_bary (s/s^2) =  N/A
# P_orb (s)        =  N/A
# asin(i)/c (s)    =  N/A
# eccentricity     =  N/A
# w (rad)          =  N/A
# T_peri           =  N/A
######################################################
   0  -99.0332
   1  189.6356
   2  114.6339
   3  -153.4065
   4  -120.7
   5  164.0924
   6  526.2326
   7  321.276
   8  -40.09572
   9  -182.8778
  10  145.1008
  11  48.89088
  12  143.911
  13  -73.10014
  14  0.2000071
  15  191.2102
  16  600.4857
  17  310.0882
  18  548.7855
  19  831.0601
  20  957.0722
  21  598.2228
  22  291.9471
  23  204.9839
  24  290.084
  25  -91.80065
  26  306.599
  27  265.3224
  28  580.7061
  29  557.0576
  30  678.7024
  31  470.0635
  32  77.3784
  33  -58.98551
  34  -174.5559
  35  261.7089
  36  365.1306
  37  596.1917
  38  490.7016
  39  464.8991
  40  545.208
  41  359.4109
  42  79.72401
  43  58.26003
  44  359.9206
  45  888.0623
  46  296.6761
  47  41.53073
  48  270.2655
  49  697.1785
  50  142.6574
  51  -23.69058
  52  160.431
  53  65.31731
  54  -190.2586
  55  121.6126
  56  -127.5907
  57  -353.6038
  58  -186.3365
  59  202.9825
  60  257.5362
  61  101.0831
  62  -186.413
  63  -239.2919
  64  109.0111
  65  302.2655
  66  171.601
  67  -275.6581
  68  -347.6013
  69  177.96
  70  122.6938
  71  -111.3823
  72  290.5315
  73  24.33762
  74  64.32285
  75  55.77107
  76  581.3118
  77  218.0709
  78  -521.0228
  79  -216.7631
  80  -72.38968
  81  -263.9
  82  -88.54476
  83  48.80534
  84  454.4684
  85  329.4305
  86  -113.0137
  87  -412.7316
  88  357.2617
  89  245.6877
  90  204.1143
  91  -30.63922
  92  135.2825
  93  128.436
  94  443.5844
  95  559.1388
  96  351.0013
  97  -108.9811
  98  -43.24902
  99  -6.517212
 100  41.60537
 101  -17.5389
 102  260.758
 103  403.3235
 104  159.3011
 105  -174.0595
 106  -254.3804
 107  213.1041
 108  378.2046
 109  314.2664
 110  371.9379
 111  513.3219
 112  170.1203
 113  321.9324
 114  258.0407
 115  -79.7476
 116  311.2816
 117  171.9897
 118  -346.7575
 119  177.6857
 120  498.2771
 121  338.6092
 122  -223.622
 123  -312.5388
 124  -18.55144
 125  -61.23052
 126  186.3291
 127  336.1974
 128  184.2834
 129  321.4464
 130  142.2216
 131  237.6252
 132  -56.18752
 133  -148.1254
 134  -416.2651
 135  -227.3709
 136  -439.3208
 137  -25.02112
 138  163.8461
 139  -246.9844
 140  -76.64251
 141  -23.78458
 142  80.85694
 143  231.0268
 144  502.0291
 145  173.2623
 146  91.86897
 147  411.1918
 148  518.9666
 149  -101.6041
 150  -63.64732
 151  269.5823
 152  251.1203
 153  -121.642
 154  -154.0413
 155  -101.7388
 156  333.3558
 157  400.1351
 158  325.7301
 159  80.98946
 160  82.64959
 161  227.2249
 162  83.65076
 163  90.33691
 164  -336.1954
 165  -630.4818
 166  -331.9134
 167  -26.23568
 168  39.80874
 169  -151.9965
 170  170.3388
 171  118.3634
 172  171.2463
 173  105.3087
 174  162.5885
 175  12.35823
 176  357.6589
 177  332.1125
 178  -56.65796
 179  10.35952
 180  -61.67604
 181  440.5651
 182  645.4741
 183  -116.4918
 184  -238.557
 185  -104.2982
 186  -26.92733
 187  -146.543
 188  -11.58158
 189  -21.0454
 190  -157.082
 191  -53.45243
 192  86.13946
 193  491.6074
 194  394.594
 195  350.9073
 196  -41.73722
 197  432.3719
 198  374.8165
 199  233.7264
 200  28.18443
 201  216.1101
 202  87.29677
 203  428.5425
 204  -78.03462
 205  -79.61877
 206  -78.78349
 207  10.2157
 208  528.22
 209  347.5068
 210  33.252
 211  248.8082
 212  131.7573
 213  51.92728
 214  25.31322
 215  187.1223
 216  401.4124
 217  497.8645
 218  304.0429
 219  -304.8372
 220  -281.455
 221  198.7712
 222  188.3263
 223  233.3974
 224  175.5607
 225  388.7233
 226  93.63998
 227  -152.5458
 228  -94.44733
 229  313.1192
 230  279.1791
 231  244.127
 232  148.8091
 233  -43.33295
 234  332.5468
 235  -187.2711
 236  112.1312
 237  183.9435
 238  258.8703
 239  280.3318
 240  89.79788
 241  -149.9128
 242  129.366
 243  142.6434
 244  500.8919
 245  112.6199
 246  -129.5581
 247  102.8464
 248  17.63991
 249  162.5075
 250  47.70939
 251  104.9738
 252  176.4424
 253  -98.38747
 254  -116.397
 255  -387.8447
 256  -7.56284
 257  78.77505
 258  121.6202
 259  223.6115
 260  219.649
 261  -287.5569
 262  127.1589
 263  129.5995
 264  310.399
 265  127.2983
 266  467.2097
 267  930.9483
 268  477.1624
 269  -86.30853
 270  -145.0687
 271  335.2805
 272  409.9521
 273  513.3664
 274  288.6782
 275  629.0579
 276  649.7534
 277  147.323
 278  -17.58731
 279  -37.8109
 280  353.3239
 281  165.3386
 282  6.643057
 283  -72.0744
 284  -58.78347
 285  -68.19962
 286  -207.7525
 287  183.0165
 288  446.398
 289  582.9062
 290  349.0197
 291  138.8088
 292  -52.84226
 293  -50.81179
 294  -227.6171
 295  152.5842
 296  -44.57866
 297  -67.4703
 298  -482.2662
 299  -0.4804463
 300  231.4478
 301  -203.0074
 302  292.3801
 303  74.65387
 304  29.797
 305  228.6427
 306  367.7999
 307  653.853
 308  610.2718
 309  526.2025
 310  56.90984
 311  292.4393
 312  315.8969
 313  406.4887
 314  481.6345
 315  321.7578
 316  19.90238
 317  410.1401
 318  172.9696
 319  92.52884
 320  644.1845
 321  878.903
 322  1385.418
 323  2013.716
 324  2287.921
 325  1795.29
 326  1271.27
 327  341.8588
 328  44.84089
 329  111.127
 330  468.2083
 331  -47.04557
 332  52.54131
 333  319.8663
 334  540.3228
 335  214.0794
 336  276.1268
 337  349.131
 338  499.3605
 339  354.7754
 340  408.755
 341  -147.1753
 342  -177.4267
 343  166.3787
 344  275.7784
 345  257.0703
 346  149.4572
 347  146.1753
 348  466.3055
 349  133.9891
 350  208.268
 351  246.2767
 352  127.3218
 353  70.17041
 354  -182.264
 355  -312.556
 356  -632.4186
 357  -705.5236
 358  -368.7973
 359  -232.5
 360  365.3488
 361  531.5883
 362  -272.5662
 363  100.2912
 364  -40.01162
 365  -217.9371
 366  7.589459
 367  194.9042
 368  -24.40186
 369  -455.9847
 370  -95.92129
 371  505.7906
 372  -135.0618
 373  159.5031
 374  426.3922
 375  471.9827
 376  38.34509
 377  -89.0737
 378  60.55393
 379  109.8144
 380  -50.15981
 381  255.5171
 382  86.31527
 383  -84.21481
 384  -88.22732
 385  349.2269
 386  151.9928
 387  -45.98396
 388  -111.8675
 389  42.3371
 390  161.3696
 391  658.4049
 392  821.1456
 393  658.5551
 394  262.0874
 395  -9.906237
 396  -49.00487
 397  96.93742
 398  -97.97841
 399  -238.6901
 400  247.7866
 401  231.748
 402  -23.43716
 403  -45.92649
 404  227.6164
 405  475.9975
 406  579.6561
 407  456.8349
 408  199.4269
 409  -68.93043
 410  -94.54255
 411  329.7614
 412  212.517
 413  216.4973
 414  538.0892
 415  381.5221
 416  134.9392
 417  -399.0948
 418  -252.0926
 419  132.3264
 420  5.133264
 421  126.4171
 422  281.9763
 423  -77.21687
 424  7.842278
 425  -525.2171
 426  -48.94854
 427  104.3161
 428  68.2478
 429  -272.5163
 430  -561.5651
 431  -388.273
 432  -126.707
 433  95.99418
 434  171.8642
 435  77.69846
 436  6.763755
 437  -65.33028
 438  134.5937
 439  -78.50591
 440  199.4619
 441  538.7717
 442  44.94222
 443  176.8694
 444  155.5935
 445  406.3521
 446  370.0214
 447  254.7296
 448  50.14168
 449  203.9871
 450  319.1753
 451  371.1955
 452  15.66855
 453  138.7327
 454  298.5282
 455  610.9695
 456  297.5498
 457  434.6028
 458  252.5791
 459  413.2357
 460  324.4636
 461  128.8156
 462  151.0997
 463  587.9274
 464  229.3113
 465  543.6232
 466  160.863
 467  59.28619
 468  -289.3154
 469  115.1829
 470  474.1234
 471  541.472
 472  147.9408
 473  238.4473
 474  436.8719
 475  316.9212
 476  299.2697
 477  559.0339
 478  207.0822
 479  253.3158
 480  232.7438
 481  399.5482
 482  492.3271
 483  94.38474
 484  415.3272
 485  178.2573
 486  142.2939
 487  215.7214
 488  207.3375
 489  -278.0711
 490  -379.2421
 491  -46.24659
 492  -49.42413
 493  16.08695
 494  168.373
 495  294.0732
 496  306.5158
 497  -403.7352
 498  543.0125
 499  312.4719
 500  291.0134
 501  133.5512
 502  5.661104
 503  57.62711
 504  167.3405
 505  303.4915
 506  544.429
 507  141.329
 508  647.0442
 509  353.8867
 510  382.1755
 511  172.5592
