# Input file       =  1187057703.117304_cleaned.dat
# Candidate        =  PSR_0332+5434
# Telescope        =  AR
# Epoch_topo       =  57983.094005987317
# Epoch_bary       =  N/A
# T_sample         =  0.002
# Data Folded      =  7340032
# Data Avg         =  0.0292299371327056
# Data StdDev      =  2.27223685719694 
# Profile Bins     =  512
# Profile Avg      =  418.958899077373 
# Profile StdDev   =  272.06181827939  
# Reduced chi-sqr  =  1.497
# Prob(Noise)      <  2.13e-12   (~6.9 sigma)
# P_topo (ms)      =  714.464242090095  +/- 0.000242
# P'_topo (s/s)    =  -0                +/- 1.28e-10
# P''_topo (s/s^2) =  0                 +/- 5.63e-14
# P_bary (ms)      =  N/A
# P'_bary (s/s)    =  N/A
# P''_bary (s/s^2) =  N/A
# P_orb (s)        =  N/A
# asin(i)/c (s)    =  N/A
# eccentricity     =  N/A
# w (rad)          =  N/A
# T_peri           =  N/A
######################################################
   0  183.9839
   1  260.9335
   2  322.8755
   3  306.089
   4  22.44298
   5  107.3164
   6  424.8761
   7  310.5936
   8  188.2207
   9  199.7511
  10  377.067
  11  68.3118
  12  -43.17809
  13  163.7636
  14  124.7165
  15  303.9095
  16  496.4933
  17  465.132
  18  296.4071
  19  379.8986
  20  425.7412
  21  360.1045
  22  173.9724
  23  164.9818
  24  594.767
  25  449.3667
  26  402.4536
  27  721.813
  28  799.033
  29  751.7001
  30  702.3449
  31  519.037
  32  645.3878
  33  784.5547
  34  642.1271
  35  421.0066
  36  112.0324
  37  285.4195
  38  222.5762
  39  284.781
  40  509.8147
  41  436.0545
  42  368.1078
  43  716.4146
  44  478.5989
  45  738.5214
  46  413.433
  47  88.531
  48  318.6527
  49  606.7782
  50  646.3568
  51  413.0667
  52  380.8659
  53  483.14
  54  571.6002
  55  693.3177
  56  458.9822
  57  311.542
  58  514.4645
  59  715.1213
  60  368.058
  61  64.85528
  62  479.7287
  63  551.7763
  64  377.9828
  65  135.218
  66  209.2155
  67  10.97943
  68  120.8382
  69  -56.61874
  70  -144.735
  71  255.1937
  72  552.7667
  73  698.4416
  74  261.5411
  75  382.393
  76  569.5034
  77  189.2817
  78  201.0959
  79  691.8401
  80  443.1366
  81  508.2242
  82  286.8224
  83  386.0295
  84  490.7334
  85  396.1578
  86  485.7845
  87  440.4176
  88  344.4206
  89  255.5675
  90  126.1811
  91  17.13084
  92  371.8282
  93  469.5401
  94  443.2685
  95  134.285
  96  -20.60829
  97  652.8084
  98  385.3617
  99  235.167
 100  229.1729
 101  503.7375
 102  200.2997
 103  131.4264
 104  301.869
 105  337.1905
 106  353.981
 107  333.8624
 108  592.8417
 109  317.3295
 110  471.1764
 111  752.3147
 112  414.1256
 113  361.1751
 114  455.4936
 115  722.6533
 116  554.5499
 117  457.732
 118  206.9618
 119  310.5678
 120  423.2287
 121  225.5917
 122  356.7722
 123  465.4631
 124  373.8343
 125  482.6111
 126  582.7329
 127  110.2472
 128  145.6767
 129  293.2296
 130  552.0074
 131  474.8147
 132  391.1431
 133  436.6372
 134  529.3215
 135  448.7274
 136  450.5464
 137  507.4862
 138  276.8416
 139  168.7668
 140  206.5152
 141  424.6045
 142  355.5709
 143  363.7457
 144  425.7481
 145  503.6673
 146  400.9541
 147  304.342
 148  650.0908
 149  562.9573
 150  299.6244
 151  334.2825
 152  555.0689
 153  589.9751
 154  464.9639
 155  128.2618
 156  86.28783
 157  367.35
 158  169.2519
 159  319.6559
 160  178.1629
 161  341.4823
 162  448.7751
 163  270.6871
 164  347.6229
 165  814.6882
 166  664.5823
 167  396.1374
 168  647.7785
 169  487.9663
 170  402.9148
 171  409.7058
 172  392.6491
 173  186.8516
 174  328.4952
 175  217.1363
 176  222.1031
 177  239.99
 178  132.2253
 179  148.437
 180  623.5814
 181  629.0584
 182  617.2523
 183  737.8508
 184  459.3309
 185  338.8038
 186  289.1011
 187  521.4129
 188  431.3733
 189  810.8713
 190  482.6315
 191  362.5009
 192  719.4212
 193  897.8659
 194  836.0732
 195  868.3498
 196  702.7606
 197  701.8853
 198  597.3668
 199  623.264
 200  376.1216
 201  555.178
 202  480.1711
 203  479.0334
 204  448.634
 205  196.1074
 206  443.6227
 207  463.0636
 208  391.7744
 209  360.6617
 210  -12.87649
 211  160.9998
 212  719.364
 213  411.0222
 214  505.4309
 215  467.2302
 216  301.0934
 217  379.6591
 218  500.9278
 219  518.5634
 220  398.5579
 221  353.4425
 222  180.8554
 223  277.9102
 224  432.366
 225  564.6213
 226  355.828
 227  326.3109
 228  248.8239
 229  183.6557
 230  278.2265
 231  458.0244
 232  193.1774
 233  405.6072
 234  739.2104
 235  420.8102
 236  276.1582
 237  299.0361
 238  187.1794
 239  485.4773
 240  439.4253
 241  346.3598
 242  315.9814
 243  386.8852
 244  589.2874
 245  494.1105
 246  581.9387
 247  519.2362
 248  567.0542
 249  865.4972
 250  511.5009
 251  520.5849
 252  385.6011
 253  489.4764
 254  382.1251
 255  459.2444
 256  520.408
 257  246.0656
 258  292.0956
 259  268.6288
 260  167.2706
 261  212.8809
 262  21.83957
 263  447.366
 264  713.6111
 265  431.676
 266  479.6594
 267  521.4824
 268  524.4438
 269  573.1135
 270  532.3558
 271  419.9393
 272  495.6301
 273  826.5958
 274  574.7813
 275  562.3688
 276  342.2928
 277  236.1818
 278  120.6588
 279  397.6035
 280  673.73
 281  651.897
 282  365.5452
 283  186.8223
 284  354.5541
 285  421.5681
 286  384.6882
 287  539.6301
 288  262.145
 289  286.2038
 290  257.8798
 291  433.8589
 292  610.3994
 293  300.323
 294  225.9387
 295  45.56374
 296  485.3343
 297  555.9255
 298  685.2215
 299  514.6136
 300  291.9377
 301  54.24125
 302  55.21603
 303  -95.57046
 304  133.6322
 305  368.8406
 306  578.2999
 307  428.8334
 308  329.1745
 309  328.4925
 310  650.7689
 311  695.6901
 312  399.7356
 313  523.5078
 314  551.5025
 315  447.9845
 316  520.5182
 317  547.5862
 318  530.2379
 319  695.6755
 320  966.9323
 321  1160.574
 322  1517.108
 323  1976.004
 324  2047.031
 325  1635.35
 326  1277.561
 327  824.7671
 328  529.8457
 329  602.2538
 330  702.0296
 331  820.8152
 332  824.7869
 333  345.9496
 334  274.9122
 335  436.106
 336  758.6078
 337  613.7016
 338  594.8618
 339  798.1641
 340  879.2816
 341  799.8187
 342  661.0468
 343  496.6793
 344  650.8872
 345  630.4751
 346  598.2783
 347  527.2838
 348  670.1556
 349  348.1591
 350  421.4389
 351  904.4468
 352  847.6203
 353  573.4463
 354  503.1079
 355  845.7745
 356  756.1669
 357  437.9982
 358  432.9225
 359  666.6251
 360  208.9603
 361  195.7903
 362  191.4999
 363  296.3994
 364  287.4424
 365  770.4413
 366  626.8243
 367  66.90968
 368  162.2166
 369  330.3621
 370  339.881
 371  279.2935
 372  94.25134
 373  405.1832
 374  217.9189
 375  240.583
 376  296.7055
 377  287.111
 378  179.7217
 379  312.8233
 380  500.0762
 381  593.0243
 382  416.6595
 383  678.7739
 384  380.2825
 385  -145.3001
 386  446.6571
 387  805.0326
 388  526.6269
 389  485.4668
 390  602.4355
 391  606.8549
 392  444.6831
 393  566.9141
 394  255.9306
 395  336.648
 396  244.1535
 397  265.5343
 398  76.49772
 399  26.93854
 400  103.6002
 401  422.9296
 402  292.5763
 403  134.8106
 404  660.8575
 405  787.3454
 406  540.6913
 407  244.465
 408  394.9673
 409  611.3231
 410  518.9234
 411  573.606
 412  295.0679
 413  266.4227
 414  251.8255
 415  387.1956
 416  496.7799
 417  731.733
 418  643.6508
 419  419.9058
 420  416.1051
 421  354.9478
 422  272.4846
 423  452.9742
 424  39.62574
 425  297.6166
 426  410.2039
 427  584.8718
 428  329.6042
 429  335.9804
 430  315.5922
 431  444.3709
 432  662.5603
 433  582.9993
 434  335.8096
 435  248.4475
 436  315.2846
 437  126.0016
 438  227.9812
 439  214.5747
 440  355.3708
 441  642.6942
 442  273.9918
 443  -64.10664
 444  -10.72389
 445  210.8362
 446  442.6495
 447  720.4552
 448  669.6279
 449  480.9553
 450  688.137
 451  907.9186
 452  614.2049
 453  431.3051
 454  493.5347
 455  610.9413
 456  505.544
 457  325.4931
 458  154.7537
 459  98.01144
 460  230.8869
 461  466.0598
 462  585.3813
 463  309.332
 464  386.5201
 465  316.5254
 466  195.6966
 467  150.0846
 468  179.4295
 469  353.6221
 470  136.5046
 471  183.0929
 472  477.5289
 473  530.2227
 474  229.2371
 475  388.4469
 476  552.9269
 477  539.5909
 478  138.3333
 479  166.7739
 480  441.8947
 481  288.8322
 482  377.4939
 483  427.7324
 484  349.2349
 485  53.28165
 486  83.83287
 487  318.8729
 488  68.57517
 489  -48.84392
 490  277.0573
 491  315.2997
 492  176.4138
 493  209.941
 494  355.1403
 495  279.743
 496  123.9411
 497  410.1307
 498  344.6006
 499  313.9258
 500  102.6554
 501  292.8249
 502  362.3424
 503  369.3066
 504  678.3733
 505  700.9704
 506  300.8022
 507  151.2225
 508  261.2415
 509  451.3486
 510  432.6589
 511  81.96957
