# Input file       =  1187129238.101036_cleaned.dat
# Candidate        =  PSR_0332+5434
# Telescope        =  AR
# Epoch_topo       =  57983.921957187915
# Epoch_bary       =  N/A
# T_sample         =  0.002
# Data Folded      =  7208960
# Data Avg         =  0.0266322708881024
# Data StdDev      =  1.00038433328407 
# Profile Bins     =  512
# Profile Avg      =  374.990426320587 
# Profile StdDev   =  118.704780464248 
# Reduced chi-sqr  =  1.507
# Prob(Noise)      <  8.32e-13   (~7.1 sigma)
# P_topo (ms)      =  714.464087938302  +/- 0.000178
# P'_topo (s/s)    =  -0                +/- 9.56e-11
# P''_topo (s/s^2) =  0                 +/- 4.3e-14
# P_bary (ms)      =  N/A
# P'_bary (s/s)    =  N/A
# P''_bary (s/s^2) =  N/A
# P_orb (s)        =  N/A
# asin(i)/c (s)    =  N/A
# eccentricity     =  N/A
# w (rad)          =  N/A
# T_peri           =  N/A
######################################################
   0  347.6279
   1  339.0294
   2  346.2314
   3  329.7552
   4  350.6029
   5  419.485
   6  460.6921
   7  364.644
   8  465.7887
   9  440.3084
  10  397.3663
  11  438.8547
  12  364.7149
  13  354.1948
  14  464.7036
  15  422.3714
  16  438.0085
  17  354.2366
  18  420.9796
  19  447.1637
  20  434.7443
  21  335.992
  22  268.0356
  23  269.1717
  24  134.0854
  25  117.3819
  26  394.0428
  27  502.5465
  28  389.6338
  29  308.3156
  30  254.7511
  31  197.646
  32  264.1531
  33  356.5595
  34  282.8055
  35  214.0371
  36  266.3525
  37  289.5158
  38  353.163
  39  443.8227
  40  346.5073
  41  294.2116
  42  342.408
  43  316.3422
  44  335.7033
  45  220.7913
  46  257.8309
  47  309.266
  48  374.7943
  49  403.5153
  50  269.3612
  51  283.4177
  52  307.1284
  53  428.3933
  54  285.3215
  55  240.8465
  56  381.4318
  57  366.1277
  58  338.2893
  59  279.2885
  60  312.7082
  61  373.6663
  62  402.9443
  63  364.8528
  64  260.3004
  65  255.6316
  66  366.7596
  67  349.9015
  68  268.0256
  69  298.8531
  70  320.7079
  71  450.1107
  72  353.082
  73  287.2798
  74  383.2034
  75  422.0527
  76  364.9808
  77  314.6112
  78  320.2561
  79  421.6376
  80  402.2987
  81  441.6029
  82  455.7868
  83  406.3834
  84  365.7759
  85  277.3175
  86  393.1373
  87  365.3285
  88  294.7405
  89  335.6337
  90  370.5802
  91  374.3647
  92  503.5331
  93  351.0882
  94  294.6787
  95  416.2589
  96  356.3804
  97  217.128
  98  165.2824
  99  374.5201
 100  372.0281
 101  397.1181
 102  370.0958
 103  344.4991
 104  271.174
 105  359.3472
 106  313.1354
 107  148.0036
 108  284.4868
 109  359.3143
 110  449.2378
 111  449.0787
 112  288.5001
 113  279.4727
 114  249.1606
 115  329.4437
 116  408.7924
 117  237.9369
 118  358.5283
 119  475.5122
 120  247.6532
 121  311.3314
 122  395.6382
 123  432.1366
 124  437.8809
 125  505.9318
 126  486.2224
 127  463.1905
 128  451.0579
 129  472.6696
 130  372.1365
 131  284.2485
 132  323.5545
 133  508.8964
 134  573.6304
 135  348.4185
 136  177.9742
 137  260.5786
 138  439.2653
 139  407.1998
 140  328.2741
 141  340.3968
 142  242.3818
 143  337.9922
 144  552.6973
 145  485.8293
 146  540.7433
 147  471.8791
 148  437.1323
 149  434.1419
 150  483.244
 151  312.5464
 152  355.0914
 153  176.3018
 154  315.5049
 155  416.6982
 156  308.1394
 157  329.9999
 158  360.2473
 159  436.7523
 160  517.1002
 161  578.0841
 162  521.7044
 163  556.1556
 164  686.035
 165  862.6556
 166  962.4435
 167  972.6829
 168  1084.021
 169  1029.692
 170  680.4488
 171  478.2328
 172  381.0312
 173  419.8334
 174  343.6161
 175  297.3279
 176  349.399
 177  562.5526
 178  437.4498
 179  376.6172
 180  302.8161
 181  279.0926
 182  403.2875
 183  446.3923
 184  364.0535
 185  386.6933
 186  448.244
 187  329.0923
 188  396.9787
 189  526.1585
 190  387.5928
 191  329.8674
 192  324.1518
 193  369.8449
 194  360.1374
 195  319.8756
 196  432.5981
 197  534.4119
 198  382.1072
 199  271.2346
 200  338.9673
 201  447.5822
 202  394.3661
 203  292.0143
 204  343.6352
 205  402.9654
 206  376.9376
 207  256.9593
 208  423.0437
 209  336.4029
 210  356.2773
 211  378.8503
 212  425.5932
 213  449.4257
 214  436.618
 215  410.345
 216  420.683
 217  399.8184
 218  372.7316
 219  409.8164
 220  503.6924
 221  482.0055
 222  424.873
 223  485.4342
 224  605.3654
 225  517.0723
 226  407.0359
 227  360.4235
 228  371.3568
 229  379.3469
 230  421.0467
 231  371.9793
 232  240.86
 233  364.337
 234  478.1273
 235  524.1945
 236  387.4077
 237  378.63
 238  400.0365
 239  546.1956
 240  516.5035
 241  352.9706
 242  431.8153
 243  345.4128
 244  365.0381
 245  403.791
 246  393.6613
 247  364.4936
 248  471.903
 249  476.3947
 250  458.5007
 251  366.6613
 252  408.2149
 253  408.7708
 254  361.2215
 255  376.114
 256  416.2859
 257  336.3021
 258  347.8834
 259  281.0762
 260  277.1021
 261  310.3918
 262  267.9447
 263  397.5495
 264  378.7673
 265  317.1891
 266  342.7254
 267  411.7076
 268  387.5569
 269  366.4546
 270  343.3108
 271  346.818
 272  260.8102
 273  326.1837
 274  301.863
 275  353.9657
 276  371.4442
 277  296.3257
 278  440.9472
 279  359.2018
 280  381.0952
 281  325.1503
 282  344.558
 283  322.2353
 284  300.3579
 285  371.1916
 286  343.9775
 287  419.3412
 288  423.9834
 289  302.1905
 290  174.9301
 291  128.5618
 292  448.9296
 293  379.938
 294  294.8167
 295  358.3838
 296  411.799
 297  492.2623
 298  383.9691
 299  321.1306
 300  447.9195
 301  391.7019
 302  394.2858
 303  439.5649
 304  503.4166
 305  446.2986
 306  415.9521
 307  316.8364
 308  388.984
 309  351.6787
 310  212.9068
 311  366.0117
 312  571.2393
 313  442.1419
 314  410.1075
 315  454.8454
 316  400.3191
 317  330.8271
 318  350.8389
 319  269.8512
 320  174.7297
 321  308.6867
 322  389.1544
 323  244.8338
 324  169.2187
 325  244.5289
 326  392.9721
 327  461.6191
 328  463.1628
 329  407.324
 330  292.1084
 331  369.1077
 332  459.3424
 333  396.0213
 334  388.0406
 335  341.3586
 336  358.3503
 337  445.5916
 338  408.8634
 339  272.7651
 340  218.4379
 341  367.9568
 342  347.0471
 343  332.4471
 344  317.4547
 345  432.317
 346  466.5829
 347  452.5899
 348  427.4096
 349  362.2017
 350  408.1983
 351  288.278
 352  296.4191
 353  324.2146
 354  417.8302
 355  368.7734
 356  272.2533
 357  319.3632
 358  364.6458
 359  453.6544
 360  432.3047
 361  486.9866
 362  442.7624
 363  226.8586
 364  209.1576
 365  343.4004
 366  312.9253
 367  314.0491
 368  422.6794
 369  528.0928
 370  546.2306
 371  348.8117
 372  313.3047
 373  438.178
 374  527.0013
 375  472.62
 376  332.2217
 377  371.7294
 378  339.8577
 379  405.7037
 380  371.4424
 381  463.7941
 382  322.7391
 383  306.2414
 384  337.4672
 385  354.9996
 386  224.001
 387  196.2646
 388  400.4646
 389  507.8715
 390  466.368
 391  452.9745
 392  403.8199
 393  375.4364
 394  403.0208
 395  492.3978
 396  412.018
 397  335.2588
 398  332.4556
 399  394.4458
 400  438.3068
 401  345.6348
 402  405.1991
 403  299.4397
 404  312.4326
 405  475.4405
 406  445.1863
 407  406.5145
 408  385.7079
 409  283.8932
 410  196.3341
 411  164.1176
 412  320.9182
 413  444.6093
 414  387.2542
 415  366.5184
 416  321.6351
 417  333.4654
 418  307.7886
 419  479.7717
 420  505.5253
 421  437.0777
 422  492.8751
 423  426.3818
 424  508.4778
 425  384.6555
 426  409.9299
 427  334.1786
 428  227.1911
 429  351.7871
 430  318.7188
 431  343.543
 432  389.5188
 433  291.7332
 434  336.4735
 435  262.3174
 436  294.3514
 437  356.3451
 438  387.7393
 439  570.6376
 440  537.8929
 441  438.9879
 442  411.1353
 443  263.565
 444  312.5398
 445  361.8324
 446  474.365
 447  385.9382
 448  290.3306
 449  342.7535
 450  359.937
 451  435.5216
 452  293.0871
 453  184.9197
 454  396.3649
 455  474.3545
 456  455.3324
 457  510.2275
 458  311.6911
 459  319.4274
 460  436.8437
 461  392.4408
 462  397.7116
 463  376.0493
 464  288.5474
 465  371.2795
 466  389.3919
 467  413.8429
 468  544.0988
 469  508.5573
 470  317.5274
 471  265.4894
 472  301.671
 473  340.9266
 474  475.8669
 475  442.535
 476  337.1187
 477  180.4879
 478  73.13123
 479  193.0094
 480  178.3857
 481  301.8904
 482  328.7423
 483  405.8291
 484  418.5982
 485  402.5124
 486  368.9852
 487  360.8608
 488  415.4508
 489  378.7213
 490  320.7609
 491  410.2968
 492  368.2275
 493  203.5684
 494  214.7077
 495  357.3599
 496  395.337
 497  167.7941
 498  106.4748
 499  387.3121
 500  252.6433
 501  355.0832
 502  434.7507
 503  381.4917
 504  434.5006
 505  361.5367
 506  364.706
 507  347.2601
 508  269.5699
 509  277.5226
 510  320.855
 511  374.4737
