# Input file       =  1187057703.117304_cleaned.dat
# Candidate        =  PSR_0332+5434
# Telescope        =  AR
# Epoch_topo       =  57983.094005987317
# Epoch_bary       =  N/A
# T_sample         =  0.002
# Data Folded      =  7340032
# Data Avg         =  0.0292299371327056
# Data StdDev      =  2.27223685719694 
# Profile Bins     =  256
# Profile Avg      =  837.917798154746 
# Profile StdDev   =  384.753513214597 
# Reduced chi-sqr  =  1.744
# Prob(Noise)      <  1.8e-12   (~7.0 sigma)
# P_topo (ms)      =  714.464242090095  +/- 0.000252
# P'_topo (s/s)    =  -0                +/- 1.33e-10
# P''_topo (s/s^2) =  0                 +/- 5.86e-14
# P_bary (ms)      =  N/A
# P'_bary (s/s)    =  N/A
# P''_bary (s/s^2) =  N/A
# P_orb (s)        =  N/A
# asin(i)/c (s)    =  N/A
# eccentricity     =  N/A
# w (rad)          =  N/A
# T_peri           =  N/A
######################################################
   0  444.9174
   1  628.9644
   2  129.7594
   3  735.4697
   4  387.9719
   5  445.3788
   6  120.5855
   7  428.626
   8  961.6253
   9  676.3057
  10  785.8458
  11  338.9542
  12  1044.134
  13  1124.267
  14  1550.733
  15  1221.382
  16  1429.943
  17  1063.134
  18  397.452
  19  507.3572
  20  945.8692
  21  1084.522
  22  1217.12
  23  501.964
  24  925.4309
  25  1059.424
  26  864.0059
  27  1264.918
  28  770.5242
  29  1229.586
  30  432.9133
  31  1031.505
  32  513.2008
  33  220.195
  34  64.21945
  35  110.4587
  36  1251.208
  37  643.9341
  38  758.7852
  39  892.936
  40  951.3608
  41  672.8518
  42  886.8912
  43  926.2022
  44  599.9881
  45  143.3119
  46  841.3682
  47  577.5536
  48  632.2001
  49  620.5287
  50  732.9105
  51  331.7261
  52  639.0594
  53  687.8434
  54  910.1713
  55  1223.491
  56  775.3007
  57  1178.147
  58  1012.282
  59  517.5296
  60  648.8204
  61  822.2354
  62  856.4454
  63  692.9801
  64  438.9064
  65  1026.822
  66  827.7803
  67  978.0489
  68  958.0326
  69  445.6084
  70  631.1197
  71  719.3165
  72  929.4154
  73  705.296
  74  1213.048
  75  633.9069
  76  1145.044
  77  593.2257
  78  453.6378
  79  488.9079
  80  519.6452
  81  719.4622
  82  1162.311
  83  1060.72
  84  1135.745
  85  812.6205
  86  579.5007
  87  545.6315
  88  462.0931
  89  280.6624
  90  1252.64
  91  1355.103
  92  798.1348
  93  810.514
  94  1242.245
  95  845.1324
  96  1617.287
  97  1704.423
  98  1404.646
  99  1220.631
 100  931.2996
 101  959.2045
 102  644.7414
 103  906.6863
 104  752.4361
 105  148.1233
 106  1130.386
 107  972.6611
 108  680.7526
 109  1019.491
 110  752.0004
 111  458.7656
 112  996.9873
 113  682.1389
 114  432.4796
 115  736.2509
 116  598.7846
 117  1160.021
 118  575.1943
 119  672.6566
 120  785.7851
 121  702.8667
 122  1083.398
 123  1101.175
 124  1432.551
 125  1032.086
 126  875.0775
 127  841.3694
 128  766.4736
 129  560.7245
 130  380.1515
 131  469.2056
 132  1145.287
 133  1001.142
 134  1097.557
 135  952.2951
 136  1322.226
 137  1137.15
 138  578.4746
 139  518.2623
 140  1325.627
 141  552.3675
 142  776.1222
 143  924.3183
 144  548.3488
 145  691.7386
 146  910.7224
 147  271.5025
 148  1041.26
 149  1199.835
 150  346.179
 151  -40.35442
 152  502.4727
 153  1007.133
 154  657.6669
 155  1346.459
 156  923.2434
 157  999.4869
 158  1068.104
 159  1225.913
 160  2127.507
 161  3493.111
 162  3682.382
 163  2102.328
 164  1132.099
 165  1522.845
 166  1170.736
 167  711.0182
 168  1372.309
 169  1393.026
 170  1679.1
 171  1157.726
 172  1281.362
 173  1125.562
 174  1018.315
 175  1325.886
 176  1421.067
 177  1348.882
 178  1194.165
 179  1099.548
 180  404.7505
 181  487.8992
 182  1057.884
 183  693.734
 184  492.5786
 185  619.1746
 186  499.4345
 187  458.5019
 188  583.8165
 189  492.545
 190  1093.1
 191  1095.433
 192  234.9825
 193  1251.69
 194  1012.094
 195  1209.29
 196  1011.597
 197  592.5787
 198  509.6878
 199  103.4363
 200  526.5297
 201  427.3869
 202  1448.203
 203  785.1562
 204  1006.29
 205  1092.529
 206  561.4906
 207  639.0211
 208  1228.513
 209  1063.557
 210  771.053
 211  725.4588
 212  337.2424
 213  995.0757
 214  665.5845
 215  759.9632
 216  1245.56
 217  584.2571
 218  441.2862
 219  442.5558
 220  998.0649
 221  209.8851
 222  200.1123
 223  1163.105
 224  1150.583
 225  1596.056
 226  1045.51
 227  1104.476
 228  831.037
 229  252.7651
 230  696.9467
 231  894.7134
 232  703.0455
 233  345.7812
 234  533.0516
 235  319.5975
 236  1007.752
 237  617.684
 238  1092.518
 239  305.1071
 240  730.7269
 241  805.2263
 242  402.5165
 243  402.7057
 244  19.73125
 245  592.357
 246  386.3548
 247  634.8833
 248  534.0718
 249  658.5263
 250  395.4803
 251  731.649
 252  1379.344
 253  452.0246
 254  712.5901
 255  514.6285
