# Input file       =  1187732385.107513_cleaned.dat
# Candidate        =  PSR_0332+5434
# Telescope        =  AR
# Epoch_topo       =  57990.902825318437
# Epoch_bary       =  N/A
# T_sample         =  0.002
# Data Folded      =  7143424
# Data Avg         =  0.0277053302946113
# Data StdDev      =  1.0002415078789  
# Profile Bins     =  512
# Profile Avg      =  386.52850812048  
# Profile StdDev   =  118.147111050664 
# Reduced chi-sqr  =  1.442
# Prob(Noise)      <  2.02e-10   (~6.3 sigma)
# P_topo (ms)      =  714.463378738703  +/- 0.000349
# P'_topo (s/s)    =  -0                +/- 1.89e-10
# P''_topo (s/s^2) =  0                 +/- 8.58e-14
# P_bary (ms)      =  N/A
# P'_bary (s/s)    =  N/A
# P''_bary (s/s^2) =  N/A
# P_orb (s)        =  N/A
# asin(i)/c (s)    =  N/A
# eccentricity     =  N/A
# w (rad)          =  N/A
# T_peri           =  N/A
######################################################
   0  307.3359
   1  333.159
   2  270.4092
   3  312.0133
   4  245.5504
   5  223.4285
   6  269.2896
   7  379.9096
   8  396.7263
   9  339.1825
  10  397.7228
  11  433.9247
  12  444.1682
  13  399.8932
  14  377.2849
  15  368.9084
  16  413.97
  17  395.2152
  18  335.5903
  19  356.5091
  20  419.9776
  21  427.7903
  22  393.8895
  23  339.3977
  24  246.421
  25  336.9318
  26  286.6303
  27  453.3802
  28  380.3625
  29  408.4047
  30  385.6139
  31  367.8955
  32  395.3307
  33  379.532
  34  450.2835
  35  392.7369
  36  352.6985
  37  241.6775
  38  312.6161
  39  433.8885
  40  422.198
  41  506.1431
  42  371.8473
  43  305.1089
  44  429.2005
  45  402.0615
  46  370.973
  47  293.1817
  48  284.4527
  49  330.0125
  50  295.6779
  51  208.591
  52  409.9348
  53  304.9056
  54  303.8326
  55  450.7307
  56  395.2979
  57  235.4747
  58  250.1319
  59  362.7703
  60  525.0219
  61  388.3895
  62  350.9965
  63  360.1813
  64  367.8075
  65  292.3259
  66  229.3757
  67  191.4997
  68  178.3092
  69  240.2996
  70  381.4722
  71  431.9589
  72  377.3193
  73  364.4944
  74  475.2354
  75  435.9116
  76  379.9698
  77  298.9497
  78  396.8828
  79  460.9551
  80  505.8257
  81  432.8833
  82  410.3353
  83  316.1379
  84  409.2277
  85  393.1042
  86  437.6668
  87  434.2066
  88  475.4225
  89  552.131
  90  319.7116
  91  342.1615
  92  445.8131
  93  454.1458
  94  413.0598
  95  413.7185
  96  480.7192
  97  545.5864
  98  563.2883
  99  530.4612
 100  501.1917
 101  623.0532
 102  800.4683
 103  1029.422
 104  1183.677
 105  1019.89
 106  868.1484
 107  730.6766
 108  490.0328
 109  473.8041
 110  518.0806
 111  476.5246
 112  465.8338
 113  554.3195
 114  567.5126
 115  343.3382
 116  400.9227
 117  440.2249
 118  464.2376
 119  599.623
 120  532.592
 121  490.1975
 122  470.0259
 123  384.8827
 124  302.1381
 125  402.9273
 126  337.6713
 127  313.2926
 128  331.2938
 129  261.8478
 130  449.1773
 131  567.1132
 132  434.9903
 133  376.3518
 134  390.4163
 135  390.3182
 136  375.8969
 137  288.4006
 138  251.2059
 139  342.1424
 140  424.1123
 141  327.9227
 142  348.4246
 143  287.9808
 144  349.2791
 145  472.545
 146  532.2733
 147  297.7555
 148  385.9342
 149  452.0913
 150  321.1163
 151  353.2688
 152  401.4539
 153  415.9675
 154  494.2793
 155  376.4147
 156  297.9425
 157  465.8383
 158  468.4667
 159  326.9797
 160  346.575
 161  532.4995
 162  403.489
 163  309.5385
 164  343.2526
 165  367.073
 166  348.9165
 167  408.3398
 168  422.3029
 169  372.2185
 170  427.5909
 171  435.3777
 172  349.1651
 173  400.7603
 174  410.2852
 175  317.4141
 176  396.9346
 177  402.8492
 178  366.0058
 179  423.7347
 180  412.8734
 181  443.0274
 182  409.4934
 183  500.083
 184  359.2989
 185  281.1493
 186  271.1482
 187  300.4768
 188  265.8751
 189  355.5526
 190  302.9366
 191  391.8807
 192  370.7995
 193  444.7456
 194  578.5695
 195  613.8055
 196  394.0502
 197  378.7529
 198  477.5265
 199  393.2414
 200  406.0135
 201  484.3756
 202  554.8813
 203  330.9955
 204  310.0952
 205  445.5823
 206  384.0172
 207  282.3953
 208  313.9424
 209  517.7352
 210  308.1352
 211  331.3092
 212  526.9511
 213  405.7873
 214  427.2923
 215  459.697
 216  432.2385
 217  231.2306
 218  302.7906
 219  297.3916
 220  395.0311
 221  427.6531
 222  400.1522
 223  389.3499
 224  352.8314
 225  394.1988
 226  435.3316
 227  345.2532
 228  310.4898
 229  324.268
 230  345.6873
 231  374.3887
 232  401.8151
 233  422.4977
 234  461.6985
 235  384.6939
 236  415.5909
 237  456.6463
 238  439.8207
 239  285.8449
 240  171.0257
 241  370.0092
 242  456.7968
 243  477.2565
 244  300.3888
 245  318.7594
 246  478.6871
 247  426.9909
 248  365.8257
 249  455.6512
 250  481.0038
 251  449.9028
 252  371.4308
 253  376.718
 254  362.2455
 255  464.8469
 256  542.8467
 257  510.5278
 258  368.0132
 259  338.1863
 260  375.2995
 261  489.2024
 262  456.6115
 263  272.5283
 264  332.3029
 265  246.8061
 266  238.655
 267  206.4386
 268  307.9547
 269  434.6612
 270  440.0215
 271  379.7736
 272  360.5947
 273  351.2995
 274  394.3351
 275  347.51
 276  380.1429
 277  367.5666
 278  347.5871
 279  411.3263
 280  304.3378
 281  312.6751
 282  378.2218
 283  563.6717
 284  491.9549
 285  424.5965
 286  389.2051
 287  353.784
 288  400.6717
 289  514.2372
 290  510.0366
 291  326.8987
 292  415.8141
 293  411.512
 294  462.021
 295  414.817
 296  358.7651
 297  308.2725
 298  294.758
 299  401.442
 300  349.4979
 301  311.9316
 302  298.9405
 303  324.2181
 304  309.2597
 305  298.532
 306  312.0929
 307  288.4993
 308  291.2892
 309  299.6553
 310  262.5946
 311  242.0916
 312  244.2691
 313  333.4801
 314  299.0799
 315  466.5625
 316  463.8067
 317  494.2766
 318  405.5194
 319  340.2292
 320  444.9753
 321  426.8957
 322  305.6166
 323  380.037
 324  462.8423
 325  442.204
 326  441.6384
 327  409.9892
 328  421.3508
 329  331.0308
 330  367.9081
 331  475.3559
 332  355.0294
 333  343.279
 334  396.9722
 335  302.0601
 336  312.4027
 337  424.6407
 338  434.4072
 339  486.8369
 340  358.6543
 341  473.3772
 342  531.0088
 343  379.3668
 344  404.4774
 345  442.6316
 346  422.8257
 347  276.78
 348  273.425
 349  409.3165
 350  430.4358
 351  321.7924
 352  399.44
 353  400.2853
 354  340.2326
 355  225.9982
 356  192.4686
 357  209.9582
 358  417.524
 359  389.7815
 360  357.6851
 361  390.4392
 362  422.9893
 363  437.5809
 364  467.21
 365  431.1242
 366  399.8134
 367  448.3771
 368  438.3041
 369  481.5536
 370  493.3948
 371  466.0658
 372  378.7013
 373  223.4572
 374  358.3164
 375  577.2651
 376  474.1589
 377  363.0822
 378  325.3633
 379  359.0595
 380  245.3818
 381  373.8019
 382  521.6489
 383  458.4074
 384  329.3597
 385  230.4355
 386  226.8863
 387  290.1181
 388  456.2817
 389  349.9501
 390  330.2796
 391  461.4714
 392  434.5726
 393  424.9742
 394  354.2035
 395  368.0749
 396  399.4727
 397  466.5956
 398  516.8874
 399  296.2866
 400  288.151
 401  356.16
 402  500.6434
 403  453.1846
 404  243.7354
 405  354.4007
 406  327.9561
 407  301.3482
 408  367.1516
 409  417.1234
 410  496.5798
 411  312.2398
 412  286.5603
 413  363.9637
 414  409.8344
 415  395.8726
 416  211.0943
 417  295.4322
 418  470.4615
 419  385.8639
 420  325.8299
 421  442.5736
 422  362.7148
 423  369.4384
 424  427.0078
 425  375.3418
 426  378.4953
 427  328.432
 428  310.6594
 429  395.3157
 430  453.3245
 431  460.2043
 432  476.5313
 433  231.0937
 434  275.8515
 435  437.524
 436  533.489
 437  438.5529
 438  389.9472
 439  432.5017
 440  348.1204
 441  253.9258
 442  284.9719
 443  245.4251
 444  377.1443
 445  373.1122
 446  237.1299
 447  310.8464
 448  463.1096
 449  412.9367
 450  401.9516
 451  333.2395
 452  293.2715
 453  229.2533
 454  279.338
 455  405.1839
 456  337.3179
 457  342.1567
 458  430.0103
 459  458.2259
 460  383.8385
 461  364.3817
 462  334.8107
 463  384.1336
 464  441.9137
 465  395.1954
 466  326.5728
 467  400.2065
 468  423.4207
 469  508.642
 470  444.3025
 471  375.3967
 472  387.136
 473  248.6823
 474  173.0797
 475  295.6816
 476  383.7552
 477  286.5954
 478  213.0381
 479  329.4523
 480  441.1104
 481  520.9905
 482  432.8878
 483  351.1442
 484  248.125
 485  350.2263
 486  486.8849
 487  440.5471
 488  452.9301
 489  500.0029
 490  446.395
 491  347.747
 492  385.2025
 493  337.4273
 494  322.9215
 495  283.0453
 496  183.5999
 497  194.7167
 498  184.4283
 499  220.2494
 500  308.7492
 501  275.9141
 502  273.4695
 503  217.034
 504  371.9133
 505  353.0388
 506  372.9804
 507  472.9789
 508  453.7282
 509  334.5861
 510  330.2007
 511  381.6377
