# Input file       =  1188882056.107708_cleaned.dat
# Candidate        =  PSR_0332+5434
# Telescope        =  AR
# Epoch_topo       =  58004.209202635509
# Epoch_bary       =  N/A
# T_sample         =  0.002
# Data Folded      =  7340032
# Data Avg         =  0.0222180070268223
# Data StdDev      =  2.93841278277806 
# Profile Bins     =  512
# Profile Avg      =  318.580924701746 
# Profile StdDev   =  351.82508461032  
# Reduced chi-sqr  =  1.107
# Prob(Noise)      <  0.047   (~1.7 sigma)
# P_topo (ms)      =  714.464653217015  +/- 0.000114
# P'_topo (s/s)    =  -0                +/- 6e-11
# P''_topo (s/s^2) =  0                 +/- 2.65e-14
# P_bary (ms)      =  N/A
# P'_bary (s/s)    =  N/A
# P''_bary (s/s^2) =  N/A
# P_orb (s)        =  N/A
# asin(i)/c (s)    =  N/A
# eccentricity     =  N/A
# w (rad)          =  N/A
# T_peri           =  N/A
######################################################
   0  349.9334
   1  402.8907
   2  750.442
   3  561.3894
   4  -195.8954
   5  26.05621
   6  219.4797
   7  329.6858
   8  386.2728
   9  537.1332
  10  509.7095
  11  -24.57059
  12  245.7502
  13  485.1338
  14  79.11834
  15  66.73592
  16  295.5297
  17  -31.7457
  18  354.7969
  19  642.2234
  20  591.5611
  21  362.2816
  22  209.891
  23  173.5561
  24  404.5472
  25  395.288
  26  344.8089
  27  176.8021
  28  4.987432
  29  259.4422
  30  638.4623
  31  306.5496
  32  153.1763
  33  219.4523
  34  181.7908
  35  449.1133
  36  516.0032
  37  445.2486
  38  110.6368
  39  -38.73458
  40  431.7218
  41  252.9031
  42  289.0841
  43  382.796
  44  315.3616
  45  162.5806
  46  218.7711
  47  -108.9503
  48  -61.69662
  49  392.3789
  50  132.0309
  51  118.366
  52  69.82857
  53  230.184
  54  271.7198
  55  303.365
  56  27.13118
  57  -50.86695
  58  330.7299
  59  281.9602
  60  -43.83583
  61  -132.8848
  62  49.51315
  63  42.27193
  64  77.12405
  65  216.5969
  66  310.5912
  67  375.4474
  68  158.8462
  69  -50.64937
  70  -33.67786
  71  -73.61413
  72  -98.04099
  73  487.3232
  74  136.4435
  75  312.8718
  76  202.7123
  77  236.2884
  78  552.0801
  79  302.476
  80  104.3443
  81  -56.75451
  82  324.7539
  83  276.095
  84  321.4586
  85  101.9501
  86  16.69984
  87  602.9542
  88  350.7473
  89  289.8637
  90  218.4583
  91  333.4478
  92  187.6003
  93  191.2124
  94  117.416
  95  -273.6477
  96  133.7919
  97  600.345
  98  376.2781
  99  521.2865
 100  503.8818
 101  423.3427
 102  321.7041
 103  635.5837
 104  748.4818
 105  243.871
 106  208.1983
 107  160.7979
 108  -36.58692
 109  -478.0394
 110  -104.7503
 111  118.985
 112  236.4507
 113  510.7119
 114  271.45
 115  657.9467
 116  495.0829
 117  358.1962
 118  402.6966
 119  168.5634
 120  395.4232
 121  523.3414
 122  490.8117
 123  426.1516
 124  339.8818
 125  601.3341
 126  1247.319
 127  1796.43
 128  1706.261
 129  1321.754
 130  834.3547
 131  627.3133
 132  199.5607
 133  558.5068
 134  512.2211
 135  865.4591
 136  837.5211
 137  197.5441
 138  202.2587
 139  67.12868
 140  428.054
 141  415.3744
 142  458.0155
 143  344.7561
 144  603.0166
 145  406.3959
 146  448.4937
 147  519.4999
 148  463.9678
 149  416.8777
 150  131.5362
 151  656.522
 152  418.774
 153  522.3823
 154  217.1534
 155  521.7294
 156  612.1392
 157  222.3153
 158  346.7348
 159  790.3553
 160  626.4203
 161  510.2944
 162  881.4617
 163  696.0432
 164  825.4307
 165  576.459
 166  601.4766
 167  72.8936
 168  320.075
 169  514.7819
 170  344.0757
 171  296.7701
 172  327.9644
 173  544.476
 174  770.0532
 175  982.3221
 176  808.8766
 177  774.7852
 178  408.4143
 179  659.3915
 180  721.6774
 181  571.9606
 182  883.1645
 183  605.1479
 184  728.4357
 185  191.7399
 186  32.85335
 187  68.27767
 188  65.80598
 189  146.6862
 190  142.997
 191  500.5108
 192  115.2363
 193  247.5895
 194  682.9709
 195  645.6854
 196  493.1185
 197  466.361
 198  382.176
 199  253.6676
 200  290.5681
 201  487.0475
 202  352.1642
 203  263.4724
 204  365.0601
 205  265.6644
 206  311.729
 207  96.28368
 208  -25.53498
 209  476.1231
 210  836.2866
 211  398.4333
 212  311.3123
 213  63.25964
 214  341.6122
 215  121.4784
 216  442.5912
 217  488.1909
 218  245.8365
 219  117.9129
 220  168.0558
 221  285.4431
 222  559.8505
 223  457.466
 224  432.3551
 225  163.604
 226  340.9688
 227  12.19801
 228  -41.27354
 229  238.7424
 230  -45.83421
 231  116.1108
 232  330.4081
 233  309.0488
 234  331.0293
 235  -258.3497
 236  97.55071
 237  720.5692
 238  510.8995
 239  199.4732
 240  297.0793
 241  503.5319
 242  537.4293
 243  495.6553
 244  558.4815
 245  345.1665
 246  54.93345
 247  144.2349
 248  165.5139
 249  57.58292
 250  63.09071
 251  216.6144
 252  331.9267
 253  699.5881
 254  240.6416
 255  152.4188
 256  -16.77715
 257  225.3952
 258  257.1741
 259  433.5045
 260  478.9272
 261  143.1896
 262  90.22607
 263  25.83374
 264  -82.74992
 265  76.83146
 266  309.3364
 267  220.1891
 268  -102.7937
 269  104.2856
 270  155.7087
 271  57.00481
 272  512.4711
 273  101.1434
 274  65.28613
 275  108.6578
 276  -343.258
 277  -346.6514
 278  -136.1433
 279  209.6441
 280  491.76
 281  469.2322
 282  410.9963
 283  136.7384
 284  231.2947
 285  317.6479
 286  124.5822
 287  17.76774
 288  256.6149
 289  101.9083
 290  327.4846
 291  385.8115
 292  282.3839
 293  -110.5018
 294  135.0482
 295  71.91878
 296  250.6941
 297  56.88789
 298  81.04994
 299  6.232475
 300  159.3766
 301  216.8304
 302  43.85425
 303  26.80288
 304  286.0096
 305  309.5188
 306  262.8808
 307  412.4842
 308  749.849
 309  592.0681
 310  95.18743
 311  242.8416
 312  378.1823
 313  -103.1247
 314  37.26083
 315  442.8146
 316  194.4158
 317  186.2391
 318  617.8748
 319  654.9834
 320  209.346
 321  467.4732
 322  500.7171
 323  287.585
 324  -20.90146
 325  71.53664
 326  359.4907
 327  427.336
 328  751.2834
 329  616.7556
 330  392.0695
 331  133.6974
 332  405.6459
 333  152.2843
 334  -108.6355
 335  280.7668
 336  353.3812
 337  564.9817
 338  163.0802
 339  220.2988
 340  303.9345
 341  507.4125
 342  355.9881
 343  -212.2414
 344  98.39095
 345  261.6317
 346  440.8318
 347  1013.184
 348  816.4203
 349  185.9676
 350  -104.1195
 351  106.4303
 352  478.0485
 353  300.9743
 354  192.1822
 355  673.738
 356  523.3852
 357  284.773
 358  74.08855
 359  331.1113
 360  240.0004
 361  885.2983
 362  692.5097
 363  286.8834
 364  44.53531
 365  732.9935
 366  727.4341
 367  352.5914
 368  -75.08211
 369  -132.1547
 370  119.8153
 371  235.1653
 372  509.5562
 373  683.5991
 374  519.4907
 375  12.72441
 376  336.5088
 377  397.7818
 378  355.3893
 379  351.6549
 380  464.84
 381  368.0602
 382  465.2649
 383  358.973
 384  171.2411
 385  123.5738
 386  275.8636
 387  152.903
 388  -99.07732
 389  390.0005
 390  850.8406
 391  920.237
 392  291.9635
 393  33.28303
 394  419.0761
 395  628.1143
 396  449.137
 397  600.4222
 398  458.9731
 399  29.93422
 400  364.7398
 401  348.2334
 402  -118.8736
 403  -59.22189
 404  347.6005
 405  141.0251
 406  -53.32816
 407  271.2594
 408  485.1871
 409  440.1583
 410  228.1314
 411  343.4273
 412  269.9619
 413  639.1406
 414  753.8326
 415  590.3676
 416  154.721
 417  44.9097
 418  440.8449
 419  636.6848
 420  174.4355
 421  401.8421
 422  709.3501
 423  452.1631
 424  206.0209
 425  60.13998
 426  243.1201
 427  436.3447
 428  175.5656
 429  132.6189
 430  -207.2946
 431  304.8725
 432  679.926
 433  716.5799
 434  394.9307
 435  575.8958
 436  661.4723
 437  780.3172
 438  474.2874
 439  87.98677
 440  33.74694
 441  482.2085
 442  340.2907
 443  262.888
 444  336.8264
 445  255.3744
 446  208.0289
 447  372.4185
 448  139.1779
 449  25.97346
 450  117.0934
 451  56.17492
 452  315.8697
 453  725.6151
 454  995.8932
 455  695.1727
 456  621.4086
 457  198.1269
 458  250.6798
 459  471.2222
 460  123.0194
 461  332.2333
 462  657.893
 463  380.9255
 464  331.6422
 465  364.7041
 466  470.1023
 467  266.9122
 468  374.6367
 469  430.334
 470  520.5851
 471  692.5231
 472  660.5678
 473  154.205
 474  -42.80311
 475  -179.6524
 476  114.2146
 477  334.8673
 478  460.8983
 479  664.1655
 480  477.0806
 481  342.1907
 482  488.7848
 483  544.1907
 484  162.9883
 485  330.5837
 486  385.0731
 487  175.5883
 488  484.9703
 489  477.5483
 490  -47.49498
 491  52.53557
 492  335.1083
 493  -14.41535
 494  -127.0831
 495  -201.0395
 496  183.263
 497  385.8987
 498  422.8952
 499  424.6116
 500  601.3885
 501  499.4066
 502  149.5444
 503  -87.50731
 504  -168.0413
 505  -145.6518
 506  164.8816
 507  -36.44295
 508  422.4151
 509  436.8049
 510  343.2739
 511  293.5828
