# Input file       =  1188278963.107433_cleaned.dat
# Candidate        =  PSR_0332+5434
# Telescope        =  AR
# Epoch_topo       =  57997.228959576772
# Epoch_bary       =  N/A
# T_sample         =  0.002
# Data Folded      =  7340032
# Data Avg         =  0.0101110358241669
# Data StdDev      =  1.00003406284783 
# Profile Bins     =  512
# Profile Avg      =  144.998281436023 
# Profile StdDev   =  119.737114824964 
# Reduced chi-sqr  =  1.267
# Prob(Noise)      <  3.82e-05   (~4.0 sigma)
# P_topo (ms)      =  714.463810446111  +/- 0.000124
# P'_topo (s/s)    =  -0                +/- 6.54e-11
# P''_topo (s/s^2) =  0                 +/- 2.89e-14
# P_bary (ms)      =  N/A
# P'_bary (s/s)    =  N/A
# P''_bary (s/s^2) =  N/A
# P_orb (s)        =  N/A
# asin(i)/c (s)    =  N/A
# eccentricity     =  N/A
# w (rad)          =  N/A
# T_peri           =  N/A
######################################################
   0  599.305
   1  611.4282
   2  416.061
   3  288.7661
   4  157.1772
   5  27.48737
   6  70.63754
   7  169.3285
   8  133.3833
   9  246.4391
  10  229.3398
  11  222.9864
  12  194.1318
  13  294.7477
  14  170.9212
  15  211.1615
  16  238.9106
  17  85.11705
  18  165.4263
  19  263.7775
  20  237.2228
  21  149.6161
  22  125.7125
  23  95.61336
  24  35.56472
  25  119.8088
  26  182.9509
  27  101.3576
  28  15.3843
  29  70.82455
  30  168.214
  31  134.7764
  32  158.7743
  33  225.2812
  34  168.5991
  35  288.248
  36  132.0127
  37  64.58701
  38  161.3255
  39  214.4607
  40  305.2361
  41  224.3317
  42  166.6676
  43  79.22368
  44  172.5689
  45  184.9874
  46  128.1433
  47  145.8349
  48  32.87386
  49  123.7031
  50  259.6168
  51  302.0432
  52  198.2543
  53  35.50772
  54  121.6136
  55  63.47438
  56  29.05593
  57  80.92941
  58  87.60268
  59  112.0174
  60  -54.14612
  61  -11.11608
  62  14.43112
  63  50.57718
  64  32.13889
  65  -60.08761
  66  16.22697
  67  78.16974
  68  -7.769103
  69  -25.651
  70  108.6422
  71  199.3403
  72  57.90766
  73  214.8176
  74  203.8156
  75  124.8241
  76  62.71646
  77  51.52956
  78  119.6257
  79  66.61443
  80  86.61892
  81  81.37159
  82  -23.46543
  83  105.255
  84  -76.20535
  85  24.5088
  86  21.56269
  87  91.94823
  88  40.56948
  89  43.68288
  90  152.3751
  91  156.9398
  92  168.2016
  93  235.556
  94  164.0411
  95  189.0506
  96  67.14761
  97  30.57131
  98  191.1237
  99  166.8596
 100  185.8261
 101  87.07575
 102  -41.30672
 103  44.91433
 104  134.6892
 105  170.889
 106  218.7375
 107  99.56541
 108  144.204
 109  258.5419
 110  46.15534
 111  71.97424
 112  181.3845
 113  190.3659
 114  125.1672
 115  228.8509
 116  345.9425
 117  269.2531
 118  249.5297
 119  44.37399
 120  104.7144
 121  266.4903
 122  142.194
 123  179.198
 124  273.5259
 125  209.8091
 126  181.924
 127  126.7478
 128  143.4098
 129  117.9471
 130  -23.20973
 131  26.91601
 132  69.58305
 133  63.58629
 134  35.43507
 135  -48.82916
 136  34.1242
 137  118.4656
 138  50.58998
 139  62.54992
 140  82.35903
 141  26.18138
 142  38.14058
 143  61.64598
 144  110.5419
 145  194.1078
 146  255.1158
 147  101.8839
 148  146.0586
 149  121.8622
 150  140.8253
 151  68.66059
 152  42.97196
 153  195.0105
 154  194.3725
 155  95.73373
 156  141.6067
 157  93.57829
 158  -50.32156
 159  26.38206
 160  43.29253
 161  63.85846
 162  56.74697
 163  26.01578
 164  -63.09754
 165  33.10613
 166  78.07815
 167  212.1943
 168  122.3376
 169  99.68808
 170  122.3444
 171  23.83227
 172  86.43887
 173  99.45219
 174  71.57867
 175  172.8136
 176  203.4102
 177  92.57409
 178  108.1543
 179  366.8518
 180  247.5698
 181  182.9459
 182  55.5273
 183  122.5503
 184  -65.09151
 185  68.40267
 186  183.4669
 187  178.4277
 188  195.0298
 189  275.419
 190  159.947
 191  75.21242
 192  120.9822
 193  192.8661
 194  191.479
 195  -16.67306
 196  -43.87418
 197  125.0446
 198  143.9611
 199  101.8721
 200  79.28139
 201  85.55352
 202  67.9771
 203  43.35024
 204  39.6607
 205  195.7144
 206  118.4005
 207  67.16541
 208  143.9447
 209  131.1408
 210  44.50537
 211  26.60881
 212  -173.7434
 213  -44.79258
 214  62.40776
 215  213.7796
 216  197.3643
 217  23.318
 218  6.520193
 219  70.56226
 220  119.1304
 221  231.4812
 222  239.1038
 223  133.3726
 224  110.0804
 225  140.0652
 226  127.1977
 227  81.86585
 228  78.21157
 229  126.1881
 230  191.3206
 231  319.4289
 232  196.0125
 233  72.34741
 234  10.24417
 235  27.73876
 236  51.30017
 237  151.4482
 238  75.23058
 239  -17.53751
 240  78.8103
 241  111.6435
 242  37.46153
 243  105.9103
 244  30.57745
 245  -3.655035
 246  59.13994
 247  98.53193
 248  166.0132
 249  148.6147
 250  288.3809
 251  220.4717
 252  6.722628
 253  136.0129
 254  258.4575
 255  260.396
 256  115.8603
 257  199.736
 258  266.8238
 259  259.135
 260  159.8376
 261  92.21996
 262  91.2124
 263  198.4688
 264  224.4931
 265  241.3123
 266  174.0705
 267  11.81401
 268  4.492037
 269  155.0238
 270  283.7873
 271  248.5353
 272  211.0919
 273  224.9037
 274  231.5033
 275  133.5178
 276  120.0944
 277  129.3956
 278  154.4275
 279  158.9947
 280  176.8794
 281  103.0711
 282  114.9321
 283  134.2944
 284  190.5883
 285  61.8929
 286  -32.34794
 287  69.88347
 288  120.5134
 289  68.03043
 290  4.911478
 291  111.8608
 292  144.7612
 293  291.3145
 294  125.6947
 295  -60.82255
 296  -17.31656
 297  138.8339
 298  159.3935
 299  74.30793
 300  51.75715
 301  64.38299
 302  36.36982
 303  139.0557
 304  192.4949
 305  68.35651
 306  80.04945
 307  83.10077
 308  17.68896
 309  -36.25349
 310  136.2094
 311  126.9547
 312  196.8464
 313  142.873
 314  112.2311
 315  35.67585
 316  77.05554
 317  160.2751
 318  195.1749
 319  116.2224
 320  148.9212
 321  80.0993
 322  64.87782
 323  80.96227
 324  127.2294
 325  318.3667
 326  299.7163
 327  218.4055
 328  214.558
 329  191.3608
 330  168.7833
 331  34.92754
 332  160.9772
 333  142.6432
 334  130.2328
 335  155.945
 336  172.7717
 337  169.5256
 338  157.856
 339  288.7146
 340  307.6732
 341  217.2237
 342  123.6972
 343  153.744
 344  204.6934
 345  80.68342
 346  134.0116
 347  174.3633
 348  179.6856
 349  330.4958
 350  131.0537
 351  92.28656
 352  71.51439
 353  193.7908
 354  202.9732
 355  271.4622
 356  194.8609
 357  137.5077
 358  51.12845
 359  138.1449
 360  121.2594
 361  202.2624
 362  240.9094
 363  235.6216
 364  199.0375
 365  110.1144
 366  245.1814
 367  185.1465
 368  -0.5643733
 369  1.412446
 370  21.34036
 371  253.8368
 372  306.7991
 373  224.0087
 374  368.327
 375  354.6176
 376  126.7908
 377  96.82865
 378  160.5862
 379  195.4265
 380  89.60327
 381  145.6779
 382  121.5112
 383  115.9865
 384  250.9074
 385  126.6786
 386  147.9198
 387  248.6607
 388  233.7137
 389  317.1474
 390  370.4581
 391  222.9926
 392  110.5002
 393  288.326
 394  237.9749
 395  110.434
 396  196.3837
 397  59.78561
 398  128.9071
 399  245.5817
 400  253.5407
 401  89.25469
 402  196.1724
 403  320.1795
 404  164.8197
 405  109.2568
 406  52.17036
 407  206.5694
 408  270.3489
 409  172.1801
 410  199.5699
 411  142.421
 412  91.40488
 413  100.6489
 414  243.8245
 415  190.927
 416  188.8132
 417  253.647
 418  140.2319
 419  119.677
 420  231.5128
 421  245.8253
 422  124.1743
 423  146.3143
 424  56.93058
 425  63.89313
 426  55.83575
 427  163.0365
 428  285.274
 429  179.9531
 430  26.75945
 431  83.64124
 432  99.47638
 433  160.2258
 434  189.2638
 435  84.34472
 436  156.3549
 437  154.0468
 438  197.0876
 439  207.9915
 440  204.9637
 441  232.1298
 442  185.0308
 443  175.433
 444  190.8141
 445  189.2562
 446  158.755
 447  3.814147
 448  100.0102
 449  376.9556
 450  323.4458
 451  150.3204
 452  170.0047
 453  155.537
 454  137.6319
 455  144.3769
 456  201.9633
 457  237.3775
 458  148.1695
 459  211.8688
 460  157.0396
 461  261.2259
 462  233.6545
 463  174.5783
 464  107.3261
 465  109.3465
 466  221.0824
 467  160.8638
 468  -31.90896
 469  9.127286
 470  212.6205
 471  161.0583
 472  122.5727
 473  364.7462
 474  375.0222
 475  207.8831
 476  163.4277
 477  215.7573
 478  163.3738
 479  268.5292
 480  273.0645
 481  278.0307
 482  294.8646
 483  158.1356
 484  163.9722
 485  136.5306
 486  160.6774
 487  205.0553
 488  270.2358
 489  308.4501
 490  240.1995
 491  313.7126
 492  391.4267
 493  173.8844
 494  17.47126
 495  40.16812
 496  142.215
 497  154.9821
 498  137.9877
 499  75.08109
 500  153.6353
 501  192.2845
 502  233.6288
 503  257.2877
 504  160.708
 505  180.7625
 506  133.9417
 507  103.0825
 508  147.8374
 509  325.3994
 510  562.959
 511  554.681
