# Input file       =  1188451331.12315_cleaned.dat
# Candidate        =  PSR_0332+5434
# Telescope        =  AR
# Epoch_topo       =  57999.223959758681
# Epoch_bary       =  N/A
# T_sample         =  0.002
# Data Folded      =  7340032
# Data Avg         =  0.0356931791736445
# Data StdDev      =  2.96321089687409 
# Profile Bins     =  256
# Profile Avg      =  1022.43035125029 
# Profile StdDev   =  501.754823383392 
# Reduced chi-sqr  =  1.434
# Prob(Noise)      <  6.65e-06   (~4.4 sigma)
# P_topo (ms)      =  714.463975149412  +/- 0.000192
# P'_topo (s/s)    =  -0                +/- 1.01e-10
# P''_topo (s/s^2) =  0                 +/- 4.46e-14
# P_bary (ms)      =  N/A
# P'_bary (s/s)    =  N/A
# P''_bary (s/s^2) =  N/A
# P_orb (s)        =  N/A
# asin(i)/c (s)    =  N/A
# eccentricity     =  N/A
# w (rad)          =  N/A
# T_peri           =  N/A
######################################################
   0  733.3722
   1  673.9066
   2  870.6279
   3  351.0673
   4  -111.4537
   5  159.2927
   6  584.3392
   7  94.13327
   8  783.1658
   9  179.9659
  10  231.7615
  11  500.2294
  12  583.6259
  13  1048.971
  14  648.3406
  15  334.1441
  16  948.0135
  17  1037.865
  18  1631.478
  19  1022.817
  20  729.6818
  21  896.7886
  22  530.8967
  23  739.6035
  24  518.9675
  25  808.5364
  26  696.8504
  27  611.6931
  28  764.172
  29  399.5185
  30  1345.078
  31  513.5874
  32  685.669
  33  545.8096
  34  800.1795
  35  675.2646
  36  725.7183
  37  136.2388
  38  184.4925
  39  1297.771
  40  1557.865
  41  936.8928
  42  805.9172
  43  480.7751
  44  1012.901
  45  151.3853
  46  120.8521
  47  1025.135
  48  1092.117
  49  736.0316
  50  1284.343
  51  1492.386
  52  929.6715
  53  1479.069
  54  1566.901
  55  2040.479
  56  689.708
  57  1486.392
  58  1734.522
  59  1359.862
  60  869.8235
  61  1906.64
  62  1251.248
  63  1426.961
  64  715.321
  65  1130.693
  66  1031.219
  67  618.8504
  68  775.4202
  69  725.6702
  70  1210.174
  71  1338.29
  72  557.7767
  73  820.8475
  74  1835.631
  75  1081.246
  76  998.9795
  77  1100.73
  78  1376.034
  79  1635.907
  80  1494.339
  81  1383.597
  82  1548.838
  83  1281.126
  84  1257.295
  85  1351.724
  86  889.4787
  87  483.5984
  88  1127.303
  89  1225.015
  90  989.999
  91  1182.662
  92  1450.021
  93  896.8279
  94  1257.59
  95  783.2721
  96  1376.197
  97  1092.352
  98  1859.918
  99  1304.385
 100  1504.909
 101  1754.437
 102  2249.797
 103  1445.58
 104  1222.961
 105  1104.206
 106  1475.655
 107  221.8414
 108  596.0728
 109  845.8949
 110  1096.287
 111  1232
 112  1204.295
 113  612.6275
 114  1410.171
 115  317.2594
 116  722.6077
 117  551.4421
 118  492.7841
 119  488.9648
 120  -132.0497
 121  1367.3
 122  491.2274
 123  -28.69061
 124  1521.425
 125  1193.854
 126  840.5863
 127  836.8249
 128  703.1447
 129  1083.154
 130  1709.408
 131  1187.856
 132  890.433
 133  1118.3
 134  1055.488
 135  1293.562
 136  160.7244
 137  1125.436
 138  1736.967
 139  1171.457
 140  1393.24
 141  865.0095
 142  1011.825
 143  606.4297
 144  987.5146
 145  431.3624
 146  598.12
 147  69.9898
 148  1348.446
 149  1503.404
 150  913.1212
 151  996.6788
 152  1387.895
 153  1389.388
 154  1009.48
 155  776.3884
 156  1104.076
 157  1380.801
 158  1098.579
 159  1586.856
 160  2410.643
 161  2976.906
 162  3495.571
 163  1778.748
 164  764.7676
 165  775.1727
 166  818.2717
 167  1995.935
 168  2453.995
 169  2171.692
 170  1190.237
 171  1071.438
 172  666.5881
 173  602.5156
 174  1621.303
 175  1434.651
 176  1838.626
 177  1400.774
 178  936.5383
 179  1701.474
 180  999.6332
 181  469.2856
 182  965.047
 183  1845.129
 184  1056.279
 185  693.1649
 186  490.0951
 187  1744.216
 188  1588.341
 189  768.9229
 190  93.78248
 191  406.7116
 192  264.2582
 193  375.0041
 194  841.2283
 195  494.9381
 196  90.18324
 197  372.599
 198  645.6892
 199  330.0246
 200  916.5803
 201  1890.324
 202  1523.856
 203  1312.052
 204  1552.89
 205  1836.664
 206  1422.458
 207  1201.64
 208  1459.875
 209  1062.352
 210  1573.533
 211  812.4277
 212  1109.698
 213  446.1607
 214  660.3852
 215  313.2904
 216  1917.476
 217  1167.085
 218  1084.515
 219  1230.061
 220  1010.999
 221  959.7454
 222  1192.598
 223  1597.155
 224  581.8145
 225  755.9084
 226  905.8364
 227  854.0853
 228  1209.687
 229  781.5921
 230  1187.906
 231  488.0273
 232  998.6786
 233  886.8509
 234  316.5018
 235  836.6303
 236  1810.315
 237  1094.403
 238  1633.577
 239  1324.348
 240  1244.983
 241  1442.319
 242  1417.441
 243  917.1621
 244  1089.038
 245  727.467
 246  957.2263
 247  1009.413
 248  552.3883
 249  415.8854
 250  1354.054
 251  1273.482
 252  660.4879
 253  907.103
 254  762.0225
 255  578.1473
