# Input file       =  1188795939.110369_cleaned.dat
# Candidate        =  PSR_0332+5434
# Telescope        =  AR
# Epoch_topo       =  58003.212478129273
# Epoch_bary       =  N/A
# T_sample         =  0.002
# Data Folded      =  7340032
# Data Avg         =  0.00940357576588305
# Data StdDev      =  1.00001993848939 
# Profile Bins     =  512
# Profile Avg      =  134.813629847429 
# Profile StdDev   =  119.735423672642 
# Reduced chi-sqr  =  1.197
# Prob(Noise)      <  0.00144   (~3.0 sigma)
# P_topo (ms)      =  714.46448761604   +/- 0.000186
# P'_topo (s/s)    =  -0                +/- 9.79e-11
# P''_topo (s/s^2) =  0                 +/- 4.32e-14
# P_bary (ms)      =  N/A
# P'_bary (s/s)    =  N/A
# P''_bary (s/s^2) =  N/A
# P_orb (s)        =  N/A
# asin(i)/c (s)    =  N/A
# eccentricity     =  N/A
# w (rad)          =  N/A
# T_peri           =  N/A
######################################################
   0  68.48673
   1  -15.86729
   2  -50.51225
   3  -49.11081
   4  56.665
   5  72.26965
   6  -14.71195
   7  68.91689
   8  109.4859
   9  119.1694
  10  231.2641
  11  180.7678
  12  120.6959
  13  157.107
  14  304.6895
  15  139.1403
  16  57.00958
  17  84.55735
  18  116.2058
  19  177.3832
  20  166.6899
  21  37.73401
  22  22.09454
  23  112.86
  24  189.9597
  25  200.418
  26  345.6873
  27  278.1335
  28  236.3642
  29  233.4272
  30  185.5995
  31  86.8883
  32  29.93618
  33  85.14735
  34  50.93701
  35  162.063
  36  196.2717
  37  290.7992
  38  188.3093
  39  103.0703
  40  118.257
  41  173.9298
  42  308.1617
  43  221.6071
  44  183.5102
  45  123.1561
  46  90.85869
  47  136.5627
  48  199.9037
  49  174.2894
  50  6.038249
  51  144.5055
  52  192.4121
  53  82.48608
  54  159.9689
  55  94.22988
  56  110.8989
  57  92.58003
  58  -32.92772
  59  -109.0578
  60  52.66167
  61  14.51809
  62  9.452793
  63  96.33787
  64  172.1092
  65  62.49752
  66  85.54812
  67  99.35915
  68  178.8204
  69  221.2024
  70  137.2242
  71  13.42342
  72  73.62454
  73  -45.48119
  74  5.479057
  75  -41.08642
  76  26.59996
  77  130.3402
  78  158.7222
  79  69.2254
  80  177.8737
  81  98.69393
  82  145.4974
  83  177.133
  84  195.9948
  85  261.0744
  86  140.4113
  87  181.3834
  88  230.834
  89  251.2652
  90  117.4745
  91  147.211
  92  75.21242
  93  48.62864
  94  170.3415
  95  145.7459
  96  107.6594
  97  78.9734
  98  189.436
  99  135.3882
 100  156.5298
 101  236.6464
 102  288.5223
 103  186.4797
 104  188.4167
 105  115.9919
 106  111.4629
 107  209.7105
 108  164.0575
 109  -45.18264
 110  -46.81474
 111  100.438
 112  59.23616
 113  -58.47282
 114  8.771523
 115  129.2033
 116  88.80863
 117  191.4255
 118  135.2382
 119  103.9039
 120  158.043
 121  167.299
 122  113.3675
 123  55.47718
 124  40.90764
 125  70.50485
 126  -3.119725
 127  34.99482
 128  166.9478
 129  37.28406
 130  31.07247
 131  99.13104
 132  40.36523
 133  70.38881
 134  -16.27635
 135  98.92381
 136  179.1796
 137  -7.716557
 138  59.58389
 139  47.51544
 140  172.4896
 141  210.3147
 142  161.2922
 143  204.912
 144  268.773
 145  234.5704
 146  143.2687
 147  91.86272
 148  22.27715
 149  6.482095
 150  61.02795
 151  204.5081
 152  149.1112
 153  194.7134
 154  94.87576
 155  -9.750796
 156  59.45984
 157  174.4709
 158  32.89498
 159  -17.66929
 160  66.33106
 161  91.8661
 162  189.8406
 163  277.2329
 164  267.9302
 165  237.8178
 166  260.1144
 167  103.3823
 168  155.5709
 169  162.3448
 170  244.5763
 171  203.8751
 172  121.3251
 173  213.316
 174  88.32508
 175  -153.2168
 176  -68.43793
 177  61.38048
 178  -32.43422
 179  68.58723
 180  154.3241
 181  136.5322
 182  228.8909
 183  182.8496
 184  87.20184
 185  -21.19615
 186  -29.90996
 187  178.6721
 188  68.80046
 189  26.04599
 190  9.178758
 191  92.76427
 192  136.0385
 193  128.5129
 194  75.96088
 195  25.77129
 196  65.72439
 197  217.8096
 198  27.16899
 199  175.7508
 200  144.9078
 201  180.5593
 202  200.8496
 203  38.22967
 204  90.08948
 205  109.0791
 206  34.60968
 207  56.57107
 208  161.5936
 209  125.2152
 210  209.0194
 211  81.56602
 212  106.3066
 213  168.8432
 214  80.32616
 215  180.4354
 216  89.18105
 217  168.1973
 218  61.60236
 219  -9.946654
 220  129.6401
 221  45.53372
 222  88.76697
 223  161.3805
 224  220.3078
 225  143.7399
 226  72.12961
 227  69.663
 228  210.6184
 229  172.9268
 230  189.3513
 231  56.8918
 232  6.775497
 233  97.83595
 234  94.51609
 235  177.4536
 236  291.5413
 237  264.0939
 238  299.2715
 239  126.7005
 240  58.62569
 241  151.771
 242  133.1226
 243  67.00525
 244  239.1107
 245  138.0578
 246  153.5653
 247  81.80131
 248  28.58468
 249  58.71291
 250  60.31752
 251  232.4826
 252  170.4897
 253  136.5592
 254  65.65158
 255  79.20922
 256  76.07526
 257  61.07818
 258  -34.52589
 259  36.811
 260  118.9469
 261  148.8864
 262  110.7643
 263  -39.04837
 264  105.087
 265  137.9195
 266  302.1787
 267  200.9974
 268  40.19956
 269  66.1751
 270  131.1493
 271  179.5028
 272  136.7205
 273  170.2394
 274  157.5633
 275  160.4329
 276  196.3152
 277  18.20592
 278  5.652318
 279  19.54261
 280  115.6823
 281  177.7598
 282  125.4242
 283  180.8867
 284  179.4664
 285  144.5892
 286  109.5681
 287  245.3867
 288  216.5513
 289  67.25028
 290  55.52898
 291  151.6476
 292  171.4074
 293  145.7409
 294  132.5263
 295  145.2717
 296  199.8824
 297  133.7524
 298  55.1859
 299  -34.91411
 300  200.0902
 301  267.1671
 302  101.9665
 303  62.1892
 304  0.3240311
 305  138.1306
 306  156.1033
 307  114.5214
 308  152.9533
 309  -35.89661
 310  65.96989
 311  94.75886
 312  119.4894
 313  126.6391
 314  60.53456
 315  9.071012
 316  104.9964
 317  42.84047
 318  119.915
 319  216.0835
 320  323.8788
 321  200.4688
 322  47.61307
 323  78.35524
 324  239.6367
 325  97.1637
 326  228.295
 327  160.2637
 328  132.3023
 329  80.30222
 330  74.32249
 331  199.1313
 332  200.0059
 333  258.7901
 334  203.8721
 335  190.9281
 336  119.3493
 337  87.90711
 338  -29.42631
 339  -46.43495
 340  191.6171
 341  271.0507
 342  222.8629
 343  152.4035
 344  98.99199
 345  25.44283
 346  128.3657
 347  187.1272
 348  145.8696
 349  134.85
 350  105.1587
 351  41.55225
 352  144.5712
 353  250.1632
 354  198.6066
 355  164.4444
 356  -59.46176
 357  112.9719
 358  269.0376
 359  241.3187
 360  120.7275
 361  118.5944
 362  128.4105
 363  208.1288
 364  6.80393
 365  172.516
 366  206.0229
 367  243.7688
 368  227.2581
 369  193.338
 370  160.5833
 371  52.72778
 372  149.2315
 373  169.9737
 374  205.9388
 375  350.7921
 376  295.9655
 377  256.1272
 378  166.4194
 379  76.62925
 380  91.83325
 381  192.4984
 382  206.1914
 383  197.3104
 384  88.89135
 385  198.3061
 386  103.9683
 387  143.3195
 388  182.9034
 389  220.7783
 390  180.408
 391  279.9962
 392  191.3499
 393  102.6229
 394  117.832
 395  20.90236
 396  35.7714
 397  218.8105
 398  211.8757
 399  141.376
 400  158.878
 401  236.5753
 402  120.9165
 403  223.716
 404  133.6334
 405  145.1667
 406  171.2041
 407  226.6704
 408  195.0248
 409  231.6558
 410  185.3332
 411  137.6855
 412  68.01874
 413  123.5952
 414  -2.522288
 415  15.70013
 416  -58.94262
 417  56.1184
 418  116.8893
 419  91.80135
 420  113.6299
 421  205.3358
 422  137.2518
 423  133.392
 424  205.6412
 425  268.7533
 426  230.2465
 427  143.2261
 428  131.536
 429  101.2144
 430  125.9139
 431  183.3866
 432  148.9021
 433  113.9079
 434  80.27234
 435  58.46787
 436  124.2494
 437  77.27383
 438  62.64083
 439  186.9556
 440  284.9713
 441  311.7057
 442  274.9509
 443  552.4664
 444  629.0489
 445  609.5362
 446  589.6263
 447  486.5887
 448  333.4779
 449  256.635
 450  250.892
 451  219.2729
 452  173.0201
 453  186.1544
 454  229.3022
 455  199.6658
 456  250.8211
 457  289.7481
 458  119.8207
 459  161.6842
 460  271.6195
 461  246.9319
 462  225.4547
 463  197.6775
 464  148.5349
 465  123.3558
 466  254.7702
 467  243.6495
 468  147.9935
 469  216.8514
 470  398.2619
 471  273.6149
 472  15.88582
 473  -31.90034
 474  73.38045
 475  206.3719
 476  221.8359
 477  121.1277
 478  61.07418
 479  106.3852
 480  116.8669
 481  252.7576
 482  188.8025
 483  171.0299
 484  229.1776
 485  144.6747
 486  95.28886
 487  141.9625
 488  148.3226
 489  158.5071
 490  198.6344
 491  240.2387
 492  95.36717
 493  -37.99437
 494  -38.0415
 495  238.1059
 496  98.31501
 497  71.70037
 498  144.25
 499  163.5444
 500  87.58669
 501  88.35133
 502  157.4153
 503  129.5034
 504  113.5422
 505  127.0132
 506  58.66876
 507  121.4055
 508  53.6151
 509  -38.13552
 510  17.01585
 511  81.24937
