# Input file       =  1188968228.122402_cleaned.dat
# Candidate        =  PSR_0332+5434
# Telescope        =  AR
# Epoch_topo       =  58005.206563916690
# Epoch_bary       =  N/A
# T_sample         =  0.002
# Data Folded      =  7340032
# Data Avg         =  0.0109521009666155
# Data StdDev      =  1.00002919081504 
# Profile Bins     =  512
# Profile Avg      =  156.956830646272 
# Profile StdDev   =  119.736531481686 
# Reduced chi-sqr  =  1.168
# Prob(Noise)      <  0.0052   (~2.6 sigma)
# P_topo (ms)      =  714.464834886711  +/- 0.000113
# P'_topo (s/s)    =  -0                +/- 5.94e-11
# P''_topo (s/s^2) =  0                 +/- 2.62e-14
# P_bary (ms)      =  N/A
# P'_bary (s/s)    =  N/A
# P''_bary (s/s^2) =  N/A
# P_orb (s)        =  N/A
# asin(i)/c (s)    =  N/A
# eccentricity     =  N/A
# w (rad)          =  N/A
# T_peri           =  N/A
######################################################
   0  501.2975
   1  333.4358
   2  411.0748
   3  311.7658
   4  240.1509
   5  148.6496
   6  192.0131
   7  225.5545
   8  65.47556
   9  35.07003
  10  244.2094
  11  164.9044
  12  189.3115
  13  225.2317
  14  175.0703
  15  281.8516
  16  253.7999
  17  227.699
  18  216.0828
  19  133.6685
  20  94.28881
  21  68.67849
  22  82.78867
  23  110.2601
  24  -156.2937
  25  6.185934
  26  79.53739
  27  32.78838
  28  -15.74166
  29  154.762
  30  137.6467
  31  120.0942
  32  250.6847
  33  188.5326
  34  132.4418
  35  110.8824
  36  35.99543
  37  227.5582
  38  115.9729
  39  -17.54542
  40  89.0611
  41  240.6687
  42  182.9905
  43  285.8726
  44  166.286
  45  81.27016
  46  83.96001
  47  41.56641
  48  39.0482
  49  -28.95085
  50  26.82359
  51  5.45097
  52  143.3708
  53  194.9092
  54  92.93814
  55  2.640534
  56  144.8046
  57  166.595
  58  12.0533
  59  -87.9976
  60  -73.34576
  61  220.058
  62  171.2433
  63  172.1648
  64  81.49203
  65  143.692
  66  212.1887
  67  238.8456
  68  254.372
  69  159.3667
  70  95.30906
  71  102.9248
  72  3.957393
  73  82.1343
  74  133.5896
  75  169.5338
  76  123.4663
  77  112.4878
  78  23.0018
  79  168.9717
  80  105.2493
  81  73.45885
  82  211.6607
  83  65.60748
  84  144.2783
  85  160.4749
  86  5.776592
  87  193.3143
  88  143.3369
  89  150.0008
  90  115.0647
  91  136.1307
  92  234.3472
  93  225.1008
  94  172.0631
  95  209.9463
  96  54.30336
  97  125.9394
  98  173.4496
  99  188.4222
 100  138.1709
 101  184.744
 102  234.3578
 103  182.1535
 104  178.276
 105  41.90525
 106  160.8503
 107  329.4211
 108  325.9521
 109  310.1584
 110  237.2866
 111  -50.77575
 112  81.31197
 113  284.3655
 114  279.5558
 115  189.0204
 116  -10.00761
 117  119.9299
 118  176.7319
 119  152.0863
 120  41.16233
 121  11.40148
 122  120.2875
 123  189.4541
 124  189.7765
 125  151.4715
 126  194.8051
 127  124.9043
 128  125.5975
 129  89.33128
 130  28.94552
 131  78.16756
 132  115.7167
 133  261.5219
 134  214.9799
 135  231.2923
 136  161.9256
 137  108.122
 138  111.9283
 139  114.7812
 140  139.2513
 141  109.6748
 142  212.4881
 143  200.5955
 144  108.342
 145  58.92374
 146  156.3636
 147  126.5521
 148  179.7928
 149  84.05992
 150  152.7762
 151  226.151
 152  136.4008
 153  81.75165
 154  136.5428
 155  153.2542
 156  294.4124
 157  232.9278
 158  149.4981
 159  135.749
 160  56.6091
 161  222.1807
 162  148.189
 163  137.0714
 164  26.21524
 165  32.79476
 166  66.75375
 167  -41.71638
 168  -26.73302
 169  165.7488
 170  133.9854
 171  96.66597
 172  146.8033
 173  193.5536
 174  173.061
 175  230.7454
 176  56.45386
 177  113.2524
 178  314.8242
 179  180.1817
 180  142.4151
 181  88.23811
 182  146.7359
 183  282.5692
 184  159.6399
 185  17.47852
 186  107.1234
 187  160.4911
 188  182.9198
 189  109.7979
 190  165.7032
 191  292.6265
 192  174.7767
 193  139.8884
 194  256.6871
 195  118.6012
 196  136.3926
 197  236.6433
 198  189.6725
 199  238.7193
 200  96.82203
 201  168.6407
 202  33.78238
 203  63.13776
 204  59.26858
 205  245.8951
 206  303.8488
 207  187.879
 208  114.2065
 209  142.1289
 210  192.9961
 211  286.476
 212  267.7469
 213  283.2654
 214  273.2838
 215  140.774
 216  167.712
 217  185.5061
 218  266.081
 219  217.4465
 220  139.8853
 221  236.7111
 222  225.4785
 223  167.9743
 224  220.2422
 225  345.0916
 226  280.1213
 227  247.5685
 228  343.3134
 229  188.911
 230  134.6182
 231  88.51252
 232  119.5248
 233  261.3547
 234  269.906
 235  -9.885807
 236  65.33639
 237  165.2117
 238  219.5457
 239  132.5533
 240  186.0536
 241  324.8584
 242  397.7607
 243  323.8891
 244  264.7348
 245  185.1923
 246  83.6383
 247  67.72807
 248  176.0665
 249  294.4632
 250  329.7694
 251  211.6167
 252  104.4339
 253  199.8658
 254  97.14743
 255  125.7458
 256  211.1503
 257  277.17
 258  394.246
 259  250.7473
 260  120.6943
 261  169.7171
 262  122.5814
 263  143.3517
 264  229.7269
 265  194.9894
 266  273.4131
 267  284.1838
 268  228.6858
 269  71.07804
 270  107.1187
 271  167.8026
 272  184.2161
 273  159.144
 274  13.11369
 275  147.3515
 276  189.5705
 277  145.8229
 278  61.25648
 279  81.1387
 280  99.60852
 281  129.2219
 282  112.1043
 283  263.1881
 284  230.7355
 285  81.42926
 286  75.47465
 287  145.5329
 288  106.04
 289  88.41086
 290  170.5324
 291  224.9898
 292  122.3181
 293  132.3076
 294  235.2661
 295  165.2825
 296  150.8902
 297  194.2628
 298  174.4968
 299  195.4707
 300  259.514
 301  250.2646
 302  156.6822
 303  100.0671
 304  21.87715
 305  197.7675
 306  278.5266
 307  52.0696
 308  68.21431
 309  171.8103
 310  82.9089
 311  23.9381
 312  68.7732
 313  127.828
 314  197.2068
 315  121.338
 316  72.52329
 317  121.1491
 318  20.81079
 319  115.6152
 320  276.6316
 321  221.532
 322  171.7872
 323  229.6544
 324  100.0901
 325  62.97359
 326  83.50736
 327  112.0052
 328  253.6518
 329  247.4546
 330  119.0613
 331  52.73326
 332  180.8906
 333  144.9173
 334  201.5795
 335  237.4527
 336  176.6683
 337  66.94749
 338  79.52633
 339  41.31773
 340  43.02559
 341  216.7155
 342  156.7643
 343  42.5935
 344  125.6019
 345  172.7754
 346  -43.37939
 347  162.9789
 348  226.2309
 349  173.5451
 350  156.987
 351  218.0533
 352  275.0423
 353  222.9485
 354  263.4518
 355  171.2777
 356  152.403
 357  69.76443
 358  82.33807
 359  162.3284
 360  125.5386
 361  171.5039
 362  289.4954
 363  76.06699
 364  61.37274
 365  -4.493337
 366  125.5904
 367  163.7691
 368  29.67771
 369  47.02433
 370  115.7375
 371  18.49476
 372  41.71564
 373  -15.07685
 374  49.11492
 375  42.86758
 376  -47.16385
 377  146.2194
 378  184.7862
 379  203.7654
 380  137.6119
 381  31.76263
 382  78.48244
 383  162.5838
 384  226.1918
 385  177.5127
 386  69.98926
 387  222.5797
 388  141.4526
 389  127.2084
 390  137.3415
 391  71.50129
 392  58.80364
 393  210.583
 394  252.0471
 395  91.73406
 396  -71.16043
 397  296.4667
 398  359.0351
 399  319.1443
 400  119.1172
 401  83.19573
 402  151.3488
 403  205.8244
 404  196.0388
 405  276.4879
 406  391.9539
 407  225.5725
 408  169.1807
 409  216.8349
 410  308.3845
 411  224.8384
 412  58.66936
 413  306.7076
 414  320.5689
 415  203.7374
 416  37.3413
 417  189.124
 418  134.8267
 419  168.3723
 420  87.05819
 421  192.485
 422  279.1418
 423  115.9424
 424  52.1388
 425  133.2372
 426  121.5375
 427  153.0839
 428  270.0552
 429  359.7944
 430  264.2356
 431  148.8748
 432  144.2065
 433  91.61804
 434  152.1655
 435  146.5875
 436  219.9727
 437  182.0584
 438  137.2483
 439  195.2099
 440  294.6161
 441  223.4592
 442  83.72659
 443  273.6601
 444  354.1471
 445  192.3123
 446  66.51333
 447  151.5186
 448  121.9512
 449  132.5138
 450  141.09
 451  96.58221
 452  93.61867
 453  193.521
 454  311.1118
 455  307.8431
 456  96.99457
 457  -9.987136
 458  46.01773
 459  57.77661
 460  -50.87587
 461  -9.466478
 462  172.7289
 463  134.1794
 464  51.11063
 465  183.2858
 466  246.5994
 467  74.06139
 468  4.549067
 469  93.44576
 470  144.0897
 471  118.7989
 472  124.5872
 473  169.1273
 474  246.6354
 475  212.1786
 476  155.4537
 477  -48.077
 478  182.6064
 479  397.088
 480  256.3545
 481  124.4613
 482  10.52627
 483  1.095045
 484  127.973
 485  185.1928
 486  175.2673
 487  203.3412
 488  144.5894
 489  208.4273
 490  159.8174
 491  70.3815
 492  151.0159
 493  176.8618
 494  81.27079
 495  99.06067
 496  202.8454
 497  318.7821
 498  224.41
 499  194.1401
 500  215.9358
 501  68.28209
 502  251.6026
 503  178.19
 504  235.8625
 505  176.0685
 506  190.3675
 507  282.85
 508  420.9445
 509  426.7632
 510  473.3774
 511  511.7988
