# Input file       =  1188608650.106318_cleaned.dat
# Candidate        =  PSR_0332+5434
# Telescope        =  AR
# Epoch_topo       =  58001.044781323122
# Epoch_bary       =  N/A
# T_sample         =  0.002
# Data Folded      =  7340032
# Data Avg         =  0.00718462458229893
# Data StdDev      =  0.999952525134694
# Profile Bins     =  512
# Profile Avg      =  102.982236988225 
# Profile StdDev   =  119.727352066991 
# Reduced chi-sqr  =  1.296
# Prob(Noise)      <  6.75e-06   (~4.4 sigma)
# P_topo (ms)      =  714.463841861104  +/- 0.000228
# P'_topo (s/s)    =  -0                +/- 1.2e-10
# P''_topo (s/s^2) =  0                 +/- 5.32e-14
# P_bary (ms)      =  N/A
# P'_bary (s/s)    =  N/A
# P''_bary (s/s^2) =  N/A
# P_orb (s)        =  N/A
# asin(i)/c (s)    =  N/A
# eccentricity     =  N/A
# w (rad)          =  N/A
# T_peri           =  N/A
######################################################
   0  15.88942
   1  -33.24374
   2  -4.164361
   3  137.8982
   4  -14.74845
   5  179.0617
   6  84.41057
   7  90.75404
   8  94.15276
   9  71.10735
  10  80.29165
  11  137.0544
  12  112.7358
  13  13.56087
  14  34.66344
  15  150.8795
  16  136.8565
  17  -29.25856
  18  -77.95562
  19  -24.62736
  20  27.61309
  21  123.1489
  22  94.51513
  23  -64.5135
  24  -94.21515
  25  -30.73254
  26  53.66684
  27  -11.5355
  28  -57.60223
  29  157.1668
  30  249.3629
  31  92.30081
  32  172.0587
  33  143.6472
  34  211.2223
  35  164.5391
  36  248.5789
  37  250.2551
  38  274.4514
  39  276.4842
  40  287.5031
  41  87.08493
  42  170.7801
  43  207.9675
  44  224.3767
  45  110.0361
  46  81.68221
  47  181.1698
  48  139.8143
  49  52.15715
  50  -12.6369
  51  10.73628
  52  -69.36506
  53  41.72675
  54  136.3792
  55  91.67619
  56  92.32999
  57  15.2746
  58  -31.02419
  59  -8.344904
  60  75.14969
  61  57.30431
  62  -35.49268
  63  6.990425
  64  73.78921
  65  17.73538
  66  224.4992
  67  258.8691
  68  28.06693
  69  41.3926
  70  -43.08081
  71  52.57077
  72  61.63011
  73  100.4827
  74  106.4853
  75  19.09148
  76  -35.57019
  77  -22.6547
  78  -63.52191
  79  71.98979
  80  82.77365
  81  131.5013
  82  78.84531
  83  -32.57274
  84  24.30927
  85  155.621
  86  214.3186
  87  116.2174
  88  134.7729
  89  97.15515
  90  4.241388
  91  -38.49332
  92  -61.43571
  93  -2.052278
  94  15.17056
  95  -102.4022
  96  58.24064
  97  179.2604
  98  33.10432
  99  -0.947331
 100  91.54472
 101  129.8529
 102  142.0582
 103  217.3376
 104  100.1603
 105  113.2963
 106  106.1847
 107  75.63406
 108  11.54497
 109  101.4078
 110  71.87762
 111  22.3407
 112  105.196
 113  164.2713
 114  248.1347
 115  128.4271
 116  12.16573
 117  11.02827
 118  53.42178
 119  280.8255
 120  167.4381
 121  152.7166
 122  186.6516
 123  164.4936
 124  210.2563
 125  176.0066
 126  200.0198
 127  66.77718
 128  -21.28774
 129  60.18308
 130  173.8466
 131  -4.995666
 132  -63.14297
 133  42.85887
 134  -111.4937
 135  -29.47973
 136  15.13966
 137  -48.85472
 138  22.016
 139  160.9145
 140  129.1137
 141  -13.82823
 142  21.96998
 143  -36.4297
 144  -5.129985
 145  112.0264
 146  166.1787
 147  178.2001
 148  74.76163
 149  114.5223
 150  191.7977
 151  181.3554
 152  102.8911
 153  137.4886
 154  -29.31175
 155  37.04781
 156  60.40448
 157  129.491
 158  121.7976
 159  66.64664
 160  171.9197
 161  207.3396
 162  237.8471
 163  316.9998
 164  136.8341
 165  123.3726
 166  199.7164
 167  164.6958
 168  71.76686
 169  67.68676
 170  278.6695
 171  349.0453
 172  229.2816
 173  85.12714
 174  62.53994
 175  17.34068
 176  121.9545
 177  246.4735
 178  191.0751
 179  120.0365
 180  184.5903
 181  267.1233
 182  148.6699
 183  91.10243
 184  30.6317
 185  97.95447
 186  150.5084
 187  90.17776
 188  116.6021
 189  86.74933
 190  45.19149
 191  10.23288
 192  205.5966
 193  229.8481
 194  64.8368
 195  -13.64778
 196  117.5793
 197  182.8566
 198  162.9894
 199  -31.15834
 200  145.7235
 201  95.53413
 202  -8.530442
 203  -1.148581
 204  106.9046
 205  203.9481
 206  74.54045
 207  1.701446
 208  98.43042
 209  144.3951
 210  245.7955
 211  151.9233
 212  79.04626
 213  157.4664
 214  183.3864
 215  207.4319
 216  230.3462
 217  74.96413
 218  146.7521
 219  205.2151
 220  169.5649
 221  179.0451
 222  114.2416
 223  37.4096
 224  65.59333
 225  19.6875
 226  54.15084
 227  1.547456
 228  43.17659
 229  42.32232
 230  49.26294
 231  -91.0129
 232  -67.84737
 233  -38.87965
 234  194.4814
 235  199.9395
 236  -10.45876
 237  140.3175
 238  124.9315
 239  -74.37524
 240  19.46733
 241  168.0058
 242  195.7074
 243  276.4793
 244  166.821
 245  99.75418
 246  84.65238
 247  79.41531
 248  147.1263
 249  46.32335
 250  -68.94315
 251  -37.80458
 252  -2.27762
 253  116.049
 254  117.4327
 255  96.4992
 256  63.50508
 257  33.03955
 258  37.68806
 259  37.66235
 260  225.268
 261  161.5261
 262  0.2528232
 263  33.99893
 264  53.28284
 265  79.28732
 266  57.55447
 267  149.8462
 268  182.3849
 269  118.6474
 270  237.3788
 271  130.7305
 272  -16.28638
 273  33.24334
 274  13.20333
 275  147.5557
 276  112.6117
 277  115.1721
 278  161.9284
 279  141.8959
 280  97.04491
 281  84.26678
 282  18.3376
 283  88.43283
 284  124.7181
 285  49.73216
 286  22.79017
 287  35.22176
 288  137.8099
 289  127.0617
 290  152.8891
 291  132.1711
 292  173.452
 293  39.6408
 294  128.6652
 295  49.20417
 296  92.37749
 297  157.6087
 298  67.15095
 299  116.956
 300  93.56026
 301  1.927126
 302  -65.61939
 303  65.87823
 304  90.09939
 305  131.6462
 306  37.55078
 307  64.41575
 308  103.3054
 309  135.0241
 310  143.0561
 311  13.44865
 312  33.92175
 313  191.511
 314  249.9363
 315  68.39395
 316  126.0769
 317  133.6196
 318  59.50187
 319  -18.31247
 320  49.87747
 321  28.91545
 322  99.10177
 323  113.7805
 324  62.7718
 325  113.7206
 326  211.8513
 327  181.7288
 328  145.6792
 329  260.4296
 330  143.0125
 331  35.91124
 332  98.78183
 333  111.8489
 334  93.0874
 335  141.3374
 336  118.4292
 337  141.573
 338  202.7031
 339  133.2327
 340  46.66911
 341  135.3668
 342  93.88027
 343  47.13936
 344  81.20528
 345  0.6450837
 346  -58.95035
 347  55.98688
 348  185.3864
 349  128.7878
 350  91.75131
 351  76.56125
 352  123.7352
 353  108.2342
 354  103.3375
 355  53.13316
 356  70.96465
 357  180.5788
 358  175.8202
 359  149.1942
 360  86.92321
 361  50.51334
 362  56.5918
 363  139.6294
 364  101.2905
 365  123.1141
 366  134.3973
 367  174.8816
 368  220.6843
 369  139.9812
 370  103.464
 371  -4.615026
 372  -32.11356
 373  4.495387
 374  148.2534
 375  61.36031
 376  55.32475
 377  122.1149
 378  29.73512
 379  116.7406
 380  202.9393
 381  115.3896
 382  116.4653
 383  227.6218
 384  123.0518
 385  75.0232
 386  163.381
 387  128.1331
 388  64.63604
 389  61.75055
 390  123.8686
 391  76.40019
 392  117.0534
 393  46.94012
 394  5.906203
 395  110.2673
 396  42.113
 397  29.09236
 398  3.752191
 399  53.47853
 400  134.1231
 401  26.94686
 402  105.9375
 403  126.9133
 404  104.3913
 405  152.502
 406  214.4036
 407  113.1004
 408  36.53439
 409  105.8319
 410  97.85803
 411  23.38809
 412  134.9951
 413  75.42458
 414  41.65263
 415  125.2958
 416  180.6322
 417  87.28649
 418  -36.84943
 419  27.71668
 420  33.36761
 421  86.93285
 422  234.0899
 423  245.9634
 424  184.2212
 425  63.28374
 426  107.0716
 427  133.472
 428  151.6701
 429  194.806
 430  171.114
 431  98.29948
 432  32.50599
 433  48.10273
 434  171.9314
 435  122.0124
 436  58.58232
 437  125.9975
 438  69.68272
 439  25.05223
 440  -49.58654
 441  38.27011
 442  144.2449
 443  60.07031
 444  78.37801
 445  26.16948
 446  41.67824
 447  -60.28923
 448  21.96014
 449  163.8913
 450  119.0937
 451  30.05102
 452  -49.62339
 453  130.6186
 454  91.8681
 455  -7.450011
 456  21.11034
 457  305.9873
 458  345.5255
 459  241.6497
 460  179.872
 461  6.105487
 462  58.65084
 463  176.0698
 464  109.2831
 465  189.1047
 466  190.8425
 467  170.5691
 468  94.95937
 469  62.22949
 470  80.0004
 471  71.94103
 472  35.49343
 473  117.8098
 474  314.3903
 475  336.3938
 476  178.4431
 477  284.3174
 478  288.0813
 479  386.4985
 480  555.2789
 481  647.7006
 482  684.7126
 483  624.7493
 484  531.4122
 485  406.4442
 486  260.15
 487  91.12718
 488  8.815989
 489  48.84838
 490  180.7569
 491  215.7721
 492  155.5562
 493  82.83983
 494  146.0126
 495  -47.25568
 496  64.78985
 497  60.77267
 498  33.18064
 499  11.40939
 500  155.5441
 501  89.82831
 502  -37.85608
 503  127.2815
 504  251.6544
 505  140.57
 506  11.31102
 507  119.864
 508  72.8254
 509  170.6245
 510  82.4553
 511  -20.23608
