# Input file       =  1188795939.110369_cleaned.dat
# Candidate        =  PSR_0332+5434
# Telescope        =  AR
# Epoch_topo       =  58003.212478129273
# Epoch_bary       =  N/A
# T_sample         =  0.002
# Data Folded      =  7340032
# Data Avg         =  0.0299091423377312
# Data StdDev      =  3.04543619093366 
# Profile Bins     =  1024
# Profile Avg      =  214.392422186274 
# Profile StdDev   =  257.838937437641 
# Reduced chi-sqr  =  1.107
# Prob(Noise)      <  0.00939   (~2.3 sigma)
# P_topo (ms)      =  714.46448761604   +/- 0.000208
# P'_topo (s/s)    =  -0                +/- 1.1e-10
# P''_topo (s/s^2) =  0                 +/- 4.86e-14
# P_bary (ms)      =  N/A
# P'_bary (s/s)    =  N/A
# P''_bary (s/s^2) =  N/A
# P_orb (s)        =  N/A
# asin(i)/c (s)    =  N/A
# eccentricity     =  N/A
# w (rad)          =  N/A
# T_peri           =  N/A
######################################################
   0  15.84692
   1  -6.153975
   2  -35.95749
   3  114.4517
   4  88.63976
   5  30.82601
   6  -48.48188
   7  11.40974
   8  30.66716
   9  140.9838
  10  258.8062
  11  266.7236
  12  130.4331
  13  -86.54583
  14  22.68836
  15  114.7372
  16  212.3384
  17  53.63446
  18  69.71453
  19  53.17999
  20  123.1393
  21  60.9464
  22  -25.51689
  23  -58.11526
  24  93.51772
  25  292.7091
  26  326.0889
  27  70.61775
  28  0.03707586
  29  60.48471
  30  95.02837
  31  70.53078
  32  78.68037
  33  232.8342
  34  283.6363
  35  336.2037
  36  393.1459
  37  304.5927
  38  222.9525
  39  208.1758
  40  311.8061
  41  289.4804
  42  393.9118
  43  435.9982
  44  339.3068
  45  250.7732
  46  234.6391
  47  207.4502
  48  120.59
  49  68.2613
  50  24.0042
  51  44.56464
  52  6.290139
  53  28.94095
  54  55.43798
  55  196.8439
  56  325.4218
  57  253.7049
  58  287.4409
  59  265.3449
  60  400.5554
  61  284.2585
  62  212.1881
  63  102.1425
  64  5.367165
  65  -12.3711
  66  40.08986
  67  196.8939
  68  235.6785
  69  231.953
  70  57.5465
  71  2.97226
  72  -38.32314
  73  101.5737
  74  123.7016
  75  162.3204
  76  162.5322
  77  242.0406
  78  303.189
  79  299.3806
  80  424.258
  81  414.3875
  82  464.3812
  83  313.1601
  84  356.8383
  85  356.841
  86  390.2894
  87  252.567
  88  164.0767
  89  176.1735
  90  225.9017
  91  301.0777
  92  233.6354
  93  270.0646
  94  354.9607
  95  449.8697
  96  364.8656
  97  243.0188
  98  187.1585
  99  248.3637
 100  367.6828
 101  298.9493
 102  169.4155
 103  -69.2341
 104  -224.2959
 105  -251.3552
 106  -195.2167
 107  47.02909
 108  67.74414
 109  102.959
 110  -49.99517
 111  -115.1708
 112  81.0687
 113  256.2805
 114  311.7574
 115  204.5233
 116  236.3998
 117  313.4477
 118  400.6562
 119  384.287
 120  356.2301
 121  243.7638
 122  157.5349
 123  66.41384
 124  -41.166
 125  -68.11787
 126  -48.44716
 127  48.44685
 128  283.2106
 129  299.1476
 130  150.4361
 131  -13.98252
 132  67.74183
 133  133.0286
 134  47.85509
 135  7.304146
 136  136.6707
 137  187.5687
 138  146.3766
 139  168.1552
 140  223.8025
 141  195.6229
 142  158.9029
 143  66.36935
 144  88.67273
 145  -19.94667
 146  39.28667
 147  266.919
 148  314.3549
 149  236.9807
 150  -5.93989
 151  94.1301
 152  255.4725
 153  318.7844
 154  225.1011
 155  156.8201
 156  230.7978
 157  393.353
 158  343.2408
 159  204.27
 160  39.77525
 161  68.58274
 162  101.471
 163  144.4142
 164  176.6037
 165  185.0846
 166  68.63166
 167  87.50887
 168  60.59693
 169  199.9255
 170  236.4205
 171  183.5174
 172  160.2617
 173  222.241
 174  359.2996
 175  264.5911
 176  161.5229
 177  48.98717
 178  175.0097
 179  273.7659
 180  322.386
 181  175.6135
 182  109.1597
 183  196.4132
 184  272.092
 185  246.9305
 186  159.3801
 187  60.94997
 188  221.2551
 189  250.4461
 190  95.39122
 191  -95.57375
 192  -106.7812
 193  105.2246
 194  216.9391
 195  153.5248
 196  47.8406
 197  -56.59863
 198  103.8886
 199  182.7551
 200  252.6667
 201  259.8875
 202  325.1116
 203  321.0037
 204  154.035
 205  100.7954
 206  102.4368
 207  159.3944
 208  77.83398
 209  192.0368
 210  244.2366
 211  332.2252
 212  242.7751
 213  284.279
 214  321.997
 215  283.9281
 216  74.6069
 217  -19.85231
 218  -3.932179
 219  96.72918
 220  227.6983
 221  193.1773
 222  144.5247
 223  260.5757
 224  284.7026
 225  436.2916
 226  455.4115
 227  459.8884
 228  426.9948
 229  404.0505
 230  491.4409
 231  449.5472
 232  205.2569
 233  117.9676
 234  104.9631
 235  194.744
 236  299.7242
 237  316.9532
 238  292.9699
 239  117.7969
 240  73.41283
 241  236.4078
 242  378.3343
 243  310.6591
 244  192.7544
 245  156.647
 246  238.6324
 247  200.6316
 248  170.1371
 249  82.19163
 250  54.64518
 251  73.75024
 252  42.73853
 253  38.86917
 254  63.54037
 255  189.2324
 256  397.7896
 257  378.9968
 258  289.5296
 259  270.1765
 260  246.5633
 261  336.7625
 262  137.2722
 263  137.3703
 264  74.1746
 265  79.72512
 266  98.91541
 267  90.27724
 268  173.0256
 269  33.19647
 270  0.8253663
 271  -24.72631
 272  87.76684
 273  153.5363
 274  140.4291
 275  271.3037
 276  218.0224
 277  291.2137
 278  254.5627
 279  84.32981
 280  -35.51458
 281  -21.6432
 282  172.9748
 283  227.5273
 284  162.3244
 285  343.5049
 286  421.4245
 287  522.0119
 288  326.0004
 289  149.2793
 290  97.07928
 291  80.45778
 292  125.6161
 293  219.3842
 294  205.9042
 295  339.7375
 296  220.4832
 297  257.3802
 298  209.897
 299  206.0737
 300  290.1305
 301  232.4872
 302  241.8225
 303  183.5152
 304  196.1421
 305  321.2249
 306  379.1458
 307  237.8418
 308  89.60144
 309  95.45435
 310  61.2424
 311  16.76716
 312  13.2426
 313  169.9018
 314  172.9377
 315  244.6268
 316  302.621
 317  222.8326
 318  181.1327
 319  199.7896
 320  288.2641
 321  237.2926
 322  283.0119
 323  340.5932
 324  260.7201
 325  172.3209
 326  192.9355
 327  362.2077
 328  447.4917
 329  402.0759
 330  356.5394
 331  243.1214
 332  161.7269
 333  25.15785
 334  120.5145
 335  171.0018
 336  235.3463
 337  200.9234
 338  205.3194
 339  295.3491
 340  219.1272
 341  144.3694
 342  242.2785
 343  150.4549
 344  251.638
 345  221.8835
 346  397.1871
 347  305.9219
 348  247.9897
 349  203.8905
 350  139.2979
 351  -14.30741
 352  -62.85367
 353  39.01745
 354  313.3489
 355  444.9919
 356  516.4165
 357  362.3577
 358  283.8944
 359  59.90087
 360  172.526
 361  67.14943
 362  -25.814
 363  3.794844
 364  163.2085
 365  320.9153
 366  253.55
 367  197.9674
 368  228.181
 369  199.2352
 370  279.1996
 371  170.8268
 372  1.510652
 373  -68.22409
 374  170.0519
 375  260.6667
 376  227.026
 377  85.52547
 378  239.207
 379  244.3902
 380  238.5042
 381  193.61
 382  128.3095
 383  19.15037
 384  -6.346282
 385  163.7469
 386  237.0298
 387  235.1391
 388  83.76782
 389  117.6176
 390  178.5925
 391  304.9986
 392  368.1066
 393  465.1348
 394  531.1558
 395  495.9698
 396  346.6111
 397  108.4859
 398  64.39185
 399  82.8039
 400  127.3479
 401  294.8885
 402  454.1665
 403  295.6665
 404  158.3049
 405  179.7529
 406  343.5856
 407  345.3626
 408  234.7722
 409  280.132
 410  251.8875
 411  236.5419
 412  187.8301
 413  127.5704
 414  123.1076
 415  200.0674
 416  316.4233
 417  327.1339
 418  305.0689
 419  324.1552
 420  353.9628
 421  361.9415
 422  363.1534
 423  396.446
 424  327.4667
 425  371.4676
 426  250.5848
 427  122.2596
 428  103.5585
 429  88.48163
 430  -64.4709
 431  -189.0623
 432  -132.6335
 433  73.97332
 434  256.0742
 435  392.5753
 436  424.1218
 437  376.1758
 438  345.1611
 439  356.0847
 440  246.7591
 441  186.4341
 442  133.3478
 443  197.5208
 444  51.48633
 445  61.60161
 446  209.1211
 447  343.1824
 448  346.3947
 449  242.5779
 450  251.2912
 451  231.9774
 452  261.991
 453  254.5878
 454  222.4048
 455  73.59774
 456  109.3895
 457  130.9657
 458  269.9219
 459  353.3686
 460  470.827
 461  378.6473
 462  311.1712
 463  286.214
 464  298.0686
 465  4.16314
 466  -126.0806
 467  19.22631
 468  152.2089
 469  322.7811
 470  384.868
 471  538.4873
 472  405.7648
 473  242.8798
 474  205.7145
 475  206.488
 476  234.791
 477  122.7071
 478  152.757
 479  263.1307
 480  383.0368
 481  219.8952
 482  43.26056
 483  105.9453
 484  278.0457
 485  336.3357
 486  284.4621
 487  325.207
 488  424.2158
 489  403.0728
 490  432.5549
 491  353.5969
 492  350.7968
 493  249.2784
 494  300.228
 495  243.02
 496  133.0888
 497  21.52763
 498  224.5715
 499  335.9779
 500  325.5922
 501  138.4021
 502  327.5488
 503  532.6191
 504  565.4841
 505  438.119
 506  475.9654
 507  516.2404
 508  447.9359
 509  316.2678
 510  271.9972
 511  284.7783
 512  143.5162
 513  108.6144
 514  130.9607
 515  281.7493
 516  319.3265
 517  274.291
 518  342.0705
 519  363.4992
 520  374.6362
 521  199.459
 522  134.1138
 523  193.7569
 524  295.3114
 525  296.3086
 526  140.7786
 527  156.4212
 528  161.7871
 529  255.4984
 530  267.9824
 531  330.9152
 532  379.4857
 533  352.144
 534  263.5158
 535  315.9545
 536  419.3232
 537  461.0067
 538  323.9485
 539  157.6832
 540  121.8465
 541  208.5778
 542  174.9078
 543  106.7252
 544  54.82942
 545  59.26125
 546  68.58596
 547  146.4371
 548  326.777
 549  388.2076
 550  314.4867
 551  232.6322
 552  244.6843
 553  320.4916
 554  284.9333
 555  354.7621
 556  382.6206
 557  320.9074
 558  186.7135
 559  192.4655
 560  344.3491
 561  341.8015
 562  200.3791
 563  125.4325
 564  240.8524
 565  293.193
 566  244.6872
 567  224.9862
 568  368.7484
 569  319.1785
 570  346.7744
 571  336.2726
 572  426.3064
 573  267.2992
 574  294.2602
 575  283.3349
 576  254.0477
 577  60.39828
 578  75.62837
 579  194.0074
 580  245.3112
 581  79.50184
 582  -33.38963
 583  -17.89876
 584  53.3204
 585  65.99059
 586  -78.40161
 587  -75.7599
 588  52.22672
 589  263.5085
 590  233.8511
 591  184.5301
 592  129.2786
 593  102.4548
 594  161.6292
 595  245.2027
 596  310.8715
 597  244.4075
 598  222.6108
 599  135.8058
 600  213.6778
 601  215.4601
 602  316.9699
 603  348.7407
 604  393.2502
 605  382.4087
 606  337.5417
 607  354.66
 608  286.59
 609  190.8911
 610  188.0738
 611  228.3644
 612  143.2367
 613  183.0883
 614  127.4021
 615  243.4358
 616  275.5048
 617  317.4684
 618  265.3781
 619  64.57891
 620  247.8955
 621  206.8683
 622  185.1256
 623  43.11811
 624  43.14276
 625  158.1029
 626  172.8453
 627  229.8527
 628  121.3756
 629  66.40543
 630  88.92266
 631  278.1081
 632  287.2047
 633  392.1199
 634  420.5706
 635  505.4309
 636  503.2495
 637  380.1113
 638  419.9298
 639  538.4666
 640  815.6859
 641  906.4662
 642  953.4896
 643  884.5299
 644  870.6695
 645  849.126
 646  803.4858
 647  727.35
 648  682.3583
 649  596.6329
 650  505.5556
 651  347.6639
 652  428.5287
 653  419.5089
 654  425.2408
 655  338.5431
 656  317.3597
 657  276.0505
 658  253.1685
 659  262.1068
 660  278.9568
 661  284.1612
 662  401.4838
 663  366.8225
 664  321.4625
 665  284.11
 666  350.7614
 667  428.7093
 668  472.6039
 669  359.673
 670  234.2536
 671  145.5751
 672  224.7864
 673  371.586
 674  415.474
 675  496.0692
 676  421.0362
 677  409.5728
 678  369.4524
 679  384.0085
 680  289.58
 681  234.1573
 682  247.8816
 683  201.5043
 684  236.5837
 685  224.8752
 686  458.9437
 687  437.2274
 688  401.0782
 689  282.8124
 690  253.6343
 691  258.8566
 692  355.0818
 693  528.6995
 694  660.523
 695  598.7173
 696  479.6435
 697  273.9214
 698  26.12855
 699  -74.00686
 700  -19.9605
 701  122.2806
 702  133.8816
 703  141.706
 704  285.5904
 705  392.5307
 706  380.1685
 707  325.7148
 708  261.1069
 709  133.4773
 710  76.42561
 711  89.93432
 712  175.8481
 713  153.2385
 714  171.0657
 715  298.7033
 716  456.8481
 717  467.9818
 718  357.4954
 719  198.9189
 720  246.9207
 721  281.4583
 722  331.6883
 723  299.5927
 724  195.3738
 725  135.4896
 726  121.2853
 727  156.6218
 728  219.0278
 729  234.5093
 730  225.9552
 731  173.0398
 732  233.4294
 733  213.6976
 734  290.0207
 735  400.6577
 736  366.8797
 737  303.0686
 738  106.8819
 739  89.93336
 740  -33.91138
 741  -110.3256
 742  -29.01065
 743  168.0492
 744  458.6286
 745  384.5799
 746  200.8576
 747  64.61134
 748  80.82761
 749  162.6192
 750  210.0448
 751  316.2074
 752  293.8118
 753  118.7945
 754  177.7743
 755  78.72597
 756  198.6808
 757  167.8137
 758  268.4173
 759  291.9991
 760  197.1773
 761  176.2269
 762  99.77088
 763  231.3348
 764  171.867
 765  185.8239
 766  106.036
 767  169.7467
 768  247.1013
 769  190.8416
 770  154.4479
 771  -27.80298
 772  -16.2156
 773  -52.41993
 774  26.49339
 775  73.22746
 776  125.0778
 777  148.6535
 778  127.2327
 779  75.56075
 780  43.56421
 781  -10.18801
 782  4.717888
 783  -24.00307
 784  -62.27489
 785  52.44032
 786  96.86463
 787  191.7515
 788  114.6081
 789  79.76098
 790  -46.7091
 791  -21.54454
 792  86.29813
 793  225.6181
 794  182.1451
 795  145.7608
 796  192.0989
 797  287.7483
 798  394.1302
 799  408.0027
 800  349.9525
 801  297.1478
 802  244.2619
 803  240.3146
 804  244.828
 805  314.1646
 806  552.0555
 807  429.6506
 808  285.5917
 809  145.8692
 810  158.1541
 811  219.4693
 812  111.6996
 813  248.2193
 814  124.7506
 815  277.2984
 816  282.6774
 817  342.8708
 818  289.7144
 819  224.1759
 820  101.738
 821  -8.089365
 822  52.90751
 823  143.4505
 824  185.1063
 825  254.4763
 826  318.3973
 827  242.4345
 828  257.2716
 829  469.3858
 830  600.286
 831  502.9581
 832  430.9999
 833  450.2819
 834  370.2767
 835  339.6593
 836  348.9456
 837  335.0474
 838  283.4986
 839  273.1619
 840  173.0367
 841  113.1643
 842  75.19288
 843  116.702
 844  135.9677
 845  132.738
 846  63.2425
 847  96.86936
 848  219.9217
 849  314.2761
 850  300.9278
 851  328.0396
 852  458.0827
 853  419.9363
 854  302.7874
 855  131.6668
 856  93.47
 857  142.076
 858  220.3405
 859  205.3416
 860  302.3981
 861  405.3331
 862  521.1423
 863  441.5609
 864  342.5278
 865  286.1771
 866  260.5497
 867  231.7132
 868  179.6006
 869  176.7961
 870  212.8434
 871  189.1192
 872  236.312
 873  274.896
 874  289.8469
 875  269.4061
 876  305.0679
 877  173.1896
 878  41.02926
 879  -21.54839
 880  220.1494
 881  336.9569
 882  328.1961
 883  106.6981
 884  91.72953
 885  170.1902
 886  268.8
 887  212.612
 888  104.4387
 889  125.861
 890  133.5953
 891  187.8064
 892  94.02733
 893  120.4528
 894  -38.47751
 895  -144.6956
 896  -207.6665
 897  -85.76729
 898  56.80198
 899  59.4495
 900  33.53114
 901  -15.72653
 902  -22.51278
 903  10.27143
 904  68.76139
 905  228.7003
 906  243.875
 907  187.2061
 908  9.03999
 909  -13.23233
 910  88.60317
 911  170.0476
 912  118.4282
 913  173.8661
 914  214.1243
 915  337.2621
 916  244.1105
 917  268.927
 918  221.9351
 919  76.8989
 920  -7.79684
 921  43.10714
 922  113.5456
 923  4.924658
 924  -135.3031
 925  -35.7576
 926  54.91261
 927  65.02983
 928  -21.16193
 929  -9.754554
 930  -0.5439679
 931  70.80239
 932  147.583
 933  257.6658
 934  248.1516
 935  190.2715
 936  115.9786
 937  157.9798
 938  251.8375
 939  245.8381
 940  112.4291
 941  122.1085
 942  182.0442
 943  331.6586
 944  234.8112
 945  308.412
 946  249.2169
 947  377.3571
 948  426.4496
 949  422.7982
 950  244.47
 951  222.9826
 952  228.0562
 953  418.7955
 954  282.6054
 955  370.1016
 956  305.3418
 957  386.5608
 958  178.3602
 959  174.6697
 960  250.9969
 961  330.0175
 962  171.9341
 963  39.71585
 964  -5.563264
 965  155.5312
 966  220.6301
 967  311.6349
 968  244.6206
 969  289.5411
 970  183.6971
 971  104.5112
 972  75.38171
 973  298.3589
 974  333.8116
 975  191.7675
 976  205.751
 977  274.6159
 978  263.2534
 979  161.7157
 980  316.2997
 981  435.3243
 982  429.233
 983  268.3119
 984  243.2864
 985  282.8453
 986  310.9494
 987  231.9071
 988  171.7239
 989  134.7192
 990  177.6629
 991  219.3865
 992  306.4955
 993  321.4312
 994  257.9393
 995  114.7691
 996  -96.26205
 997  -96.50954
 998  -96.65605
 999  27.4338
1000  144.741
1001  245.6576
1002  173.1821
1003  -59.3126
1004  -85.42609
1005  -132.7365
1006  -30.21334
1007  78.45807
1008  186.9946
1009  194.6864
1010  93.67056
1011  194.4164
1012  276.6689
1013  339.9612
1014  206.3667
1015  109.3263
1016  133.5071
1017  252.6603
1018  268.1762
1019  222.0046
1020  209.4531
1021  225.8562
1022  158.5689
1023  147.1879
