# Input file       =  1188077051.109435_cleaned.dat
# Candidate        =  PSR_0332+5434
# Telescope        =  AR
# Epoch_topo       =  57994.892015155499
# Epoch_bary       =  N/A
# T_sample         =  0.002
# Data Folded      =  7208960
# Data Avg         =  0.0753874053458935
# Data StdDev      =  3.52675660007477 
# Profile Bins     =  256
# Profile Avg      =  2122.89258723272 
# Profile StdDev   =  591.822964400143 
# Reduced chi-sqr  =  0.862
# Prob(Noise)      <  0.946   (~0.0 sigma)
# P_topo (ms)      =  714.463353866857  +/- 0.00012
# P'_topo (s/s)    =  -0                +/- 6.43e-11
# P''_topo (s/s^2) =  0                 +/- 2.89e-14
# P_bary (ms)      =  N/A
# P'_bary (s/s)    =  N/A
# P''_bary (s/s^2) =  N/A
# P_orb (s)        =  N/A
# asin(i)/c (s)    =  N/A
# eccentricity     =  N/A
# w (rad)          =  N/A
# T_peri           =  N/A
######################################################
   0  1599.034
   1  1884.47
   2  2345.554
   3  2667.522
   4  2501.584
   5  2351.404
   6  2115.024
   7  2392.232
   8  2369.984
   9  2446.432
  10  2729.154
  11  2024.513
  12  1801.475
  13  2611.31
  14  2885.726
  15  2575.957
  16  2146.934
  17  1971.385
  18  2899.528
  19  2570.508
  20  2262.032
  21  2281.65
  22  2508.557
  23  2142.598
  24  2507.278
  25  2997.429
  26  2288.86
  27  2402.032
  28  1792.376
  29  2481.693
  30  1973.46
  31  2076.523
  32  1774.892
  33  1611.507
  34  2406.979
  35  1981.791
  36  2429.327
  37  1962.002
  38  1996.137
  39  2692.147
  40  1919.056
  41  1729.481
  42  3000.824
  43  2874.567
  44  2665.419
  45  1598.441
  46  1903.525
  47  2474.195
  48  2081.81
  49  1757.749
  50  1794.188
  51  2063.868
  52  2293.994
  53  1770.469
  54  2008.993
  55  2128.749
  56  2553.377
  57  2579.829
  58  1706.976
  59  2903.859
  60  3216.423
  61  2644.663
  62  1562.968
  63  1986.602
  64  3021.363
  65  2292.85
  66  2052.505
  67  2209.413
  68  1664.327
  69  2385.441
  70  2254.606
  71  2161.447
  72  1910.734
  73  1605.603
  74  1586.917
  75  1950.002
  76  2169.314
  77  1906.982
  78  1417.087
  79  1987.63
  80  1669.326
  81  1624.97
  82  2206.361
  83  1479.656
  84  2143.109
  85  1207.218
  86  1914.697
  87  1834.321
  88  3128.61
  89  2737.824
  90  1895.398
  91  1622.359
  92  2635.402
  93  3492.259
  94  2128.922
  95  1452.661
  96  1968.226
  97  2629.566
  98  2109.38
  99  1887.269
 100  1760.22
 101  2356.766
 102  1440.537
 103  1594.755
 104  2015.513
 105  2407.708
 106  1666.015
 107  1618.21
 108  2632.814
 109  2346.172
 110  1767.888
 111  2330.642
 112  1278.368
 113  1867.572
 114  1525.166
 115  1943.594
 116  1610.955
 117  2137.808
 118  2030.491
 119  1756.655
 120  1750.125
 121  1890.58
 122  2258.618
 123  1782.369
 124  1704.035
 125  2469.867
 126  2766.295
 127  1716.591
 128  1720.665
 129  2322.542
 130  2773.051
 131  1789.995
 132  1850.198
 133  1358.223
 134  1796.514
 135  1974.795
 136  1408.774
 137  2510.307
 138  1788.473
 139  1480.064
 140  1888.745
 141  1061.357
 142  1581.358
 143  1684.753
 144  1472.445
 145  2175.943
 146  2264.475
 147  2275.907
 148  2355.497
 149  1952.156
 150  2431.918
 151  1419.637
 152  1731.162
 153  1713.208
 154  1975.953
 155  2214.778
 156  1961.305
 157  1764.19
 158  2068.129
 159  3066.056
 160  3225.289
 161  3848.014
 162  4043.387
 163  3075.681
 164  1478.829
 165  1019.103
 166  2091.481
 167  2214.818
 168  1827.244
 169  2218.614
 170  2146.12
 171  1929.454
 172  844.6124
 173  1862.371
 174  2005.922
 175  2627.462
 176  2530.437
 177  2187.558
 178  1971.47
 179  2136.01
 180  1514.509
 181  1310.703
 182  1039.994
 183  2060.642
 184  3125.704
 185  2163.312
 186  1751.186
 187  2685.71
 188  2063.084
 189  2120.779
 190  1421.188
 191  1816.689
 192  2343.239
 193  1999.265
 194  1858.965
 195  2250.185
 196  1780.647
 197  1663.605
 198  2577.271
 199  2508.653
 200  2197.88
 201  2070.602
 202  2203.268
 203  2716.785
 204  2377.41
 205  2551.359
 206  2344.548
 207  2043.84
 208  1862.11
 209  2416.157
 210  3210.729
 211  2448.552
 212  2979.201
 213  2096.562
 214  1955.615
 215  2289.215
 216  1693.825
 217  1573.19
 218  1814.618
 219  1743.19
 220  1802.394
 221  1601.255
 222  1817.862
 223  2247.583
 224  2209.303
 225  2122.027
 226  1985.91
 227  2153.035
 228  2499.184
 229  2253.862
 230  2241.286
 231  1973.655
 232  2432.983
 233  2304.127
 234  1529.793
 235  2567.015
 236  2495.77
 237  2850.896
 238  2814.454
 239  2595.727
 240  1903.818
 241  1806.661
 242  1764.627
 243  2707.364
 244  2705.143
 245  1959.135
 246  2634.376
 247  1892.783
 248  2261.773
 249  1925.025
 250  1645.25
 251  2254.557
 252  2292.75
 253  1744.825
 254  2326.811
 255  1927.939
