# Input file       =  1188680202.123785_cleaned.dat
# Candidate        =  PSR_0332+5434
# Telescope        =  AR
# Epoch_topo       =  58001.872929673438
# Epoch_bary       =  N/A
# T_sample         =  0.002
# Data Folded      =  7208960
# Data Avg         =  0.00327467744560646
# Data StdDev      =  1.00017584411032 
# Profile Bins     =  512
# Profile Avg      =  46.1145110729498 
# Profile StdDev   =  118.680041310729 
# Reduced chi-sqr  =  1.414
# Prob(Noise)      <  1.8e-09   (~5.9 sigma)
# P_topo (ms)      =  714.463937697959  +/- 0.000216
# P'_topo (s/s)    =  -0                +/- 1.16e-10
# P''_topo (s/s^2) =  0                 +/- 5.22e-14
# P_bary (ms)      =  N/A
# P'_bary (s/s)    =  N/A
# P''_bary (s/s^2) =  N/A
# P_orb (s)        =  N/A
# asin(i)/c (s)    =  N/A
# eccentricity     =  N/A
# w (rad)          =  N/A
# T_peri           =  N/A
######################################################
   0  640.4965
   1  634.5898
   2  604.2531
   3  230.6873
   4  92.54964
   5  60.34248
   6  241.677
   7  126.6378
   8  6.366095
   9  13.16659
  10  33.27243
  11  125.4475
  12  4.671703
  13  10.10068
  14  51.93788
  15  8.712471
  16  33.70899
  17  -1.789796
  18  17.43707
  19  28.3665
  20  -37.82085
  21  -77.21363
  22  64.5943
  23  156.9476
  24  178.2786
  25  240.4289
  26  61.80797
  27  54.51403
  28  139.9386
  29  -63.73999
  30  30.69388
  31  52.46408
  32  -27.73464
  33  92.34167
  34  126.8813
  35  86.04256
  36  209.2357
  37  214.352
  38  107.0032
  39  -58.12769
  40  -73.59623
  41  4.956968
  42  119.8604
  43  -177.644
  44  -182.2774
  45  -110.5681
  46  117.6409
  47  180.7023
  48  59.42896
  49  47.31244
  50  23.82973
  51  0.7574883
  52  35.77092
  53  59.547
  54  74.61435
  55  216.1389
  56  87.14068
  57  10.59953
  58  147.2015
  59  64.1602
  60  -40.86697
  61  99.84465
  62  68.26254
  63  -4.927195
  64  98.35498
  65  154.6975
  66  26.34331
  67  45.64428
  68  41.22992
  69  7.134118
  70  19.23416
  71  108.4581
  72  44.76082
  73  128.8613
  74  118.5297
  75  29.01176
  76  -171.112
  77  -16.23291
  78  86.51954
  79  -30.1573
  80  18.86562
  81  36.66237
  82  43.54703
  83  -64.64838
  84  -96.65075
  85  13.75678
  86  28.55116
  87  210.8885
  88  164.9712
  89  -27.28265
  90  -61.45918
  91  -11.98576
  92  -53.52829
  93  -73.25714
  94  79.54208
  95  79.26403
  96  -56.09206
  97  -36.88171
  98  34.57192
  99  103.0063
 100  11.81393
 101  -27.38069
 102  -43.15219
 103  88.00495
 104  56.42384
 105  -39.03075
 106  -30.16219
 107  -81.50674
 108  -137.2335
 109  -41.48963
 110  154.5625
 111  219.809
 112  326.6711
 113  269.8129
 114  184.8536
 115  67.05867
 116  60.02758
 117  98.93719
 118  26.04892
 119  8.619119
 120  -1.783104
 121  18.85853
 122  5.920353
 123  42.40932
 124  184.4088
 125  57.12173
 126  79.97679
 127  132.4653
 128  126.2761
 129  -122.1508
 130  -8.190413
 131  23.81186
 132  102.5791
 133  82.56473
 134  71.21429
 135  21.82163
 136  -13.57068
 137  -99.44782
 138  -41.93842
 139  -74.84219
 140  -128.735
 141  64.70852
 142  162.9988
 143  122.6728
 144  -191.151
 145  -95.34169
 146  -110.5375
 147  -99.85847
 148  -22.20798
 149  -10.27991
 150  62.10477
 151  -38.40366
 152  -28.55157
 153  64.89381
 154  -13.51359
 155  -107.7146
 156  9.650345
 157  -58.13588
 158  -41.45181
 159  7.652833
 160  -13.08622
 161  6.123176
 162  -76.8304
 163  -62.16916
 164  -45.51013
 165  -34.77433
 166  116.2221
 167  69.95268
 168  5.470223
 169  39.02229
 170  40.13285
 171  -34.49635
 172  91.20768
 173  33.41201
 174  45.90995
 175  104.6618
 176  196.5207
 177  211.8664
 178  115.6607
 179  112.9374
 180  185.4502
 181  15.44302
 182  26.46376
 183  48.49756
 184  19.04076
 185  106.6092
 186  57.65931
 187  -92.02467
 188  22.998
 189  64.21339
 190  129.233
 191  181.15
 192  256.2717
 193  209.2483
 194  121.3703
 195  136.2261
 196  72.13583
 197  -41.17241
 198  -18.90494
 199  21.09949
 200  117.2894
 201  130.2385
 202  -64.06287
 203  -30.75648
 204  -55.31389
 205  87.14462
 206  29.07163
 207  0.7983974
 208  80.61233
 209  3.428148
 210  54.50563
 211  -7.68535
 212  4.576437
 213  -5.251089
 214  154.3716
 215  254.2672
 216  151.5886
 217  168.567
 218  101.5853
 219  127.6252
 220  159.9035
 221  150.666
 222  173.3303
 223  -15.48374
 224  -102.1382
 225  152.317
 226  58.02302
 227  -40.91477
 228  -79.45408
 229  -20.53528
 230  84.82053
 231  102.8098
 232  78.29343
 233  76.49558
 234  74.86632
 235  1.054218
 236  30.66056
 237  109.5656
 238  84.63081
 239  -19.43993
 240  -3.544828
 241  18.46824
 242  -64.7223
 243  -3.09926
 244  22.90675
 245  106.6152
 246  98.54805
 247  59.55219
 248  56.14241
 249  28.18458
 250  142.5258
 251  186.2554
 252  127.1895
 253  81.65614
 254  15.96457
 255  -23.91403
 256  -76.47125
 257  -20.7754
 258  98.51441
 259  172.2795
 260  96.10139
 261  93.11829
 262  103.7376
 263  88.4365
 264  59.59003
 265  35.61733
 266  -44.72855
 267  70.92715
 268  109.4373
 269  7.210063
 270  27.24787
 271  82.297
 272  87.3375
 273  25.76043
 274  36.05284
 275  -29.44471
 276  -23.85132
 277  -27.44412
 278  -95.05414
 279  -77.42657
 280  143.069
 281  61.22028
 282  -52.46966
 283  102.2595
 284  70.41621
 285  65.13544
 286  35.03366
 287  -32.95251
 288  -3.798208
 289  15.06499
 290  87.17316
 291  115.2524
 292  71.9986
 293  123.9049
 294  147.6224
 295  160.9806
 296  109.6397
 297  -65.81326
 298  87.69456
 299  48.13943
 300  66.686
 301  177.6301
 302  76.54884
 303  -25.20168
 304  -81.43694
 305  -30.4892
 306  -93.97234
 307  -9.053948
 308  26.67417
 309  80.84412
 310  -23.6214
 311  138.726
 312  33.91708
 313  32.08602
 314  74.87061
 315  64.71897
 316  22.2574
 317  150.3788
 318  151.9094
 319  34.10118
 320  -98.92117
 321  -44.92949
 322  10.48986
 323  -10.57056
 324  30.9506
 325  115.1762
 326  204.0677
 327  123.4625
 328  64.89046
 329  126.4419
 330  84.24171
 331  83.16306
 332  26.43439
 333  114.9851
 334  -18.08415
 335  42.75178
 336  95.29373
 337  99.8084
 338  83.03232
 339  60.58432
 340  232.5071
 341  154.8664
 342  19.38032
 343  -64.91745
 344  -32.00932
 345  54.99937
 346  65.44501
 347  -12.6847
 348  -2.49604
 349  -22.1045
 350  -90.43392
 351  -46.01854
 352  111.0478
 353  -18.07195
 354  -68.58527
 355  -96.7653
 356  -20.85999
 357  -105.2287
 358  -126.9972
 359  191.6005
 360  60.12757
 361  75.16408
 362  43.78631
 363  104.1123
 364  17.20073
 365  -8.061276
 366  59.57896
 367  15.98887
 368  9.637393
 369  20.92795
 370  17.0454
 371  -35.49699
 372  -33.19309
 373  -36.54682
 374  64.97105
 375  43.90644
 376  102.7608
 377  175.3361
 378  2.845165
 379  -78.21394
 380  -65.34194
 381  88.81422
 382  49.47862
 383  40.80326
 384  35.5372
 385  -8.980589
 386  -0.5452756
 387  -56.19452
 388  35.88867
 389  -22.5658
 390  68.05276
 391  164.3116
 392  148.5825
 393  164.189
 394  61.23964
 395  98.21758
 396  152.3685
 397  29.69864
 398  -37.72228
 399  51.11674
 400  60.50041
 401  161.1734
 402  124.7719
 403  124.531
 404  42.14627
 405  27.10085
 406  -14.49287
 407  22.58149
 408  26.10475
 409  -3.538571
 410  -21.40579
 411  -97.53478
 412  -129.746
 413  -108.3015
 414  -15.19776
 415  4.580303
 416  -26.80741
 417  47.94001
 418  122.8938
 419  35.64378
 420  -113.4103
 421  -44.6698
 422  25.27923
 423  147.3686
 424  117.8559
 425  -7.217515
 426  13.27464
 427  54.90393
 428  42.89811
 429  9.817491
 430  121.7962
 431  -42.45712
 432  -125.2504
 433  -24.73576
 434  26.81761
 435  86.61517
 436  116.6198
 437  -12.71584
 438  24.54888
 439  -71.07783
 440  -81.73163
 441  173.6044
 442  216.311
 443  82.56031
 444  118.3437
 445  158.4558
 446  32.94037
 447  -80.61246
 448  46.06517
 449  96.96681
 450  -80.70249
 451  13.01138
 452  8.970372
 453  -117.1795
 454  36.25237
 455  106.5995
 456  181.4315
 457  237.0026
 458  -14.35847
 459  43.41756
 460  136.3564
 461  32.65211
 462  17.24024
 463  81.30292
 464  204.4786
 465  74.61774
 466  100.162
 467  6.160558
 468  -58.05798
 469  -70.21575
 470  18.67578
 471  -106.721
 472  -43.49291
 473  -37.6427
 474  -100.6737
 475  -55.6532
 476  22.15617
 477  26.39146
 478  21.67627
 479  -68.72872
 480  -15.89022
 481  27.41168
 482  97.67859
 483  60.1548
 484  -9.104471
 485  41.44841
 486  -114.2159
 487  -5.214807
 488  184.181
 489  70.01887
 490  -58.62117
 491  -12.40395
 492  108.593
 493  -28.93131
 494  -139.073
 495  34.83503
 496  -67.65714
 497  -59.99209
 498  -55.2757
 499  76.50851
 500  119.3711
 501  68.74252
 502  -90.0199
 503  -67.79226
 504  48.23289
 505  60.02256
 506  83.41344
 507  165.4063
 508  260.4405
 509  307.7771
 510  532.1715
 511  663.236
