# Input file       =  1188968228.122402_cleaned.dat
# Candidate        =  PSR_0332+5434
# Telescope        =  AR
# Epoch_topo       =  58005.206563916690
# Epoch_bary       =  N/A
# T_sample         =  0.002
# Data Folded      =  7340032
# Data Avg         =  0.0109521009666155
# Data StdDev      =  1.00002919081504 
# Profile Bins     =  512
# Profile Avg      =  156.956855642554 
# Profile StdDev   =  119.736531481686 
# Reduced chi-sqr  =  1.170
# Prob(Noise)      <  0.00479   (~2.6 sigma)
# P_topo (ms)      =  714.46483594806   +/- 0.000116
# P'_topo (s/s)    =  -0                +/- 6.12e-11
# P''_topo (s/s^2) =  0                 +/- 2.7e-14
# P_bary (ms)      =  N/A
# P'_bary (s/s)    =  N/A
# P''_bary (s/s^2) =  N/A
# P_orb (s)        =  N/A
# asin(i)/c (s)    =  N/A
# eccentricity     =  N/A
# w (rad)          =  N/A
# T_peri           =  N/A
######################################################
   0  246.3251
   1  271.7318
   2  149.1494
   3  118.3612
   4  90.87405
   5  239.1468
   6  242.8814
   7  63.30112
   8  49.87173
   9  140.0965
  10  191.7238
  11  132.2403
  12  131.5782
  13  239.7202
  14  261.4401
  15  102.4397
  16  215.4632
  17  197.0997
  18  112.9268
  19  221.0634
  20  194.3516
  21  227.845
  22  158.0332
  23  132.813
  24  111.0896
  25  19.06345
  26  61.35597
  27  135.8325
  28  326.747
  29  247.2912
  30  133.8728
  31  111.7597
  32  169.6944
  33  234.9156
  34  301.7662
  35  255.8412
  36  301.7157
  37  205.8665
  38  137.0776
  39  183.4086
  40  217.3233
  41  269.7068
  42  164.2579
  43  158.9113
  44  276.406
  45  161.4975
  46  213.2677
  47  260.61
  48  349.5736
  49  205.6464
  50  345.5214
  51  263.5104
  52  162.0613
  53  90.44025
  54  106.2672
  55  168.26
  56  334.6358
  57  107.7394
  58  -1.034104
  59  113.8647
  60  212.0865
  61  171.8172
  62  138.435
  63  254.32
  64  376.5591
  65  375.3048
  66  292.1231
  67  226.7631
  68  128.1625
  69  49.48438
  70  103.474
  71  258.2683
  72  328.6996
  73  300.4742
  74  109.5079
  75  168.1293
  76  152.0363
  77  107.2072
  78  162.6876
  79  256.5185
  80  346.2335
  81  344.3088
  82  161.222
  83  111.8768
  84  186.5176
  85  84.34274
  86  240.7425
  87  191.6361
  88  246.9333
  89  266.1867
  90  275.5067
  91  134.3582
  92  81.60938
  93  136.3734
  94  181.7749
  95  182.3701
  96  74.83492
  97  49.78701
  98  190.5171
  99  174.7602
 100  91.23443
 101  78.59674
 102  84.39704
 103  132.5567
 104  97.00569
 105  178.5854
 106  284.3552
 107  160.4754
 108  47.53271
 109  140.4058
 110  105.3005
 111  110.4831
 112  92.55495
 113  243.607
 114  151.6567
 115  114.7853
 116  179.75
 117  239.2274
 118  120.3293
 119  200.6643
 120  163.7939
 121  199.8727
 122  218.214
 123  273.3886
 124  199.6351
 125  126.3824
 126  48.94917
 127  83.69985
 128  282.1994
 129  181.3835
 130  -0.1422801
 131  161.0202
 132  110.0146
 133  57.95048
 134  31.53073
 135  120.6999
 136  149.4456
 137  204.835
 138  46.99568
 139  141.3114
 140  40.83132
 141  45.5487
 142  206.642
 143  268.6271
 144  178.017
 145  213.4104
 146  177.6859
 147  52.49671
 148  95.84035
 149  70.28377
 150  214.1963
 151  229.9213
 152  224.9692
 153  15.35902
 154  162.0014
 155  144.9126
 156  166.8624
 157  217.0435
 158  234.2905
 159  118.5075
 160  79.30445
 161  60.84279
 162  21.12896
 163  110.4551
 164  250.5827
 165  48.08765
 166  75.04294
 167  182.3787
 168  53.77983
 169  28.54155
 170  244.7464
 171  177.7784
 172  180.0169
 173  148.6372
 174  281.1872
 175  228.5159
 176  251.8273
 177  217.7829
 178  158.7604
 179  122.9587
 180  67.84379
 181  130.2325
 182  152.494
 183  115.8069
 184  258.5921
 185  202.6001
 186  38.94307
 187  29.31099
 188  39.52972
 189  184.1818
 190  96.68882
 191  5.968036
 192  104.2903
 193  76.58755
 194  13.71865
 195  42.45304
 196  -17.33869
 197  90.84502
 198  -63.56429
 199  57.86402
 200  168.3689
 201  201.4488
 202  176.5958
 203  89.92957
 204  38.43119
 205  126.0818
 206  194.0088
 207  235.7765
 208  86.84203
 209  148.5719
 210  205.8011
 211  99.7808
 212  156.8425
 213  102.5662
 214  53.67121
 215  135.1894
 216  249.0894
 217  203.2244
 218  -58.26894
 219  94.29689
 220  394.9085
 221  331.4998
 222  231.2324
 223  48.83052
 224  137.1861
 225  176.366
 226  230.1615
 227  198.0098
 228  372.9306
 229  303.5102
 230  167.3658
 231  200.7444
 232  263.5018
 233  309.2541
 234  86.6703
 235  171.1104
 236  369.9587
 237  249.4228
 238  106.8867
 239  78.26461
 240  197.071
 241  128.0811
 242  150.7526
 243  103.6961
 244  290.6839
 245  199.37
 246  58.47661
 247  74.67984
 248  136.6359
 249  122.6773
 250  227.331
 251  335.3276
 252  322.4212
 253  179.3769
 254  162.4067
 255  98.05754
 256  137.1691
 257  135.3577
 258  202.0466
 259  208.6
 260  156.4037
 261  136.5627
 262  267.182
 263  272.0311
 264  134.7737
 265  138.6195
 266  369.9264
 267  274.5847
 268  94.44593
 269  114.3227
 270  146.0283
 271  126.7519
 272  143.1576
 273  105.8834
 274  92.34723
 275  128.077
 276  270.7392
 277  344.2606
 278  208.3854
 279  7.163429
 280  17.6132
 281  70.25018
 282  0.2215332
 283  -69.17397
 284  89.00766
 285  194.3516
 286  53.2114
 287  106.2948
 288  250.2312
 289  173.6603
 290  -1.423387
 291  48.8335
 292  139.9513
 293  138.8667
 294  114.9022
 295  138.6924
 296  224.6493
 297  226.7483
 298  205.6068
 299  27.51785
 300  7.68829
 301  354.846
 302  339.5386
 303  182.1724
 304  67.84036
 305  -17.54877
 306  55.89124
 307  180.1948
 308  175.3046
 309  196.3625
 310  170.6178
 311  167.7099
 312  232.6354
 313  78.40747
 314  104.1518
 315  165.8654
 316  142.2774
 317  65.48454
 318  145.7497
 319  273.8776
 320  277.8528
 321  189.976
 322  240.8276
 323  114.4048
 324  172.4334
 325  211.7756
 326  206.897
 327  221.0114
 328  167.4319
 329  233.5585
 330  350.4209
 331  436.7659
 332  446.7031
 333  489.022
 334  531.3694
 335  396.5755
 336  374.5877
 337  382.047
 338  270.4865
 339  188.4118
 340  144.496
 341  230.552
 342  159.4604
 343  6.131413
 344  156.8531
 345  210.5043
 346  148.9992
 347  234.8811
 348  196.9319
 349  204.7488
 350  311.5823
 351  206.8058
 352  269.4598
 353  156.2188
 354  102.1942
 355  77.81142
 356  54.63465
 357  140.6322
 358  -42.00227
 359  -120.6311
 360  89.10095
 361  47.96741
 362  2.313024
 363  51.02892
 364  208.6615
 365  68.67764
 366  223.1986
 367  212.4155
 368  169.6412
 369  111.1914
 370  72.79077
 371  104.0872
 372  225.0198
 373  9.74869
 374  11.22922
 375  196.6429
 376  203.3076
 377  226.945
 378  263.8934
 379  100.9455
 380  89.72018
 381  53.87363
 382  40.25838
 383  10.25167
 384  -16.03729
 385  48.06201
 386  26.28245
 387  220.1966
 388  123.6597
 389  43.99735
 390  51.25001
 391  204.1428
 392  78.33974
 393  -36.37944
 394  -136.0395
 395  104.8906
 396  209.3093
 397  183.3241
 398  114.9186
 399  102.6168
 400  183.7632
 401  226.5261
 402  249.9725
 403  220.1195
 404  96.80788
 405  125.3395
 406  28.44753
 407  44.78225
 408  107.7792
 409  175.7704
 410  136.6424
 411  128.8172
 412  45.41377
 413  74.40796
 414  201.5142
 415  14.06507
 416  201.4091
 417  115.9299
 418  86.34968
 419  198.8375
 420  55.96537
 421  97.68735
 422  196.8446
 423  117.4402
 424  156.5544
 425  89.94598
 426  207.7937
 427  234.3071
 428  192.4276
 429  189.3167
 430  140.458
 431  57.0864
 432  175.9859
 433  178.4145
 434  153.9559
 435  157.4528
 436  215.0177
 437  214.2553
 438  178.1909
 439  115.9189
 440  67.33286
 441  271.7084
 442  343.599
 443  301.9332
 444  318.5762
 445  88.71862
 446  -54.24369
 447  225.2864
 448  265.167
 449  279.8002
 450  52.60137
 451  53.08599
 452  147.9181
 453  186.1178
 454  90.98242
 455  14.71859
 456  54.1077
 457  164.8998
 458  206.6097
 459  154.8449
 460  199.7785
 461  149.7951
 462  112.5814
 463  110.5713
 464  39.69277
 465  61.66925
 466  86.04076
 467  193.5802
 468  266.522
 469  192.4402
 470  226.0283
 471  97.42684
 472  128.2206
 473  108.6668
 474  146.169
 475  92.21729
 476  173.0639
 477  193.7375
 478  168.4666
 479  50.25833
 480  138.8895
 481  142.3806
 482  159.3816
 483  129.2674
 484  106.0661
 485  216.0771
 486  181.0715
 487  92.83357
 488  108.4738
 489  149.9708
 490  202.6503
 491  318.3634
 492  153.8045
 493  176.345
 494  58.60442
 495  135.17
 496  214.1528
 497  129.9084
 498  90.05149
 499  -1.818278
 500  83.68555
 501  8.949661
 502  -60.85962
 503  71.46581
 504  178.2109
 505  101.488
 506  106.5012
 507  213.387
 508  151.5193
 509  235.2718
 510  124.0461
 511  31.19296
