# Input file       =  1188623559.105416_cleaned.dat
# Candidate        =  PSR_0332+5434
# Telescope        =  AR
# Epoch_topo       =  58001.217339183058
# Epoch_bary       =  N/A
# T_sample         =  0.002
# Data Folded      =  7340032
# Data Avg         =  0.0130054099602073
# Data StdDev      =  0.999967398173998
# Profile Bins     =  512
# Profile Avg      =  186.438333129734 
# Profile StdDev   =  119.729132861147 
# Reduced chi-sqr  =  1.363
# Prob(Noise)      <  8.23e-08   (~5.2 sigma)
# P_topo (ms)      =  714.464198288696  +/- 0.000237
# P'_topo (s/s)    =  -0                +/- 1.25e-10
# P''_topo (s/s^2) =  0                 +/- 5.52e-14
# P_bary (ms)      =  N/A
# P'_bary (s/s)    =  N/A
# P''_bary (s/s^2) =  N/A
# P_orb (s)        =  N/A
# asin(i)/c (s)    =  N/A
# eccentricity     =  N/A
# w (rad)          =  N/A
# T_peri           =  N/A
######################################################
   0  163.0197
   1  135.4449
   2  24.08814
   3  115.921
   4  147.7865
   5  171.1617
   6  198.9054
   7  40.20519
   8  174.4698
   9  304.5157
  10  207.509
  11  38.9677
  12  89.39105
  13  68.36826
  14  111.2897
  15  25.06529
  16  127.9614
  17  38.23855
  18  153.2735
  19  187.6404
  20  71.55025
  21  -27.59484
  22  13.57727
  23  90.56295
  24  87.47833
  25  78.22144
  26  78.92293
  27  19.90602
  28  199.6862
  29  173.1125
  30  10.10782
  31  76.89946
  32  32.70089
  33  53.64033
  34  63.46516
  35  46.7058
  36  100.4957
  37  157.7949
  38  115.5846
  39  166.9314
  40  23.69199
  41  36.92368
  42  -12.31572
  43  87.02144
  44  171.5921
  45  294.057
  46  139.2623
  47  99.73386
  48  239.2823
  49  207.8952
  50  156.4777
  51  123.5932
  52  125.4331
  53  189.9061
  54  240.6976
  55  252.1113
  56  267.9507
  57  257.4409
  58  324.8468
  59  352.089
  60  311.7377
  61  232.8831
  62  173.8868
  63  210.1385
  64  150.2651
  65  270.5011
  66  138.3725
  67  8.259648
  68  70.56237
  69  170.3906
  70  213.8316
  71  213.6228
  72  138.6299
  73  85.73049
  74  128.6186
  75  183.5795
  76  153.1143
  77  57.46395
  78  124.1049
  79  139.7441
  80  234.9496
  81  38.25513
  82  14.10125
  83  95.42312
  84  138.8106
  85  111.6221
  86  166.2948
  87  87.06554
  88  77.84127
  89  136.6049
  90  142.6537
  91  209.7197
  92  161.4856
  93  103.101
  94  226.0074
  95  79.05228
  96  172.5061
  97  185.4238
  98  307.3387
  99  294.3297
 100  213.3869
 101  168.9032
 102  74.75617
 103  214.7299
 104  251.0688
 105  179.7809
 106  224.3196
 107  236.5015
 108  161.5147
 109  224.2345
 110  154.662
 111  41.77604
 112  207.4181
 113  183.0867
 114  305.3918
 115  286.6738
 116  382.0301
 117  286.4989
 118  312.0724
 119  346.7756
 120  254.7937
 121  147.0026
 122  146.0449
 123  -18.25938
 124  125.3532
 125  271.2076
 126  128.8772
 127  137.9029
 128  163.0417
 129  111.7994
 130  75.34872
 131  84.87619
 132  184.822
 133  149.9859
 134  121.4045
 135  125.3176
 136  118.688
 137  17.33141
 138  135.4174
 139  167.6463
 140  153.1959
 141  286.2569
 142  286.3251
 143  228.8548
 144  237.1964
 145  173.6167
 146  266.6768
 147  189.8285
 148  100.5987
 149  134.8947
 150  158.2927
 151  257.7857
 152  92.35526
 153  11.37662
 154  63.26998
 155  70.32417
 156  136.4028
 157  214.5717
 158  -44.60808
 159  38.19349
 160  158.8111
 161  186.2147
 162  111.6634
 163  139.5698
 164  240.7583
 165  218.3358
 166  312.0708
 167  201.2363
 168  144.8116
 169  193.6136
 170  330.442
 171  303.2212
 172  184.3956
 173  236.4217
 174  276.9215
 175  203.8225
 176  136.7271
 177  196.716
 178  171.3885
 179  126.1567
 180  139.1219
 181  185.9735
 182  213.1461
 183  367.3134
 184  247.2999
 185  153.9557
 186  291.2063
 187  300.6392
 188  345.1894
 189  213.0588
 190  254.4509
 191  201.8946
 192  214.9567
 193  114.5552
 194  262.0494
 195  251.7858
 196  379.4052
 197  229.9575
 198  41.04267
 199  208.3868
 200  239.5186
 201  337.6664
 202  466.0074
 203  191.2577
 204  84.78017
 205  117.8556
 206  24.50619
 207  185.6943
 208  281.6732
 209  190.2746
 210  93.72028
 211  218.1319
 212  195.5517
 213  240.4075
 214  176.7245
 215  166.4503
 216  277.8819
 217  220.4115
 218  267.8881
 219  205.1787
 220  139.7447
 221  161.1144
 222  227.1772
 223  186.3512
 224  238.0747
 225  147.4346
 226  199.2092
 227  223.8565
 228  123.3813
 229  251.3035
 230  216.19
 231  212.5571
 232  176.5443
 233  224.5839
 234  229.635
 235  306.4471
 236  272.6038
 237  254.6399
 238  100.0923
 239  89.48172
 240  264.3421
 241  257.382
 242  193.0025
 243  140.9546
 244  114.3053
 245  125.097
 246  194.2671
 247  227.6973
 248  136.9816
 249  120.882
 250  106.8078
 251  270.507
 252  288.7263
 253  231.976
 254  201.4439
 255  229.6623
 256  426.894
 257  389.4206
 258  223.7108
 259  73.12334
 260  181.7663
 261  199.0587
 262  255.5244
 263  292.3711
 264  131.6629
 265  100.3271
 266  255.1619
 267  169.4126
 268  129.8652
 269  217.0291
 270  241.184
 271  238.3889
 272  230.729
 273  147.2339
 274  220.9469
 275  214.3463
 276  198.7567
 277  228.8617
 278  428.5937
 279  484.9297
 280  576.3181
 281  698.1
 282  754.3046
 283  845.0076
 284  746.0974
 285  564.7075
 286  235.1358
 287  230.6861
 288  224.5785
 289  35.04137
 290  263.6756
 291  148.6646
 292  97.93954
 293  126.7446
 294  157.2814
 295  240.3917
 296  182.2355
 297  156.7497
 298  138.42
 299  178.4681
 300  195.288
 301  278.5059
 302  301.0096
 303  50.01128
 304  67.17836
 305  139.2358
 306  233.0242
 307  238.2888
 308  190.218
 309  176.7395
 310  249.9093
 311  195.3792
 312  99.03461
 313  106.9834
 314  292.6788
 315  275.1334
 316  149.3961
 317  196.7107
 318  248.8584
 319  306.017
 320  236.6674
 321  174.0889
 322  249.553
 323  152.9795
 324  146.745
 325  249.0502
 326  232.0225
 327  255.6104
 328  115.3811
 329  48.43029
 330  158.327
 331  91.5274
 332  157.5669
 333  70.9428
 334  152.2411
 335  278.7118
 336  237.1702
 337  46.24825
 338  43.3881
 339  167.7419
 340  272.2195
 341  256.5588
 342  310.7832
 343  260.7664
 344  120.5239
 345  200.1244
 346  151.1636
 347  203.6431
 348  222.1856
 349  235.2229
 350  164.9714
 351  192.511
 352  277.1222
 353  303.9524
 354  146.3473
 355  151.5306
 356  180.8411
 357  126.0318
 358  113.5895
 359  51.45219
 360  138.9583
 361  245.1087
 362  113.0786
 363  117.3189
 364  130.9327
 365  240.0274
 366  224.736
 367  206.8535
 368  293.1761
 369  145.911
 370  144.5141
 371  160.7843
 372  63.82524
 373  16.8628
 374  86.83385
 375  90.21828
 376  130.6839
 377  200.1769
 378  142.096
 379  110.4946
 380  201.6963
 381  254.4323
 382  229.2553
 383  162.8084
 384  210.1254
 385  189.724
 386  219.7678
 387  272.5747
 388  259.2863
 389  175.5966
 390  37.20296
 391  64.71636
 392  184.3862
 393  265.666
 394  223.7742
 395  245.1792
 396  168.8133
 397  97.82972
 398  158.2702
 399  335.8845
 400  142.5847
 401  89.42467
 402  211.9135
 403  95.32599
 404  117.564
 405  293.9043
 406  299.0717
 407  321.0609
 408  299.4146
 409  262.2599
 410  259.3179
 411  65.87496
 412  120.3672
 413  217.9104
 414  173.0659
 415  284.979
 416  321.6665
 417  162.6368
 418  274.2706
 419  209.1421
 420  88.82935
 421  51.18283
 422  -5.17321
 423  43.66522
 424  201.8155
 425  221.5586
 426  220.2416
 427  297.6956
 428  221.5141
 429  227.9889
 430  178.9258
 431  174.6119
 432  189.7033
 433  184.5306
 434  268.7513
 435  40.39734
 436  149.0094
 437  58.71969
 438  74.11301
 439  243.1992
 440  302.961
 441  202.4387
 442  142.815
 443  173.3076
 444  188.8548
 445  194.8505
 446  88.61078
 447  82.54617
 448  162.3071
 449  204.8875
 450  204.4315
 451  207.4886
 452  110.469
 453  198.3827
 454  217.7997
 455  166.0972
 456  225.7521
 457  334.4913
 458  258.5789
 459  194.2886
 460  252.0945
 461  150.8745
 462  370.0758
 463  437.1826
 464  307.0508
 465  282.6353
 466  273.2962
 467  173.5429
 468  220.223
 469  148.2691
 470  128.0308
 471  157.3627
 472  146.4358
 473  145.8818
 474  -11.23621
 475  172.8534
 476  209.1905
 477  248.009
 478  190.2612
 479  255.0187
 480  126.5533
 481  303.8648
 482  294.0327
 483  292.166
 484  253.919
 485  254.1626
 486  173.6889
 487  127.2156
 488  65.17613
 489  72.84758
 490  239.7909
 491  278.9321
 492  190.9944
 493  183.381
 494  283.2182
 495  199.157
 496  148.6887
 497  247.5596
 498  173.2733
 499  95.51698
 500  67.58803
 501  145.7723
 502  151.1421
 503  68.81962
 504  24.14779
 505  162.2218
 506  145.5795
 507  61.39682
 508  166.5043
 509  213.2183
 510  222.2705
 511  134.2143
