# Input file       =  1188335615.117973_cleaned.dat
# Candidate        =  PSR_0332+5434
# Telescope        =  AR
# Epoch_topo       =  57997.884654143207
# Epoch_bary       =  N/A
# T_sample         =  0.002
# Data Folded      =  7208960
# Data Avg         =  0.0671744268017142
# Data StdDev      =  3.30339286869445 
# Profile Bins     =  256
# Profile Avg      =  1891.68525977082 
# Profile StdDev   =  554.340427147028 
# Reduced chi-sqr  =  1.032
# Prob(Noise)      <  0.349   (~0.4 sigma)
# P_topo (ms)      =  714.463507900276  +/- 9.07e-05
# P'_topo (s/s)    =  -0                +/- 4.87e-11
# P''_topo (s/s^2) =  0                 +/- 2.19e-14
# P_bary (ms)      =  N/A
# P'_bary (s/s)    =  N/A
# P''_bary (s/s^2) =  N/A
# P_orb (s)        =  N/A
# asin(i)/c (s)    =  N/A
# eccentricity     =  N/A
# w (rad)          =  N/A
# T_peri           =  N/A
######################################################
   0  1892.39
   1  2660.059
   2  1163.911
   3  1151.066
   4  1718.255
   5  1460.316
   6  1530.415
   7  1682.797
   8  1798.272
   9  2032.573
  10  1604.72
  11  1125.673
  12  2299.74
  13  1939.17
  14  1908.546
  15  1609.018
  16  1970.287
  17  2041.087
  18  1493.791
  19  1469.682
  20  793.0447
  21  1816.14
  22  1540.514
  23  1739.08
  24  1486.857
  25  2494.552
  26  1994.319
  27  1815.9
  28  1407.343
  29  1614.755
  30  1828.487
  31  1547.487
  32  1275.288
  33  1400.946
  34  2501.173
  35  1730.612
  36  1738.126
  37  1281.418
  38  1518.678
  39  1570.688
  40  1144.668
  41  1828.97
  42  1752.219
  43  1813.518
  44  2101.615
  45  1603.958
  46  1579.491
  47  962.6857
  48  1113.487
  49  1630.95
  50  1466.459
  51  2498.816
  52  1097.737
  53  1891.849
  54  1990.928
  55  1780.746
  56  2347.511
  57  2122.634
  58  2185.721
  59  1766.544
  60  1741.639
  61  1270.02
  62  1810.956
  63  2452.612
  64  2177.021
  65  2004.494
  66  2407.955
  67  2248
  68  1838.269
  69  1620.009
  70  2311.639
  71  2391.227
  72  1718.438
  73  1649.368
  74  2529.687
  75  2173.672
  76  1768.015
  77  2445.824
  78  1512.939
  79  1690.213
  80  1682.302
  81  1989.554
  82  2476.585
  83  1644.112
  84  1909.929
  85  1728.458
  86  1953.454
  87  2488.01
  88  2263.495
  89  1759.959
  90  1479.749
  91  1643.141
  92  1970.992
  93  1490.464
  94  651.0923
  95  1125.163
  96  2255.403
  97  1563.318
  98  1979.725
  99  1733.765
 100  1630.684
 101  1858.313
 102  1526.914
 103  1874.987
 104  1841.626
 105  1704.197
 106  1515.651
 107  2113.36
 108  2386.388
 109  2581.917
 110  1662.461
 111  1261.067
 112  2182.854
 113  1979.459
 114  1880.899
 115  2153.949
 116  2369.8
 117  2046.179
 118  1764.785
 119  2042.174
 120  2074.903
 121  2086.456
 122  1893.767
 123  1643.428
 124  1639.6
 125  2390.197
 126  1692.301
 127  1765.703
 128  1411.678
 129  2196.971
 130  1454.72
 131  1837.996
 132  1288.731
 133  1379.477
 134  1653.103
 135  1669.266
 136  757.7216
 137  1229.524
 138  1665.917
 139  1747.196
 140  1751.36
 141  2234.318
 142  2577.038
 143  1469.571
 144  1127.708
 145  2266.551
 146  1720.523
 147  1133.578
 148  1863.781
 149  2157.57
 150  2019.054
 151  1861.378
 152  2230.023
 153  2852.127
 154  2295.06
 155  2135.701
 156  2241.982
 157  2546.573
 158  2316.362
 159  3045.914
 160  3761.378
 161  4984.043
 162  3937.345
 163  2560.465
 164  1997.105
 165  2267.281
 166  2423.586
 167  2604.652
 168  1838.225
 169  2037.387
 170  2250.37
 171  2180.021
 172  1946.709
 173  1703.78
 174  2154.089
 175  1970.327
 176  1094.827
 177  1594.036
 178  1630.705
 179  2083.518
 180  2010.268
 181  2116.083
 182  2610.846
 183  2109.164
 184  1927.067
 185  1422.698
 186  1257.776
 187  2110.307
 188  2123.594
 189  2010.995
 190  2308.798
 191  1848.735
 192  1584.989
 193  1612.097
 194  2023.421
 195  2192.336
 196  1732.705
 197  1626.827
 198  1895.34
 199  2283.94
 200  1835.309
 201  2338.458
 202  1895.233
 203  2664.985
 204  2274.351
 205  2726.683
 206  2151.23
 207  2736.191
 208  1804.072
 209  1465.476
 210  1737.339
 211  1830.78
 212  2315.439
 213  1864.896
 214  1200.872
 215  1551.212
 216  2184.204
 217  1775.545
 218  1042.04
 219  1795.988
 220  2320.106
 221  2071.241
 222  1886.281
 223  933.4791
 224  1864.96
 225  1742.149
 226  1747.221
 227  1986.3
 228  1786.459
 229  1577.582
 230  1705.142
 231  1945.248
 232  2731.448
 233  2089.969
 234  1472.913
 235  903.5789
 236  2046.085
 237  2573.489
 238  2059.505
 239  1920.451
 240  2722.478
 241  2298.736
 242  1880.03
 243  1752.929
 244  1759.216
 245  2052.438
 246  2135.823
 247  1462.073
 248  2053.408
 249  2406.462
 250  1768.342
 251  1326.783
 252  1782.855
 253  1708.602
 254  1410.507
 255  1788.155
