# Input file       =  1188953313.119366_cleaned.dat
# Candidate        =  PSR_0332+5434
# Telescope        =  AR
# Epoch_topo       =  58005.033936566739
# Epoch_bary       =  N/A
# T_sample         =  0.002
# Data Folded      =  7340032
# Data Avg         =  0.0330505404459212
# Data StdDev      =  2.52427035511585 
# Profile Bins     =  512
# Profile Avg      =  473.949525441193 
# Profile StdDev   =  302.238554253879 
# Reduced chi-sqr  =  1.121
# Prob(Noise)      <  0.03   (~1.9 sigma)
# P_topo (ms)      =  714.464468556259  +/- 9.27e-05
# P'_topo (s/s)    =  -0                +/- 4.89e-11
# P''_topo (s/s^2) =  0                 +/- 2.16e-14
# P_bary (ms)      =  N/A
# P'_bary (s/s)    =  N/A
# P''_bary (s/s^2) =  N/A
# P_orb (s)        =  N/A
# asin(i)/c (s)    =  N/A
# eccentricity     =  N/A
# w (rad)          =  N/A
# T_peri           =  N/A
######################################################
   0  510.8333
   1  659.5815
   2  553.2971
   3  582.0621
   4  456.2722
   5  494.0586
   6  50.59913
   7  625.0254
   8  759.5604
   9  568.5033
  10  433.3143
  11  535.4084
  12  782.1389
  13  758.1504
  14  386.6476
  15  403.5993
  16  738.336
  17  330.0048
  18  428.3248
  19  378.9084
  20  599.7831
  21  520.6309
  22  607.4172
  23  618.8599
  24  319.3163
  25  326.5498
  26  717.611
  27  845.8248
  28  616.1183
  29  570.2817
  30  584.5325
  31  525.3571
  32  516.0538
  33  631.2388
  34  471.9059
  35  39.14713
  36  274.4268
  37  513.9363
  38  572.0229
  39  520.4368
  40  628.5377
  41  758.4937
  42  299.7883
  43  416.8503
  44  468.6157
  45  353.242
  46  386.5742
  47  39.4043
  48  262.5659
  49  171.3627
  50  444.8728
  51  775.0419
  52  482.0593
  53  414.4494
  54  193.8309
  55  282.933
  56  560.6498
  57  737.8703
  58  658.5583
  59  1148.724
  60  711.4659
  61  239.469
  62  261.1645
  63  436.7231
  64  684.9136
  65  685.0567
  66  579.7757
  67  491.5164
  68  650.3057
  69  413.5799
  70  286.2729
  71  427.526
  72  113.1408
  73  129.1768
  74  126.9436
  75  256.5409
  76  431.6656
  77  182.8656
  78  359.4602
  79  354.2416
  80  416.8041
  81  400.5896
  82  419.3839
  83  608.2357
  84  630.8129
  85  456.0509
  86  1102.31
  87  735.6552
  88  498.7894
  89  571.9863
  90  496.5054
  91  286.5718
  92  98.64693
  93  392.7464
  94  765.5223
  95  609.9848
  96  328.4582
  97  408.5505
  98  565.4404
  99  618.3276
 100  493.8881
 101  508.6298
 102  247.1142
 103  198.1697
 104  -324.8181
 105  -107.6141
 106  465.3294
 107  594.5159
 108  574.9716
 109  649.0812
 110  582.7396
 111  490.4088
 112  179.7912
 113  423.4959
 114  506.5573
 115  358.8418
 116  649.8092
 117  655.834
 118  420.346
 119  327.2296
 120  330.2537
 121  634.9782
 122  611.9355
 123  392.6497
 124  570.9886
 125  341.8684
 126  757.7292
 127  599.976
 128  391.1578
 129  338.8784
 130  751.2294
 131  428.577
 132  292.0133
 133  494.9546
 134  467.9685
 135  375.1957
 136  560.3687
 137  1010.497
 138  576.5141
 139  549.9938
 140  570.02
 141  548.8889
 142  765.3043
 143  577.6161
 144  399.0338
 145  235.8344
 146  798.9089
 147  785.1125
 148  418.1528
 149  311.053
 150  563.8539
 151  533.4141
 152  734.6005
 153  657.0554
 154  424.5011
 155  395.9263
 156  460.1351
 157  710.3674
 158  556.2443
 159  235.1496
 160  -9.566939
 161  281.3549
 162  315.0048
 163  362.5875
 164  440.5654
 165  684.2921
 166  601.1531
 167  775.3607
 168  623.348
 169  243.2083
 170  480.228
 171  500.9907
 172  519.0881
 173  565.9557
 174  459.4735
 175  482.6616
 176  384.3994
 177  539.7648
 178  636.674
 179  505.9205
 180  521.0029
 181  286.2609
 182  206.4669
 183  410.0884
 184  300.3322
 185  238.7211
 186  560.8614
 187  494.5047
 188  160.9019
 189  228.5164
 190  885.2002
 191  638.817
 192  328.5174
 193  112.5566
 194  296.7113
 195  805.3056
 196  1096.929
 197  431.0681
 198  263.3382
 199  416.1217
 200  644.252
 201  914.2228
 202  637.3592
 203  669.3019
 204  509.821
 205  387.8439
 206  520.1704
 207  816.5451
 208  673.8476
 209  313.7002
 210  334.2907
 211  890.8873
 212  815.8347
 213  644.0078
 214  767.2309
 215  712.5435
 216  988.8673
 217  1018.112
 218  1602.504
 219  1932.622
 220  1677.686
 221  853.176
 222  607.4244
 223  123.1688
 224  501.7144
 225  800.4178
 226  623.9517
 227  522.1464
 228  280.6363
 229  409.421
 230  -50.72348
 231  239.1868
 232  506.5493
 233  711.1965
 234  725.4152
 235  585.2739
 236  675.2351
 237  457.5249
 238  174.0016
 239  339.7495
 240  437.3828
 241  367.0423
 242  543.6113
 243  86.09332
 244  166.7343
 245  166.4728
 246  552.0963
 247  136.6754
 248  485.9654
 249  668.1227
 250  422.6197
 251  424.5706
 252  574.4525
 253  290.0778
 254  578.0289
 255  584.2101
 256  622.1335
 257  469.1339
 258  293.1257
 259  296.804
 260  362.1232
 261  794.5427
 262  821.39
 263  590.3986
 264  470.6957
 265  487.3423
 266  159.7375
 267  405.7105
 268  561.1777
 269  681.9169
 270  724.4068
 271  295.2649
 272  94.40004
 273  372.0252
 274  400.6124
 275  371.9385
 276  377.3972
 277  554.5464
 278  513.2213
 279  156.6966
 280  174.0696
 281  542.8202
 282  664.0083
 283  615.5912
 284  260.1029
 285  92.44482
 286  325.278
 287  455.2248
 288  361.5096
 289  610.7232
 290  742.3744
 291  750.937
 292  548.2601
 293  498.3884
 294  558.5903
 295  199.6613
 296  426.0162
 297  608.8021
 298  304.4002
 299  1000.699
 300  763.822
 301  324.3987
 302  603.2823
 303  756.0965
 304  706.6005
 305  495.0916
 306  450.5476
 307  403.1176
 308  428.8889
 309  596.2774
 310  333.4753
 311  332.252
 312  619.5139
 313  398.832
 314  458.1206
 315  888.5554
 316  713.0048
 317  349.1364
 318  237.8503
 319  588.9293
 320  400.7414
 321  322.5154
 322  443.938
 323  622.1106
 324  506.3363
 325  728.6624
 326  762.0081
 327  239.0461
 328  -74.46938
 329  -147.5672
 330  329.8308
 331  468.952
 332  598.0496
 333  586.0257
 334  523.354
 335  -2.097492
 336  157.698
 337  393.7282
 338  410.1623
 339  454.1034
 340  295.4817
 341  332.2459
 342  268.729
 343  355.055
 344  525.5531
 345  419.8312
 346  485.0428
 347  439.5984
 348  391.804
 349  337.1864
 350  337.4502
 351  35.71795
 352  478.9357
 353  535.7598
 354  237.6448
 355  55.11201
 356  398.8244
 357  678.59
 358  341.5901
 359  500.9583
 360  471.266
 361  436.026
 362  48.22384
 363  73.30254
 364  311.7606
 365  370.6366
 366  454.011
 367  432.8655
 368  479.2706
 369  554.6064
 370  251.8023
 371  179.1785
 372  257.9825
 373  151.537
 374  375.1182
 375  428.4144
 376  550.6181
 377  506.3774
 378  464.5182
 379  618.729
 380  533.7011
 381  452.1667
 382  178.0206
 383  345.6572
 384  211.6409
 385  320.9011
 386  590.6795
 387  713.8813
 388  635.7805
 389  491.3546
 390  631.2025
 391  423.9686
 392  219.2386
 393  176.6539
 394  314.2173
 395  250.2865
 396  236.5572
 397  350.8295
 398  321.8776
 399  290.9901
 400  361.9435
 401  397.101
 402  368.5349
 403  476.6028
 404  466.3683
 405  383.9422
 406  368.4979
 407  463.4359
 408  680.127
 409  671.4844
 410  504.4685
 411  552.701
 412  689.8295
 413  663.7943
 414  676.4177
 415  739.394
 416  803.5925
 417  975.6363
 418  644.3857
 419  625.1225
 420  678.5933
 421  609.1773
 422  413.9076
 423  595.8759
 424  278.1293
 425  397.8145
 426  141.3365
 427  62.82493
 428  253.748
 429  749.2085
 430  475.3614
 431  433.0541
 432  336.7747
 433  342.6961
 434  658.0665
 435  430.9646
 436  671.5643
 437  339.5304
 438  345.7168
 439  299.7923
 440  364.3739
 441  310.9311
 442  718.2554
 443  599.5748
 444  414.2773
 445  334.7551
 446  410.2429
 447  489.8704
 448  521.8256
 449  273.4043
 450  594.9344
 451  686.7825
 452  223.4098
 453  284.8423
 454  620.0512
 455  632.5721
 456  920.6453
 457  1083.548
 458  672.0526
 459  500.2157
 460  105.4688
 461  378.5346
 462  397.7961
 463  432.5476
 464  385.893
 465  528.1771
 466  383.4724
 467  547.6851
 468  550.9932
 469  195.2024
 470  483.5595
 471  694.0544
 472  621.7145
 473  105.3438
 474  241.6834
 475  646.7232
 476  686.3019
 477  263.5652
 478  479.2853
 479  554.2816
 480  581.4831
 481  786.8606
 482  612.6602
 483  450.9441
 484  707.32
 485  400.7984
 486  180.4216
 487  322.3774
 488  448.4941
 489  277.1704
 490  480.6289
 491  509.3551
 492  382.4293
 493  184.8106
 494  160.3751
 495  237.0533
 496  416.661
 497  323.1618
 498  468.0491
 499  644.3113
 500  925.8311
 501  979.7052
 502  -2.995764
 503  49.31702
 504  640.0217
 505  572.8597
 506  79.27558
 507  359.1695
 508  484.4882
 509  153.0315
 510  99.19076
 511  323.1478
