# Input file       =  1188507916.120346_cleaned.dat
# Candidate        =  PSR_0332+5434
# Telescope        =  AR
# Epoch_topo       =  57999.878878707706
# Epoch_bary       =  N/A
# T_sample         =  0.002
# Data Folded      =  7143424
# Data Avg         =  0.0240088451033072
# Data StdDev      =  1.00005690095658 
# Profile Bins     =  512
# Profile Avg      =  334.98162394535  
# Profile StdDev   =  118.125305542314 
# Reduced chi-sqr  =  1.483
# Prob(Noise)      <  6.81e-12   (~6.8 sigma)
# P_topo (ms)      =  714.463691854891  +/- 0.000203
# P'_topo (s/s)    =  -0                +/- 1.1e-10
# P''_topo (s/s^2) =  0                 +/- 4.99e-14
# P_bary (ms)      =  N/A
# P'_bary (s/s)    =  N/A
# P''_bary (s/s^2) =  N/A
# P_orb (s)        =  N/A
# asin(i)/c (s)    =  N/A
# eccentricity     =  N/A
# w (rad)          =  N/A
# T_peri           =  N/A
######################################################
   0  145.3297
   1  230.1776
   2  350.83
   3  410.7289
   4  451.3344
   5  465.2256
   6  370.7189
   7  285.1187
   8  352.1707
   9  255.5636
  10  181.1311
  11  253.4245
  12  220.7838
  13  309.7452
  14  371.5526
  15  368.8248
  16  277.5648
  17  323.0807
  18  314.8266
  19  248.5868
  20  207.1361
  21  152.7167
  22  248.8972
  23  278.4382
  24  274.0663
  25  248.8199
  26  364.2662
  27  383.3835
  28  281.2853
  29  381.7153
  30  320.7743
  31  259.7292
  32  295.2436
  33  335.1212
  34  361.2679
  35  261.8121
  36  302.208
  37  333.8971
  38  315.8193
  39  218.0656
  40  133.3937
  41  295.9437
  42  337.6807
  43  165.9277
  44  262.1064
  45  322.5377
  46  277.8341
  47  366.684
  48  310.0862
  49  221.7464
  50  295.6476
  51  293.8417
  52  215.7772
  53  238.0052
  54  402.4247
  55  284.715
  56  276.1825
  57  244.0582
  58  304.1962
  59  288.3332
  60  243.5865
  61  297.9119
  62  196.0475
  63  242.3682
  64  336.7785
  65  185.5271
  66  181.2048
  67  337.73
  68  306.0728
  69  352.4576
  70  332.6792
  71  183.7552
  72  241.112
  73  315.1234
  74  337.3637
  75  291.3333
  76  249.497
  77  365.4409
  78  338.9392
  79  313.7251
  80  405.6476
  81  354.7985
  82  202.9382
  83  225.9675
  84  220.7673
  85  341.6566
  86  288.0819
  87  412.2692
  88  373.6251
  89  264.9233
  90  384.9602
  91  342.3076
  92  306.4615
  93  407.3922
  94  498.2447
  95  365.2037
  96  278.3296
  97  292.7312
  98  282.9961
  99  272.158
 100  408.0602
 101  419.1887
 102  385.5997
 103  407.4689
 104  386.4231
 105  420.9312
 106  243.0491
 107  215.0181
 108  317.7976
 109  244.3049
 110  230.2716
 111  397.4577
 112  406.3137
 113  301.5266
 114  392.0135
 115  302.9716
 116  208.9777
 117  222.8155
 118  412.7944
 119  371.5134
 120  381.3652
 121  395.9824
 122  331.8492
 123  250.4374
 124  346.4831
 125  389.5204
 126  356.5633
 127  321.5249
 128  300.0875
 129  213.9398
 130  456.1664
 131  491.9199
 132  413.3794
 133  376.706
 134  386.7821
 135  214.0193
 136  160.6646
 137  224.848
 138  399.2516
 139  353.9639
 140  204.2862
 141  329.3413
 142  337.97
 143  385.4997
 144  439.2765
 145  391.7986
 146  265.0996
 147  229.8296
 148  376.3051
 149  262.1751
 150  376.3641
 151  447.4383
 152  400.9412
 153  513.4865
 154  532.2627
 155  227.0545
 156  290.7072
 157  432.8763
 158  442.2552
 159  552.1039
 160  647.3855
 161  453.0822
 162  439.8646
 163  566.9028
 164  880.4471
 165  903.2505
 166  923.8075
 167  969.5829
 168  821.6869
 169  627.9536
 170  581.0983
 171  454.9889
 172  451.7976
 173  252.4276
 174  343.0859
 175  258.3058
 176  166.9817
 177  126.2191
 178  180.2621
 179  284.5251
 180  341.8664
 181  337.6352
 182  317.5672
 183  267.9045
 184  265.6153
 185  195.0887
 186  174.8596
 187  330.4451
 188  398.0739
 189  264.0182
 190  95.2092
 191  142.5822
 192  262.427
 193  244.0601
 194  182.3264
 195  93.60889
 196  181.5799
 197  242.7621
 198  271.4374
 199  319.1849
 200  430.8291
 201  353.5167
 202  227.7235
 203  245.4035
 204  317.022
 205  285.7811
 206  268.9084
 207  351.3008
 208  209.8689
 209  230.1504
 210  139.1077
 211  210.7196
 212  234.6371
 213  240.0661
 214  360.1646
 215  218.956
 216  203.6388
 217  331.8503
 218  445.0425
 219  379.3751
 220  272.3945
 221  291.9939
 222  469.7198
 223  518.588
 224  399.9908
 225  482.7701
 226  504.8627
 227  408.8688
 228  377.6465
 229  428.2688
 230  233.4833
 231  174.5699
 232  402.034
 233  347.9051
 234  263.3738
 235  269.0521
 236  322.3033
 237  464.4695
 238  434.0697
 239  340.5385
 240  365.8639
 241  310.7639
 242  313.393
 243  330.6409
 244  308.4554
 245  418.7868
 246  346.5616
 247  251.1321
 248  289.2451
 249  368.9446
 250  260.7391
 251  334.5454
 252  166.8939
 253  318.2147
 254  246.6352
 255  172.761
 256  286.8923
 257  272.3627
 258  391.3332
 259  408.1982
 260  337.4023
 261  318.7317
 262  335.4045
 263  298.4912
 264  283.6108
 265  307.6404
 266  267.2785
 267  325.4408
 268  319.6136
 269  340.697
 270  391.5877
 271  347.9149
 272  380.5765
 273  331.6516
 274  258.3399
 275  385.5453
 276  443.6725
 277  490.4337
 278  320.8875
 279  240.4896
 280  285.4406
 281  297.4323
 282  299.3824
 283  422.7499
 284  265.8372
 285  293.2852
 286  331.684
 287  531.4429
 288  415.3098
 289  363.4257
 290  293.6376
 291  384.6071
 292  285.8436
 293  343.6832
 294  275.1988
 295  146.4153
 296  142.1801
 297  296.7319
 298  390.0554
 299  365.3477
 300  415.6911
 301  485.2977
 302  459.0198
 303  385.1686
 304  362.013
 305  282.1352
 306  218.4582
 307  350.9637
 308  503.9218
 309  432.9879
 310  469.2975
 311  492.8412
 312  497.9234
 313  332.8633
 314  237.2853
 315  295.0901
 316  389.8303
 317  477.0512
 318  464.6527
 319  347.722
 320  435.6195
 321  373.0298
 322  329.3098
 323  406.5891
 324  340.1326
 325  306.876
 326  289.4157
 327  226.6311
 328  309.6727
 329  479.2221
 330  535.7163
 331  428.6245
 332  534.2648
 333  386.5184
 334  408.5692
 335  332.8053
 336  326.0411
 337  322.1357
 338  267.8188
 339  261.6569
 340  188.4868
 341  282.5256
 342  409.0788
 343  364.0435
 344  451.0595
 345  396.877
 346  529.8102
 347  608.5679
 348  231.7329
 349  295.674
 350  554.3976
 351  538.8853
 352  282.725
 353  335.1625
 354  431.0891
 355  422.1532
 356  503.1707
 357  362.2912
 358  281.9906
 359  293.2611
 360  374.6275
 361  419.3866
 362  359.0642
 363  299.5579
 364  297.1971
 365  306.8372
 366  379.04
 367  302.3497
 368  216.2225
 369  364.2574
 370  338.6268
 371  205.8966
 372  286.9135
 373  284.7496
 374  319.5125
 375  167.5781
 376  215.5019
 377  265.3921
 378  378.082
 379  344.3377
 380  383.7131
 381  460.5365
 382  359.4198
 383  350.6247
 384  285.8433
 385  345.1247
 386  353.7021
 387  362.7561
 388  354.0626
 389  229.7983
 390  314.3211
 391  303.2864
 392  265.5417
 393  260.7324
 394  287.9503
 395  232.3114
 396  324.9547
 397  395.3812
 398  361.3214
 399  337.4444
 400  217.6785
 401  252.245
 402  327.2905
 403  451.3012
 404  477.9175
 405  435.5017
 406  331.976
 407  278.7793
 408  280.2241
 409  368.6229
 410  302.1385
 411  269.0881
 412  252.5477
 413  247.3681
 414  355.0903
 415  404.507
 416  436.6871
 417  373.8224
 418  392.9173
 419  417.4714
 420  372.39
 421  350.2646
 422  366.3547
 423  338.9271
 424  345.776
 425  305.207
 426  265.4829
 427  266.0152
 428  329.3966
 429  393.1498
 430  338.7025
 431  306.5667
 432  274.5384
 433  368.8851
 434  417.428
 435  382.9219
 436  408.2851
 437  330.9944
 438  247.7857
 439  283.7398
 440  342.6864
 441  402.2214
 442  343.1318
 443  275.673
 444  305.4706
 445  376.322
 446  369.3199
 447  406.7281
 448  471.8269
 449  331.7454
 450  296.1383
 451  163.4031
 452  249.5003
 453  290.0471
 454  313.4862
 455  432.2861
 456  273.6978
 457  324.6931
 458  337.3731
 459  241.1951
 460  221.6574
 461  300.7672
 462  319.4827
 463  261.1397
 464  438.9238
 465  461.386
 466  291.482
 467  422.931
 468  450.9649
 469  397.1056
 470  342.003
 471  309.5556
 472  352.4781
 473  260.8852
 474  313.0876
 475  379.399
 476  321.9184
 477  323.8408
 478  340.9219
 479  315.6073
 480  397.6747
 481  344.529
 482  279.8981
 483  386.3171
 484  350.9814
 485  320.8103
 486  294.2648
 487  267.0609
 488  300.9072
 489  240.9304
 490  341.2571
 491  253.07
 492  282.9607
 493  237.2074
 494  283.1012
 495  225.0666
 496  249.184
 497  373.7741
 498  417.7849
 499  398.0909
 500  340.9344
 501  406.2225
 502  410.318
 503  383.1563
 504  236.731
 505  223.6215
 506  265.5881
 507  423.3843
 508  422.4184
 509  450.283
 510  543.7469
 511  277.0651
