# Input file       =  1188953313.119366_cleaned.dat
# Candidate        =  PSR_0332+5434
# Telescope        =  AR
# Epoch_topo       =  58005.033936566739
# Epoch_bary       =  N/A
# T_sample         =  0.002
# Data Folded      =  7340032
# Data Avg         =  0.0131834677806908
# Data StdDev      =  1.00001458699009 
# Profile Bins     =  512
# Profile Avg      =  189.041298310889 
# Profile StdDev   =  119.734782921381 
# Reduced chi-sqr  =  1.128
# Prob(Noise)      <  0.0239   (~2.0 sigma)
# P_topo (ms)      =  714.464467661775  +/- 8.2e-05
# P'_topo (s/s)    =  -0                +/- 4.33e-11
# P''_topo (s/s^2) =  0                 +/- 1.91e-14
# P_bary (ms)      =  N/A
# P'_bary (s/s)    =  N/A
# P''_bary (s/s^2) =  N/A
# P_orb (s)        =  N/A
# asin(i)/c (s)    =  N/A
# eccentricity     =  N/A
# w (rad)          =  N/A
# T_peri           =  N/A
######################################################
   0  814.4609
   1  567.053
   2  287.6205
   3  145.348
   4  36.06495
   5  270.3986
   6  263.7113
   7  236.1214
   8  173.774
   9  156.0374
  10  132.2835
  11  -32.02191
  12  161.8189
  13  214.0151
  14  306.4366
  15  234.3369
  16  241.4888
  17  248.8257
  18  120.5128
  19  81.11155
  20  161.4843
  21  146.9585
  22  187.6545
  23  163.8044
  24  60.63323
  25  82.16319
  26  131.2893
  27  167.7131
  28  55.55753
  29  234.9422
  30  211.7352
  31  150.1312
  32  228.4345
  33  204.8924
  34  127.696
  35  271.6222
  36  244.5572
  37  282.0395
  38  145.1189
  39  125.6957
  40  101.7612
  41  203.5677
  42  355.7945
  43  288.5102
  44  226.1728
  45  197.0874
  46  165.1328
  47  73.94154
  48  186.4948
  49  255.7539
  50  283.3028
  51  275.0422
  52  56.23073
  53  64.88966
  54  197.3155
  55  137.6749
  56  142.1252
  57  155.6433
  58  260.0495
  59  139.5433
  60  56.57939
  61  70.22662
  62  267.8449
  63  293.1625
  64  202.1754
  65  46.71569
  66  45.16656
  67  172.2418
  68  163.4873
  69  138.5254
  70  278.9818
  71  292.8144
  72  326.5632
  73  200.867
  74  230.8333
  75  173.9115
  76  63.28773
  77  257.6217
  78  205.1364
  79  198.637
  80  422.3763
  81  184.073
  82  175.1537
  83  256.9716
  84  330.974
  85  236.2897
  86  191.8313
  87  156.4686
  88  157.1351
  89  190.4356
  90  221.2244
  91  93.0046
  92  169.0649
  93  226.9584
  94  130.1712
  95  240.6017
  96  345.9186
  97  237.8472
  98  106.3538
  99  116.5978
 100  221.9007
 101  112.6762
 102  146.9778
 103  188.1186
 104  252.607
 105  209.2319
 106  321.9706
 107  232.228
 108  38.2912
 109  -33.25684
 110  13.9205
 111  175.8267
 112  195.1098
 113  241.7255
 114  241.2071
 115  189.5613
 116  -32.78012
 117  128.0138
 118  146.9554
 119  193.0569
 120  147.1689
 121  141.2742
 122  127.1347
 123  120.8295
 124  178.0526
 125  185.0688
 126  169.066
 127  189.4417
 128  194.2487
 129  135.7517
 130  132.0553
 131  93.27489
 132  25.17106
 133  233.9734
 134  198.3625
 135  86.37119
 136  41.08865
 137  198.3064
 138  229.6947
 139  122.3219
 140  215.4017
 141  160.2326
 142  160.239
 143  -0.7910586
 144  93.94179
 145  149.1664
 146  169.7864
 147  181.1066
 148  149.5327
 149  228.132
 150  183.2023
 151  80.52464
 152  87.59864
 153  99.8118
 154  89.48006
 155  179.4109
 156  175.0602
 157  222.5415
 158  196.2077
 159  191.8941
 160  250.4398
 161  200.9903
 162  152.828
 163  83.00722
 164  160.8204
 165  59.41928
 166  191.2599
 167  248.8004
 168  283.7443
 169  230.5807
 170  194.2169
 171  260.2682
 172  136.5074
 173  78.00652
 174  71.03618
 175  106.881
 176  103.1689
 177  116.3879
 178  136.4177
 179  110.9058
 180  139.8063
 181  162.5423
 182  146.8367
 183  155.6179
 184  194.3459
 185  151.9939
 186  158.2212
 187  179.602
 188  203.0426
 189  284.2064
 190  260.084
 191  207.1851
 192  238.7412
 193  284.4825
 194  279.0853
 195  302.605
 196  301.4348
 197  377.0188
 198  354.6095
 199  216.0158
 200  225.4641
 201  271.3196
 202  216.1448
 203  183.3634
 204  168.1881
 205  99.85905
 206  153.1089
 207  46.16513
 208  54.27184
 209  194.839
 210  324.2213
 211  159.2471
 212  173.3613
 213  121.7596
 214  180.9618
 215  230.6236
 216  192.3109
 217  230.7744
 218  118.5581
 219  141.6893
 220  93.81898
 221  117.8091
 222  159.2763
 223  278.0047
 224  215.922
 225  141.0097
 226  158.5943
 227  201.4449
 228  222.6161
 229  185.2254
 230  117.5291
 231  297.5377
 232  216.2151
 233  67.73249
 234  175.449
 235  270.6936
 236  278.9628
 237  429.8587
 238  376.7312
 239  232.9533
 240  131.0503
 241  55.54992
 242  181.5086
 243  177.0585
 244  162.5339
 245  167.5812
 246  184.0554
 247  142.1151
 248  234.2379
 249  168.1875
 250  101.7719
 251  220.0254
 252  299.9073
 253  193.1071
 254  55.59576
 255  134.3951
 256  283.2195
 257  209.4335
 258  127.1059
 259  251.5644
 260  231.4202
 261  277.4554
 262  284.775
 263  200.0449
 264  197.6983
 265  270.4235
 266  102.4974
 267  103.1622
 268  191.1114
 269  174.8791
 270  117.8838
 271  187.8667
 272  184.741
 273  115.065
 274  54.82984
 275  87.47878
 276  73.82322
 277  178.8992
 278  119.6788
 279  229.825
 280  281.9787
 281  409.5555
 282  291.0122
 283  -75.04732
 284  115.3383
 285  290.4478
 286  124.3953
 287  33.04177
 288  157.5892
 289  165.038
 290  -13.82153
 291  69.30217
 292  150.8895
 293  259.6766
 294  252.2333
 295  225.6079
 296  195.1188
 297  197.2499
 298  121.6454
 299  32.29132
 300  300.192
 301  292.469
 302  200.6789
 303  144.1649
 304  229.945
 305  328.0041
 306  292.5614
 307  126.7056
 308  228.8457
 309  231.7713
 310  109.903
 311  198.7532
 312  167.1248
 313  234.1186
 314  173.6149
 315  261.3546
 316  230.4278
 317  106.2332
 318  181.8754
 319  301.8756
 320  315.3697
 321  205.1844
 322  280.3926
 323  253.8661
 324  210.5645
 325  214.6178
 326  234.688
 327  155.6471
 328  7.260532
 329  167.5052
 330  211.0053
 331  219.8128
 332  221.7285
 333  286.4118
 334  235.729
 335  133.937
 336  182.0822
 337  183.7181
 338  137.6325
 339  112.1168
 340  38.70781
 341  123.3645
 342  101.4398
 343  262.6172
 344  260.8434
 345  166.2352
 346  153.2326
 347  92.00208
 348  128.3251
 349  278.3951
 350  278.0657
 351  363.1756
 352  433.9419
 353  206.5691
 354  83.94448
 355  121.5571
 356  204.9729
 357  292.0769
 358  272.2068
 359  226.7397
 360  228.9892
 361  245.4531
 362  111.4343
 363  129.2991
 364  153.4553
 365  65.67145
 366  46.80363
 367  37.23765
 368  121.9561
 369  142.5244
 370  108.2977
 371  144.9082
 372  153.6973
 373  171.7928
 374  155.8582
 375  189.4898
 376  280.6914
 377  128.1021
 378  275.989
 379  432.3864
 380  272.5022
 381  205.8223
 382  251.383
 383  180.6013
 384  92.48714
 385  29.08837
 386  218.0096
 387  298.7222
 388  223.1817
 389  142.4927
 390  167.5754
 391  262.5118
 392  207.8524
 393  204.5568
 394  165.9873
 395  105.3424
 396  24.43937
 397  -146.6453
 398  45.23569
 399  226.0672
 400  259.8193
 401  224.5769
 402  247.8606
 403  197.6978
 404  133.9063
 405  50.61829
 406  225.3815
 407  176.8376
 408  161.5832
 409  288.5965
 410  211.39
 411  149.0201
 412  132.2919
 413  166.662
 414  292.3394
 415  191.5945
 416  170.9008
 417  192.8628
 418  174.4204
 419  291.6407
 420  198.1401
 421  106.2088
 422  198.5347
 423  302.1245
 424  137.6459
 425  139.4382
 426  220.4271
 427  183.6577
 428  139.3857
 429  302.1009
 430  346.4146
 431  174.9271
 432  217.4869
 433  201.784
 434  263.7051
 435  282.6036
 436  199.7615
 437  141.0883
 438  117.3613
 439  352.2286
 440  257.3914
 441  142.8427
 442  132.2997
 443  221.9946
 444  210.0429
 445  316.6575
 446  200.1937
 447  173.2368
 448  146.1887
 449  191.4783
 450  272.2755
 451  166.4825
 452  43.72631
 453  48.39634
 454  123.8509
 455  123.6307
 456  133.4042
 457  204.032
 458  245.2753
 459  247.5353
 460  287.3988
 461  185.2109
 462  92.32901
 463  204.9131
 464  209.7023
 465  210.3701
 466  228.0615
 467  175.1247
 468  187.0849
 469  136.5392
 470  239.2617
 471  227.8634
 472  214.5158
 473  187.7238
 474  64.34682
 475  126.6039
 476  161.9832
 477  92.05479
 478  116.3102
 479  227.6727
 480  167.219
 481  20.52808
 482  201.8877
 483  343.8133
 484  223.0453
 485  103.4814
 486  44.04808
 487  181.2093
 488  397.0228
 489  379.3482
 490  97.70894
 491  97.40639
 492  184.4854
 493  312.9803
 494  348.9896
 495  241.3481
 496  259.7901
 497  202.8413
 498  169.1964
 499  240.3355
 500  316.6362
 501  202.5351
 502  103.2248
 503  185.4223
 504  405.1884
 505  287.5533
 506  268.1655
 507  304.1097
 508  277.9728
 509  387.2888
 510  427.7021
 511  693.927
