# Input file       =  1188680202.123785_cleaned.dat
# Candidate        =  PSR_0332+5434
# Telescope        =  AR
# Epoch_topo       =  58001.872929673438
# Epoch_bary       =  N/A
# T_sample         =  0.002
# Data Folded      =  7208960
# Data Avg         =  -0.0152596294424836
# Data StdDev      =  3.06199336362672 
# Profile Bins     =  1024
# Profile Avg      =  -107.42043605847 
# Profile StdDev   =  256.915658624799 
# Reduced chi-sqr  =  0.852
# Prob(Noise)      <  1   (~0.0 sigma)
# P_topo (ms)      =  714.46393870983   +/- 5.66e-05
# P'_topo (s/s)    =  -0                +/- 3.04e-11
# P''_topo (s/s^2) =  0                 +/- 1.37e-14
# P_bary (ms)      =  N/A
# P'_bary (s/s)    =  N/A
# P''_bary (s/s^2) =  N/A
# P_orb (s)        =  N/A
# asin(i)/c (s)    =  N/A
# eccentricity     =  N/A
# w (rad)          =  N/A
# T_peri           =  N/A
######################################################
   0  -131.6412
   1  -40.56755
   2  27.98667
   3  21.56036
   4  0.7965384
   5  45.03106
   6  154.234
   7  69.74023
   8  15.33628
   9  43.12869
  10  -5.625206
  11  -69.70876
  12  -202.9868
  13  -189.7849
  14  -267.7522
  15  -292.1671
  16  -190.1701
  17  -160.6465
  18  -189.1726
  19  -162.725
  20  -37.20764
  21  13.71405
  22  26.72564
  23  80.7362
  24  -19.01513
  25  -238.349
  26  -263.0605
  27  -194.3973
  28  -224.6072
  29  -260.1058
  30  -142.7921
  31  43.55913
  32  -56.42405
  33  -159.5098
  34  -193.292
  35  -140.1418
  36  -164.7868
  37  -36.54407
  38  -60.73553
  39  -106.7806
  40  -165.581
  41  -75.30843
  42  -159.0476
  43  -230.0927
  44  -147.2954
  45  -99.20197
  46  -151.8164
  47  -190.1319
  48  -78.22523
  49  -3.740502
  50  49.34213
  51  18.43113
  52  10.36634
  53  -102.6994
  54  4.238132
  55  -15.8006
  56  -43.66556
  57  -103.8012
  58  -55.16253
  59  33.73002
  60  88.94141
  61  116.9309
  62  61.82639
  63  8.156055
  64  -2.213086
  65  30.57212
  66  -55.38797
  67  -178.9292
  68  -293.4002
  69  -327.6442
  70  -149.3879
  71  18.63679
  72  -0.6058698
  73  -57.30197
  74  -78.39456
  75  -114.3359
  76  -189.1008
  77  -213.1989
  78  -170.526
  79  -214.9263
  80  -211.2725
  81  -94.06305
  82  -49.6741
  83  -94.85814
  84  -184.3345
  85  -125.14
  86  -137.9351
  87  -131.1529
  88  -119.5824
  89  -72.69105
  90  -88.63412
  91  -105.9513
  92  -84.39702
  93  -103.7984
  94  -135.6693
  95  -67.04386
  96  -24.58939
  97  -74.39967
  98  -208.5218
  99  -196.2311
 100  -179.7148
 101  -205.4343
 102  -170.4893
 103  -157.903
 104  -192.6826
 105  -276.151
 106  -265.5337
 107  -183.423
 108  -130.6007
 109  -147.4935
 110  -168.0087
 111  -60.46689
 112  31.36821
 113  -30.72219
 114  -135.2464
 115  -172.967
 116  -148.0559
 117  -141.0394
 118  -120.1355
 119  -140.4902
 120  -80.12241
 121  -67.22495
 122  34.33228
 123  -23.89219
 124  21.71873
 125  12.94884
 126  9.671335
 127  24.85411
 128  -62.80018
 129  -74.19116
 130  -180.7415
 131  -196.1504
 132  -212.1654
 133  -225.7913
 134  -210.6436
 135  -174.7001
 136  -116.1167
 137  -4.982578
 138  -34.4881
 139  73.29102
 140  28.51335
 141  13.14555
 142  -75.31384
 143  -50.91511
 144  -52.90768
 145  -52.12645
 146  -43.09495
 147  -70.45466
 148  -116.952
 149  -100.2152
 150  21.54088
 151  -80.85942
 152  -267.7106
 153  -257.3448
 154  -88.94093
 155  -2.920318
 156  8.250048
 157  55.03753
 158  2.906222
 159  -195.2275
 160  -219.3951
 161  -120.2991
 162  -93.90647
 163  -154.7104
 164  -118.3946
 165  -95.69492
 166  -187.6163
 167  -156.5691
 168  -164.8233
 169  -35.49379
 170  -49.99914
 171  -81.34569
 172  -129.9003
 173  -169.2953
 174  -176.6076
 175  -248.0806
 176  -240.0209
 177  -271.823
 178  -267.8394
 179  -282.3816
 180  -154.3405
 181  -75.76058
 182  -27.7031
 183  -148.5294
 184  -222.1833
 185  -144.7724
 186  -45.22372
 187  8.245676
 188  -43.32141
 189  -159.4384
 190  -137.975
 191  -114.3157
 192  -20.26109
 193  -69.24039
 194  -113.4676
 195  -258.8365
 196  -316.7875
 197  -276.4648
 198  -157.6593
 199  -202.1625
 200  -165.9116
 201  -59.46601
 202  55.36371
 203  12.41414
 204  -23.93291
 205  -51.69411
 206  0.0638835
 207  -25.00936
 208  162.5155
 209  46.69232
 210  8.8173
 211  -38.36867
 212  95.41518
 213  -17.57201
 214  -155.134
 215  -193.7689
 216  -141.4006
 217  -65.66409
 218  -90.28272
 219  -130.1209
 220  -150.7586
 221  -97.25584
 222  75.32689
 223  108.567
 224  29.70037
 225  -65.73068
 226  -152.9125
 227  -230.3503
 228  -339.282
 229  -345.6759
 230  -244.6809
 231  -272.7483
 232  -299.3724
 233  -339.4438
 234  -256.0079
 235  -160.933
 236  -73.35668
 237  -45.78028
 238  -35.3416
 239  -19.75616
 240  -151.6504
 241  -218.0071
 242  -140.2397
 243  -6.496605
 244  -70.81155
 245  -160.5438
 246  -174.2047
 247  -207.8836
 248  -210.0162
 249  -125.7265
 250  -36.37975
 251  -52.7658
 252  -150.2255
 253  -112.1754
 254  -41.06519
 255  32.0985
 256  117.0632
 257  86.04386
 258  0.8218567
 259  -71.70061
 260  -151.0051
 261  -250.4698
 262  -317.9545
 263  -188.3985
 264  -127.2303
 265  -143.6931
 266  -126.4299
 267  -128.7873
 268  -168.6556
 269  -124.7939
 270  -25.25811
 271  42.91966
 272  23.12146
 273  157.4496
 274  186.02
 275  71.07919
 276  -97.09403
 277  -77.54675
 278  -84.8822
 279  -58.55712
 280  -27.92128
 281  26.23158
 282  -21.80537
 283  -39.45642
 284  -62.0479
 285  -151.9849
 286  -67.45911
 287  18.2708
 288  75.58469
 289  -82.80838
 290  -101.5206
 291  -97.86029
 292  -29.15998
 293  -95.49351
 294  -48.33575
 295  -42.45756
 296  -0.229333
 297  -84.59963
 298  -150.8282
 299  -96.76212
 300  -44.94072
 301  93.71988
 302  68.57755
 303  -10.09593
 304  -84.71178
 305  -215.8814
 306  -253.5516
 307  -313.5557
 308  -212.1612
 309  -180.887
 310  -112.3658
 311  -40.76811
 312  -99.22158
 313  -101.8916
 314  -223.7535
 315  -226.1688
 316  -266.5596
 317  -140.7018
 318  -56.12324
 319  -90.50824
 320  -163.3866
 321  -229.7192
 322  -267.9601
 323  -178.0385
 324  -36.13395
 325  34.47565
 326  -146.3888
 327  -249.5968
 328  -190.7191
 329  -161.433
 330  -260.4263
 331  -277.1478
 332  -249.3796
 333  -183.6694
 334  -258.7514
 335  -247.0019
 336  -426.4921
 337  -330.6996
 338  -132.88
 339  130.903
 340  61.53319
 341  -75.772
 342  -123.1625
 343  -49.15299
 344  -96.97306
 345  -125.7171
 346  -83.16573
 347  -2.549964
 348  -93.79841
 349  -164.6718
 350  -205.8239
 351  -198.429
 352  -184.4604
 353  -63.36014
 354  -7.406556
 355  -94.92123
 356  -125.6383
 357  -98.24976
 358  -86.2897
 359  -141.7196
 360  -214.1731
 361  -157.9048
 362  -151.4386
 363  -182.6412
 364  -208.6382
 365  -232.3912
 366  -259.134
 367  -248.5344
 368  -156.3916
 369  13.27737
 370  -12.45261
 371  -24.49954
 372  -60.69773
 373  57.00579
 374  75.12984
 375  45.62477
 376  -68.32926
 377  -156.2828
 378  -322.0006
 379  -315.0083
 380  -327.3164
 381  -278.2868
 382  -177.1825
 383  -110.3606
 384  -31.59274
 385  -125.2715
 386  -91.25238
 387  -39.81751
 388  -147.0064
 389  -60.4707
 390  -110.8676
 391  -165.2087
 392  -255.0034
 393  -199.2348
 394  -171.8869
 395  -339.6621
 396  -359.8459
 397  -114.5525
 398  -109.4153
 399  -137.9607
 400  -113.7338
 401  -4.773495
 402  -7.122797
 403  13.08529
 404  54.76465
 405  23.89458
 406  -9.132186
 407  96.93559
 408  44.14789
 409  -77.38404
 410  -164.8168
 411  -142.7994
 412  -37.37681
 413  34.18196
 414  22.11553
 415  -113.1497
 416  -267.9508
 417  -242.8923
 418  -179.0477
 419  -37.13984
 420  -71.56369
 421  24.64061
 422  10.69718
 423  112.8253
 424  6.728099
 425  -27.44429
 426  -155.6624
 427  -43.77907
 428  -16.94662
 429  -83.94994
 430  -119.5324
 431  -142.2415
 432  -228.3826
 433  -289.7658
 434  -234.8165
 435  -95.72254
 436  -84.31765
 437  -112.8835
 438  -190.9454
 439  -219.0742
 440  -201.4474
 441  -185.7331
 442  -246.5356
 443  -341.0693
 444  -377.6126
 445  -291.1752
 446  -279.5381
 447  -241.3209
 448  -202.7342
 449  -120.7706
 450  -43.53049
 451  -110.4233
 452  -122.486
 453  -209.3599
 454  -178.6181
 455  -123.847
 456  -66.47047
 457  3.734744
 458  2.08534
 459  -126.8429
 460  -297.5892
 461  -376.5494
 462  -251.7747
 463  -230.6415
 464  -211.8642
 465  -127.9084
 466  -11.88594
 467  81.63193
 468  12.4757
 469  -51.83606
 470  -141.8589
 471  -204.2317
 472  -131.6141
 473  -97.76267
 474  -89.92266
 475  -173.7751
 476  -112.7569
 477  -198.6992
 478  -230.2086
 479  -258.9949
 480  -87.23827
 481  17.83836
 482  -18.82983
 483  -197.381
 484  -302.9852
 485  -311.5688
 486  -228.1852
 487  -129.779
 488  -46.84288
 489  -58.65107
 490  -112.9525
 491  -92.29089
 492  -1.328471
 493  -33.8525
 494  -143.8053
 495  -165.2637
 496  -114.4929
 497  -101.3896
 498  -239.7188
 499  -280.6719
 500  -319.401
 501  -322.0049
 502  -137.6145
 503  106.5746
 504  229.1438
 505  76.76553
 506  39.15972
 507  -89.23228
 508  -105.8202
 509  -53.06236
 510  83.85364
 511  2.372677
 512  -140.1167
 513  -192.9654
 514  -266.9616
 515  -248.3568
 516  -231.8912
 517  -60.07877
 518  -65.67671
 519  -74.68057
 520  -139.1216
 521  -226.5679
 522  -251.1076
 523  -219.1
 524  -88.34103
 525  -172.679
 526  -302.6851
 527  -344.1942
 528  -219.9655
 529  -161.5531
 530  -75.3892
 531  -80.85784
 532  51.40475
 533  8.975472
 534  137.7103
 535  88.69901
 536  -75.9849
 537  -217.7181
 538  -145.5737
 539  -70.09523
 540  30.15666
 541  -15.66943
 542  -20.62862
 543  -164.2963
 544  -166.4474
 545  -110.4302
 546  -121.406
 547  -91.14874
 548  -118.8208
 549  0.7272555
 550  -27.70358
 551  -87.97649
 552  -160.4573
 553  23.89431
 554  51.27988
 555  -57.63159
 556  -165.1028
 557  -140.2289
 558  -147.2269
 559  -195.7104
 560  -188.7879
 561  -49.95488
 562  -221.2024
 563  -328.4126
 564  -282.2547
 565  -223.0918
 566  -244.0123
 567  -286.217
 568  -223.3622
 569  -226.5948
 570  -260.7792
 571  -109.8153
 572  -88.50424
 573  -130.5187
 574  -230.3096
 575  -135.21
 576  -19.99113
 577  -175.8189
 578  -170.1785
 579  -353.3343
 580  -246.813
 581  -304.2149
 582  -132.3023
 583  -123.5198
 584  -106.2252
 585  -41.93818
 586  -37.65411
 587  -121.7368
 588  -230.6268
 589  -142.7197
 590  -127.3869
 591  -80.38947
 592  -228.2032
 593  -282.9536
 594  -282.7912
 595  -211.3848
 596  3.810373
 597  111.0482
 598  182.3863
 599  61.89095
 600  -139.1457
 601  -243.5671
 602  -237.5571
 603  -183.335
 604  -86.82116
 605  -15.46494
 606  -28.69404
 607  -257.7914
 608  -347.1175
 609  -356.1618
 610  -216.0615
 611  -139.1583
 612  -140.5049
 613  -201.8008
 614  -228.5872
 615  -137.8997
 616  -161.1162
 617  -205.4088
 618  -186.8472
 619  -28.72231
 620  112.8734
 621  34.97304
 622  -3.94662
 623  -83.34513
 624  -143.804
 625  -294.345
 626  -350.807
 627  -308.6453
 628  -219.2358
 629  -147.8427
 630  -107.2495
 631  -163.9289
 632  -152.2837
 633  -107.8419
 634  -43.45915
 635  47.63787
 636  182.4671
 637  185.7698
 638  80.39713
 639  71.71175
 640  319.7994
 641  452.8487
 642  562.2322
 643  619.2944
 644  644.2845
 645  536.1055
 646  419.9621
 647  572.8674
 648  652.9963
 649  581.4286
 650  340.1256
 651  160.8273
 652  56.10466
 653  33.30989
 654  -9.314658
 655  -33.91048
 656  27.7926
 657  155.5692
 658  158.3398
 659  12.9326
 660  -149.0611
 661  -101.5556
 662  -99.08469
 663  -87.36372
 664  -160.6439
 665  -107.7049
 666  -55.7799
 667  47.7167
 668  -3.670598
 669  -122.4892
 670  -226.2535
 671  -113.1316
 672  -54.93546
 673  -88.50153
 674  -227.9819
 675  -264.2627
 676  -227.8158
 677  -159.0443
 678  -110.2522
 679  -169.08
 680  -163.5627
 681  -45.51968
 682  -15.14457
 683  -86.1177
 684  -182.6104
 685  -130.9508
 686  -216.0581
 687  -247.8437
 688  -221.9587
 689  -109.9482
 690  -41.0507
 691  -21.69138
 692  57.97553
 693  8.053134
 694  105.7062
 695  134.5109
 696  25.1585
 697  -107.3224
 698  -206.8108
 699  -81.68665
 700  -33.27228
 701  42.41653
 702  -100.7196
 703  -229.9529
 704  -293.1605
 705  -132.7862
 706  -70.0139
 707  -83.92043
 708  -187.3062
 709  -143.2281
 710  -120.3943
 711  -83.45852
 712  -59.00787
 713  -100.1901
 714  -116.4774
 715  -125.2676
 716  20.81625
 717  102.6668
 718  138.9935
 719  98.16753
 720  89.85747
 721  46.59967
 722  -66.59207
 723  -203.5429
 724  -213.0245
 725  -237.0227
 726  -217.9636
 727  -186.0666
 728  -32.18255
 729  -25.47176
 730  -239.7991
 731  -391.0887
 732  -435.4269
 733  -376.5071
 734  -440.8209
 735  -351.7996
 736  -137.8336
 737  2.900236
 738  79.71208
 739  68.28734
 740  40.31593
 741  -99.47633
 742  -165.8592
 743  -105.7561
 744  -68.68095
 745  -111.7151
 746  -116.9988
 747  -65.23413
 748  -109.5189
 749  -86.90544
 750  -83.75599
 751  -35.40102
 752  -85.12923
 753  -21.16266
 754  40.2989
 755  79.398
 756  -27.98337
 757  -157.9525
 758  -244.3441
 759  -232.1874
 760  -106.0443
 761  86.14532
 762  79.57122
 763  -32.78355
 764  -216.1791
 765  -198.7638
 766  -133.4638
 767  32.88044
 768  34.34275
 769  -8.718905
 770  -153.1106
 771  -209.2433
 772  -159.2314
 773  -79.67274
 774  50.82357
 775  58.34621
 776  -55.01734
 777  -168.4413
 778  -201.2475
 779  -168.6233
 780  -123.5217
 781  -137.4852
 782  -87.93839
 783  -48.67103
 784  -124.6179
 785  -60.34234
 786  -13.97868
 787  23.94759
 788  -1.440315
 789  -46.9278
 790  -16.471
 791  -36.1291
 792  -83.99628
 793  -93.76815
 794  -95.64144
 795  -114.9546
 796  -231.7914
 797  -323.7826
 798  -300.6023
 799  -222.5978
 800  -89.06622
 801  -93.47263
 802  -238.3586
 803  -224.779
 804  -132.9321
 805  -121.1246
 806  -150.4825
 807  -213.2791
 808  -153.6329
 809  -169.0896
 810  -136.6038
 811  -171.2812
 812  -233.0768
 813  -264.1742
 814  -124.1672
 815  -145.2033
 816  -163.8725
 817  -156.4223
 818  37.14425
 819  147.3629
 820  92.29597
 821  17.67624
 822  -182.0289
 823  -262.274
 824  -284.5806
 825  -289.6598
 826  -164.7755
 827  -167.37
 828  -121.3103
 829  -277.6048
 830  -314.8393
 831  -297.3165
 832  -153.6966
 833  -79.11606
 834  -69.07333
 835  -42.12061
 836  -136.2894
 837  -222.1468
 838  -344.9174
 839  -288.6757
 840  -212.8391
 841  -92.32702
 842  -9.359912
 843  -70.89397
 844  -96.88113
 845  -172.1601
 846  -205.0136
 847  -129.7412
 848  -112.8066
 849  -146.7369
 850  -137.3155
 851  -37.79197
 852  6.906282
 853  -94.02496
 854  -167.7661
 855  -176.3551
 856  -176.7885
 857  -166.0035
 858  -218.9813
 859  -251.8738
 860  -268.5714
 861  -313.0792
 862  -228.8318
 863  -190.2906
 864  -88.85524
 865  -30.12325
 866  3.608743
 867  58.84438
 868  143.6566
 869  212.102
 870  208.2091
 871  93.95319
 872  74.46625
 873  -19.43019
 874  -62.51782
 875  -155.2236
 876  -176.5788
 877  -69.97723
 878  5.940218
 879  -36.47958
 880  -133.7283
 881  -193.768
 882  -147.2796
 883  -130.8075
 884  -42.23321
 885  -124.4112
 886  -115.9798
 887  -183.3319
 888  -112.622
 889  -218.8465
 890  -204.9144
 891  -158.9527
 892  -6.748274
 893  59.7109
 894  32.2187
 895  -90.51718
 896  -176.5275
 897  -64.91882
 898  -19.88276
 899  -12.16296
 900  71.96262
 901  39.57718
 902  -81.33512
 903  -353.1833
 904  -352.6117
 905  -212.4584
 906  -111.4016
 907  -128.6987
 908  -119.3094
 909  -60.13843
 910  -17.10962
 911  -126.5358
 912  -107.2292
 913  -68.16022
 914  -10.95543
 915  -76.07877
 916  -83.08887
 917  -71.82069
 918  -163.867
 919  -246.6365
 920  -246.0243
 921  -118.7835
 922  -114.4754
 923  -237.192
 924  -312.532
 925  -316.2874
 926  -231.8383
 927  -96.84427
 928  -63.07977
 929  36.77146
 930  38.80674
 931  64.25188
 932  -189.061
 933  -396.6242
 934  -362.4271
 935  -255.11
 936  -234.3784
 937  -263.617
 938  -288.5685
 939  -275.8652
 940  -288.2581
 941  -199.4339
 942  -140.4644
 943  -127.332
 944  -102.948
 945  -37.30345
 946  -122.1945
 947  -261.2543
 948  -357.6527
 949  -243.918
 950  -178.9137
 951  -123.1733
 952  -54.73458
 953  -110.6444
 954  -291.3423
 955  -309.1142
 956  -239.7074
 957  -129.4818
 958  -232.1035
 959  -232.5656
 960  -305.1586
 961  -199.9828
 962  -98.48538
 963  -121.0274
 964  -160.0976
 965  -186.5187
 966  -130.0796
 967  -201.8235
 968  -289.5128
 969  -378.97
 970  -390.0133
 971  -296.9723
 972  -229.4055
 973  -281.1996
 974  -225.3443
 975  -178.0471
 976  -76.51714
 977  -81.44167
 978  37.99655
 979  -91.53618
 980  -146.0212
 981  -163.6139
 982  -8.934665
 983  -104.716
 984  -144.6482
 985  -104.3885
 986  -28.47375
 987  -197.441
 988  -210.0364
 989  -21.81779
 990  -29.40335
 991  -178.4999
 992  -259.399
 993  -70.10738
 994  -47.81728
 995  -46.83518
 996  57.27646
 997  149.7331
 998  29.95083
 999  77.56045
1000  75.0593
1001  14.2805
1002  -57.13192
1003  9.530382
1004  116.9921
1005  14.12724
1006  -100.9173
1007  -149.8463
1008  -164.2961
1009  -148.8356
1010  -128.1536
1011  -78.81863
1012  -157.9375
1013  -192.3911
1014  -149.3262
1015  19.76543
1016  21.74072
1017  29.69258
1018  -162.7038
1019  -307.4618
1020  -247.0466
1021  -183.1255
1022  -114.1355
1023  -186.0978
