# Input file       =  1188005499.110864_cleaned.dat
# Candidate        =  PSR_0332+5434
# Telescope        =  AR
# Epoch_topo       =  57994.063867023891
# Epoch_bary       =  N/A
# T_sample         =  0.002
# Data Folded      =  7340032
# Data Avg         =  0.0241325941876442
# Data StdDev      =  2.31531500295789 
# Profile Bins     =  256
# Profile Avg      =  692.181561773261 
# Profile StdDev   =  392.047853094615 
# Reduced chi-sqr  =  1.485
# Prob(Noise)      <  7.78e-07   (~4.8 sigma)
# P_topo (ms)      =  714.463350015018  +/- 0.000502
# P'_topo (s/s)    =  -0                +/- 2.65e-10
# P''_topo (s/s^2) =  0                 +/- 1.17e-13
# P_bary (ms)      =  N/A
# P'_bary (s/s)    =  N/A
# P''_bary (s/s^2) =  N/A
# P_orb (s)        =  N/A
# asin(i)/c (s)    =  N/A
# eccentricity     =  N/A
# w (rad)          =  N/A
# T_peri           =  N/A
######################################################
   0  1120.242
   1  113.617
   2  1032.781
   3  158.7521
   4  615.3926
   5  561.7957
   6  562.4461
   7  393.4938
   8  592.4955
   9  683.6299
  10  345.3015
  11  921.6783
  12  400.3527
  13  587.5648
  14  355.6894
  15  360.0691
  16  640.8497
  17  360.6504
  18  253.828
  19  159.6962
  20  587.2576
  21  580.7349
  22  -35.00115
  23  273.8304
  24  -40.59713
  25  5.768835
  26  -192.0923
  27  675.7492
  28  643.7256
  29  718.6131
  30  466.859
  31  654.4709
  32  905.2346
  33  804.9054
  34  401.2609
  35  800.8838
  36  871.1037
  37  338.1045
  38  930.1481
  39  1035.425
  40  1067.364
  41  669.2657
  42  914.549
  43  331.9634
  44  115.5897
  45  932.1525
  46  129.2181
  47  246.6424
  48  697.1324
  49  1217.962
  50  784.9125
  51  73.64272
  52  479.4627
  53  257.9568
  54  705.024
  55  492.6104
  56  1120.425
  57  1472.105
  58  545.6998
  59  599.8947
  60  435.3229
  61  1318.203
  62  430.3525
  63  494.1283
  64  134.7059
  65  301.3013
  66  554.5358
  67  735.0912
  68  628.0748
  69  400.1748
  70  583.473
  71  788.8539
  72  819.6786
  73  463.6121
  74  988.6335
  75  815.8943
  76  689.1708
  77  617.1508
  78  814.2359
  79  1103.212
  80  393.251
  81  484.5555
  82  283.8306
  83  311.015
  84  18.51855
  85  681.74
  86  1016.62
  87  404.3123
  88  626.2074
  89  637.5937
  90  945.7653
  91  293.2305
  92  771.758
  93  699.4677
  94  151.512
  95  750.7592
  96  700.7908
  97  1055.679
  98  590.1883
  99  332.5811
 100  519.8856
 101  1020.693
 102  636.9608
 103  440.4308
 104  453.7806
 105  993.6678
 106  314.1227
 107  987.2778
 108  569.2386
 109  1030.111
 110  861.8919
 111  789.4063
 112  1130.035
 113  399.0381
 114  787.3383
 115  230.9998
 116  341.9149
 117  402.2555
 118  152.621
 119  1012.145
 120  634.2293
 121  542.1011
 122  671.8334
 123  898.3974
 124  899.5654
 125  650.824
 126  1075.961
 127  946.4554
 128  352.5056
 129  406.3216
 130  598.678
 131  302.9953
 132  693.5133
 133  1205.844
 134  695.0179
 135  509.449
 136  484.8134
 137  565.7278
 138  333.5573
 139  834.616
 140  896.5677
 141  438.6468
 142  674.8013
 143  781.3677
 144  767.4485
 145  1412.766
 146  1088.921
 147  518.5225
 148  599.3223
 149  723.243
 150  1334.375
 151  701.1869
 152  941.9985
 153  200.0786
 154  308.8491
 155  551.4156
 156  667.5771
 157  1364.244
 158  1440.025
 159  1900.542
 160  2357.67
 161  3332.951
 162  2947.426
 163  1427.282
 164  855.9858
 165  411.4447
 166  664.2758
 167  1063.406
 168  665.675
 169  833.8142
 170  -132.5956
 171  1067.337
 172  793.1983
 173  470.1477
 174  635.1764
 175  639.1143
 176  791.5086
 177  1191.217
 178  688.8495
 179  828.6307
 180  1209.576
 181  700.0938
 182  917.2738
 183  872.6805
 184  287.0502
 185  699.8059
 186  682.4467
 187  916.0007
 188  497.7709
 189  722.1846
 190  599.9434
 191  269.5222
 192  831.7409
 193  1146.017
 194  387.8485
 195  547.381
 196  757.3307
 197  640.9453
 198  540.9016
 199  529.3373
 200  569.9193
 201  90.34965
 202  692.7104
 203  1023.65
 204  1103.916
 205  136.6768
 206  1027.385
 207  1147.145
 208  736.7932
 209  656.5153
 210  704.4877
 211  1395.886
 212  836.5469
 213  645.5737
 214  1103.895
 215  695.7422
 216  719.7554
 217  1111.306
 218  1497.965
 219  876.9178
 220  797.6947
 221  705.3824
 222  1036.17
 223  1278.406
 224  392.3766
 225  495.3708
 226  609.7025
 227  819.5291
 228  756.9721
 229  612.8794
 230  893.1038
 231  402.5253
 232  112.9414
 233  1056.808
 234  418.3615
 235  -41.01234
 236  419.8515
 237  824.5144
 238  881.2983
 239  774.0505
 240  986.2242
 241  1020.958
 242  1324.353
 243  566.2391
 244  880.0154
 245  666.0074
 246  11.45863
 247  448.3174
 248  981.6448
 249  469.4874
 250  1002.658
 251  628.2947
 252  81.14657
 253  849.7545
 254  98.07904
 255  421.8286
