# Input file       =  1188766390.112221_cleaned.dat
# Candidate        =  PSR_0332+5434
# Telescope        =  AR
# Epoch_topo       =  58002.870475835894
# Epoch_bary       =  N/A
# T_sample         =  0.002
# Data Folded      =  7208960
# Data Avg         =  -0.0186888584994117
# Data StdDev      =  2.69407764691706 
# Profile Bins     =  512
# Profile Avg      =  -263.153551293303
# Profile StdDev   =  319.677033106952 
# Reduced chi-sqr  =  0.820
# Prob(Noise)      <  0.999   (~0.0 sigma)
# P_topo (ms)      =  714.464084654506  +/- 0.00123
# P'_topo (s/s)    =  -0                +/- 6.6e-10
# P''_topo (s/s^2) =  0                 +/- 2.97e-13
# P_bary (ms)      =  N/A
# P'_bary (s/s)    =  N/A
# P''_bary (s/s^2) =  N/A
# P_orb (s)        =  N/A
# asin(i)/c (s)    =  N/A
# eccentricity     =  N/A
# w (rad)          =  N/A
# T_peri           =  N/A
######################################################
   0  -244.5534
   1  -186.2893
   2  -601.5879
   3  -361.1315
   4  -192.0085
   5  -6.965218
   6  -28.45708
   7  -142.1545
   8  -247.815
   9  -408.8634
  10  -273.4974
  11  -456.9445
  12  -243.6787
  13  -382.9485
  14  -321.3144
  15  -361.3324
  16  -156.7634
  17  -286.0504
  18  -386.0001
  19  -110.2657
  20  -111.717
  21  -374.6548
  22  -389.8798
  23  -542.1006
  24  -489.7637
  25  -577.1064
  26  -237.1972
  27  -252.2881
  28  -333.4295
  29  -381.2876
  30  -425.833
  31  -337.2122
  32  -344.6213
  33  -98.10368
  34  -302.879
  35  -232.3313
  36  -332.1449
  37  -262.7669
  38  75.14285
  39  -37.20896
  40  -276.2094
  41  -318.963
  42  -360.709
  43  -259.9888
  44  -245.1507
  45  -69.3536
  46  -110.4354
  47  -495.0082
  48  -439.2407
  49  -205.7745
  50  -408.4258
  51  -207.7786
  52  -287.2585
  53  -185.8287
  54  -267.7084
  55  -523.2523
  56  -223.3756
  57  -285.3515
  58  -355.4744
  59  -256.0308
  60  -548.8547
  61  -564.2213
  62  -364.3209
  63  -236.84
  64  -206.6803
  65  -335.3123
  66  -362.8007
  67  -405.3853
  68  -497.4006
  69  -387.4534
  70  -275.9818
  71  -130.7678
  72  -66.72308
  73  -245.2581
  74  -243.4097
  75  80.2727
  76  -152.109
  77  -89.00037
  78  42.76217
  79  -109.1771
  80  -276.3969
  81  -362.9253
  82  -242.9548
  83  -453.8666
  84  -246.0903
  85  -153.8829
  86  -58.9887
  87  -261.8778
  88  -147.9485
  89  132.213
  90  -529.1868
  91  -549.4919
  92  -288.9746
  93  -235.3837
  94  -158.2385
  95  -155.8909
  96  -234.429
  97  -310.9944
  98  -118.0876
  99  -293.8252
 100  -184.565
 101  -217.6532
 102  -276.6474
 103  -330.685
 104  -199.2154
 105  -233.131
 106  -294.0392
 107  -258.4744
 108  -281.6282
 109  -81.1026
 110  -211.1561
 111  -276.7159
 112  -353.5555
 113  -182.0713
 114  104.3319
 115  56.11834
 116  -0.306311
 117  -310.0081
 118  -164.6274
 119  -234.3165
 120  -375.5403
 121  -188.7061
 122  -87.25947
 123  -545.7163
 124  -565.8015
 125  -235.8772
 126  -215.4303
 127  -390.2493
 128  52.25022
 129  12.45473
 130  70.56532
 131  -357.6557
 132  -472.8695
 133  -168.511
 134  86.93713
 135  -228.6216
 136  -453.175
 137  -173.1238
 138  -203.9862
 139  -481.1741
 140  -349.2728
 141  -423.2376
 142  -604.5763
 143  -594.8803
 144  -500.9507
 145  -485.0005
 146  -318.2025
 147  -341.5127
 148  -185.1127
 149  -176.4281
 150  -265.0568
 151  52.09012
 152  -338.1036
 153  -421.1663
 154  -168.331
 155  -27.78323
 156  -309.0049
 157  -559.3441
 158  -379.2787
 159  -167.6602
 160  -292.3193
 161  -654.6077
 162  -559.1679
 163  -494.9954
 164  -488.7344
 165  -487.044
 166  -257.8565
 167  -327.3035
 168  -331.2513
 169  -421.3155
 170  -493.9651
 171  -403.7694
 172  -325.081
 173  -203.0471
 174  -511.7707
 175  -355.372
 176  -282.186
 177  -476.2449
 178  -360.5508
 179  -375.5194
 180  -326.149
 181  -231.7276
 182  -278.4396
 183  -262.0487
 184  -362.8225
 185  -382.8487
 186  -380.9956
 187  -304.2312
 188  -147.1206
 189  -300.5082
 190  -431.8907
 191  -543.3625
 192  -571.4001
 193  -408.4186
 194  -755.3296
 195  -817.8232
 196  -375.5151
 197  -459.2952
 198  -803.1011
 199  -699.9142
 200  -546.4009
 201  -101.9803
 202  -72.96306
 203  -168.0495
 204  55.0062
 205  -321.3037
 206  -506.2819
 207  -755.7537
 208  -329.8896
 209  -376.9966
 210  -412.1927
 211  -268.2183
 212  -601.7874
 213  -485.4538
 214  -220.4913
 215  -66.01248
 216  -37.9484
 217  -143.9102
 218  -62.37498
 219  -57.34157
 220  -53.40786
 221  -16.61742
 222  185.4302
 223  -113.5454
 224  -411.5118
 225  -120.9363
 226  -231.3009
 227  -101.908
 228  -294.8521
 229  -26.81463
 230  -175.5107
 231  -292.1356
 232  -269.9869
 233  -232.967
 234  -446.1771
 235  -94.2608
 236  14.98092
 237  -221.5795
 238  -202.3495
 239  -41.64613
 240  -162.9799
 241  -253.3756
 242  103.8616
 243  131.6191
 244  -35.0671
 245  -281.7018
 246  -318.9042
 247  -512.0699
 248  -660.7644
 249  -434.334
 250  -490.7216
 251  -200.0611
 252  -295.9536
 253  -384.8242
 254  -324.5153
 255  -346.0629
 256  -256.7452
 257  -460.9091
 258  -463.909
 259  -112.07
 260  -414.3787
 261  -575.3956
 262  -429.1454
 263  -211.9574
 264  -456.3751
 265  -275.5341
 266  -279.2099
 267  -120.9372
 268  -205.9172
 269  -457.8018
 270  -466.6012
 271  -311.9224
 272  -202.2877
 273  23.81727
 274  -349.1257
 275  -610.0255
 276  -527.9257
 277  -386.319
 278  -383.9614
 279  -398.4146
 280  -344.1345
 281  -240.6099
 282  -205.671
 283  -505.8813
 284  -587.1218
 285  -228.5076
 286  -113.1707
 287  9.331388
 288  65.28063
 289  -169.3375
 290  -629.5181
 291  -367.9067
 292  -295.7818
 293  -229.0202
 294  -473.8102
 295  -380.7862
 296  52.60511
 297  -252.6858
 298  -277.7135
 299  62.57384
 300  -32.27349
 301  63.77226
 302  -100.9971
 303  -202.1358
 304  -248.2282
 305  -112.8545
 306  -309.4557
 307  -405.0874
 308  -237.5992
 309  51.00795
 310  -26.10587
 311  -309.2234
 312  -119.0147
 313  -372.5746
 314  -197.9679
 315  -172.6521
 316  -99.83646
 317  -57.30824
 318  48.61382
 319  145.9671
 320  369.1247
 321  1090.906
 322  1032.62
 323  722.9364
 324  445.7882
 325  102.9472
 326  7.390999
 327  -212.7985
 328  19.94172
 329  18.66932
 330  -381.4561
 331  -203.9131
 332  -51.47351
 333  51.11746
 334  14.47863
 335  -90.97092
 336  -77.59989
 337  -162.5724
 338  -362.3603
 339  75.61697
 340  -31.06623
 341  -119.2489
 342  -339.2762
 343  -301.0611
 344  117.2345
 345  -132.7022
 346  -387.5439
 347  -306.6984
 348  -546.8577
 349  -319.8858
 350  66.54967
 351  193.5035
 352  -157.1297
 353  -483.2745
 354  -40.56816
 355  119.3316
 356  -169.1399
 357  -499.445
 358  -529.4307
 359  -185.3121
 360  -38.58497
 361  -290.2185
 362  -438.5963
 363  -100.5253
 364  -332.5488
 365  -51.44633
 366  -324.1905
 367  -313.4415
 368  -280.6345
 369  -514.5221
 370  -434.7764
 371  -74.38558
 372  -55.36259
 373  -31.93247
 374  -453.0467
 375  -441.8059
 376  -212.209
 377  -316.8902
 378  -369.0053
 379  -46.74558
 380  -287.0151
 381  -377.5118
 382  -70.97598
 383  -169.5363
 384  -210.7617
 385  -110.6512
 386  -9.931162
 387  -27.64147
 388  -41.56474
 389  -319.8763
 390  -416.8956
 391  -194.328
 392  -549.6287
 393  -746.0046
 394  -417.666
 395  -354.5945
 396  -408.2802
 397  -312.5809
 398  -399.2566
 399  -476.7531
 400  -457.3161
 401  -353.7739
 402  -335.5581
 403  -565.6551
 404  -355.5964
 405  -411.9857
 406  -88.3103
 407  -248.5733
 408  -350.8412
 409  -339.6567
 410  -306.0568
 411  -40.02106
 412  -252.3362
 413  -367.87
 414  -319.4662
 415  24.29934
 416  55.51713
 417  -209.36
 418  -208.6684
 419  -502.2265
 420  -192.2442
 421  -104.0082
 422  -548.6054
 423  -344.7585
 424  5.743795
 425  -150.182
 426  -63.53326
 427  -311.4069
 428  -535.4571
 429  -275.8331
 430  -398.7843
 431  -271.8691
 432  -326.5132
 433  -92.14977
 434  -15.1209
 435  -126.5245
 436  -265.3822
 437  -248.4771
 438  -456.7045
 439  -252.0929
 440  -53.00388
 441  39.82484
 442  -176.3952
 443  -253.9796
 444  -405.5986
 445  -107.6109
 446  -192.3292
 447  -65.39194
 448  -334.6208
 449  -160.8419
 450  -171.7456
 451  -241.6843
 452  106.6574
 453  104.9547
 454  -179.2052
 455  -239.8152
 456  -313.8586
 457  -101.551
 458  -2.317448
 459  -170.8728
 460  -559.7888
 461  -507.659
 462  -225.5299
 463  -573.4636
 464  -545.4999
 465  -398.5345
 466  -325.2331
 467  -344.9839
 468  -665.9271
 469  -481.9682
 470  -220.052
 471  -76.24377
 472  -411.3968
 473  -363.1882
 474  -229.1434
 475  -222.804
 476  -326.2933
 477  -221.7616
 478  -119.0836
 479  -206.222
 480  -330.671
 481  -635.7798
 482  -593.5061
 483  -387.7491
 484  -300.255
 485  -443.911
 486  -439.5713
 487  -211.4244
 488  -301.5166
 489  -352.7327
 490  -588.002
 491  -391.7197
 492  -452.2565
 493  -450.9555
 494  -143.1637
 495  -321.3746
 496  -440.933
 497  -284.1566
 498  -258.4567
 499  -367.8575
 500  -417.636
 501  -362.1665
 502  -207.9578
 503  -423.3798
 504  -512.4526
 505  -553.3674
 506  -362.2548
 507  -699.4267
 508  -282.4258
 509  -235.3954
 510  -486.6839
 511  -473.8391
