# Input file       =  1188350229.11174_cleaned.dat
# Candidate        =  PSR_0332+5434
# Telescope        =  AR
# Epoch_topo       =  57998.053797589586
# Epoch_bary       =  N/A
# T_sample         =  0.002
# Data Folded      =  7340032
# Data Avg         =  0.0168056032499797
# Data StdDev      =  2.36147421363632 
# Profile Bins     =  512
# Profile Avg      =  240.956629889376 
# Profile StdDev   =  282.746477924113 
# Reduced chi-sqr  =  1.291
# Prob(Noise)      <  8.94e-06   (~4.3 sigma)
# P_topo (ms)      =  714.463536065875  +/- 0.000156
# P'_topo (s/s)    =  -0                +/- 8.22e-11
# P''_topo (s/s^2) =  0                 +/- 3.63e-14
# P_bary (ms)      =  N/A
# P'_bary (s/s)    =  N/A
# P''_bary (s/s^2) =  N/A
# P_orb (s)        =  N/A
# asin(i)/c (s)    =  N/A
# eccentricity     =  N/A
# w (rad)          =  N/A
# T_peri           =  N/A
######################################################
   0  446.3177
   1  223.8027
   2  19.01621
   3  29.20403
   4  359.7755
   5  349.4444
   6  142.5361
   7  157.4063
   8  319.6069
   9  374.3329
  10  362.1965
  11  -313.451
  12  174.8409
  13  395.6552
  14  338.371
  15  482.1283
  16  4.835145
  17  77.09605
  18  335.4132
  19  184.4311
  20  186.0447
  21  36.82012
  22  178.5893
  23  177.1514
  24  -211.2986
  25  166.5671
  26  185.27
  27  419.1585
  28  179.881
  29  -0.468679
  30  260.2423
  31  -11.41512
  32  228.7873
  33  356.328
  34  345.8647
  35  196.8189
  36  251.8927
  37  111.2391
  38  210.2077
  39  261.3359
  40  214.5088
  41  205.7547
  42  -150.0671
  43  -168.5799
  44  34.84441
  45  -130.9687
  46  50.17058
  47  413.3896
  48  541.0619
  49  231.4557
  50  -90.52033
  51  292.9512
  52  311.3712
  53  360.1498
  54  94.47984
  55  29.74988
  56  77.86469
  57  -49.90786
  58  201.9459
  59  149.6502
  60  226.5189
  61  259.8694
  62  235.4986
  63  100.5938
  64  314.5553
  65  315.2574
  66  189.4035
  67  -61.51423
  68  130.7574
  69  67.30746
  70  -89.44994
  71  -27.42007
  72  -238.7925
  73  -16.78805
  74  402.4271
  75  161.1809
  76  24.85441
  77  82.08256
  78  276.837
  79  83.14955
  80  227.5777
  81  51.42865
  82  -364.5797
  83  -196.0861
  84  6.123907
  85  -15.58471
  86  49.41745
  87  224.5959
  88  -130.4297
  89  -36.88312
  90  215.4673
  91  114.0065
  92  178.3081
  93  87.53981
  94  24.48592
  95  149.4086
  96  284.2895
  97  338.9712
  98  546.2355
  99  453.9879
 100  554.5485
 101  256.6952
 102  -71.98841
 103  -366.2116
 104  -227.7274
 105  360.609
 106  195.2409
 107  344.9374
 108  322.3524
 109  113.561
 110  181.8058
 111  171.7995
 112  447.9449
 113  183.5243
 114  243.7086
 115  253.2889
 116  243.2792
 117  77.64666
 118  -7.50617
 119  -30.03487
 120  206.535
 121  330.6182
 122  264.1489
 123  522.3223
 124  432.7785
 125  100.5987
 126  25.86408
 127  475.4622
 128  736.3361
 129  491.8449
 130  303.9225
 131  293.6181
 132  450.9838
 133  407.1739
 134  408.557
 135  543.7067
 136  483.8112
 137  420.3559
 138  277.5486
 139  463.9624
 140  189.3551
 141  263.5229
 142  18.10932
 143  46.84398
 144  249.6537
 145  266.9712
 146  269.7984
 147  190.2967
 148  323.0306
 149  185.2546
 150  280.3359
 151  405.4204
 152  233.3
 153  232.6618
 154  233.4019
 155  125.2269
 156  416.1324
 157  552.9074
 158  242.7159
 159  359.9366
 160  425.9987
 161  427.1735
 162  512.7225
 163  221.1126
 164  210.8569
 165  -20.36144
 166  332.1617
 167  593.7024
 168  517.9849
 169  505.7581
 170  315.2712
 171  488.002
 172  566.9015
 173  276.5181
 174  30.53299
 175  349.0878
 176  189.1252
 177  475.4499
 178  427.7948
 179  291.7089
 180  271.5469
 181  5.320033
 182  60.19421
 183  331.0304
 184  341.1301
 185  452.4995
 186  306.3717
 187  315.9064
 188  296.0093
 189  424.8337
 190  522.4298
 191  221.5356
 192  261.8932
 193  147.2489
 194  176.4483
 195  283.0039
 196  427.4463
 197  305.9189
 198  198.4431
 199  349.1184
 200  311.4778
 201  166.8192
 202  610.1475
 203  438.5718
 204  166.2595
 205  103.2302
 206  263.967
 207  289.7226
 208  159.9562
 209  291.2409
 210  523.6368
 211  489.6432
 212  369.3224
 213  249.289
 214  117.9974
 215  483.6405
 216  59.20847
 217  77.9799
 218  51.65937
 219  256.4398
 220  470.1265
 221  298.6823
 222  458.9904
 223  441.3986
 224  188.9337
 225  117.6534
 226  252.8518
 227  415.2351
 228  175.7406
 229  264.455
 230  -25.99247
 231  -63.72584
 232  331.3763
 233  366.2814
 234  375.0089
 235  312.0237
 236  404.4849
 237  423.0636
 238  397.7729
 239  195.4511
 240  162.5044
 241  390.5367
 242  518.2579
 243  437.4713
 244  520.5836
 245  391.6264
 246  259.4536
 247  253.6312
 248  62.29391
 249  117.3431
 250  176.5586
 251  291.5262
 252  218.9552
 253  215.7739
 254  33.22905
 255  177.509
 256  255.1644
 257  63.58768
 258  256.946
 259  339.8819
 260  369.8624
 261  123.5913
 262  132.1535
 263  216.8841
 264  -32.96255
 265  276.2245
 266  300.4363
 267  246.188
 268  -5.369164
 269  -214.7815
 270  -153.8388
 271  128.6597
 272  316.2566
 273  612.6416
 274  660.028
 275  503.6141
 276  316.6387
 277  387.731
 278  333.3399
 279  124.6898
 280  228.2359
 281  487.4128
 282  484.5081
 283  187.8428
 284  51.77196
 285  76.34147
 286  -244.7974
 287  -167.7263
 288  -32.56827
 289  179.1883
 290  310.9058
 291  501.3658
 292  434.6692
 293  179.6266
 294  163.7495
 295  364.2
 296  22.95453
 297  156.0788
 298  27.65036
 299  70.93416
 300  21.64483
 301  144.9351
 302  160.5717
 303  295.6756
 304  443.5948
 305  531.5696
 306  186.3841
 307  -25.53234
 308  81.12437
 309  71.36069
 310  115.7932
 311  38.28875
 312  241.9349
 313  449.9348
 314  368.5611
 315  225.497
 316  30.11193
 317  393.1125
 318  274.4203
 319  400.2546
 320  1134.971
 321  1425.43
 322  1438.895
 323  1524.042
 324  1603.089
 325  910.0342
 326  379.1266
 327  324.3989
 328  199.1822
 329  172.0033
 330  303.2411
 331  197.147
 332  178.7371
 333  288.6083
 334  247.6263
 335  213.1161
 336  407.7271
 337  469.9369
 338  341.6537
 339  120.0589
 340  90.65338
 341  208.7236
 342  99.99001
 343  -117.5197
 344  289.4581
 345  391.5817
 346  190.1629
 347  -26.45656
 348  284.16
 349  -81.33062
 350  -194.8013
 351  -134.1377
 352  486.7999
 353  521.6254
 354  112.1449
 355  91.7527
 356  -263.04
 357  -139.259
 358  66.37873
 359  239.721
 360  177.9373
 361  244.6348
 362  151.3941
 363  351.8363
 364  326.6105
 365  399.1729
 366  354.8938
 367  171.9601
 368  -46.05851
 369  163.3295
 370  264.3405
 371  184.6252
 372  446.9441
 373  523.7538
 374  284.064
 375  243.6341
 376  25.16161
 377  -107.8049
 378  128.1186
 379  390.9759
 380  55.37273
 381  -100.6537
 382  -274.07
 383  118.7737
 384  281.5628
 385  229.1473
 386  246.6624
 387  -23.02475
 388  332.6841
 389  482.9529
 390  315.9305
 391  32.73353
 392  -102.4484
 393  155.7569
 394  -87.82338
 395  -273.8378
 396  12.65106
 397  563.4986
 398  275.0173
 399  159.8331
 400  150.661
 401  299.2172
 402  248.6497
 403  398.6175
 404  481.3663
 405  134.4409
 406  -342.0341
 407  -325.761
 408  95.20027
 409  529.455
 410  26.43912
 411  76.68695
 412  450.2172
 413  341.9918
 414  300.021
 415  34.31171
 416  -240.4184
 417  -258.0497
 418  -93.99718
 419  484.444
 420  236.2879
 421  206.1623
 422  79.0936
 423  37.21873
 424  -28.5753
 425  -264.9386
 426  -31.32563
 427  228.9458
 428  379.598
 429  201.785
 430  233.9976
 431  586.2759
 432  457.3779
 433  248.3099
 434  193.7354
 435  266.52
 436  350.9817
 437  193.9421
 438  73.39569
 439  218.2135
 440  266.7805
 441  132.2076
 442  184.2144
 443  308.1903
 444  296.5815
 445  60.51455
 446  190.1809
 447  426.7679
 448  422.8843
 449  37.38261
 450  105.8542
 451  250.9803
 452  363.5125
 453  583.6661
 454  679.02
 455  569.0507
 456  702.361
 457  575.713
 458  416.3681
 459  154.2066
 460  328.2865
 461  268.9413
 462  362.5382
 463  572.9797
 464  341.0465
 465  -108.0009
 466  282.2338
 467  482.0227
 468  414.0713
 469  615.1237
 470  554.6678
 471  455.2749
 472  366.2593
 473  507.6614
 474  297.4135
 475  190.6503
 476  6.808733
 477  111.6347
 478  68.00115
 479  281.9573
 480  540.2064
 481  451.1803
 482  630.1951
 483  395.7689
 484  -140.1232
 485  212.8718
 486  423.3622
 487  596.0203
 488  549.2679
 489  289.9044
 490  -4.619494
 491  413.2957
 492  344.9731
 493  514.093
 494  228.1906
 495  312.8348
 496  355.7603
 497  329.534
 498  287.0169
 499  467.8703
 500  640.6585
 501  175.2369
 502  330.4285
 503  158.1967
 504  8.867194
 505  196.1217
 506  133.3947
 507  180.8618
 508  156.1029
 509  -96.0169
 510  -104.5629
 511  471.9156
