# Input file       =  1188680202.123785_cleaned.dat
# Candidate        =  PSR_0332+5434
# Telescope        =  AR
# Epoch_topo       =  58001.872929673438
# Epoch_bary       =  N/A
# T_sample         =  0.002
# Data Folded      =  7208960
# Data Avg         =  -0.0152596294424836
# Data StdDev      =  3.06199336362672 
# Profile Bins     =  512
# Profile Avg      =  -214.840872391554
# Profile StdDev   =  363.333608813207 
# Reduced chi-sqr  =  0.898
# Prob(Noise)      <  0.953   (~0.0 sigma)
# P_topo (ms)      =  714.463938753657  +/- 6.69e-05
# P'_topo (s/s)    =  -0                +/- 3.6e-11
# P''_topo (s/s^2) =  0                 +/- 1.62e-14
# P_bary (ms)      =  N/A
# P'_bary (s/s)    =  N/A
# P''_bary (s/s^2) =  N/A
# P_orb (s)        =  N/A
# asin(i)/c (s)    =  N/A
# eccentricity     =  N/A
# w (rad)          =  N/A
# T_peri           =  N/A
######################################################
   0  -232.7986
   1  18.53918
   2  27.06101
   3  239.6085
   4  39.55521
   5  3.677069
   6  -339.0637
   7  -522.8432
   8  -406.9804
   9  -357.6895
  10  -111.7088
  11  71.11317
  12  -71.47904
  13  -518.5747
  14  -450.2931
  15  -261.0851
  16  -107.3164
  17  -323.5225
  18  -256.909
  19  -109.4862
  20  -278.187
  21  -315.476
  22  -305.6146
  23  -288.3943
  24  -182.3273
  25  63.73758
  26  -56.49704
  27  -60.86222
  28  -88.75256
  29  -96.48861
  30  182.4716
  31  122.0759
  32  19.41547
  33  -109.2432
  34  -570.7439
  35  -326.733
  36  9.990368
  37  -146.4227
  38  -379.5937
  39  -370.982
  40  -387.5841
  41  -116.9769
  42  -300.003
  43  -274.1223
  44  -241.2854
  45  -174.5647
  46  -178.2546
  47  -233.4729
  48  -63.02026
  49  -363.0579
  50  -389.9751
  51  -325.3406
  52  -398.3828
  53  -532.1597
  54  -289.6608
  55  -291.4035
  56  26.04937
  57  -256.3815
  58  -304.3333
  59  -259.9853
  60  -198.3177
  61  -1.979514
  62  16.82237
  63  27.72177
  64  -74.29734
  65  -325.9573
  66  -415.8971
  67  -422.1356
  68  -206.1989
  69  -9.199491
  70  97.77892
  71  -116.6922
  72  -88.71705
  73  -109.712
  74  -214.5617
  75  -48.59016
  76  -461.686
  77  -204.2887
  78  33.09568
  79  -48.30301
  80  -398.2048
  81  -222.5988
  82  -245.4607
  83  -310.1811
  84  -261.6032
  85  -101.7125
  86  -248.5885
  87  -386.3673
  88  -507.7967
  89  -559.2998
  90  -321.8999
  91  -112.8344
  92  -402.023
  93  -108.9415
  94  -131.0391
  95  -282.2171
  96  -86.75157
  97  -278.6171
  98  -609.9271
  99  -360.4812
 100  -326.2723
 101  63.88264
 102  -58.06519
 103  -77.76559
 104  214.8044
 105  5.507069
 106  95.81165
 107  -301.5703
 108  -281.4796
 109  -163.1021
 110  -290.0894
 111  103.3909
 112  52.46799
 113  -287.777
 114  -656.3686
 115  -525.7597
 116  -626.1879
 117  -517.7623
 118  -171.2949
 119  -49.63915
 120  -276.0858
 121  -258.3572
 122  -135.8354
 123  -367.4272
 124  -395.7536
 125  -90.11667
 126  -261.271
 127  -82.66817
 128  182.8789
 129  16.14412
 130  -287.3516
 131  -579.5154
 132  -287.3231
 133  -240.4036
 134  -312.497
 135  -57.68068
 136  82.08733
 137  347.1777
 138  -117.5659
 139  -160.9312
 140  -41.02834
 141  -24.3555
 142  -151.0722
 143  -136.7826
 144  66.72543
 145  -232.0616
 146  -91.57349
 147  -126.4004
 148  -81.0864
 149  -238.062
 150  -48.07119
 151  125.7843
 152  -195.5241
 153  -536.4789
 154  -469.0387
 155  -204.4771
 156  -154.5504
 157  -400.6591
 158  -463.6696
 159  -148.5165
 160  -334.1648
 161  -472.7714
 162  -87.92899
 163  -247.237
 164  -414.0666
 165  -514.1525
 166  -480.7064
 167  -446.6975
 168  -751.0494
 169  -228.7734
 170  133.3039
 171  -202.8559
 172  -194.854
 173  -117.923
 174  -176.0107
 175  -402.5707
 176  -320.9393
 177  -76.92245
 178  -218.5887
 179  -198.6046
 180  -405.3059
 181  -292.1776
 182  -418.1832
 183  -492.7543
 184  -281.7607
 185  -19.90479
 186  -62.64331
 187  153.2563
 188  -119.7964
 189  -573.3907
 190  -628.8651
 191  -370.8395
 192  -117.8025
 193  -214.8384
 194  -187.7123
 195  -210.1738
 196  -486.9763
 197  -396.6143
 198  -610.3828
 199  -216.9784
 200  -177.2275
 201  -16.71456
 202  106.815
 203  35.08445
 204  54.9958
 205  -304.0225
 206  -69.92626
 207  14.30818
 208  -480.9767
 209  -321.8735
 210  -83.7698
 211  85.90562
 212  50.57924
 213  -190.9708
 214  -68.99204
 215  -260.9167
 216  -435.2867
 217  -435.2918
 218  -187.1464
 219  -341.1902
 220  -399.4607
 221  -525.5477
 222  -697.514
 223  -548.4094
 224  -387.4153
 225  -149.523
 226  -283.8794
 227  -332.7222
 228  -128.9555
 229  -43.50074
 230  -565.1701
 231  -541.1919
 232  -414.8449
 233  -35.26736
 234  48.73434
 235  -271.4094
 236  -281.601
 237  -226.5968
 238  -298.1947
 239  -463.5246
 240  -217.4961
 241  -93.9237
 242  -578.5477
 243  -442.0587
 244  -126.4841
 245  -209.7216
 246  -28.26977
 247  -263.0674
 248  -243.7786
 249  -433.2241
 250  -628.4698
 251  -274.1924
 252  364.3578
 253  22.49921
 254  -186.453
 255  92.58599
 256  -249.5141
 257  -492.8109
 258  -403.17
 259  -114.4873
 260  -292.1349
 261  -494.2665
 262  -259.7745
 263  -579.4795
 264  -461.3413
 265  -201.9618
 266  26.54838
 267  196.8649
 268  -161.101
 269  -302.9903
 270  7.175615
 271  -101.8356
 272  -317.7327
 273  -220.263
 274  -184.971
 275  -47.63541
 276  -219.8868
 277  75.21504
 278  -285.1385
 279  -308.2118
 280  -312.734
 281  -399.2476
 282  -578.812
 283  -493.8457
 284  -461.8398
 285  -453.6381
 286  -182.5888
 287  -398.0502
 288  -136.2815
 289  -445.8598
 290  -603.6746
 291  -322.223
 292  -212.4627
 293  -87.3056
 294  -383.8581
 295  -215.6863
 296  -404.492
 297  -574.7009
 298  -39.22336
 299  296.9034
 300  -251.9181
 301  -460.905
 302  -199.1178
 303  -107.2807
 304  -690.5452
 305  -464.1301
 306  -296.7039
 307  -433.5247
 308  -293.5265
 309  -326.5957
 310  126.7898
 311  -26.52555
 312  -316.2262
 313  -674.8457
 314  -450.9306
 315  -248.38
 316  -305.526
 317  -83.0705
 318  327.5442
 319  163.045
 320  592.3618
 321  1101.202
 322  1260.467
 323  942.2734
 324  1263.51
 325  707.0227
 326  159.8378
 327  -17.50097
 328  70.89385
 329  295.3001
 330  -221.4179
 331  -188.0531
 332  -289.4516
 333  -97.42077
 334  -10.02354
 335  -357.7613
 336  -127.8913
 337  -432.0209
 338  -443.9403
 339  -249.6688
 340  -293.0237
 341  -46.94212
 342  -302.0921
 343  -406.2965
 344  -421.0219
 345  -104.8828
 346  46.31258
 347  207.042
 348  63.841
 349  -368.2354
 350  -32.73087
 351  -180.8746
 352  -513.6053
 353  -155.3963
 354  -303.9135
 355  -240.7347
 356  -140.7988
 357  -248.1469
 358  14.30788
 359  254.3514
 360  189.1519
 361  -159.0638
 362  -445.485
 363  -452.388
 364  -113.3837
 365  -419.9526
 366  -813.2946
 367  -854.2899
 368  -299.1961
 369  121.8746
 370  48.78419
 371  -300.3514
 372  -157.836
 373  -228.1336
 374  -165.0837
 375  -145.8752
 376  -134.3842
 377  95.67317
 378  -73.62364
 379  -473.0648
 380  -177.3778
 381  153.812
 382  -374.2165
 383  -226.6029
 384  63.54722
 385  -258.2235
 386  -305.8
 387  61.37082
 388  -99.12971
 389  -392.6879
 390  -283.0658
 391  -168.8862
 392  -188.5979
 393  -16.76965
 394  -13.60608
 395  -57.41242
 396  -165.5746
 397  -193.8439
 398  -450.3825
 399  -594.5932
 400  -204.1459
 401  -430.6686
 402  -294.2203
 403  -331.3607
 404  -351.6005
 405  -286.2765
 406  -468.321
 407  -307.9826
 408  -325.2594
 409  25.16829
 410  189.3754
 411  -304.2616
 412  -585.8815
 413  -384.5952
 414  -289.6287
 415  -659.8077
 416  -334.9868
 417  -127.3779
 418  -263.2518
 419  -599.0524
 420  -428.1237
 421  -95.19598
 422  -185.5271
 423  -373.7824
 424  -244.7804
 425  -236.2146
 426  -32.97837
 427  -323.4023
 428  -342.3027
 429  -412.941
 430  -558.0303
 431  -493.3201
 432  -191.8776
 433  9.586207
 434  298.0017
 435  345.6431
 436  115.049
 437  -146.45
 438  -305.4101
 439  -20.45961
 440  -277.2692
 441  -322.8333
 442  -128.0994
 443  -281.5025
 444  -321.8783
 445  -393.9037
 446  -52.80445
 447  38.04427
 448  -276.2535
 449  -62.52312
 450  93.22046
 451  -219.8922
 452  -677.7898
 453  -244.1024
 454  -235.4634
 455  -105.3743
 456  -223.337
 457  -61.34414
 458  -151.841
 459  -327.6679
 460  -441.6476
 461  -268.5448
 462  -605.3397
 463  -455.4826
 464  -90.24015
 465  115.1464
 466  -332.0052
 467  -705.5938
 468  -512.088
 469  -555.8278
 470  -522.6052
 471  -279.9142
 472  -190.4407
 473  -268.739
 474  -666.8994
 475  -338.7472
 476  -137.0713
 477  -522.4706
 478  -453.8837
 479  -415.721
 480  -539.5847
 481  -239.808
 482  -319.6319
 483  -318.0591
 484  -573.402
 485  -751.2733
 486  -491.196
 487  -477.362
 488  -201.617
 489  -36.35747
 490  -304.8203
 491  -121.655
 492  -271.833
 493  -129.2345
 494  -353.6329
 495  -96.27872
 496  -430.1098
 497  -87.1325
 498  125.0583
 499  129.5693
 500  138.2451
 501  -88.98184
 502  169.8762
 503  -190.5175
 504  -318.7826
 505  -239.2736
 506  -284.3952
 507  -240.3214
 508  55.30733
 509  -315.2382
 510  -509.3401
 511  -284.1031
