# Input file       =  1188852543.12519_cleaned.dat
# Candidate        =  PSR_0332+5434
# Telescope        =  AR
# Epoch_topo       =  58003.867617189702
# Epoch_bary       =  N/A
# T_sample         =  0.002
# Data Folded      =  7143424
# Data Avg         =  0.0252991953962448
# Data StdDev      =  1.00017417727395 
# Profile Bins     =  512
# Profile Avg      =  352.917554351633 
# Profile StdDev   =  118.139158054916 
# Reduced chi-sqr  =  1.272
# Prob(Noise)      <  2.78e-05   (~4.0 sigma)
# P_topo (ms)      =  714.464245926499  +/- 0.000239
# P'_topo (s/s)    =  -0                +/- 1.29e-10
# P''_topo (s/s^2) =  0                 +/- 5.87e-14
# P_bary (ms)      =  N/A
# P'_bary (s/s)    =  N/A
# P''_bary (s/s^2) =  N/A
# P_orb (s)        =  N/A
# asin(i)/c (s)    =  N/A
# eccentricity     =  N/A
# w (rad)          =  N/A
# T_peri           =  N/A
######################################################
   0  1073.256
   1  1018.014
   2  848.8084
   3  456.9022
   4  382.5357
   5  280.0211
   6  466.9701
   7  456.6367
   8  294.5501
   9  344.8619
  10  489.1053
  11  473.6671
  12  357.5879
  13  352.9975
  14  297.9398
  15  223.8139
  16  323.3596
  17  418.0634
  18  233.5505
  19  112.3143
  20  211.7041
  21  262.8857
  22  340.3206
  23  340.3948
  24  363.1263
  25  270.7682
  26  298.9678
  27  342.1811
  28  379.8047
  29  182.7196
  30  186.7831
  31  273.6315
  32  224.1845
  33  239.3161
  34  345.2553
  35  401.511
  36  434.7997
  37  389.7732
  38  176.3857
  39  196.5649
  40  370.0273
  41  345.3002
  42  300.321
  43  288.9429
  44  264.1056
  45  316.7643
  46  338.5825
  47  255.3071
  48  314.1917
  49  385.7206
  50  282.0902
  51  231.5731
  52  182.0457
  53  199.5858
  54  289.2401
  55  261.7603
  56  256.2472
  57  305.3715
  58  314.5174
  59  246.5361
  60  168.2419
  61  323.8994
  62  307.5968
  63  391.535
  64  358.8653
  65  291.7467
  66  235.5484
  67  307.7488
  68  470.7295
  69  457.8267
  70  240.3452
  71  297.9215
  72  309.3394
  73  470.898
  74  507.3285
  75  397.227
  76  396.0384
  77  385.1923
  78  331.0403
  79  383.2819
  80  379.3213
  81  399.026
  82  314.1079
  83  333.216
  84  498.5643
  85  442.8531
  86  487.7862
  87  466.6415
  88  313.2149
  89  417.0242
  90  437.9857
  91  502.5323
  92  359.5628
  93  274.6916
  94  250.5403
  95  453.7581
  96  462.371
  97  305.3018
  98  378.0344
  99  314.1407
 100  159.7597
 101  310.5656
 102  458.2737
 103  346.4177
 104  355.274
 105  395.3867
 106  432.7813
 107  353.8639
 108  249.2496
 109  377.7091
 110  412.0269
 111  463.6181
 112  354.8741
 113  358.9094
 114  447.0128
 115  375.3413
 116  322.5436
 117  330.9577
 118  258.8532
 119  253.9103
 120  329.2599
 121  359.5344
 122  391.3865
 123  471.5151
 124  322.0096
 125  388.9054
 126  337.6264
 127  301.0179
 128  343.3312
 129  424.0553
 130  328.1588
 131  298.3001
 132  439.9596
 133  362.5382
 134  365.7272
 135  272.9147
 136  365.5967
 137  309.8287
 138  345.2687
 139  552.9462
 140  427.0802
 141  371.9197
 142  288.6958
 143  372.8812
 144  325.4039
 145  353.5263
 146  368.9269
 147  397.0999
 148  526.6282
 149  411.9956
 150  380.7592
 151  379.4127
 152  399.7481
 153  406.9731
 154  391.3205
 155  407.1899
 156  534.1896
 157  355.1098
 158  406.027
 159  356.5416
 160  349.5114
 161  398.123
 162  343.4422
 163  272.334
 164  219.5059
 165  227.9114
 166  239.6593
 167  266.1118
 168  353.546
 169  354.3337
 170  330.9363
 171  390.9762
 172  422.0296
 173  262.5016
 174  275.1216
 175  333.3031
 176  318.0767
 177  346.5424
 178  412.7859
 179  214.6699
 180  238.5665
 181  365.7376
 182  382.7643
 183  334.8641
 184  372.8139
 185  398.9016
 186  212.2217
 187  161.7982
 188  209.1633
 189  179.9544
 190  303.1078
 191  325.0507
 192  428.23
 193  391.3203
 194  359.1295
 195  325.4355
 196  318.1543
 197  330.9987
 198  392.7312
 199  365.1242
 200  282.2232
 201  243.4604
 202  315.3363
 203  383.0062
 204  348.832
 205  353.2842
 206  333.9637
 207  364.286
 208  318.044
 209  256.581
 210  303.889
 211  234.531
 212  241.0598
 213  301.4443
 214  404.3146
 215  407.2343
 216  282.0852
 217  394.7496
 218  405.9556
 219  283.4117
 220  396.7151
 221  491.8272
 222  424.947
 223  290.9666
 224  469.4229
 225  441.9425
 226  370.2489
 227  310.9932
 228  355.6134
 229  329.3933
 230  423.4181
 231  386.6851
 232  349.996
 233  292.3817
 234  267.6375
 235  390.1602
 236  405.5911
 237  345.3133
 238  365.4186
 239  396.0532
 240  484.3145
 241  510.116
 242  432.9336
 243  362.3219
 244  217.7734
 245  398.1561
 246  323.9094
 247  385.4222
 248  349.969
 249  453.9762
 250  424.2634
 251  367.017
 252  325.4196
 253  269.3726
 254  401.202
 255  373.2607
 256  333.6067
 257  192.4574
 258  325.9078
 259  349.735
 260  290.6638
 261  188.5066
 262  235.6748
 263  308.6841
 264  385.2738
 265  475.5674
 266  468.9254
 267  511.3376
 268  413.8875
 269  411.3416
 270  451.9098
 271  360.4241
 272  268.4708
 273  337.0755
 274  341.9659
 275  321.4921
 276  380.1953
 277  357.9062
 278  212.3546
 279  269.6956
 280  291.4334
 281  340.6067
 282  368.1667
 283  403.2246
 284  300.0261
 285  271.258
 286  292.8329
 287  288.3604
 288  287.4341
 289  285.3386
 290  245.2729
 291  252.165
 292  323.0946
 293  354.3809
 294  440.9929
 295  309.9555
 296  327.77
 297  284.6795
 298  317.5459
 299  400.6419
 300  464.0269
 301  474.6658
 302  347.2635
 303  257.9377
 304  408.8658
 305  425.0402
 306  273.304
 307  214.2827
 308  236.138
 309  371.8472
 310  356.0127
 311  300.2142
 312  470.4824
 313  480.0282
 314  356.7711
 315  403.455
 316  406.6439
 317  426.0822
 318  403.3297
 319  415.6309
 320  416.5611
 321  405.3509
 322  434.8744
 323  493.5799
 324  437.0857
 325  306.403
 326  236.3098
 327  227.3627
 328  364.5471
 329  465.825
 330  379.4879
 331  201.9461
 332  323.9294
 333  254.4365
 334  336.7486
 335  366.451
 336  409.035
 337  304.1248
 338  92.38315
 339  126.8283
 340  235.6718
 341  331.8504
 342  347.0386
 343  392.7027
 344  431.7167
 345  380.766
 346  324.7164
 347  393.5215
 348  430.3548
 349  365.5406
 350  245.3832
 351  260.3452
 352  373.0583
 353  459.3702
 354  398.3421
 355  376.5297
 356  301.9904
 357  378.782
 358  390.2628
 359  412.9431
 360  400.9328
 361  347.8644
 362  330.3005
 363  305.7114
 364  299.1286
 365  388.3442
 366  189.4411
 367  197.7597
 368  233.1855
 369  364.1456
 370  408.9147
 371  414.2896
 372  376.0239
 373  330.1852
 374  358.1458
 375  343.0972
 376  305.9853
 377  352.5363
 378  309.7411
 379  200.3945
 380  193.2033
 381  198.2558
 382  247.6685
 383  347.456
 384  325.0033
 385  331.8293
 386  320.2226
 387  296.1079
 388  421.8717
 389  456.064
 390  367.0616
 391  389.8567
 392  560.7496
 393  386.011
 394  340.6358
 395  372.2773
 396  319.1829
 397  417.5395
 398  342.3114
 399  240.8427
 400  305.3303
 401  299.5629
 402  407.5961
 403  278.174
 404  259.2089
 405  428.2114
 406  478.2161
 407  299.9591
 408  427.8279
 409  430.0776
 410  299.9326
 411  367.0923
 412  322.8524
 413  355.1068
 414  374.4508
 415  317.3732
 416  446.6738
 417  389.4306
 418  316.45
 419  315.1968
 420  333.9014
 421  471.3001
 422  488.0813
 423  382.1333
 424  352.7273
 425  416.6322
 426  436.2442
 427  419.2477
 428  457.0491
 429  474.9109
 430  428.3562
 431  449.8879
 432  392.9852
 433  201.3128
 434  244.9704
 435  325.2527
 436  406.0726
 437  351.996
 438  277.6928
 439  283.4275
 440  304.1609
 441  466.9133
 442  458.9391
 443  423.6803
 444  341.3105
 445  395.8248
 446  383.9723
 447  374.0534
 448  287.4001
 449  389.2267
 450  360.0213
 451  283.4845
 452  320.4636
 453  283.5986
 454  252.9527
 455  222.1665
 456  273.8361
 457  337.9831
 458  368.2771
 459  374.7249
 460  277.4684
 461  298.5259
 462  302.4708
 463  400.5207
 464  435.1788
 465  340.0223
 466  567.095
 467  538.9366
 468  311.4789
 469  435.1505
 470  435.0635
 471  381.9512
 472  269.5939
 473  291.9553
 474  246.5004
 475  225.6178
 476  409.7093
 477  403.8188
 478  377.4647
 479  357.3106
 480  258.4569
 481  339.7795
 482  266.5091
 483  295.9
 484  320.8164
 485  410.0788
 486  294.6825
 487  207.888
 488  364.582
 489  335.218
 490  316.969
 491  376.3542
 492  463.722
 493  357.2656
 494  342.0683
 495  288.8466
 496  300.8782
 497  286.0005
 498  327.3687
 499  391.1016
 500  417.2059
 501  433.2287
 502  293.4505
 503  322.8367
 504  433.7918
 505  456.9229
 506  383.5056
 507  370.1785
 508  385.5022
 509  614.0513
 510  772.9793
 511  833.9611
