# Input file       =  1188077051.109435_cleaned.dat
# Candidate        =  PSR_0332+5434
# Telescope        =  AR
# Epoch_topo       =  57994.892015155499
# Epoch_bary       =  N/A
# T_sample         =  0.002
# Data Folded      =  7208960
# Data Avg         =  0.0135782784152003
# Data StdDev      =  1.00003428995064 
# Profile Bins     =  512
# Profile Avg      =  191.177952100274 
# Profile StdDev   =  118.663244610812 
# Reduced chi-sqr  =  1.189
# Prob(Noise)      <  0.00204   (~2.9 sigma)
# P_topo (ms)      =  714.46335298515   +/- 0.000196
# P'_topo (s/s)    =  -0                +/- 1.05e-10
# P''_topo (s/s^2) =  0                 +/- 4.73e-14
# P_bary (ms)      =  N/A
# P'_bary (s/s)    =  N/A
# P''_bary (s/s^2) =  N/A
# P_orb (s)        =  N/A
# asin(i)/c (s)    =  N/A
# eccentricity     =  N/A
# w (rad)          =  N/A
# T_peri           =  N/A
######################################################
   0  673.1052
   1  664.9515
   2  568.5703
   3  522.16
   4  238.8603
   5  79.24947
   6  180.6091
   7  155.3303
   8  14.86208
   9  262.9339
  10  189.2826
  11  196.1221
  12  212.0656
  13  135.8372
  14  304.7929
  15  280.0944
  16  218.7509
  17  225.3451
  18  237.511
  19  256.828
  20  44.55807
  21  16.31763
  22  5.777279
  23  143.062
  24  171.7667
  25  244.0003
  26  172.6498
  27  255.4686
  28  354.9612
  29  283.9592
  30  204.878
  31  262.5753
  32  138.5559
  33  202.222
  34  231.8358
  35  189.592
  36  237.1002
  37  126.0623
  38  59.55381
  39  145.4162
  40  118.7708
  41  143.527
  42  78.35146
  43  140.935
  44  279.3768
  45  278.2946
  46  320.9394
  47  335.3553
  48  103.2542
  49  129.5173
  50  183.0529
  51  314.3069
  52  169.6773
  53  157.1802
  54  150.2504
  55  242.9211
  56  107.4264
  57  84.98939
  58  148.4439
  59  123.5938
  60  232.6319
  61  167.3613
  62  290.1724
  63  229.956
  64  110.2106
  65  232.984
  66  197.9524
  67  220.6977
  68  182.131
  69  145.0722
  70  129.7596
  71  62.30107
  72  281.7885
  73  385.9718
  74  315.9951
  75  309.2201
  76  190.6363
  77  141.0331
  78  148.2055
  79  78.57289
  80  191.8264
  81  253.3729
  82  171.512
  83  252.3921
  84  234.4077
  85  156.9767
  86  188.4618
  87  293.5203
  88  212.5521
  89  179.496
  90  220.5942
  91  154.7505
  92  143.8119
  93  91.00653
  94  86.86038
  95  152.0322
  96  336.5985
  97  400.005
  98  280.8445
  99  151.671
 100  198.3807
 101  333.6706
 102  304.2953
 103  206.3008
 104  172.5356
 105  211.2986
 106  148.7151
 107  182.5896
 108  261.1642
 109  37.28535
 110  80.95669
 111  41.12938
 112  85.53927
 113  209.6754
 114  155.3792
 115  165.0517
 116  162.7599
 117  159.7123
 118  160.4774
 119  105.3355
 120  67.26162
 121  103.7898
 122  130.6912
 123  334.0039
 124  242.5189
 125  233.6412
 126  132.0594
 127  102.2447
 128  221.3304
 129  202.3181
 130  144.6011
 131  296.9252
 132  256.5321
 133  280.0928
 134  199.5734
 135  191.0542
 136  226.3093
 137  265.8252
 138  200.7045
 139  105.7059
 140  207.6745
 141  226.4425
 142  208.2386
 143  123.3869
 144  83.40829
 145  37.95908
 146  144.6921
 147  280.0139
 148  323.7456
 149  222.3152
 150  223.9146
 151  207.464
 152  210.0435
 153  230.0138
 154  240.0165
 155  272.7219
 156  189.9174
 157  157.5088
 158  96.55658
 159  120.041
 160  156.8944
 161  56.17608
 162  59.84285
 163  298.7419
 164  290.7503
 165  297.7484
 166  264.238
 167  152.6435
 168  170.4148
 169  283.6656
 170  430.5263
 171  276.0082
 172  100.0755
 173  250.4439
 174  273.9299
 175  190.5308
 176  242.8578
 177  165.7442
 178  77.73795
 179  238.1145
 180  279.9215
 181  337.4825
 182  175.9118
 183  123.9812
 184  188.5453
 185  200.3418
 186  126.3124
 187  188.5485
 188  156.2878
 189  197.5395
 190  208.4175
 191  118.44
 192  164.7261
 193  208.5377
 194  162.6103
 195  225.9522
 196  334.1938
 197  277.9225
 198  316.1794
 199  299.2818
 200  266.0193
 201  227.1823
 202  126.7188
 203  189.0779
 204  240.51
 205  306.6599
 206  225.1521
 207  221.615
 208  348.5078
 209  276.2681
 210  299.4954
 211  198.916
 212  158.6873
 213  163.9012
 214  92.41809
 215  219.9076
 216  280.3541
 217  287.7479
 218  232.881
 219  215.7627
 220  221.32
 221  222.4408
 222  210.5969
 223  113.6096
 224  232.4556
 225  274.7776
 226  204.6132
 227  182.2125
 228  232.476
 229  209.4607
 230  143.2116
 231  242.1094
 232  131.5393
 233  121.4443
 234  159.2987
 235  127.6365
 236  142.2733
 237  207.8634
 238  222.4029
 239  359.106
 240  233.3557
 241  208.4371
 242  217.4442
 243  184.6866
 244  193.6796
 245  75.49014
 246  150.4573
 247  301.3941
 248  147.7635
 249  178.6226
 250  123.837
 251  91.14358
 252  183.21
 253  180.2817
 254  163.9612
 255  199.4265
 256  63.13195
 257  297.2227
 258  178.9272
 259  119.9909
 260  149.9194
 261  300.399
 262  275.2228
 263  248.8061
 264  266.978
 265  237.3515
 266  166.9999
 267  308.75
 268  349.5179
 269  283.9627
 270  174.6904
 271  207.7968
 272  291.7179
 273  395.2562
 274  380.6424
 275  301.6765
 276  313.6935
 277  330.7422
 278  276.9732
 279  150.1151
 280  105.244
 281  137.6752
 282  200.2339
 283  189.0212
 284  197.6157
 285  243.798
 286  289.7826
 287  331.3487
 288  190.9207
 289  193.6519
 290  181.6924
 291  111.4429
 292  179.7583
 293  240.4371
 294  139.1102
 295  148.3464
 296  153.4492
 297  184.349
 298  207.5632
 299  134.9516
 300  169.3751
 301  155.1788
 302  188.8669
 303  206.947
 304  150.4526
 305  117.256
 306  105.9673
 307  280.0969
 308  346.1501
 309  291.9273
 310  294.4318
 311  358.2129
 312  181.3794
 313  73.51196
 314  129.8363
 315  228.3344
 316  199.9733
 317  357.1682
 318  314.0053
 319  174.2492
 320  92.56446
 321  142.0332
 322  202.8347
 323  317.2668
 324  215.409
 325  179.1256
 326  120.5663
 327  241.3924
 328  290.2102
 329  210.616
 330  176.4483
 331  192.2054
 332  215.9097
 333  238.9588
 334  182.6846
 335  15.64739
 336  228.2751
 337  180.6885
 338  20.5508
 339  194.7708
 340  186.9453
 341  222.8323
 342  239.4644
 343  231.4628
 344  207.798
 345  124.7961
 346  78.0383
 347  152.0316
 348  181.0247
 349  145.4863
 350  8.143678
 351  84.82233
 352  150.9931
 353  216.1368
 354  236.0163
 355  43.43594
 356  44.05297
 357  183.3845
 358  93.83051
 359  -30.06913
 360  -32.45874
 361  139.3656
 362  154.7293
 363  115.3792
 364  171.9837
 365  334.9844
 366  293.0223
 367  245.5028
 368  246.119
 369  189.3884
 370  155.9592
 371  95.40688
 372  289.4684
 373  270.1794
 374  244.2937
 375  339.1207
 376  294.5899
 377  223.6179
 378  11.69704
 379  79.64951
 380  95.29446
 381  132.1695
 382  162.8843
 383  163.2586
 384  189.3808
 385  120.9911
 386  108.5153
 387  139.6428
 388  118.0586
 389  40.53791
 390  123.4867
 391  260.3662
 392  181.3494
 393  136.6
 394  -88.30724
 395  17.5947
 396  138.6371
 397  123.9769
 398  199.5324
 399  192.4212
 400  214.1963
 401  95.88395
 402  -15.40185
 403  6.378563
 404  145.4803
 405  224.0229
 406  245.588
 407  177.3724
 408  114.9779
 409  70.37011
 410  69.33972
 411  218.5466
 412  164.6117
 413  -17.04041
 414  94.01514
 415  190.393
 416  114.6474
 417  36.16794
 418  141.1363
 419  228.0559
 420  201.6833
 421  169.691
 422  30.87307
 423  101.4324
 424  278.5157
 425  208.3717
 426  150.2354
 427  126.6022
 428  127.2454
 429  223.6449
 430  105.1399
 431  71.10361
 432  121.656
 433  176.3088
 434  235.3364
 435  178.3977
 436  209.1094
 437  199.5602
 438  174.4371
 439  203.0833
 440  202.1789
 441  261.1637
 442  195.4636
 443  147.9835
 444  167.7081
 445  140.2643
 446  138.2288
 447  206.6393
 448  157.3389
 449  283.7126
 450  208.4273
 451  202.0376
 452  88.80942
 453  223.1257
 454  138.1331
 455  21.92752
 456  109.1651
 457  179.6056
 458  51.23293
 459  114.1011
 460  214.3785
 461  34.68979
 462  122.4054
 463  324.4929
 464  321.6887
 465  126.3264
 466  72.76308
 467  11.98031
 468  124.9302
 469  202.561
 470  163.4694
 471  53.09746
 472  22.79526
 473  32.12486
 474  113.4615
 475  152.5735
 476  127.9725
 477  85.07198
 478  67.39098
 479  193.2906
 480  195.4411
 481  247.6773
 482  189.8603
 483  197.672
 484  122.4166
 485  168.4019
 486  294.1133
 487  121.6709
 488  190.2904
 489  208.0905
 490  308.2859
 491  63.10604
 492  15.15481
 493  187.9905
 494  156.4875
 495  200.0444
 496  219.937
 497  222.5834
 498  152.0665
 499  78.61477
 500  264.139
 501  236.7849
 502  75.80868
 503  131.0912
 504  193.0924
 505  196.6291
 506  234.3997
 507  404.412
 508  378.6791
 509  457.3169
 510  527.3781
 511  607.5882
