# Input file       =  1188766390.112221_cleaned.dat
# Candidate        =  PSR_0332+5434
# Telescope        =  AR
# Epoch_topo       =  58002.870475835894
# Epoch_bary       =  N/A
# T_sample         =  0.002
# Data Folded      =  7208960
# Data Avg         =  -0.0186888584994117
# Data StdDev      =  2.69407764691706 
# Profile Bins     =  256
# Profile Avg      =  -526.307102586606
# Profile StdDev   =  452.091595799045 
# Reduced chi-sqr  =  0.913
# Prob(Noise)      <  0.837   (~0.0 sigma)
# P_topo (ms)      =  714.464084654506  +/- 0.00122
# P'_topo (s/s)    =  -0                +/- 6.56e-10
# P''_topo (s/s^2) =  0                 +/- 2.95e-13
# P_bary (ms)      =  N/A
# P'_bary (s/s)    =  N/A
# P''_bary (s/s^2) =  N/A
# P_orb (s)        =  N/A
# asin(i)/c (s)    =  N/A
# eccentricity     =  N/A
# w (rad)          =  N/A
# T_peri           =  N/A
######################################################
   0  -430.8427
   1  -962.7194
   2  -198.9738
   3  -170.6116
   4  -656.6785
   5  -730.4418
   6  -626.6272
   7  -682.6468
   8  -442.8138
   9  -496.2658
  10  -486.3718
  11  -931.9804
  12  -1066.87
  13  -489.4853
  14  -714.7171
  15  -763.0452
  16  -442.725
  17  -535.2103
  18  -594.9119
  19  37.93389
  20  -595.1724
  21  -620.6978
  22  -314.5043
  23  -605.4436
  24  -645.0152
  25  -616.2045
  26  -473.0872
  27  -790.9608
  28  -508.7271
  29  -611.5052
  30  -1113.076
  31  -601.1609
  32  -541.9926
  33  -768.1859
  34  -884.854
  35  -406.7496
  36  -311.9812
  37  -163.137
  38  -241.1094
  39  -66.4149
  40  -639.3223
  41  -696.8214
  42  -399.9732
  43  -320.8665
  44  -15.73548
  45  -1078.679
  46  -524.3583
  47  -314.1295
  48  -545.4235
  49  -411.9128
  50  -402.2183
  51  -607.3323
  52  -432.3465
  53  -552.5137
  54  -362.7308
  55  -487.8721
  56  -535.6268
  57  160.4502
  58  -310.3145
  59  -398.9439
  60  -564.2465
  61  -632.9758
  62  -801.6786
  63  -605.6797
  64  64.70495
  65  -287.0903
  66  -641.3805
  67  -141.6845
  68  -626.2988
  69  -685.1603
  70  -772.5103
  71  -1199.457
  72  -985.9512
  73  -659.7152
  74  -361.5408
  75  -212.9667
  76  -759.2698
  77  -196.1142
  78  -868.349
  79  -546.9388
  80  -946.9271
  81  -1054.163
  82  -975.7784
  83  -585.16
  84  -752.5668
  85  -897.7346
  86  -528.1281
  87  -867.1427
  88  -758.4309
  89  -736.0703
  90  -557.8766
  91  -540.4883
  92  -745.6712
  93  -685.2269
  94  -447.6288
  95  -975.2532
  96  -979.8187
  97  -1573.153
  98  -834.8103
  99  -1503.015
 100  -648.3812
 101  -241.0126
 102  -266.2975
 103  -1262.036
 104  -706.8862
 105  -680.4109
 106  -1087.241
 107  -286.5038
 108  -181.8586
 109  -119.7166
 110  -70.02528
 111  71.88473
 112  -532.448
 113  -333.209
 114  -321.6667
 115  -467.6463
 116  -502.9539
 117  -540.4379
 118  -206.5986
 119  -243.9956
 120  -416.3555
 121  235.4807
 122  -316.7689
 123  -830.9741
 124  -1095.098
 125  -690.7827
 126  -680.7778
 127  -670.5781
 128  -717.6544
 129  -575.9789
 130  -989.7743
 131  -641.1028
 132  -731.9092
 133  -400.147
 134  -663.719
 135  -778.5236
 136  -178.4705
 137  -959.1511
 138  -914.2447
 139  -782.376
 140  -584.7443
 141  -711.5523
 142  -815.6294
 143  -103.8393
 144  -104.0569
 145  -997.4249
 146  -524.802
 147  -854.5964
 148  -200.0807
 149  -215.1397
 150  31.49877
 151  -303.1329
 152  -361.0827
 153  -714.5432
 154  -186.5912
 155  -335.3293
 156  -491.5894
 157  -370.6201
 158  -157.1447
 159  194.581
 160  1460.031
 161  1755.556
 162  548.7354
 163  -205.4075
 164  38.61104
 165  -585.3691
 166  -0.3560451
 167  -76.49229
 168  -240.1723
 169  -286.7433
 170  -150.3152
 171  -640.3374
 172  -15.46768
 173  -694.2422
 174  -866.7435
 175  260.0532
 176  -640.4042
 177  78.7634
 178  -668.585
 179  -714.7428
 180  -328.8035
 181  -539.1216
 182  -383.9952
 183  -637.632
 184  -795.1566
 185  -509.162
 186  -87.29506
 187  -894.8526
 188  -529.0992
 189  -415.7509
 190  -664.5269
 191  -240.5123
 192  -321.4129
 193  -37.57264
 194  -361.441
 195  -611.2236
 196  -1295.633
 197  -772.2606
 198  -720.8611
 199  -876.0098
 200  -811.09
 201  -901.2132
 202  -767.582
 203  -336.8836
 204  -690.4979
 205  -346.0779
 206  -620.2062
 207  -295.1668
 208  -153.8428
 209  -710.8948
 210  -296.2523
 211  -893.364
 212  -144.4382
 213  -374.9401
 214  -811.2902
 215  -670.6535
 216  -418.6629
 217  -141.6454
 218  -513.8593
 219  -708.7974
 220  -13.17903
 221  -430.3749
 222  -513.2095
 223  -257.7212
 224  -495.4628
 225  -413.4298
 226  211.6121
 227  -419.0204
 228  -415.4096
 229  -173.1903
 230  -1067.448
 231  -798.9935
 232  -944.0344
 233  -670.217
 234  -1147.895
 235  -296.2958
 236  -774.585
 237  -451.9474
 238  -548.0549
 239  -325.3057
 240  -966.4507
 241  -981.2552
 242  -744.166
 243  -650.9957
 244  -654.2493
 245  -979.7217
 246  -903.212
 247  -464.5383
 248  -725.0896
 249  -626.3141
 250  -779.8025
 251  -631.3376
 252  -1065.82
 253  -1061.682
 254  -517.8213
 255  -960.5229
