# Input file       =  1188852543.12519_cleaned.dat
# Candidate        =  PSR_0332+5434
# Telescope        =  AR
# Epoch_topo       =  58003.867617189702
# Epoch_bary       =  N/A
# T_sample         =  0.002
# Data Folded      =  7143424
# Data Avg         =  0.176110825769458
# Data StdDev      =  3.92631679147495 
# Profile Bins     =  256
# Profile Avg      =  4913.95893922652 
# Profile StdDev   =  655.871212065292 
# Reduced chi-sqr  =  0.590
# Prob(Noise)      <  1   (~0.0 sigma)
# P_topo (ms)      =  714.464246598287  +/- 0.000689
# P'_topo (s/s)    =  -0                +/- 3.74e-10
# P''_topo (s/s^2) =  0                 +/- 1.7e-13
# P_bary (ms)      =  N/A
# P'_bary (s/s)    =  N/A
# P''_bary (s/s^2) =  N/A
# P_orb (s)        =  N/A
# asin(i)/c (s)    =  N/A
# eccentricity     =  N/A
# w (rad)          =  N/A
# T_peri           =  N/A
######################################################
   0  4379.275
   1  5408.365
   2  5181.115
   3  4431.714
   4  4922.241
   5  4771.185
   6  4745.865
   7  4682.642
   8  4816.233
   9  4685.483
  10  4645.405
  11  4709.945
  12  5349.959
  13  4776.972
  14  4967.78
  15  5049.679
  16  5241.426
  17  5396.971
  18  4839.634
  19  4694.859
  20  4792.16
  21  4769.745
  22  4701.882
  23  4961.847
  24  4719.663
  25  5266.565
  26  5413.114
  27  4497.539
  28  4623.278
  29  4863.307
  30  4893.266
  31  4635.283
  32  4923.028
  33  4625.365
  34  4876.609
  35  4796.117
  36  4218.069
  37  5280.637
  38  6022.744
  39  5290.146
  40  4937.861
  41  4423.468
  42  4517.98
  43  5130.317
  44  4389.003
  45  4649.689
  46  4398.591
  47  4751.849
  48  4723.225
  49  4767.615
  50  4492.736
  51  4519.959
  52  5047.304
  53  4887.43
  54  4709.387
  55  5212.418
  56  4641.779
  57  4733.402
  58  4633.344
  59  4722.868
  60  4921.515
  61  5234.231
  62  4625.583
  63  5045.062
  64  5549.985
  65  5388.916
  66  5382.986
  67  5067.21
  68  4526.568
  69  5213.495
  70  5072.901
  71  4270.032
  72  4741.084
  73  5149.583
  74  3706.806
  75  4200.335
  76  5042.12
  77  5122.736
  78  4666.129
  79  5069.619
  80  5059.625
  81  5032.648
  82  5171.288
  83  5034.304
  84  5205.725
  85  5132.107
  86  5070.335
  87  4844.738
  88  4333.755
  89  4418.32
  90  5251.219
  91  4889.719
  92  4975.042
  93  4830.876
  94  4447.334
  95  3970.68
  96  4662.171
  97  5174.401
  98  4770.92
  99  5159.354
 100  5060.006
 101  5942.444
 102  4978.388
 103  4714.481
 104  4595.218
 105  4639.524
 106  4834.48
 107  4805.554
 108  5138.67
 109  5280.841
 110  4973.373
 111  5165.13
 112  5083.117
 113  5324.931
 114  4787.409
 115  5062.069
 116  5529.141
 117  4636.922
 118  5227.848
 119  5595.204
 120  5162.327
 121  4885.24
 122  4594.159
 123  5112.03
 124  4826.807
 125  4973.789
 126  5227.961
 127  5053.501
 128  5554.482
 129  4663.342
 130  4513.488
 131  4733.04
 132  4538.752
 133  4656.042
 134  5090.351
 135  4469.87
 136  4662.304
 137  4950.083
 138  5835.617
 139  5119.097
 140  5157.359
 141  4239.771
 142  4510.633
 143  5115.197
 144  4904.184
 145  4364.841
 146  4553.71
 147  4753.493
 148  4699.157
 149  4958.326
 150  4793.292
 151  5103.722
 152  4712.369
 153  4446.569
 154  4671.139
 155  5186.215
 156  5107.487
 157  5393.252
 158  4944.972
 159  5137.568
 160  6985.515
 161  7928.753
 162  6396.984
 163  4883.986
 164  5814.22
 165  5035.796
 166  5564.959
 167  5056.317
 168  4509.822
 169  4800.355
 170  4614.062
 171  4246.077
 172  4608.276
 173  4857.956
 174  4864.645
 175  4672.169
 176  4177.289
 177  4888.218
 178  5044.968
 179  5045.924
 180  4214.433
 181  4969.281
 182  4765.039
 183  4539.842
 184  4343.73
 185  4979.927
 186  4581.71
 187  4178.003
 188  4709.917
 189  4560.529
 190  4446.83
 191  4256.08
 192  5010.718
 193  5048.837
 194  4550.037
 195  5273.369
 196  4502.906
 197  5477.023
 198  5761.466
 199  5055.964
 200  4842.069
 201  5130.444
 202  4814.59
 203  5622.649
 204  5328.431
 205  5044.657
 206  5589.165
 207  4766.118
 208  4246.754
 209  5114.995
 210  4982.796
 211  4278.54
 212  5151.453
 213  4851
 214  5053.89
 215  5185
 216  5458.222
 217  4676.234
 218  5155.047
 219  4882.009
 220  4744.765
 221  4855.187
 222  5119.373
 223  4943.935
 224  4835.241
 225  5019.062
 226  4551.529
 227  4880.735
 228  4721.029
 229  4781.481
 230  5407.758
 231  5309.059
 232  4956.395
 233  4882.798
 234  4911.888
 235  5649.947
 236  5254.503
 237  5038.457
 238  4948.584
 239  5422.626
 240  5225.558
 241  4782.437
 242  4907.585
 243  4301.715
 244  4368.759
 245  4925.462
 246  4692.835
 247  5027.44
 248  4485.958
 249  5095.645
 250  4978.229
 251  4532.177
 252  5104.829
 253  5141.73
 254  4288.122
 255  4145.577
