# Input file       =  1188594055.109037_cleaned.dat
# Candidate        =  PSR_0332+5434
# Telescope        =  AR
# Epoch_topo       =  58000.875857743486
# Epoch_bary       =  N/A
# T_sample         =  0.002
# Data Folded      =  7143424
# Data Avg         =  0.0166890080788949
# Data StdDev      =  1.00005032520406 
# Profile Bins     =  512
# Profile Avg      =  232.792748705439 
# Profile StdDev   =  118.124528823735 
# Reduced chi-sqr  =  1.478
# Prob(Noise)      <  1.02e-11   (~6.7 sigma)
# P_topo (ms)      =  714.463807624388  +/- 0.000204
# P'_topo (s/s)    =  -0                +/- 1.11e-10
# P''_topo (s/s^2) =  0                 +/- 5.02e-14
# P_bary (ms)      =  N/A
# P'_bary (s/s)    =  N/A
# P''_bary (s/s^2) =  N/A
# P_orb (s)        =  N/A
# asin(i)/c (s)    =  N/A
# eccentricity     =  N/A
# w (rad)          =  N/A
# T_peri           =  N/A
######################################################
   0  137.1349
   1  154.3945
   2  253.6971
   3  159.7414
   4  176.2918
   5  183.0154
   6  263.1544
   7  201.3884
   8  -15.3835
   9  87.19329
  10  290.1865
  11  219.4306
  12  197.9044
  13  173.501
  14  204.9662
  15  259.4136
  16  275.9392
  17  328.3495
  18  160.4511
  19  134.6778
  20  235.8901
  21  284.4474
  22  289.5162
  23  230.9543
  24  301.1631
  25  173.4987
  26  23.43927
  27  178.5299
  28  189.9989
  29  234.4214
  30  218.0496
  31  230.839
  32  184.088
  33  295.865
  34  314.7959
  35  283.2742
  36  230.7009
  37  230.3859
  38  174.3969
  39  73.12742
  40  201.9941
  41  195.9642
  42  190.582
  43  144.4565
  44  217.3167
  45  287.9167
  46  226.9492
  47  180.2305
  48  140.9043
  49  117.1097
  50  75.63292
  51  270.2993
  52  363.8015
  53  204.8579
  54  285.9245
  55  176.4081
  56  209.1941
  57  166.1957
  58  116.0572
  59  217.0696
  60  161.6669
  61  320.0334
  62  301.1988
  63  254.531
  64  326.7483
  65  478.4024
  66  253.5262
  67  184.8848
  68  205.8338
  69  260.4639
  70  179.5035
  71  65.48817
  72  187.6669
  73  386.8914
  74  383.5081
  75  293.2586
  76  183.6894
  77  146.4263
  78  133.3858
  79  200.6118
  80  151.6954
  81  124.9086
  82  99.13866
  83  15.74175
  84  255.8645
  85  117.6855
  86  167.6528
  87  239.64
  88  213.2433
  89  294.4291
  90  241.1563
  91  133.4262
  92  173.5586
  93  232.1793
  94  373.6159
  95  381.0791
  96  270.9776
  97  264.8696
  98  355.9229
  99  309.0945
 100  298.4243
 101  311.2063
 102  160.0729
 103  184.7065
 104  228.0608
 105  203.1789
 106  242.4393
 107  253.4105
 108  215.3929
 109  216.4011
 110  195.5612
 111  188.5754
 112  128.7655
 113  193.7989
 114  260.2773
 115  293.9112
 116  254.8011
 117  143.7708
 118  209.7934
 119  163.2453
 120  195.004
 121  173.3455
 122  259.446
 123  223.1695
 124  154.6996
 125  185.0819
 126  210.4146
 127  262.8386
 128  261.8468
 129  232.1393
 130  126.8907
 131  271.0108
 132  209.3308
 133  52.63088
 134  164.8691
 135  261.2706
 136  319.7562
 137  299.5526
 138  382.8949
 139  411.7073
 140  221.4396
 141  116.2152
 142  232.263
 143  270.3723
 144  245.3497
 145  325.3063
 146  327.0001
 147  189.9364
 148  188.647
 149  233.6665
 150  204.2193
 151  109.9718
 152  43.03894
 153  176.662
 154  282.3826
 155  230.1588
 156  247.8882
 157  259.0498
 158  153.8423
 159  193.914
 160  163.2408
 161  193.1896
 162  177.363
 163  261.6283
 164  309.1773
 165  303.8271
 166  201.1466
 167  179.6801
 168  185.8948
 169  228.456
 170  287.5787
 171  263.6696
 172  238.0529
 173  136.6583
 174  228.2552
 175  231.8298
 176  226.3219
 177  295.0851
 178  309.3618
 179  208.6484
 180  178.6693
 181  234.0504
 182  211.7547
 183  310.0343
 184  299.4231
 185  226.8995
 186  256.5297
 187  186.9007
 188  127.9933
 189  147.9114
 190  217.9883
 191  169.0375
 192  190.6825
 193  170.4982
 194  366.0121
 195  293.7651
 196  266.2578
 197  291.2861
 198  222.699
 199  187.2745
 200  253.8632
 201  217.9362
 202  164.0698
 203  255.8815
 204  345.3864
 205  289.2759
 206  362.5443
 207  353.0822
 208  240.7791
 209  303.7102
 210  384.5165
 211  261.736
 212  198.4868
 213  301.7328
 214  253.7308
 215  114.9291
 216  123.0986
 217  300.2718
 218  335.4728
 219  284.3188
 220  376.7867
 221  360.14
 222  327.0698
 223  170.3471
 224  276.7018
 225  240.8056
 226  221.2405
 227  290.0977
 228  343.8109
 229  415.3939
 230  408.2566
 231  396.6035
 232  269.0835
 233  140.6226
 234  145.4504
 235  169.0082
 236  275.8948
 237  270.3998
 238  180.6208
 239  197.4961
 240  262.3335
 241  238.0916
 242  216.5616
 243  152.1741
 244  162.4121
 245  241.114
 246  174.4501
 247  304.2566
 248  197.5657
 249  363.655
 250  341.9192
 251  229.4425
 252  263.0109
 253  238.28
 254  235.446
 255  217.0563
 256  149.1254
 257  164.5968
 258  149.6652
 259  121.6534
 260  267.3721
 261  121.5212
 262  124.0522
 263  104.5057
 264  62.97505
 265  142.0071
 266  104.4244
 267  112.1397
 268  151.1224
 269  216.7697
 270  347.364
 271  333.148
 272  333.8477
 273  275.2519
 274  215.8273
 275  183.5087
 276  275.6219
 277  195.7898
 278  148.7682
 279  227.5157
 280  123.2487
 281  57.78801
 282  200.3603
 283  100.4554
 284  55.61405
 285  99.32183
 286  304.7285
 287  236.7365
 288  126.147
 289  101.7935
 290  213.4338
 291  201.961
 292  273.21
 293  244.8391
 294  187.7362
 295  287.2845
 296  253.6095
 297  353.1125
 298  395.3391
 299  173.0345
 300  20.09808
 301  137.5459
 302  146.7102
 303  99.51113
 304  165.112
 305  253.8664
 306  499.7971
 307  346.4666
 308  377.7438
 309  205.6503
 310  195.2438
 311  307.5184
 312  373.1967
 313  310.203
 314  268.299
 315  294.1589
 316  247.9551
 317  229.2033
 318  228.9721
 319  313.443
 320  367.4277
 321  333.8548
 322  297.1615
 323  221.2197
 324  109.5397
 325  130.5957
 326  145.5868
 327  9.501949
 328  169.94
 329  229.2342
 330  229.5723
 331  84.92188
 332  26.29876
 333  332.8452
 334  364.321
 335  340.6049
 336  234.8196
 337  253.9066
 338  292.497
 339  386.3753
 340  282.2887
 341  224.1932
 342  157.312
 343  197.2488
 344  205.6171
 345  263.746
 346  267.3387
 347  252.8959
 348  254.7116
 349  158.6573
 350  128.2989
 351  179.1009
 352  152.7504
 353  212.3996
 354  247.0878
 355  316.5457
 356  307.9806
 357  137.8506
 358  122.4436
 359  261.4508
 360  290.2765
 361  291.5319
 362  291.5188
 363  345.7455
 364  215.0804
 365  144.9514
 366  143.0003
 367  216.4807
 368  175.1194
 369  211.3118
 370  203.2439
 371  283.3379
 372  266.2632
 373  251.4268
 374  296.2634
 375  234.4153
 376  116.735
 377  199.0132
 378  226.2296
 379  146.6357
 380  139.8254
 381  351.6893
 382  350.6829
 383  258.635
 384  237.3207
 385  233.6258
 386  168.2492
 387  61.73009
 388  140.9235
 389  74.59171
 390  180.8314
 391  240.2912
 392  137.8528
 393  75.34588
 394  24.00274
 395  87.73306
 396  160.1883
 397  201.3948
 398  194.7329
 399  181.6596
 400  103.6828
 401  157.8116
 402  237.3318
 403  296.7759
 404  232.2137
 405  279.9721
 406  292.8086
 407  272.9787
 408  76.94366
 409  190.2108
 410  323.8117
 411  246.7836
 412  246.4678
 413  182.5312
 414  223.5913
 415  163.1086
 416  243.5793
 417  213.1774
 418  236.2657
 419  226.2034
 420  185.945
 421  193.2461
 422  307.792
 423  327.5922
 424  216.9261
 425  110.8364
 426  120.8129
 427  136.082
 428  435.7959
 429  611.6882
 430  587.1881
 431  755.834
 432  713.5651
 433  907.7338
 434  950.1282
 435  756.7619
 436  546.8227
 437  424.0567
 438  464.1571
 439  450.046
 440  346.0378
 441  280.4288
 442  279.9465
 443  271.427
 444  309.0376
 445  426.5066
 446  289.7025
 447  131.4854
 448  272.8393
 449  237.509
 450  187.5062
 451  267.384
 452  181.9646
 453  176.5352
 454  258.1557
 455  223.9326
 456  178.7001
 457  169.1562
 458  139.9814
 459  115.4772
 460  270.7937
 461  301.0903
 462  172.6119
 463  125.1702
 464  168.4385
 465  390.6253
 466  391.3994
 467  287.9353
 468  271.4056
 469  230.415
 470  296.2541
 471  258.5914
 472  240.7605
 473  274.9272
 474  278.4651
 475  289.9805
 476  249.6189
 477  228.6426
 478  200.1348
 479  153.9682
 480  102.2456
 481  61.23516
 482  144.4142
 483  211.4199
 484  196.0514
 485  264.8184
 486  222.3322
 487  185.9558
 488  259.1443
 489  212.9338
 490  173.9104
 491  99.66298
 492  119.2063
 493  131.828
 494  134.9105
 495  247.2191
 496  342.7982
 497  286.9609
 498  223.0616
 499  235.8715
 500  304.7635
 501  343.2111
 502  230.3245
 503  206.8838
 504  156.0304
 505  168.2542
 506  121.0274
 507  241.9699
 508  271.9046
 509  185.6322
 510  305.3051
 511  211.8801
