# Input file       =  1188867141.111164_cleaned.dat
# Candidate        =  PSR_0332+5434
# Telescope        =  AR
# Epoch_topo       =  58004.036575360697
# Epoch_bary       =  N/A
# T_sample         =  0.002
# Data Folded      =  7340032
# Data Avg         =  0.0262838699501506
# Data StdDev      =  2.55781567095166 
# Profile Bins     =  256
# Profile Avg      =  753.840860366045 
# Profile StdDev   =  433.110026552442 
# Reduced chi-sqr  =  1.363
# Prob(Noise)      <  0.000102   (~3.7 sigma)
# P_topo (ms)      =  714.464288717501  +/- 0.000148
# P'_topo (s/s)    =  -0                +/- 7.8e-11
# P''_topo (s/s^2) =  0                 +/- 3.45e-14
# P_bary (ms)      =  N/A
# P'_bary (s/s)    =  N/A
# P''_bary (s/s^2) =  N/A
# P_orb (s)        =  N/A
# asin(i)/c (s)    =  N/A
# eccentricity     =  N/A
# w (rad)          =  N/A
# T_peri           =  N/A
######################################################
   0  1400.115
   1  495.2163
   2  546.6689
   3  892.5314
   4  522.756
   5  795.4756
   6  213.4757
   7  524.192
   8  752.3752
   9  -6.423204
  10  -50.691
  11  392.1683
  12  907.9156
  13  684.6992
  14  111.1722
  15  381.6802
  16  662.1646
  17  1341.481
  18  1394.022
  19  433.4673
  20  506.7521
  21  843.0884
  22  797.9978
  23  788.7726
  24  703.9691
  25  1099.456
  26  968.3792
  27  1189.915
  28  1206.26
  29  593.932
  30  836.8245
  31  729.6595
  32  249.2763
  33  1288.17
  34  993.3775
  35  1433.96
  36  626.8193
  37  1204.104
  38  1187.649
  39  1491.06
  40  1422.709
  41  857.0758
  42  1126.7
  43  771.3431
  44  332.5423
  45  1569.708
  46  1036.502
  47  964.4548
  48  664.9809
  49  1428.084
  50  1005.142
  51  1167.559
  52  332.7221
  53  426.4404
  54  371.6046
  55  663.4514
  56  476.6873
  57  1195.761
  58  1067.787
  59  1187.768
  60  376.7511
  61  889.0724
  62  566.2226
  63  422.7447
  64  718.3164
  65  762.4565
  66  -90.45278
  67  232.8127
  68  823.264
  69  224.3669
  70  116.5635
  71  393.6422
  72  1010.793
  73  1074.075
  74  162.5938
  75  104.9815
  76  552.7299
  77  1426.436
  78  529.8616
  79  450.2074
  80  770.7997
  81  1663.11
  82  1163.319
  83  879.871
  84  745.4079
  85  489.9435
  86  405.0777
  87  587.6733
  88  1272.314
  89  711.6721
  90  619.8785
  91  787.7036
  92  329.6468
  93  -280.1581
  94  405.9674
  95  821.8884
  96  1198.882
  97  893.0216
  98  531.5308
  99  552.5954
 100  325.7064
 101  790.2635
 102  574.1752
 103  711.1511
 104  1509.106
 105  325.1
 106  423.5351
 107  856.9501
 108  896.8629
 109  812.7807
 110  161.7195
 111  231.2507
 112  -533.4345
 113  467.6226
 114  612.9293
 115  815.7429
 116  907.5092
 117  606.4704
 118  938.4529
 119  205.9143
 120  387.1734
 121  1016.207
 122  770.8551
 123  808.6848
 124  344.2535
 125  943.033
 126  714.9473
 127  318.1078
 128  375.3875
 129  590.8953
 130  786.0253
 131  593.1788
 132  617.7776
 133  937.2393
 134  878.0746
 135  1274.841
 136  332.9104
 137  685.768
 138  194.7401
 139  778.8339
 140  935.0095
 141  675.2556
 142  495.539
 143  917.3604
 144  711.998
 145  615.2447
 146  289.7346
 147  752.4948
 148  1113.613
 149  895.3924
 150  834.7352
 151  971.6324
 152  1642.966
 153  1027.396
 154  803.469
 155  281.9832
 156  1447.763
 157  1180.184
 158  1579.892
 159  1503.124
 160  3077.978
 161  2342.515
 162  2228.024
 163  655.1204
 164  1182.151
 165  428.8681
 166  312.1935
 167  1180.936
 168  402.9708
 169  545.7473
 170  -18.73481
 171  573.3482
 172  244.3573
 173  994.8142
 174  433.3012
 175  721.7795
 176  889.8293
 177  643.2612
 178  591.0675
 179  386.621
 180  852.9551
 181  781.5013
 182  529.9132
 183  1069.583
 184  1143.185
 185  410.7526
 186  1080.841
 187  970.8735
 188  298.4313
 189  1382.113
 190  1008.1
 191  -51.29473
 192  -136.5776
 193  484.6393
 194  604.5881
 195  435.4453
 196  640.2153
 197  519.623
 198  1461.014
 199  921.1918
 200  420.6455
 201  429.709
 202  570.211
 203  543.2115
 204  -32.27338
 205  1078.705
 206  1055.206
 207  1260.94
 208  384.3747
 209  747.638
 210  679.9706
 211  596.0472
 212  715.0858
 213  916.9286
 214  926.4866
 215  740.1976
 216  1093.687
 217  1161.499
 218  1295.672
 219  1191.697
 220  1103.829
 221  1119.839
 222  576.028
 223  282.2049
 224  150.304
 225  313.7462
 226  387.8671
 227  59.77489
 228  669.2733
 229  954.5003
 230  1499.21
 231  472.1888
 232  246.7479
 233  747.978
 234  792.4936
 235  1161.993
 236  505.1725
 237  540.3797
 238  1080.869
 239  1123.824
 240  729.2854
 241  496.0194
 242  426.3957
 243  1295.615
 244  568.5964
 245  833.6782
 246  690.1909
 247  1718.426
 248  966.1414
 249  205.5189
 250  326.1151
 251  958.4769
 252  752.2985
 253  1228.999
 254  831.9275
 255  1004.449
