# Input file       =  1188091689.11132_cleaned.dat
# Candidate        =  PSR_0332+5434
# Telescope        =  AR
# Epoch_topo       =  57995.061436473610
# Epoch_bary       =  N/A
# T_sample         =  0.002
# Data Folded      =  7340032
# Data Avg         =  0.00287981701933955
# Data StdDev      =  1.00009959221852 
# Profile Bins     =  512
# Profile Avg      =  41.3969067748699 
# Profile StdDev   =  119.744960855489 
# Reduced chi-sqr  =  1.600
# Prob(Noise)      <  1.51e-16   (~8.2 sigma)
# P_topo (ms)      =  714.463371148475  +/- 0.00015
# P'_topo (s/s)    =  -0                +/- 7.93e-11
# P''_topo (s/s^2) =  0                 +/- 3.5e-14
# P_bary (ms)      =  N/A
# P'_bary (s/s)    =  N/A
# P''_bary (s/s^2) =  N/A
# P_orb (s)        =  N/A
# asin(i)/c (s)    =  N/A
# eccentricity     =  N/A
# w (rad)          =  N/A
# T_peri           =  N/A
######################################################
   0  598.7215
   1  716.1889
   2  426.996
   3  279.2286
   4  138.7616
   5  213.2513
   6  160.9557
   7  13.20188
   8  25.81858
   9  19.08525
  10  59.98464
  11  162.5083
  12  273.8764
  13  206.8165
  14  73.53767
  15  18.64224
  16  19.60553
  17  8.558693
  18  98.04688
  19  30.32491
  20  -84.16553
  21  -99.20621
  22  -14.96104
  23  -3.594913
  24  27.21186
  25  130.0681
  26  56.47361
  27  56.40655
  28  -67.10922
  29  46.61339
  30  274.2922
  31  127.0805
  32  76.6689
  33  34.12955
  34  104.7438
  35  143.3409
  36  5.514218
  37  -26.04559
  38  30.59211
  39  90.30225
  40  12.18306
  41  59.46152
  42  188.7596
  43  100.2312
  44  125.4383
  45  60.00426
  46  168.6838
  47  215.3796
  48  122.8213
  49  -55.15871
  50  17.16047
  51  21.1982
  52  46.54903
  53  78.49355
  54  69.55677
  55  -24.13416
  56  -56.43424
  57  34.79115
  58  100.19
  59  135.672
  60  65.65496
  61  26.73648
  62  -8.357795
  63  73.60309
  64  -41.6899
  65  -47.48331
  66  20.90195
  67  21.28848
  68  -23.82539
  69  -37.2143
  70  -17.88144
  71  65.47885
  72  6.855853
  73  -99.76608
  74  -73.4418
  75  -31.12401
  76  -52.76619
  77  -20.00319
  78  -214.5147
  79  -213.7337
  80  -73.02141
  81  6.251808
  82  -51.80858
  83  77.65694
  84  142.4018
  85  76.03706
  86  54.23569
  87  47.93624
  88  120.7014
  89  76.00829
  90  27.75701
  91  43.58833
  92  21.35641
  93  56.32596
  94  14.52131
  95  39.43663
  96  73.25338
  97  141.6419
  98  -53.13243
  99  -126.0305
 100  60.77075
 101  115.1357
 102  -39.11127
 103  110.6767
 104  273.6019
 105  -23.09152
 106  -35.42954
 107  -18.70873
 108  84.18159
 109  101.7822
 110  85.07864
 111  -32.45067
 112  -90.58954
 113  -31.59786
 114  31.39928
 115  140.902
 116  189.1265
 117  115.8755
 118  -44.1135
 119  -32.40084
 120  -34.84401
 121  39.48838
 122  98.89407
 123  65.50642
 124  59.47916
 125  128.8493
 126  168.799
 127  22.83982
 128  -23.87493
 129  -65.38956
 130  -67.77508
 131  -64.55204
 132  33.64141
 133  -31.50211
 134  0.1873935
 135  -14.38998
 136  -19.09799
 137  -32.19088
 138  -148.4129
 139  -137.7839
 140  -212.8532
 141  -112.3956
 142  -46.74541
 143  -114.1775
 144  -198.506
 145  -47.94477
 146  -0.3516396
 147  -41.82224
 148  20.92659
 149  -16.45197
 150  65.65895
 151  120.8166
 152  -50.7037
 153  -110.1275
 154  -94.91846
 155  -46.11329
 156  -95.69948
 157  -114.8492
 158  -51.30991
 159  90.7438
 160  -84.96739
 161  -101.5792
 162  -74.17386
 163  -44.62569
 164  -54.20299
 165  -82.57651
 166  -4.026701
 167  -40.09329
 168  -85.18372
 169  -38.23045
 170  23.42579
 171  35.64272
 172  -80.59447
 173  23.00249
 174  -65.85512
 175  -87.86182
 176  -131.5022
 177  16.33432
 178  -94.98203
 179  -174.648
 180  -24.08368
 181  -40.06477
 182  -159.568
 183  -91.55004
 184  -5.515179
 185  95.8957
 186  24.90754
 187  46.56396
 188  53.06263
 189  74.90479
 190  85.43704
 191  -20.15555
 192  67.80161
 193  24.95987
 194  -32.90615
 195  -81.88428
 196  2.782102
 197  15.38246
 198  27.37686
 199  -43.28735
 200  79.55531
 201  46.1871
 202  -33.2101
 203  -106.0039
 204  -59.50328
 205  12.26622
 206  8.304869
 207  83.54384
 208  0.1863987
 209  -69.99643
 210  -124.4981
 211  86.54833
 212  125.0007
 213  83.75018
 214  20.5395
 215  42.05384
 216  116.4737
 217  -90.18472
 218  -38.10548
 219  -64.28587
 220  -35.01015
 221  -121.5724
 222  -117.6869
 223  62.41051
 224  -16.47797
 225  -42.78496
 226  -114.8737
 227  -27.75624
 228  -20.82512
 229  19.06741
 230  198.856
 231  58.58864
 232  26.44013
 233  -5.303782
 234  -25.54281
 235  -13.20073
 236  -107.2562
 237  -91.61004
 238  -67.99615
 239  16.28839
 240  -51.65726
 241  -20.87203
 242  66.06976
 243  -3.315885
 244  -59.88806
 245  29.3376
 246  124.5657
 247  58.56168
 248  55.63625
 249  50.51212
 250  10.2662
 251  90.26842
 252  171.5138
 253  212.0949
 254  201.1515
 255  73.86623
 256  90.52318
 257  106.4478
 258  121.5688
 259  88.66377
 260  -77.22137
 261  -100.2561
 262  23.287
 263  134.3553
 264  69.08328
 265  117.5318
 266  46.51937
 267  -18.95963
 268  55.19325
 269  -81.2135
 270  -21.83733
 271  101.6624
 272  116.5082
 273  100.5337
 274  57.82779
 275  104.7641
 276  102.1725
 277  90.80411
 278  219.999
 279  270.0874
 280  20.59954
 281  -16.31698
 282  106.4596
 283  196.2507
 284  165.2951
 285  116.2343
 286  154.3215
 287  110.2203
 288  188.6834
 289  266.5104
 290  196.9503
 291  135.2613
 292  112.0371
 293  34.37938
 294  -104.0364
 295  -59.18208
 296  78.93522
 297  -5.997433
 298  -55.34605
 299  -9.859076
 300  286.1877
 301  374.7487
 302  217.7249
 303  67.11403
 304  96.73537
 305  31.64991
 306  -19.72154
 307  192.5924
 308  170.0793
 309  248.2673
 310  144.0786
 311  47.18871
 312  197.949
 313  253.5569
 314  190.2602
 315  106.3147
 316  112.411
 317  103.2536
 318  49.51802
 319  31.77399
 320  139.9028
 321  190.3723
 322  180.1604
 323  249.1791
 324  114.0213
 325  90.02061
 326  30.18294
 327  166.6668
 328  235.5841
 329  131.8084
 330  73.74225
 331  27.75725
 332  163.3319
 333  118.6397
 334  30.69525
 335  -18.56698
 336  127.299
 337  184.1621
 338  124.1653
 339  33.65235
 340  29.81213
 341  35.56026
 342  97.963
 343  -2.536864
 344  130.1255
 345  80.01012
 346  86.96591
 347  12.29793
 348  142.8452
 349  159.6827
 350  123.6428
 351  74.10725
 352  -57.77008
 353  -14.8075
 354  24.12552
 355  65.71319
 356  71.55147
 357  46.22195
 358  -2.519655
 359  55.54871
 360  179.8057
 361  232.7925
 362  67.94614
 363  -134.683
 364  -79.3089
 365  87.80006
 366  -9.587172
 367  -52.91075
 368  -107.2127
 369  -22.52299
 370  8.909017
 371  32.03276
 372  136.5262
 373  -45.51417
 374  -2.356789
 375  -94.31047
 376  -62.30149
 377  -51.48397
 378  -83.19762
 379  54.28918
 380  76.90384
 381  97.06405
 382  103.0292
 383  5.729358
 384  157.425
 385  40.25071
 386  30.19066
 387  44.8711
 388  38.13664
 389  52.74364
 390  115.7656
 391  81.94889
 392  152.2055
 393  194.4168
 394  94.85178
 395  -37.17144
 396  -51.11018
 397  68.41646
 398  151.5882
 399  74.52615
 400  47.98915
 401  18.03446
 402  -46.37041
 403  -130.0898
 404  -95.4474
 405  -64.11044
 406  50.87733
 407  -47.53084
 408  -131.8022
 409  -67.35675
 410  -75.74422
 411  -114.2042
 412  -92.65919
 413  132.0611
 414  132.0776
 415  -90.1033
 416  -76.76065
 417  -92.31013
 418  -80.75768
 419  -84.83057
 420  64.01791
 421  35.3032
 422  -57.57821
 423  28.79648
 424  -74.0568
 425  -107.9213
 426  -44.65503
 427  89.64587
 428  221.7274
 429  155.1116
 430  -46.48072
 431  -139.8905
 432  -161.4779
 433  2.854035
 434  -57.03002
 435  -15.78042
 436  1.310982
 437  61.11185
 438  52.57861
 439  67.69198
 440  -65.76472
 441  -63.71781
 442  -48.48028
 443  53.52895
 444  -28.42283
 445  142.4091
 446  122.2299
 447  62.6243
 448  20.8779
 449  123.5592
 450  234.6288
 451  109.5455
 452  139.6387
 453  48.94139
 454  115.9398
 455  2.264137
 456  -53.74784
 457  50.6746
 458  -115.8021
 459  -86.81712
 460  -32.28545
 461  -99.08266
 462  3.1145
 463  -42.69059
 464  5.803478
 465  81.19716
 466  -44.1814
 467  -127.7521
 468  -106.6829
 469  33.93204
 470  11.10008
 471  81.63399
 472  191.0683
 473  235.6605
 474  70.05362
 475  -71.31512
 476  -26.6561
 477  -122.9132
 478  57.77781
 479  124.4212
 480  38.51228
 481  -9.69242
 482  -15.38395
 483  111.6338
 484  139.9493
 485  135.0821
 486  153.7561
 487  108.2782
 488  50.69464
 489  111.885
 490  233.6277
 491  216.0216
 492  176.1733
 493  50.90788
 494  44.96492
 495  46.67147
 496  -73.23452
 497  70.34061
 498  115.5933
 499  183.0544
 500  107.4608
 501  104.5665
 502  87.37813
 503  79.3091
 504  22.29544
 505  120.015
 506  134.7746
 507  169.1097
 508  222.0549
 509  289.5206
 510  403.3928
 511  621.9305
