# Input file       =  1188106604.102703-PSRB0329-2ms-sampling-dd.dat
# Candidate        =  PSR_0332+5434
# Telescope        =  AR
# Epoch_topo       =  57995.234063688695
# Epoch_bary       =  N/A
# T_sample         =  0.002
# Data Folded      =  7340032
# Data Avg         =  3.95609913598964e-11
# Data StdDev      =  5.68321535093093 
# Profile Bins     =  512
# Profile Avg      =  0.24966877095799 
# Profile StdDev   =  680.468630350009 
# Reduced chi-sqr  =  0.746
# Prob(Noise)      <  1   (~0.0 sigma)
# P_topo (ms)      =  714.46371221221   +/- 8.22e-05
# P'_topo (s/s)    =  -0                +/- 4.34e-11
# P''_topo (s/s^2) =  0                 +/- 1.92e-14
# P_bary (ms)      =  N/A
# P'_bary (s/s)    =  N/A
# P''_bary (s/s^2) =  N/A
# P_orb (s)        =  N/A
# asin(i)/c (s)    =  N/A
# eccentricity     =  N/A
# w (rad)          =  N/A
# T_peri           =  N/A
######################################################
   0  -741.2272
   1  -250.0929
   2  -485.0327
   3  -343.3178
   4  -818.654
   5  -961.5552
   6  -765.3006
   7  -444.7061
   8  -410.5729
   9  -831.8637
  10  -366.8491
  11  -259.5491
  12  -193.4315
  13  -286.4512
  14  -314.0998
  15  60.82008
  16  235.1394
  17  -16.66832
  18  -165.8412
  19  -221.5022
  20  -777.5317
  21  -220.0426
  22  -398.5901
  23  -311.9248
  24  -297.0608
  25  -28.43333
  26  -389.3695
  27  -380.2379
  28  -347.5629
  29  20.49692
  30  -179.8928
  31  -153.0518
  32  -450.8615
  33  -196.8138
  34  -198.7865
  35  101.2404
  36  -153.2296
  37  -373.3051
  38  -411.6477
  39  -131.6613
  40  517.4097
  41  1079.248
  42  1322.766
  43  1403.441
  44  1064.328
  45  641.7057
  46  377.2596
  47  319.6803
  48  335.349
  49  719.0887
  50  601.0761
  51  335.8227
  52  6.678453
  53  -556.9
  54  -567.3468
  55  68.62755
  56  -773.5997
  57  -580.9214
  58  -523.3587
  59  -524.355
  60  -214.9434
  61  -348.8563
  62  -379.7643
  63  -167.0307
  64  178.3903
  65  -35.52166
  66  -396.1618
  67  -610.3641
  68  43.62193
  69  43.96015
  70  387.4096
  71  20.29408
  72  358.0658
  73  184.778
  74  25.69334
  75  189.0638
  76  292.6745
  77  24.38728
  78  -94.34176
  79  -66.12798
  80  -73.69109
  81  -177.7342
  82  89.20403
  83  -319.2202
  84  -4.459567
  85  436.2948
  86  667.4718
  87  159.5457
  88  282.943
  89  -59.39801
  90  27.44265
  91  -388.8018
  92  4.286514
  93  -146.0179
  94  -658.2885
  95  -301.5344
  96  -179.5858
  97  662.059
  98  195.7953
  99  -485.492
 100  -19.77136
 101  15.70229
 102  -196.2137
 103  328.3355
 104  -238.2129
 105  -555.8523
 106  -478.1891
 107  -455.1806
 108  -445.0215
 109  -263.4748
 110  -185.0622
 111  135.4124
 112  -1.362804
 113  350.5456
 114  28.13989
 115  152.5045
 116  -236.3361
 117  -169.8765
 118  -237.3037
 119  -160.354
 120  -164.7793
 121  -285.0639
 122  -17.61724
 123  119.359
 124  -305.4599
 125  -373.7176
 126  -105.9868
 127  494.1333
 128  -83.80701
 129  -188.4462
 130  -250.6508
 131  -89.06126
 132  -336.6206
 133  -491.1471
 134  -605.9794
 135  -324.391
 136  141.305
 137  85.81418
 138  -51.45123
 139  -24.26496
 140  -504.8091
 141  -550.9117
 142  -311.0161
 143  -270.5914
 144  -108.6249
 145  257.9759
 146  79.43606
 147  135.0195
 148  15.59742
 149  -163.4107
 150  -437.6905
 151  -198.7285
 152  131.8551
 153  -185.1993
 154  8.177052
 155  381.4611
 156  715.7599
 157  255.3756
 158  288.9337
 159  56.77217
 160  79.4249
 161  -348.7748
 162  3.435459
 163  20.21717
 164  840.2218
 165  -250.6993
 166  -328.0221
 167  -386.8121
 168  -582.8802
 169  -232.3968
 170  -561.4812
 171  -22.84184
 172  -332.2683
 173  -721.0642
 174  -436.6589
 175  -424.2851
 176  -461.1172
 177  -1075.49
 178  -259.2091
 179  412.7345
 180  50.6921
 181  -307.8492
 182  -355.0827
 183  160.591
 184  108.4904
 185  -294.5529
 186  -931.4811
 187  -272.4056
 188  -6.324896
 189  88.36687
 190  -24.10476
 191  -354.6544
 192  -0.949375
 193  277.0018
 194  399.146
 195  -232.1177
 196  -119.3464
 197  149.3544
 198  178.211
 199  -63.9836
 200  -272.6045
 201  -625.1096
 202  -800.2061
 203  -88.51422
 204  301.3387
 205  35.00244
 206  -332.3242
 207  -277.599
 208  22.25589
 209  172.0843
 210  -153.5388
 211  -164.4764
 212  -18.42523
 213  -170.2192
 214  -426.6903
 215  -267.6412
 216  -667.2823
 217  -741.3271
 218  -472.1909
 219  -400.4605
 220  238.098
 221  371.0482
 222  30.92183
 223  48.58286
 224  -224.7291
 225  -460.2849
 226  -155.367
 227  526.4927
 228  514.7556
 229  -112.0328
 230  -30.0807
 231  225.236
 232  178.8678
 233  -162.9109
 234  -78.12096
 235  -480.1363
 236  54.19246
 237  358.1301
 238  660.3886
 239  -147.3581
 240  -210.8314
 241  226.9238
 242  142.6089
 243  -115.5115
 244  -414.5362
 245  51.09639
 246  499.5178
 247  558.0756
 248  519.0167
 249  -403.819
 250  91.97197
 251  388.4177
 252  -40.21351
 253  90.71445
 254  457.0623
 255  465.3854
 256  323.0474
 257  558.4346
 258  134.3565
 259  -219.0754
 260  31.31339
 261  1241.41
 262  870.3163
 263  199.8006
 264  924.856
 265  873.191
 266  686.9276
 267  63.6161
 268  373.0636
 269  230.4691
 270  289.5887
 271  302.2258
 272  -26.56978
 273  460.9688
 274  31.36944
 275  642.1135
 276  177.668
 277  -96.56081
 278  407.9889
 279  208.2928
 280  203.3052
 281  386.9532
 282  63.54262
 283  282.8706
 284  353.196
 285  340.2346
 286  132.7744
 287  645.2383
 288  918.9822
 289  1162.927
 290  639.4114
 291  582.0383
 292  204.5714
 293  211.2399
 294  150.7296
 295  145.2755
 296  261.0294
 297  770.9927
 298  745.447
 299  778.7534
 300  327.352
 301  355.9994
 302  299.7793
 303  492.9902
 304  570.3066
 305  374.5744
 306  -55.24239
 307  242.3385
 308  68.81924
 309  -45.87601
 310  87.36533
 311  -122.7724
 312  627.7438
 313  727.3026
 314  32.48455
 315  207.2129
 316  89.87675
 317  122.8803
 318  140.2718
 319  683.5873
 320  826.1848
 321  628.5648
 322  1174.223
 323  862.1161
 324  905.6024
 325  334.085
 326  396.8804
 327  457.8508
 328  947.778
 329  576.7189
 330  24.00925
 331  207.1651
 332  972.1529
 333  832.2573
 334  10.26502
 335  -360.6293
 336  638.9172
 337  867.5478
 338  457.098
 339  -397.7425
 340  -488.769
 341  66.99835
 342  245.2079
 343  471.7182
 344  554.6473
 345  226.215
 346  -399.9776
 347  332.4836
 348  499.7004
 349  373.2667
 350  453.6197
 351  361.0187
 352  502.7664
 353  98.24635
 354  427.4558
 355  192.3853
 356  811.8498
 357  564.0862
 358  229.2368
 359  371.9789
 360  7.042991
 361  726.9083
 362  545.597
 363  465.3156
 364  144.762
 365  330.7433
 366  653.9327
 367  219.38
 368  316.0006
 369  513.7105
 370  819.5172
 371  890.2991
 372  561.3193
 373  103.9035
 374  -410.5137
 375  440.3872
 376  187.3227
 377  379.9393
 378  348.277
 379  283.6803
 380  131.3315
 381  -49.42091
 382  53.0084
 383  -134.8321
 384  -86.88389
 385  -82.65226
 386  234.6872
 387  430.6774
 388  -137.7197
 389  34.32596
 390  -68.61321
 391  -348.2939
 392  12.83267
 393  357.7773
 394  -75.37276
 395  -37.41161
 396  313.6481
 397  160.0376
 398  -199.3154
 399  -472.2873
 400  -10.41034
 401  -656.5692
 402  -563.3801
 403  -57.32493
 404  385.1095
 405  489.1147
 406  120.2019
 407  -386.4974
 408  -213.8754
 409  -464.5616
 410  -36.60972
 411  -26.71679
 412  -1.307846
 413  -248.3994
 414  -414.1655
 415  -695.9105
 416  -840.501
 417  -593.7499
 418  -300.9605
 419  -187.4043
 420  -337.0975
 421  -636.4652
 422  -464.4852
 423  -280.1978
 424  -176.6924
 425  -225.2043
 426  161.1594
 427  219.2068
 428  516.7094
 429  -3.996283
 430  40.27308
 431  -364.8993
 432  251.5787
 433  531.456
 434  -166.7246
 435  -586.208
 436  -706.7577
 437  -453.9644
 438  -665.5643
 439  -453.3143
 440  -302.9424
 441  -453.7444
 442  37.4085
 443  -263.1611
 444  -143.2308
 445  250.5942
 446  -327.8846
 447  -95.59896
 448  137.4422
 449  -53.43365
 450  -415.0699
 451  -280.35
 452  108.1237
 453  294.3171
 454  141.3754
 455  -400.1651
 456  -543.2259
 457  -441.6046
 458  -713.8598
 459  -68.24323
 460  576.9909
 461  847.0273
 462  395.0241
 463  -21.78535
 464  -122.2014
 465  -121.2116
 466  -493.1812
 467  -258.2534
 468  -254.476
 469  213.6703
 470  160.108
 471  550.2479
 472  432.717
 473  -645.8046
 474  -283.6793
 475  274.4581
 476  -97.91654
 477  139.8503
 478  -66.43877
 479  157.3758
 480  -182.25
 481  -436.0962
 482  -673.3691
 483  -1148.347
 484  -763.7902
 485  -607.2567
 486  27.94048
 487  -151.262
 488  -480.4123
 489  -483.5125
 490  -100.4399
 491  -444.8238
 492  -565.3162
 493  155.4001
 494  179.7475
 495  191.6013
 496  131.6038
 497  -329.5038
 498  -337.9958
 499  -118.8268
 500  -894.1744
 501  -1183.178
 502  -831.6487
 503  -528.1902
 504  -294.942
 505  -252.8739
 506  136.2813
 507  -719.4671
 508  -752.3715
 509  -675.9204
 510  -304.5712
 511  -865.5911
