# Input file       =  1188192762.121225-PSRB0329-2ms-sampling-dd.dat
# Candidate        =  PSR_0332+5434
# Telescope        =  AR
# Epoch_topo       =  57996.231262977140
# Epoch_bary       =  N/A
# T_sample         =  0.002
# Data Folded      =  7340032
# Data Avg         =  1.27982145414092e-09
# Data StdDev      =  5.30225123137339 
# Profile Bins     =  512
# Profile Avg      =  0.0662650094868387
# Profile StdDev   =  634.854639564782 
# Reduced chi-sqr  =  0.576
# Prob(Noise)      <  1   (~0.0 sigma)
# P_topo (ms)      =  714.463753095235  +/- 0.000101
# P'_topo (s/s)    =  -0                +/- 5.31e-11
# P''_topo (s/s^2) =  0                 +/- 2.34e-14
# P_bary (ms)      =  N/A
# P'_bary (s/s)    =  N/A
# P''_bary (s/s^2) =  N/A
# P_orb (s)        =  N/A
# asin(i)/c (s)    =  N/A
# eccentricity     =  N/A
# w (rad)          =  N/A
# T_peri           =  N/A
######################################################
   0  135.5226
   1  -240.7946
   2  -65.43878
   3  -161.5025
   4  -335.024
   5  -325.6328
   6  -59.17047
   7  272.5907
   8  -5.510875
   9  -136.8995
  10  245.0375
  11  455.3583
  12  -89.31186
  13  -455.2876
  14  -531.7112
  15  126.6852
  16  278.8606
  17  -221.218
  18  -173.6332
  19  212.3334
  20  -73.53291
  21  -453.949
  22  -750.1459
  23  -15.32922
  24  -87.85841
  25  425.0584
  26  185.9179
  27  363.5625
  28  114.936
  29  -173.6766
  30  -255.6186
  31  -427.1958
  32  -502.0432
  33  89.89586
  34  -120.2233
  35  -62.9325
  36  274.0825
  37  -238.8358
  38  -175.1942
  39  90.33846
  40  491.2945
  41  372.4521
  42  198.8609
  43  332.3376
  44  316.2757
  45  454.5966
  46  305.8402
  47  355.6626
  48  266.709
  49  -9.751506
  50  -377.4037
  51  -226.016
  52  249.296
  53  272.5063
  54  474.5145
  55  -207.1572
  56  -403.8714
  57  -408.7348
  58  32.33678
  59  151.2603
  60  377.0153
  61  379.1942
  62  392.2899
  63  214.9642
  64  -202.3635
  65  -383.9284
  66  -207.4539
  67  -112.491
  68  300.7349
  69  391.1728
  70  -20.2746
  71  48.84077
  72  -268.2146
  73  148.0828
  74  -4.238432
  75  145.4129
  76  120.569
  77  79.11053
  78  115.7799
  79  55.37494
  80  -354.4836
  81  -532.4937
  82  5.756413
  83  -212.3714
  84  75.4221
  85  546.9088
  86  227.1876
  87  391.0811
  88  45.50811
  89  -344.6628
  90  -229.2942
  91  -98.96886
  92  162.8955
  93  122.7342
  94  615.353
  95  488.8674
  96  3.223649
  97  -42.41089
  98  -133.4775
  99  -127.4462
 100  167.5444
 101  530.832
 102  469.4207
 103  96.78819
 104  -345.0168
 105  -389.0346
 106  -68.66858
 107  -299.9332
 108  -68.2945
 109  251.9047
 110  -412.5731
 111  12.62074
 112  110.4068
 113  -109.6228
 114  -398.4792
 115  -353.4122
 116  36.65104
 117  -227.2649
 118  -541.1302
 119  452.9982
 120  425.1794
 121  210.3398
 122  -413.9067
 123  -163.5041
 124  -216.4534
 125  -523.5228
 126  -510.4779
 127  294.6805
 128  213.9623
 129  -364.493
 130  -584.8051
 131  -626.1963
 132  -589.2347
 133  -517.3736
 134  -105.9121
 135  645.3846
 136  436.0659
 137  -30.97137
 138  -366.8952
 139  -122.8468
 140  -26.33571
 141  -296.8008
 142  -152.4005
 143  265.8708
 144  224.5936
 145  -131.6852
 146  -117.1388
 147  -257.0821
 148  -528.1859
 149  -194.8678
 150  524.6205
 151  336.5391
 152  116.4398
 153  380.4147
 154  -33.59367
 155  -649.5416
 156  -355.0653
 157  -390.8749
 158  -458.0859
 159  -947.5381
 160  -330.0548
 161  -29.59378
 162  -350.4668
 163  -522.4796
 164  -730.5706
 165  -642.8255
 166  -372.6304
 167  -226.6204
 168  18.44752
 169  52.76412
 170  -388.3628
 171  -859.5741
 172  -459.5304
 173  -602.7261
 174  -606.4802
 175  -154.2263
 176  177.528
 177  196.526
 178  1.6509
 179  280.7445
 180  312.1276
 181  184.7599
 182  251.8259
 183  353.5818
 184  648.704
 185  434.8656
 186  -17.06034
 187  354.1035
 188  -402.2071
 189  -373.5291
 190  -67.29535
 191  -109.6331
 192  -370.8755
 193  -601.4094
 194  -309.2718
 195  -181.2548
 196  -415.1025
 197  -174.3826
 198  -479.9479
 199  -619.2514
 200  -217.0811
 201  -423.3291
 202  -19.64261
 203  201.724
 204  176.4933
 205  -359.9335
 206  -258.1989
 207  78.31796
 208  121.0332
 209  -74.81992
 210  125.7171
 211  694.5507
 212  652.0271
 213  69.15253
 214  2.080933
 215  -70.46121
 216  -36.38544
 217  327.3967
 218  321.5718
 219  358.4552
 220  -28.82417
 221  -523.6251
 222  -438.5012
 223  66.52288
 224  306.087
 225  155.6055
 226  -84.95222
 227  311.2247
 228  -433.2339
 229  -759.4268
 230  -548.0145
 231  -638.1031
 232  -144.8597
 233  111.3779
 234  168.7309
 235  22.02611
 236  67.78786
 237  -252.7821
 238  -143.4873
 239  -246.2344
 240  -293.3283
 241  -129.0189
 242  -219.4932
 243  -59.13791
 244  34.61541
 245  -235.5035
 246  -433.2928
 247  -369.6766
 248  -190.1431
 249  43.41496
 250  111.0697
 251  -205.7771
 252  -29.74969
 253  10.68824
 254  -217.8539
 255  -290.6794
 256  -42.10286
 257  -124.0956
 258  -429.7173
 259  -271.8341
 260  136.2267
 261  -247.2187
 262  -355.9018
 263  -185.2448
 264  98.09579
 265  252.1679
 266  182.9429
 267  -64.71801
 268  -319.2149
 269  -257.6894
 270  -628.9844
 271  19.96314
 272  239.0746
 273  127.3818
 274  -164.7656
 275  60.97002
 276  -94.80592
 277  -247.5236
 278  63.96077
 279  -16.42147
 280  -94.51407
 281  492.3174
 282  164.9274
 283  193.2129
 284  462.8437
 285  481.1333
 286  191.8417
 287  49.86986
 288  137.8788
 289  329.1703
 290  194.34
 291  324.3384
 292  465.1283
 293  80.44784
 294  -107.6268
 295  -109.4009
 296  166.2608
 297  490.919
 298  563.0682
 299  222.1
 300  62.61343
 301  266.0742
 302  -331.0363
 303  -423.9409
 304  -238.1286
 305  108.6729
 306  -58.86704
 307  249.8216
 308  240.3492
 309  252.4456
 310  298.9821
 311  125.4563
 312  536.2183
 313  628.8224
 314  -70.99281
 315  447.5496
 316  294.4524
 317  103.3296
 318  205.601
 319  52.77957
 320  76.96198
 321  325.749
 322  189.7335
 323  145.6422
 324  -42.65811
 325  -175.1555
 326  208.2338
 327  -304.597
 328  239.8577
 329  158.9311
 330  167.5782
 331  -265.0946
 332  -263.5964
 333  17.81437
 334  95.13396
 335  -25.30618
 336  -397.16
 337  249.1388
 338  642.2223
 339  307.1907
 340  150.2418
 341  -313.6578
 342  -146.8534
 343  107.7165
 344  94.29646
 345  128.3468
 346  -228.5451
 347  41.73764
 348  41.25841
 349  -659.2793
 350  -408.8747
 351  -488.0681
 352  -591.6903
 353  -360.1813
 354  -172.65
 355  276.6944
 356  -531.2295
 357  -356.4815
 358  -275.3491
 359  169.0575
 360  102.3297
 361  -244.8347
 362  -87.05145
 363  -218.5858
 364  -245.9513
 365  -182.2628
 366  -333.2789
 367  170.6718
 368  -145.9211
 369  -477.0045
 370  -98.34872
 371  -47.36245
 372  -4.903514
 373  -103.7341
 374  -347.8336
 375  -28.05293
 376  118.8229
 377  37.50343
 378  23.59793
 379  -158.9084
 380  -154.3631
 381  -102.7316
 382  101.3889
 383  159.2881
 384  -311.3879
 385  -161.1805
 386  6.592865
 387  -88.86792
 388  135.0065
 389  195.1362
 390  -733.0978
 391  -357.1249
 392  -282.7779
 393  -247.8402
 394  -644.6008
 395  -742.5148
 396  -57.40709
 397  -185.4049
 398  19.30103
 399  -495.7302
 400  -363.19
 401  -143.4633
 402  50.17758
 403  -105.596
 404  -106.1359
 405  -106.6123
 406  -248.4654
 407  9.85162
 408  282.1867
 409  294.6559
 410  288.3125
 411  -734.1358
 412  117.102
 413  472.019
 414  352.8801
 415  -151.0011
 416  422.7776
 417  354.3728
 418  -63.38839
 419  -156.4465
 420  -228.2623
 421  165.6984
 422  212.1724
 423  -182.995
 424  -7.366579
 425  -168.683
 426  -886.2203
 427  -660.0283
 428  47.26359
 429  -1.766772
 430  -172.5797
 431  -129.3685
 432  -175.3719
 433  183.3831
 434  -303.5202
 435  -466.4014
 436  13.58907
 437  348.963
 438  111.4785
 439  158.9108
 440  171.839
 441  -113.9755
 442  -28.09689
 443  298.1634
 444  198.1553
 445  48.36787
 446  579.2138
 447  863.4981
 448  771.769
 449  188.1759
 450  313.1698
 451  410.5951
 452  98.76819
 453  -51.92675
 454  476.5024
 455  768.7626
 456  856.5511
 457  429.0664
 458  520.0361
 459  104.2302
 460  202.9019
 461  742.0288
 462  1608.219
 463  1619.542
 464  1163.819
 465  1471.145
 466  806.8029
 467  85.0675
 468  -411.4358
 469  -313.9574
 470  110.9535
 471  93.87493
 472  563.5344
 473  478.9087
 474  2.994445
 475  -420.406
 476  103.1293
 477  182.4538
 478  170.7025
 479  314.4043
 480  623.7449
 481  474.2515
 482  244.9949
 483  158.5719
 484  210.4173
 485  -27.91278
 486  -121.1358
 487  -68.46685
 488  149.2585
 489  41.93575
 490  238.806
 491  660.4724
 492  203.2878
 493  -301.4113
 494  -186.1734
 495  308.8801
 496  415.0561
 497  35.47305
 498  347.467
 499  268.7883
 500  -20.71189
 501  -563.9896
 502  -230.4157
 503  279.5313
 504  723.4659
 505  908.7655
 506  292.7228
 507  451.8735
 508  -137.0534
 509  -288.5605
 510  25.21223
 511  28.89935
