# Input file       =  1188106604.102703_cleaned.dat
# Candidate        =  PSR_0332+5434
# Telescope        =  AR
# Epoch_topo       =  57995.234063688695
# Epoch_bary       =  N/A
# T_sample         =  0.002
# Data Folded      =  7340032
# Data Avg         =  0.0267667563415931
# Data StdDev      =  3.36158258200671 
# Profile Bins     =  512
# Profile Avg      =  383.819134610116 
# Profile StdDev   =  402.492489574913 
# Reduced chi-sqr  =  1.557
# Prob(Noise)      <  9.24e-15   (~7.7 sigma)
# P_topo (ms)      =  714.463712363769  +/- 6.69e-05
# P'_topo (s/s)    =  -0                +/- 3.53e-11
# P''_topo (s/s^2) =  0                 +/- 1.56e-14
# P_bary (ms)      =  N/A
# P'_bary (s/s)    =  N/A
# P''_bary (s/s^2) =  N/A
# P_orb (s)        =  N/A
# asin(i)/c (s)    =  N/A
# eccentricity     =  N/A
# w (rad)          =  N/A
# T_peri           =  N/A
######################################################
   0  293.9261
   1  469.4002
   2  308.5506
   3  55.25711
   4  -184.5476
   5  343.0325
   6  760.1498
   7  861.6849
   8  220.5949
   9  242.3073
  10  714.0797
  11  751.7653
  12  440.2608
  13  433.1618
  14  615.147
  15  1095.284
  16  1009.743
  17  1138.341
  18  265.2812
  19  832.4932
  20  1105.599
  21  779.0822
  22  618.2851
  23  916.1913
  24  913.8094
  25  864.6407
  26  1048.977
  27  773.9825
  28  449.6986
  29  585.0408
  30  1102.894
  31  579.0673
  32  69.56107
  33  919.972
  34  1099.371
  35  906.2834
  36  485.5181
  37  435.485
  38  167.9549
  39  372.6504
  40  288.598
  41  -10.59358
  42  431.2076
  43  42.79748
  44  476.8273
  45  177.1514
  46  154.1008
  47  331.9672
  48  205.6372
  49  -2.237969
  50  371.4281
  51  -123.8882
  52  41.37169
  53  514.2265
  54  371.1172
  55  63.19057
  56  248.1969
  57  568.5597
  58  799.3227
  59  318.6795
  60  413.1208
  61  64.9298
  62  105.2752
  63  -96.74446
  64  -220.5836
  65  -45.62271
  66  617.6169
  67  644.798
  68  695.8645
  69  470.0831
  70  351.107
  71  237.631
  72  81.32899
  73  383.0259
  74  274.6236
  75  51.65465
  76  387.8866
  77  269.6884
  78  129.9304
  79  -6.361854
  80  -37.48825
  81  460.9848
  82  844.1897
  83  303.4535
  84  524.6713
  85  476.9654
  86  422.7168
  87  687.6269
  88  901.1312
  89  1166.184
  90  960.4663
  91  1436.942
  92  914.7945
  93  792.0605
  94  432.7084
  95  596.9583
  96  584.5837
  97  1046.298
  98  608.7997
  99  195.3139
 100  508.437
 101  1244.873
 102  1058.301
 103  62.71448
 104  -162.2739
 105  606.0141
 106  1058.224
 107  612.8804
 108  -95.52396
 109  -90.19004
 110  96.87664
 111  235.0141
 112  398.8207
 113  353.2316
 114  -51.45782
 115  -223.7219
 116  454.9106
 117  477.7349
 118  232.7031
 119  417.8709
 120  342.2225
 121  268.6198
 122  116.0666
 123  292.8388
 124  360.3706
 125  469.292
 126  256.0311
 127  -234.504
 128  -318.7024
 129  -399.8168
 130  131.2277
 131  283.4052
 132  25.58451
 133  -26.60184
 134  238.0424
 135  287.6502
 136  210.616
 137  139.9149
 138  205.3706
 139  515.062
 140  778.7409
 141  719.5587
 142  302.9251
 143  -183.3754
 144  736.588
 145  365.6368
 146  428.1723
 147  392.4622
 148  528.0315
 149  699.1614
 150  476.7202
 151  499.2799
 152  405.6589
 153  422.0605
 154  470.2827
 155  237.1356
 156  577.9521
 157  264.4785
 158  401.1141
 159  324.2367
 160  176.0469
 161  450.4091
 162  583.2861
 163  326.4597
 164  187.979
 165  389.8498
 166  279.9047
 167  187.3644
 168  190.7068
 169  497.2738
 170  34.66275
 171  51.5974
 172  340.849
 173  623.0941
 174  844.8427
 175  422.6691
 176  -74.57016
 177  -5.677195
 178  123.118
 179  300.3489
 180  201.6775
 181  145.8156
 182  85.9498
 183  161.3502
 184  -181.4987
 185  -269.6451
 186  -84.17567
 187  244.4233
 188  198.8615
 189  292.39
 190  33.07255
 191  162.7258
 192  -41.5586
 193  210.5102
 194  211.9902
 195  407.3529
 196  322.0276
 197  400.1048
 198  323.5034
 199  34.78016
 200  -288.6894
 201  394.2656
 202  574.3085
 203  178.919
 204  -264.9676
 205  -17.41086
 206  97.21861
 207  -190.4679
 208  -68.76487
 209  212.3718
 210  10.36882
 211  421.9988
 212  189.1491
 213  131.9618
 214  270.3226
 215  38.21232
 216  435.7106
 217  627.5914
 218  553.6797
 219  259.6941
 220  156.0403
 221  117.4912
 222  300.149
 223  471.8656
 224  239.9296
 225  330.7004
 226  219.7505
 227  -26.07888
 228  420.2255
 229  829.3245
 230  1053.672
 231  580.3675
 232  661.2129
 233  744.4214
 234  801.483
 235  556.1271
 236  686.8459
 237  400.0413
 238  733.8314
 239  603.2996
 240  1024.388
 241  1107.722
 242  285.2471
 243  656.3423
 244  1104.145
 245  654.2184
 246  640.4691
 247  399.5034
 248  565.2237
 249  460.729
 250  318.9185
 251  213.7565
 252  11.83352
 253  338.4219
 254  216.1096
 255  422.0667
 256  186.1505
 257  -298.8506
 258  -258.6469
 259  337.7021
 260  52.41805
 261  -163.8626
 262  339.4091
 263  379.4351
 264  245.8405
 265  272.956
 266  75.02908
 267  283.14
 268  538.8417
 269  -153.7663
 270  -722.1899
 271  -362.9851
 272  73.61578
 273  444.5075
 274  474.3644
 275  708.3927
 276  -97.96042
 277  -213.6288
 278  -144.6295
 279  96.24731
 280  -404.9502
 281  97.8411
 282  46.4823
 283  -32.76394
 284  228.8507
 285  -171.7241
 286  -182.5958
 287  -7.956204
 288  184.0573
 289  133.4467
 290  -268.2137
 291  257.4044
 292  690.2128
 293  616.0638
 294  634.1198
 295  310.3951
 296  555.6872
 297  704.1036
 298  582.9446
 299  476.2807
 300  524.8907
 301  542.5908
 302  904.4456
 303  635.3712
 304  462.1981
 305  579.4415
 306  816.2819
 307  692.6803
 308  822.7815
 309  809.0248
 310  1181.059
 311  884.2604
 312  778.9464
 313  595.009
 314  902.1502
 315  922.8222
 316  1225.068
 317  994.5963
 318  884.9837
 319  900.6033
 320  848.3992
 321  1321.925
 322  1829.785
 323  2075.662
 324  1790.967
 325  1423.416
 326  1122.683
 327  793.7542
 328  604.7326
 329  372.4832
 330  648.9299
 331  527.2198
 332  173.7535
 333  183.5012
 334  -234.4441
 335  -65.11026
 336  358.6136
 337  -372.1337
 338  -138.6935
 339  -119.2594
 340  -128.6486
 341  -159.8708
 342  -99.99008
 343  -103.9721
 344  -117.7231
 345  454.7887
 346  135.1508
 347  -195.5819
 348  -355.2493
 349  218.0805
 350  312.74
 351  748.8464
 352  314.7845
 353  717.3921
 354  428.6748
 355  407.9933
 356  429.523
 357  402.8008
 358  34.5486
 359  214.0501
 360  477.8435
 361  151.6603
 362  36.84504
 363  276.5561
 364  -42.06449
 365  102.5089
 366  289.1505
 367  984.3749
 368  699.5092
 369  476.7604
 370  269.5098
 371  295.2409
 372  320.0124
 373  438.2296
 374  530.6727
 375  532.6284
 376  523.4066
 377  560.1852
 378  982.0482
 379  797.7422
 380  330.7437
 381  748.0226
 382  967.8634
 383  889.861
 384  1299.909
 385  802.5783
 386  449.7446
 387  414.1839
 388  452.1012
 389  490.7676
 390  516.6766
 391  324.8663
 392  571.5452
 393  493.1153
 394  924.3231
 395  641.2658
 396  755.0717
 397  511.3073
 398  584.1202
 399  426.7717
 400  366.53
 401  296.8528
 402  293.1278
 403  193.0661
 404  522.1724
 405  107.3961
 406  77.92663
 407  161.4614
 408  510.7957
 409  391.9881
 410  172.5725
 411  -86.18914
 412  312.3214
 413  246.7901
 414  156.2005
 415  -250.1375
 416  119.3576
 417  339.4912
 418  148.4778
 419  201.2988
 420  394.7641
 421  128.8634
 422  83.12201
 423  374.6099
 424  288.5145
 425  313.9678
 426  502.6158
 427  -48.2811
 428  32.22431
 429  80.73468
 430  163.4201
 431  69.74431
 432  242.971
 433  596.1207
 434  460.8987
 435  334.6311
 436  510.2012
 437  873.1482
 438  417.0322
 439  631.9995
 440  590.5833
 441  526.7407
 442  332.4676
 443  524.6293
 444  373.127
 445  913.3694
 446  150.3027
 447  384.6125
 448  343.9149
 449  234.235
 450  516.9885
 451  433.4268
 452  347.0303
 453  22.02995
 454  -69.94161
 455  445.4656
 456  450.7572
 457  524.0864
 458  18.37022
 459  520.0082
 460  984.7121
 461  589.7986
 462  372.8153
 463  628.6113
 464  1072.934
 465  977.8577
 466  667.4545
 467  -121.0512
 468  426.7343
 469  635.0546
 470  619.9662
 471  810.2259
 472  518.528
 473  682.2699
 474  781.7906
 475  647.4176
 476  120.1347
 477  128.1023
 478  530.9922
 479  515.8158
 480  256.8557
 481  215.2488
 482  -81.75026
 483  -287.4612
 484  485.4001
 485  662.4027
 486  229.0108
 487  -109.4355
 488  226.4283
 489  515.926
 490  721.6461
 491  276.6035
 492  263.6893
 493  231.2343
 494  -113.5491
 495  -142.0888
 496  121.4753
 497  -169.6877
 498  -88.22163
 499  27.4338
 500  64.34853
 501  339.6931
 502  396.2061
 503  181.1892
 504  490.2906
 505  414.2459
 506  349.2711
 507  629.3949
 508  951.5533
 509  781.3948
 510  -79.87257
 511  32.41086
