# Input file       =  1188766390.112221_cleaned.dat
# Candidate        =  PSR_0332+5434
# Telescope        =  AR
# Epoch_topo       =  58002.870475835894
# Epoch_bary       =  N/A
# T_sample         =  0.002
# Data Folded      =  7208960
# Data Avg         =  -0.0186888584994117
# Data StdDev      =  2.69407764691706 
# Profile Bins     =  1024
# Profile Avg      =  -131.576775655602
# Profile StdDev   =  226.045797899523 
# Reduced chi-sqr  =  0.791
# Prob(Noise)      <  1   (~0.0 sigma)
# P_topo (ms)      =  714.464084770796  +/- 0.000498
# P'_topo (s/s)    =  -0                +/- 2.67e-10
# P''_topo (s/s^2) =  0                 +/- 1.2e-13
# P_bary (ms)      =  N/A
# P'_bary (s/s)    =  N/A
# P''_bary (s/s^2) =  N/A
# P_orb (s)        =  N/A
# asin(i)/c (s)    =  N/A
# eccentricity     =  N/A
# w (rad)          =  N/A
# T_peri           =  N/A
######################################################
   0  -113.3413
   1  -46.17332
   2  -61.30783
   3  -244.8372
   4  -321.4297
   5  -271.5923
   6  -172.5812
   7  -139.9237
   8  -100.3096
   9  -36.55844
  10  -10.06713
  11  34.89255
  12  -23.15763
  13  -52.10268
  14  -88.28034
  15  -73.15775
  16  -117.2572
  17  -197.4017
  18  -197.4732
  19  -174.5871
  20  -104.1938
  21  -189.8925
  22  -231.8148
  23  -211.1221
  24  -94.37312
  25  -125.7434
  26  -216.7296
  27  -197.1754
  28  -129.9514
  29  -181.092
  30  -207.628
  31  -101.2589
  32  -79.12281
  33  -103.0188
  34  -137.2948
  35  -221.0605
  36  -166.8324
  37  -163.0108
  38  -9.344902
  39  -33.0438
  40  -29.71494
  41  -144.9817
  42  -181.0392
  43  -246.1281
  44  -190.287
  45  -199.3901
  46  -295.3365
  47  -277.1264
  48  -240.523
  49  -234.0856
  50  -296.2703
  51  -242.7332
  52  -89.56016
  53  -107.2798
  54  -129.2966
  55  -137.2094
  56  -159.9016
  57  -213.6574
  58  -190.4519
  59  -168.9505
  60  -238.0808
  61  -222.1913
  62  -139.7256
  63  -178.24
  64  -177.8472
  65  -111.9871
  66  -26.99532
  67  -84.02213
  68  -158.8097
  69  -165.8795
  70  -104.3185
  71  -114.4417
  72  -157.0119
  73  -198.1575
  74  -136.5915
  75  -45.96138
  76  58.14294
  77  82.13883
  78  -26.02843
  79  -119.4711
  80  -159.9038
  81  -127.4388
  82  -131.2331
  83  -216.5764
  84  -203.2597
  85  -131.2607
  86  -138.5337
  87  -120.263
  88  -134.1641
  89  -70.96806
  90  -38.96317
  91  -9.419019
  92  -31.04319
  93  -168.938
  94  -249.2286
  95  -298.2096
  96  -200.7147
  97  -161.3873
  98  -75.45377
  99  -125.017
 100  -221.9736
 101  -199.2104
 102  -103.7056
 103  -39.33852
 104  -164.0614
 105  -206.2796
 106  -99.63071
 107  5.785103
 108  -139.0041
 109  -280.4672
 110  -286.0835
 111  -147.3252
 112  -103.5141
 113  -109.5719
 114  -141.1696
 115  -163.5883
 116  -202.5765
 117  -95.55701
 118  -141.0043
 119  -200.5127
 120  -282.3588
 121  -314.7375
 122  -267.4342
 123  -263.6081
 124  -165.6759
 125  -130.1084
 126  -137.0359
 127  -75.01514
 128  -106.9315
 129  -120.3515
 130  -182.7356
 131  -201.4913
 132  -172.8295
 133  -206.2704
 134  -190.5136
 135  -227.7951
 136  -232.1241
 137  -272.8129
 138  -183.5217
 139  -148.2072
 140  -120.8438
 141  -155.8236
 142  -46.48395
 143  8.11088
 144  -51.79533
 145  -95.49722
 146  -136.3039
 147  -102.3636
 148  -151.1231
 149  -33.69882
 150  33.8872
 151  50.33172
 152  -117.7143
 153  -85.07365
 154  -50.14182
 155  15.37813
 156  31.18237
 157  -14.28584
 158  -50.49697
 159  -113.658
 160  -131.0937
 161  -131.659
 162  -206.1022
 163  -172.0689
 164  -117.4716
 165  -126.8109
 166  -224.9632
 167  -292.0017
 168  -71.33521
 169  -65.80415
 170  -45.17732
 171  -108.7776
 172  -15.9459
 173  -47.38126
 174  -153.7905
 175  -138.8791
 176  -73.49401
 177  16.32733
 178  104.3544
 179  -38.19347
 180  -272.2511
 181  -423.589
 182  -272.9905
 183  -119.7278
 184  -148.9498
 185  -181.1744
 186  -93.35079
 187  -74.96568
 188  -51.12877
 189  -139.9122
 190  -62.1888
 191  -92.76357
 192  -111.2609
 193  -172.5266
 194  -149.7687
 195  -110.8549
 196  -50.43141
 197  -47.2175
 198  -147.5803
 199  -196.7019
 200  -88.86369
 201  -11.95341
 202  -110.128
 203  -188.1762
 204  -131.5212
 205  -115.2576
 206  -189.9468
 207  -148.4625
 208  -104.0496
 209  -67.54023
 210  -156.8368
 211  -128.9426
 212  -142.6894
 213  -129.4192
 214  -143.0282
 215  -123.2531
 216  -150.4154
 217  -95.53745
 218  -21.34404
 219  -42.27196
 220  -99.67029
 221  -154.5658
 222  -120.0743
 223  -165.4184
 224  -186.4954
 225  -182.9318
 226  -112.6936
 227  34.8647
 228  59.25216
 229  56.42158
 230  21.31466
 231  31.65102
 232  11.36587
 233  -72.70889
 234  -200.4611
 235  -138.7553
 236  -103.5568
 237  -12.69921
 238  -135.6013
 239  -164.7205
 240  -210.2184
 241  -167.1032
 242  -102.0964
 243  2.599363
 244  -18.77484
 245  -184.3324
 246  -272.6883
 247  -318.9766
 248  -281.0742
 249  -244.6389
 250  -105.1697
 251  -31.78175
 252  -85.58974
 253  -214.8512
 254  -236.7958
 255  -39.0242
 256  39.70562
 257  1.164146
 258  -10.80242
 259  57.93008
 260  67.64773
 261  -90.76225
 262  -167.6308
 263  -247.1683
 264  -218.8229
 265  -238.4016
 266  -68.31019
 267  32.30617
 268  81.79498
 269  -53.27642
 270  -111.6824
 271  -181.4264
 272  -232.846
 273  -175.4409
 274  -101.1104
 275  -48.8707
 276  -89.28853
 277  -204.9917
 278  -249.6224
 279  -216.6316
 280  -156.5413
 281  -169.779
 282  -229.6595
 283  -233.3402
 284  -312.4257
 285  -341.4891
 286  -310.7849
 287  -273.7677
 288  -211.4843
 289  -285.7601
 290  -221.2968
 291  -220.8503
 292  -124.3965
 293  -173.3941
 294  -165.1953
 295  -177.042
 296  -70.67757
 297  -65.08543
 298  -50.42063
 299  -158.5445
 300  -142.536
 301  -59.61266
 302  37.83309
 303  -28.58519
 304  -179.5356
 305  -248.4669
 306  -186.786
 307  -167.3989
 308  -67.06999
 309  -24.55663
 310  1.863706
 311  -74.78799
 312  -165.8023
 313  -225.2236
 314  -295.9632
 315  -282.5584
 316  -174.2725
 317  -117.1169
 318  -89.1372
 319  -85.61015
 320  -120.5369
 321  -238.5808
 322  -334.631
 323  -324.6717
 324  -285.3786
 325  -243.8482
 326  -272.0316
 327  -233.8437
 328  -255.8059
 329  -223.7812
 330  -280.2827
 331  -201.2509
 332  -108.3901
 333  -110.048
 334  -155.2488
 335  -200.257
 336  -160.5467
 337  -176.6264
 338  -214.2742
 339  -231.0236
 340  -242.8219
 341  -223.2854
 342  -187.7193
 343  -230.3436
 344  -156.9533
 345  -87.27314
 346  -74.09103
 347  -220.0693
 348  -265.8946
 349  -223.5755
 350  -160.3938
 351  -179.1153
 352  -110.5022
 353  -186.2833
 354  -241.5564
 355  -259.8201
 356  -177.2032
 357  -98.29422
 358  -231.0099
 359  -213.4507
 360  -191.1729
 361  -83.95637
 362  -110.5705
 363  -153.4128
 364  -148.0555
 365  -125.9438
 366  -143.2561
 367  -86.00198
 368  -213.1564
 369  -208.3079
 370  -215.4318
 371  -121.8815
 372  -197.5194
 373  -220.6478
 374  -173.5673
 375  -61.27664
 376  -68.80258
 377  -109.5345
 378  -147.0869
 379  -203.5524
 380  -208.4705
 381  -228.8185
 382  -251.9484
 383  -337.6894
 384  -282.7152
 385  -201.0894
 386  -205.3248
 387  -323.4981
 388  -370.5176
 389  -422.9888
 390  -408.0987
 391  -312.5125
 392  -195.0138
 393  -89.78096
 394  -240.4806
 395  -384.344
 396  -413.9576
 397  -339.4101
 398  -335.3827
 399  -384.8784
 400  -276.7195
 401  -141.9876
 402  -48.17189
 403  6.105392
 404  -36.49963
 405  -99.84542
 406  -99.07012
 407  15.93899
 408  39.28571
 409  -65.95169
 410  -175.1846
 411  -187.8538
 412  -245.3785
 413  -363.281
 414  -397.264
 415  -266.2519
 416  -160.6751
 417  -142.2085
 418  -197.2867
 419  -210.0832
 420  -216.8824
 421  -145.7121
 422  -108.8485
 423  -248.2958
 424  -292.8409
 425  -325.5835
 426  -240.5479
 427  -184.6872
 428  -105.9612
 429  -29.34825
 430  -30.88244
 431  -12.38186
 432  -28.16684
 433  -48.00416
 434  -81.96151
 435  -31.12904
 436  -44.10321
 437  -26.12393
 438  -48.31306
 439  -1.707916
 440  -22.74325
 441  -36.97829
 442  -21.98831
 443  26.87087
 444  129.5241
 445  74.63017
 446  -55.75227
 447  -200.5192
 448  -217.7035
 449  -131.5083
 450  -56.92465
 451  -52.28315
 452  -137.676
 453  -100.3907
 454  -17.88888
 455  -107.5496
 456  -141.7579
 457  -141.8726
 458  40.45364
 459  -57.36389
 460  -43.7721
 461  -182.5614
 462  -120.6662
 463  -148.1213
 464  -124.6248
 465  -115.0615
 466  -98.14056
 467  -181.803
 468  -231.6209
 469  -183.1322
 470  -51.19104
 471  33.10078
 472  28.48696
 473  -53.01624
 474  -131.1611
 475  -128.6468
 476  -113.7672
 477  -37.30297
 478  -16.65101
 479  -33.76203
 480  -59.30491
 481  -168.4588
 482  -111.0094
 483  -70.21352
 484  77.76991
 485  89.57401
 486  59.30899
 487  27.56079
 488  -5.726347
 489  -96.40971
 490  -131.886
 491  -162.1593
 492  -166.0254
 493  -181.8075
 494  -267.5366
 495  -314.1071
 496  -340.5551
 497  -285.7127
 498  -188.9332
 499  -222.0334
 500  -248.1443
 501  -209.7073
 502  -76.11592
 503  -84.55748
 504  -144.4687
 505  -222.0727
 506  -193.6667
 507  -149.9445
 508  -159.5617
 509  -159.8786
 510  -181.1312
 511  -191.8066
 512  -118.8123
 513  -101.6242
 514  -229.3506
 515  -339.987
 516  -250.0636
 517  -53.16494
 518  -31.80533
 519  -193.638
 520  -193.9074
 521  -220.3091
 522  -291.5962
 523  -332.7856
 524  -225.9983
 525  -63.71238
 526  -81.49376
 527  -236.3181
 528  -210.8589
 529  -197.9473
 530  -127.4087
 531  -132.9368
 532  -151.5587
 533  -94.15305
 534  -46.60602
 535  -74.17527
 536  -86.36158
 537  -154.1138
 538  -229.3482
 539  -287.1272
 540  -258.0909
 541  -133.25
 542  -164.8639
 543  -185.259
 544  -111.5384
 545  21.89323
 546  39.30176
 547  -101.0309
 548  -175.0983
 549  -260.9534
 550  -289.6508
 551  -337.2967
 552  -251.0317
 553  -230.4975
 554  -151.6126
 555  -240.1105
 556  -152.4264
 557  -208.3359
 558  -180.7076
 559  -209.8157
 560  -152.1454
 561  -150.5024
 562  -121.8155
 563  -104.7472
 564  -91.73546
 565  -187.8706
 566  -255.8052
 567  -302.0643
 568  -271.9783
 569  -249.996
 570  -88.13576
 571  -49.4794
 572  -50.14347
 573  -78.27913
 574  24.05634
 575  51.67599
 576  31.06569
 577  -21.35027
 578  -32.67342
 579  -267.4319
 580  -316.0349
 581  -289.7414
 582  -175.0681
 583  -167.2655
 584  -168.5309
 585  -68.91189
 586  -108.4816
 587  -194.4502
 588  -236.5316
 589  -212.3396
 590  -194.7589
 591  -138.6235
 592  77.29551
 593  37.46274
 594  -131.5161
 595  -268.8719
 596  -153.1932
 597  25.52774
 598  14.63514
 599  48.24279
 600  -34.38642
 601  -24.63883
 602  31.89163
 603  37.4758
 604  -28.06244
 605  -142.2869
 606  -77.463
 607  -110.7299
 608  -110.5413
 609  -119.2868
 610  -55.37141
 611  -66.24603
 612  -159.3179
 613  -211.3685
 614  -211.4963
 615  -167.7855
 616  -122.604
 617  -31.51739
 618  24.76978
 619  73.41287
 620  -36.98873
 621  -98.68336
 622  -171.7675
 623  -128.1325
 624  -56.74563
 625  -47.39705
 626  -225.4946
 627  -175.3383
 628  -137.4642
 629  2.814129
 630  -121.6257
 631  -104.7724
 632  -59.03101
 633  24.63193
 634  -30.39408
 635  -52.91405
 636  16.62546
 637  95.71659
 638  67.36467
 639  81.48038
 640  157.1136
 641  413.8979
 642  529.1671
 643  641.0063
 644  484.4021
 645  417.8787
 646  349.5424
 647  339.4985
 648  233.246
 649  78.3801
 650  24.79212
 651  63.66325
 652  -9.007668
 653  -82.4632
 654  -129.7438
 655  -29.2606
 656  1.821051
 657  59.67321
 658  14.3365
 659  -75.8895
 660  -182.7806
 661  -234.1897
 662  -71.46516
 663  -47.63026
 664  -4.493222
 665  -38.77573
 666  44.23689
 667  40.75423
 668  3.28838
 669  -37.64401
 670  -42.64587
 671  -53.20584
 672  -28.91136
 673  -56.57539
 674  -61.67578
 675  -163.7945
 676  -184.8103
 677  -94.7648
 678  59.35963
 679  39.48334
 680  -22.40314
 681  -44.37777
 682  -38.61335
 683  -100.8241
 684  -174.1246
 685  -210.774
 686  -164.0432
 687  -29.84274
 688  77.05124
 689  45.63526
 690  -75.58443
 691  -188.9079
 692  -191.7732
 693  -185.0689
 694  -125.4847
 695  -203.4884
 696  -280.4565
 697  -262.7034
 698  -184.5062
 699  -6.350456
 700  35.79917
 701  71.92466
 702  119.9258
 703  57.95296
 704  -74.88851
 705  -238.652
 706  -268.8718
 707  -135.5791
 708  -39.61183
 709  78.55707
 710  63.81793
 711  2.285125
 712  -85.78619
 713  -152.6901
 714  -276.0075
 715  -307.1585
 716  -264.9
 717  -150.1986
 718  -78.51659
 719  -86.07961
 720  -10.10768
 721  12.20917
 722  -156.5882
 723  -278.8981
 724  -247.4225
 725  -51.90739
 726  -65.39481
 727  -107.6718
 728  -205.4442
 729  -103.2846
 730  2.819002
 731  -41.81126
 732  -163.7432
 733  -245.2668
 734  -130.1535
 735  -118.4626
 736  -127.257
 737  -199.1187
 738  -273.5405
 739  -277.6721
 740  -207.6256
 741  -127.7949
 742  -15.15634
 743  -11.82358
 744  -38.37409
 745  11.48417
 746  -27.18415
 747  -121.3028
 748  -250.6855
 749  -249.8291
 750  -206.7824
 751  -191.0639
 752  -104.2859
 753  -68.88974
 754  -144.1635
 755  -253.4637
 756  -194.343
 757  -80.49683
 758  -13.02888
 759  -60.72182
 760  -96.92773
 761  -241.3978
 762  -185.1948
 763  -105.8274
 764  -19.53548
 765  -68.04926
 766  -96.35509
 767  -86.55152
 768  -81.03292
 769  -142.3954
 770  -42.96802
 771  32.83996
 772  -17.39191
 773  -96.16824
 774  -12.98983
 775  73.35672
 776  -1.489915
 777  -109.3501
 778  -175.2343
 779  -206.534
 780  -229.8067
 781  -146.9147
 782  -56.69656
 783  -171.3295
 784  -257.009
 785  -388.1742
 786  -380.7998
 787  -316.5169
 788  -197.0268
 789  -163.9057
 790  -160.7278
 791  -212.582
 792  -216.1175
 793  -172.6782
 794  -160.3943
 795  -153.67
 796  -205.316
 797  -200.5151
 798  -258.1194
 799  -227.0334
 800  -223.6464
 801  -216.2725
 802  -178.0898
 803  -170.2626
 804  -139.6307
 805  -254.4331
 806  -302.5496
 807  -223.6084
 808  -161.7728
 809  -234.8475
 810  -202.949
 811  -125.246
 812  21.75019
 813  -119.9963
 814  -97.54264
 815  -182.2529
 816  -156.7569
 817  -175.9479
 818  -155.4311
 819  -191.7461
 820  -156.4221
 821  -88.94292
 822  -5.043368
 823  -36.98249
 824  -118.2497
 825  -199.5785
 826  -177.9464
 827  -175.6601
 828  -161.5859
 829  -94.74709
 830  16.78402
 831  51.37638
 832  39.36247
 833  -46.13763
 834  -116.2505
 835  -96.88792
 836  -109.6157
 837  -164.5506
 838  -263.047
 839  -218.9777
 840  -90.81392
 841  -19.26557
 842  -37.97094
 843  -139.8014
 844  -312.6537
 845  -284.8253
 846  -183.1557
 847  0.2904844
 848  3.887876
 849  -47.56469
 850  -90.71677
 851  -31.61991
 852  -38.58754
 853  -58.00884
 854  -176.0679
 855  -249.0896
 856  -259.4684
 857  -197.1863
 858  -138.8858
 859  -152.5369
 860  -224.7633
 861  -183.7852
 862  -152.1717
 863  -108.0133
 864  -166.6942
 865  -151.2181
 866  -44.1683
 867  44.28344
 868  -17.73859
 869  -67.11079
 870  -59.81533
 871  -76.19274
 872  -156.178
 873  -78.94019
 874  -122.8297
 875  -228.3991
 876  -258.8256
 877  -130.2039
 878  -136.6625
 879  -119.9748
 880  -33.93032
 881  100.3563
 882  12.27106
 883  -46.88778
 884  -109.9048
 885  -89.57001
 886  -146.9943
 887  -151.3309
 888  -228.9432
 889  -144.4814
 890  -48.28481
 891  -18.50809
 892  -120.1569
 893  -104.9524
 894  -18.6478
 895  -49.84765
 896  -166.6254
 897  -201.0662
 898  -51.72132
 899  -52.83298
 900  -86.0011
 901  -120.9291
 902  -141.3483
 903  -61.43577
 904  45.55105
 905  166.4232
 906  65.16492
 907  -92.33715
 908  -100.8644
 909  -81.79841
 910  -102.6469
 911  -199.7279
 912  -169.7955
 913  -47.06574
 914  -52.49423
 915  -63.37023
 916  13.82247
 917  24.72144
 918  -67.51537
 919  -244.743
 920  -265.4346
 921  -292.2215
 922  -239.7415
 923  -208.7809
 924  -94.5234
 925  -141.6932
 926  -329.6573
 927  -353.4221
 928  -261.4566
 929  -177.9497
 930  -201.3295
 931  -197.1891
 932  -149.0991
 933  -207.0031
 934  -146.0545
 935  -228.5282
 936  -312.4305
 937  -399.7467
 938  -222.5213
 939  -128.2338
 940  -109.487
 941  -110.8798
 942  0.3907375
 943  -94.15794
 944  -194.5355
 945  -261.3387
 946  -166.6288
 947  -138.239
 948  -131.7409
 949  -64.81586
 950  -105.5309
 951  -185.8894
 952  -157.5905
 953  -163.6668
 954  -85.40117
 955  -101.2076
 956  -24.11176
 957  -79.83561
 958  -95.24873
 959  -100.2687
 960  -161.4748
 961  -288.4985
 962  -351.0775
 963  -284.6814
 964  -292.0626
 965  -284.6505
 966  -197.4473
 967  -101.132
 968  -157.8521
 969  -176.885
 970  -250.0646
 971  -236.3983
 972  -239.2032
 973  -140.5825
 974  -74.63789
 975  -161.4125
 976  -140.2946
 977  -163.2416
 978  -151.4987
 979  -241.7588
 980  -330.5032
 981  -247.4209
 982  -207.7414
 983  -170.0647
 984  -223.7078
 985  -258.2319
 986  -233.0282
 987  -143.6109
 988  -63.51513
 989  -54.56558
 990  -172.6143
 991  -224.4289
 992  -216.1304
 993  -168.9431
 994  -126.465
 995  -165.2368
 996  -125.7451
 997  -130.1137
 998  -178.9637
 999  -250.3064
1000  -205.564
1001  -178.379
1002  -193.5141
1003  -127.583
1004  -83.25138
1005  -164.8974
1006  -209.746
1007  -240.2213
1008  -214.3951
1009  -380.3139
1010  -268.5802
1011  -154.6712
1012  -140.6895
1013  -378.7791
1014  -373.9706
1015  -191.3069
1016  -131.253
1017  -132.918
1018  -100.5644
1019  -147.5225
1020  -250.5525
1021  -300.523
1022  -215.1141
1023  -206.9754
