# Input file       =  1188882056.107708_cleaned.dat
# Candidate        =  PSR_0332+5434
# Telescope        =  AR
# Epoch_topo       =  58004.209202635509
# Epoch_bary       =  N/A
# T_sample         =  0.002
# Data Folded      =  7340032
# Data Avg         =  0.00753716456138221
# Data StdDev      =  1.00002771564467 
# Profile Bins     =  512
# Profile Avg      =  108.085804603949 
# Profile StdDev   =  119.736354855058 
# Reduced chi-sqr  =  1.103
# Prob(Noise)      <  0.0526   (~1.6 sigma)
# P_topo (ms)      =  714.464653217015  +/- 0.000118
# P'_topo (s/s)    =  -0                +/- 6.25e-11
# P''_topo (s/s^2) =  0                 +/- 2.76e-14
# P_bary (ms)      =  N/A
# P'_bary (s/s)    =  N/A
# P''_bary (s/s^2) =  N/A
# P_orb (s)        =  N/A
# asin(i)/c (s)    =  N/A
# eccentricity     =  N/A
# w (rad)          =  N/A
# T_peri           =  N/A
######################################################
   0  99.78051
   1  112.0423
   2  241.5572
   3  193.75
   4  -73.00563
   5  -1.625202
   6  62.06726
   7  107.9616
   8  115.5706
   9  162.4811
  10  161.5054
  11  -29.0534
  12  66.37022
  13  141.7026
  14  3.903672
  15  23.23122
  16  80.16172
  17  -10.96992
  18  126.2875
  19  212.6054
  20  192.218
  21  106.108
  22  55.22025
  23  53.96675
  24  123.1607
  25  129.6065
  26  127.6135
  27  62.46573
  28  -13.08286
  29  72.92075
  30  205.1742
  31  101.7861
  32  49.70905
  33  87.46644
  34  61.36496
  35  144.9109
  36  179.197
  37  138.9537
  38  28.28834
  39  1.392908
  40  143.5809
  41  80.75631
  42  104.0307
  43  145.1714
  44  122.2956
  45  78.73051
  46  101.3594
  47  -14.91997
  48  17.01069
  49  163.3556
  50  69.31143
  51  61.76853
  52  52.74899
  53  85.53851
  54  97.38714
  55  109.3393
  56  1.317466
  57  -10.83969
  58  136.0381
  59  103.5197
  60  -10.61803
  61  -50.83931
  62  36.25592
  63  45.10548
  64  35.37815
  65  75.25149
  66  104.8624
  67  141.2456
  68  59.35537
  69  -18.84338
  70  -4.207988
  71  -9.081138
  72  -5.103184
  73  170.489
  74  35.85534
  75  109.6583
  76  88.79817
  77  96.75256
  78  207.1359
  79  127.479
  80  52.98458
  81  -13.16835
  82  102.5588
  83  109.3474
  84  122.9856
  85  60.18055
  86  25.35398
  87  221.2544
  88  118.8411
  89  129.9327
  90  101.2422
  91  118.332
  92  79.01528
  93  71.88715
  94  50.71526
  95  -88.41386
  96  54.6735
  97  205.2795
  98  131.9761
  99  179.9281
 100  154.4364
 101  145.6871
 102  125.4427
 103  229.6112
 104  252.3446
 105  91.36103
 106  82.72083
 107  68.81127
 108  -13.66548
 109  -174.0947
 110  -41.73668
 111  39.059
 112  93.80636
 113  198.761
 114  119.3655
 115  233.1067
 116  154.3397
 117  106.4137
 118  123.6823
 119  56.85134
 120  137.4701
 121  181.7614
 122  196.1527
 123  147.8513
 124  112.4916
 125  224.1653
 126  435.9318
 127  620.9823
 128  605.3106
 129  471.594
 130  300.982
 131  225.7035
 132  85.44625
 133  197.1201
 134  166.1296
 135  285.1882
 136  278.0831
 137  72.92844
 138  83.21026
 139  21.9766
 140  137.3017
 141  140.5314
 142  175.0177
 143  115.037
 144  205.6537
 145  121.4067
 146  154.0725
 147  192.1993
 148  156.5527
 149  174.3937
 150  79.6694
 151  221.3873
 152  127.812
 153  174.3401
 154  71.83905
 155  178.8917
 156  217.4467
 157  87.14641
 158  129.3404
 159  288.4035
 160  199.3288
 161  155.0402
 162  301.2276
 163  247.5806
 164  288.3721
 165  212.6044
 166  203.6665
 167  31.58441
 168  115.0837
 169  174.1711
 170  99.50788
 171  91.93503
 172  115.7774
 173  180.0463
 174  261.8953
 175  331.3087
 176  253.4756
 177  247.7397
 178  128.2825
 179  224.7808
 180  254.9735
 181  200.5016
 182  278.9839
 183  201.867
 184  248.3464
 185  62.90696
 186  12.90151
 187  27.89029
 188  26.31847
 189  64.56348
 190  70.94215
 191  172.2887
 192  19.62704
 193  58.35481
 194  226.9446
 195  214.5945
 196  161.9297
 197  150.46
 198  119.4024
 199  79.52082
 200  102.602
 201  159.1266
 202  115.4501
 203  98.00761
 204  131.2395
 205  117.269
 206  116.2028
 207  37.80181
 208  -28.72732
 209  146.2718
 210  296.107
 211  145.2314
 212  114.3064
 213  36.84953
 214  134.8323
 215  39.63329
 216  130.8065
 217  151.6494
 218  65.65057
 219  37.07219
 220  75.72818
 221  105.0957
 222  199.3086
 223  161.7512
 224  147.8466
 225  47.21854
 226  94.72707
 227  4.168798
 228  -20.64106
 229  82.54815
 230  -9.796788
 231  45.82041
 232  102.4671
 233  82.12035
 234  96.52058
 235  -82.64753
 236  52.81152
 237  259.3718
 238  193.3342
 239  77.66619
 240  95.84607
 241  175.5242
 242  193.4406
 243  170.5979
 244  199.6184
 245  120.9316
 246  6.70627
 247  45.74038
 248  61.93562
 249  16.46708
 250  7.237602
 251  72.20393
 252  103.0375
 253  229.3016
 254  87.86777
 255  66.00295
 256  -9.228506
 257  66.51863
 258  78.0063
 259  121.8096
 260  161.3855
 261  52.87284
 262  29.47738
 263  7.719924
 264  -15.05038
 265  40.83001
 266  126.0339
 267  80.01057
 268  -27.1164
 269  13.63954
 270  39.71875
 271  25.65412
 272  180.7885
 273  35.78903
 274  15.2615
 275  16.65216
 276  -126.218
 277  -123.1682
 278  -49.4165
 279  69.01095
 280  176.9411
 281  161.0004
 282  140.7215
 283  49.36457
 284  75.34373
 285  83.98137
 286  42.66482
 287  18.23613
 288  89.15106
 289  29.88321
 290  94.66088
 291  145.9191
 292  129.0285
 293  -17.48879
 294  53.5815
 295  22.02986
 296  91.22157
 297  13.33859
 298  23.85993
 299  5.702275
 300  50.67577
 301  59.39486
 302  10.89209
 303  26.63476
 304  104.684
 305  104.3563
 306  93.66733
 307  111.8694
 308  223.3938
 309  188.8716
 310  53.5104
 311  83.43311
 312  120.8937
 313  -19.24824
 314  10.21981
 315  138.7787
 316  68.23339
 317  64.75664
 318  198.8713
 319  216.2278
 320  85.96295
 321  167.6924
 322  167.8192
 323  101.5418
 324  -10.44189
 325  26.42325
 326  125.504
 327  142.4736
 328  247.0219
 329  211.4442
 330  131.6177
 331  49.14646
 332  138.4485
 333  51.38076
 334  -56.01293
 335  86.18078
 336  124.6849
 337  197.716
 338  55.00756
 339  57.50067
 340  69.69751
 341  171.9913
 342  133.1496
 343  -84.3603
 344  6.624595
 345  88.53275
 346  170.7363
 347  347.1055
 348  286.3174
 349  70.55375
 350  -23.07602
 351  46.90213
 352  177.7606
 353  105.3945
 354  82.50549
 355  231.1131
 356  181.6266
 357  106.6156
 358  9.138835
 359  99.4391
 360  65.5441
 361  291.7598
 362  225.0795
 363  88.82476
 364  21.35575
 365  259.6865
 366  258.1286
 367  126.9983
 368  -29.21302
 369  -47.42104
 370  52.88782
 371  91.98447
 372  187.2782
 373  254.08
 374  195.1784
 375  16.2021
 376  132.3575
 377  125.0006
 378  118.0211
 379  94.55831
 380  126.8881
 381  119.4
 382  174.1594
 383  131.6467
 384  53.16058
 385  37.0714
 386  78.37724
 387  41.26865
 388  -23.64446
 389  140.0172
 390  285.3565
 391  311.0278
 392  111.0486
 393  19.66809
 394  158.1755
 395  207.6846
 396  143.8515
 397  197.873
 398  155.067
 399  -1.444611
 400  117.3541
 401  122.4098
 402  -31.80648
 403  -27.74427
 404  112.1998
 405  56.19848
 406  -14.75305
 407  89.11073
 408  155.2333
 409  145.6814
 410  81.09701
 411  114.7606
 412  84.4157
 413  191.662
 414  229.3561
 415  167.0557
 416  29.35357
 417  -2.564448
 418  128.2834
 419  204.601
 420  42.16492
 421  134.1849
 422  234.0303
 423  161.4637
 424  76.53082
 425  4.515377
 426  58.99282
 427  136.7658
 428  38.91467
 429  34.47128
 430  -62.94032
 431  99.91262
 432  219.2798
 433  240.9614
 434  132.3704
 435  170.5836
 436  191.9643
 437  255.4508
 438  150.4274
 439  27.90507
 440  20.06338
 441  158.6755
 442  95.40932
 443  72.82528
 444  113.2102
 445  98.75841
 446  86.36639
 447  131.1917
 448  26.23682
 449  -13.05131
 450  26.72756
 451  24.65807
 452  114.5694
 453  232.7205
 454  340.0483
 455  240.7399
 456  211.4218
 457  55.67063
 458  59.20965
 459  152.2706
 460  12.62655
 461  87.53792
 462  195.4338
 463  77.93037
 464  99.74491
 465  122.1889
 466  147.9914
 467  84.37054
 468  110.8707
 469  133.7113
 470  163.2202
 471  216.0847
 472  209.5618
 473  41.14582
 474  -21.98901
 475  -72.45084
 476  26.11275
 477  111.0266
 478  152.3034
 479  210.9135
 480  155.5504
 481  117.9713
 482  148.1386
 483  152.0864
 484  52.17091
 485  128.8511
 486  136.8458
 487  62.50206
 488  163.1992
 489  164.3835
 490  -16.34057
 491  23.64075
 492  120.8345
 493  -4.593603
 494  -42.05059
 495  -66.90991
 496  65.3624
 497  121.7048
 498  137.1382
 499  151.145
 500  198.2746
 501  164.8272
 502  40.15908
 503  -17.61697
 504  -33.12484
 505  -38.74325
 506  71.95531
 507  0.7629533
 508  157.1433
 509  158.0481
 510  98.90827
 511  88.41714
