# Input file       =  1188421806.120907_cleaned.dat
# Candidate        =  PSR_0332+5434
# Telescope        =  AR
# Epoch_topo       =  57998.882235195684
# Epoch_bary       =  N/A
# T_sample         =  0.002
# Data Folded      =  7143424
# Data Avg         =  0.0533276673421315
# Data StdDev      =  3.32997218865785 
# Profile Bins     =  256
# Profile Avg      =  1488.30094041025 
# Profile StdDev   =  556.25488505177  
# Reduced chi-sqr  =  0.809
# Prob(Noise)      <  0.989   (~0.0 sigma)
# P_topo (ms)      =  714.463591781784  +/- 0.000127
# P'_topo (s/s)    =  -0                +/- 6.9e-11
# P''_topo (s/s^2) =  0                 +/- 3.13e-14
# P_bary (ms)      =  N/A
# P'_bary (s/s)    =  N/A
# P''_bary (s/s^2) =  N/A
# P_orb (s)        =  N/A
# asin(i)/c (s)    =  N/A
# eccentricity     =  N/A
# w (rad)          =  N/A
# T_peri           =  N/A
######################################################
   0  1949.838
   1  898.3796
   2  1831.274
   3  1297.542
   4  1184.562
   5  1744.329
   6  1778.529
   7  1331.178
   8  982.3071
   9  1845.194
  10  1754.308
  11  1514.791
  12  713.2656
  13  1641.828
  14  1011.867
  15  1627.637
  16  1546.892
  17  2004.481
  18  1455.049
  19  1510.759
  20  1037.697
  21  1063.249
  22  1883.378
  23  1965.631
  24  911.1185
  25  839.9644
  26  1377.834
  27  1989.302
  28  890.2185
  29  750.4474
  30  1164.894
  31  2234.089
  32  1644.587
  33  1257.661
  34  2109.99
  35  2210.408
  36  1560.506
  37  1636.597
  38  1308.843
  39  1756.951
  40  1972.201
  41  1706.886
  42  1283.058
  43  1678.35
  44  1948.972
  45  1469.583
  46  1137.958
  47  1605.198
  48  2052.094
  49  1170.398
  50  1594.471
  51  1378.968
  52  1337.424
  53  1318.1
  54  923.1817
  55  1210.76
  56  1709.94
  57  1720.267
  58  1523.308
  59  1700.143
  60  1826.187
  61  1189.7
  62  1052.832
  63  1643.499
  64  1515.251
  65  1089.705
  66  1365.182
  67  1484.219
  68  1858.5
  69  1428.375
  70  1095.52
  71  1278.659
  72  1956.61
  73  1631.29
  74  1681.752
  75  740.9874
  76  1377.779
  77  1177.617
  78  1395.005
  79  752.8188
  80  736.4337
  81  1536.364
  82  1377.311
  83  1119.326
  84  1279.634
  85  1877.778
  86  1146.863
  87  1408.9
  88  903.0432
  89  1736.101
  90  1549.914
  91  1364.937
  92  1282.691
  93  1183.16
  94  1901.87
  95  838.7059
  96  1500.85
  97  1600.315
  98  1591.869
  99  1948.349
 100  1891.582
 101  1370.414
 102  1325.981
 103  1268.999
 104  853.4028
 105  1608.535
 106  1699.681
 107  1560.791
 108  1320.423
 109  1036.765
 110  1197.932
 111  1551.23
 112  1307.399
 113  1899.517
 114  1318.573
 115  1273.777
 116  1870.864
 117  1529.897
 118  1254.389
 119  1383.953
 120  1713.371
 121  1263.974
 122  1640.175
 123  1019.261
 124  1213.275
 125  1722.883
 126  1649.081
 127  1979.373
 128  1735.927
 129  1430.063
 130  1471.94
 131  702.7879
 132  1324.232
 133  1465.242
 134  1523.531
 135  1017.517
 136  1135.411
 137  1517.336
 138  1749.228
 139  1656.496
 140  1616.947
 141  1757.284
 142  1944.048
 143  1474.693
 144  1508.569
 145  1136.744
 146  1732.996
 147  1593.742
 148  1852.179
 149  1853.109
 150  1397.88
 151  1628.065
 152  1654.458
 153  1171.123
 154  1088.695
 155  1963.43
 156  1449.022
 157  1680.671
 158  1935.824
 159  1989.056
 160  3125.205
 161  4079.349
 162  3569.984
 163  1913.737
 164  1369.113
 165  817.7188
 166  1639.326
 167  2241.944
 168  2422.818
 169  2216.979
 170  1704.081
 171  1479.116
 172  1015.261
 173  1598.082
 174  1488.565
 175  1490.125
 176  867.2618
 177  1397.187
 178  1336.846
 179  2118.548
 180  2006.531
 181  1738.45
 182  1670.809
 183  1104.979
 184  1389.973
 185  971.1008
 186  1515.903
 187  1847.571
 188  1766.111
 189  1281.908
 190  1386.138
 191  1331.391
 192  2136.656
 193  2089.315
 194  1671.25
 195  980.6482
 196  1529.218
 197  2082.654
 198  1235.833
 199  1941.222
 200  2030.42
 201  1525.552
 202  1561.381
 203  1797.385
 204  1339.371
 205  1862.344
 206  1642.251
 207  1150.187
 208  1221.86
 209  944.4918
 210  1759.889
 211  1888.901
 212  1408.698
 213  1327.734
 214  1142.419
 215  1585.707
 216  1917.756
 217  1224.572
 218  1244.75
 219  1277.474
 220  1214.204
 221  2018.693
 222  1306.122
 223  1120.756
 224  1285.646
 225  1265.511
 226  1738.608
 227  973.9069
 228  1389.402
 229  1956.349
 230  1120.062
 231  1112.767
 232  1017.692
 233  1542.909
 234  1696.715
 235  616.275
 236  385.5691
 237  1527.485
 238  1805.625
 239  1238.484
 240  1420.615
 241  1221.151
 242  1208.541
 243  626.3033
 244  1002.12
 245  1196.031
 246  1776.546
 247  1713.235
 248  750.8503
 249  2075.523
 250  1441.679
 251  1198.14
 252  696.6447
 253  1674.86
 254  1372.363
 255  907.3159
