# Input file       =  1188766390.112221_cleaned.dat
# Candidate        =  PSR_0332+5434
# Telescope        =  AR
# Epoch_topo       =  58002.870475835894
# Epoch_bary       =  N/A
# T_sample         =  0.002
# Data Folded      =  7208960
# Data Avg         =  0.00255131647170701
# Data StdDev      =  0.999991841175335
# Profile Bins     =  512
# Profile Avg      =  35.915776297855  
# Profile StdDev   =  118.65820767412  
# Reduced chi-sqr  =  1.145
# Prob(Noise)      <  0.0129   (~2.2 sigma)
# P_topo (ms)      =  714.464083873297  +/- 0.000168
# P'_topo (s/s)    =  -0                +/- 9.05e-11
# P''_topo (s/s^2) =  0                 +/- 4.07e-14
# P_bary (ms)      =  N/A
# P'_bary (s/s)    =  N/A
# P''_bary (s/s^2) =  N/A
# P_orb (s)        =  N/A
# asin(i)/c (s)    =  N/A
# eccentricity     =  N/A
# w (rad)          =  N/A
# T_peri           =  N/A
######################################################
   0  563.9998
   1  497.3118
   2  265.5229
   3  155.3695
   4  71.85596
   5  87.72399
   6  220.2597
   7  121.8864
   8  1.092307
   9  101.0818
  10  149.285
  11  193.5159
  12  112.946
  13  103.8697
  14  99.04388
  15  55.70192
  16  62.64132
  17  196.8047
  18  130.9884
  19  89.05309
  20  16.99867
  21  75.98025
  22  197.9921
  23  23.87325
  24  -13.80009
  25  -3.677912
  26  -39.35908
  27  115.1547
  28  172.8386
  29  188.0205
  30  -7.418301
  31  6.533831
  32  190.8166
  33  174.1054
  34  53.17277
  35  -134.9674
  36  -9.185148
  37  79.70598
  38  101.5641
  39  -97.72678
  40  33.00586
  41  65.05755
  42  36.36711
  43  121.9175
  44  1.720745
  45  20.10311
  46  -38.32897
  47  -58.19347
  48  51.8946
  49  109.0792
  50  122.3044
  51  88.63224
  52  -6.706152
  53  5.659286
  54  75.47663
  55  -34.98922
  56  49.95364
  57  121.7406
  58  -40.56841
  59  61.8061
  60  120.3448
  61  109.7724
  62  64.93896
  63  156.8527
  64  59.3693
  65  121.7863
  66  60.23501
  67  7.450353
  68  3.070759
  69  10.28076
  70  -144.8098
  71  -113.7849
  72  15.48668
  73  24.15286
  74  -9.563788
  75  8.892515
  76  -8.358166
  77  -78.59374
  78  -57.1815
  79  11.82447
  80  -55.26769
  81  -29.98279
  82  -43.76698
  83  17.73427
  84  77.63538
  85  13.44325
  86  64.6908
  87  42.29364
  88  96.45911
  89  116.4617
  90  -0.4248666
  91  -14.87663
  92  80.16646
  93  210.2394
  94  118.904
  95  36.99326
  96  45.19965
  97  -40.71853
  98  105.3224
  99  76.8549
 100  -67.51591
 101  81.12981
 102  100.9514
 103  91.69182
 104  94.25584
 105  -63.12673
 106  -36.86556
 107  9.73421
 108  -5.698165
 109  23.58635
 110  -44.83691
 111  155.4159
 112  121.2437
 113  50.95057
 114  15.11292
 115  -4.352802
 116  -16.58647
 117  45.04084
 118  199.6455
 119  113.4579
 120  36.28346
 121  -18.80029
 122  25.01567
 123  129.4844
 124  66.18327
 125  110.9006
 126  10.5462
 127  121.166
 128  67.33432
 129  106.6482
 130  297.1832
 131  164.6856
 132  101.5519
 133  52.33484
 134  103.3214
 135  110.6347
 136  171.4351
 137  -51.34098
 138  -81.62052
 139  -55.90589
 140  26.15871
 141  -139.2059
 142  -64.0228
 143  -41.32641
 144  7.610882
 145  -47.64375
 146  -193.2262
 147  -35.14893
 148  85.31107
 149  136.4404
 150  -22.84103
 151  8.115261
 152  27.55242
 153  -33.29255
 154  3.411875
 155  99.07088
 156  108.2319
 157  55.54078
 158  -75.55968
 159  -84.95602
 160  -86.50043
 161  5.913709
 162  -9.578584
 163  -113.4844
 164  -51.14173
 165  3.58504
 166  46.18794
 167  -63.9123
 168  -91.00326
 169  -34.60688
 170  -44.48732
 171  25.74272
 172  42.88755
 173  -50.49525
 174  0.9256231
 175  23.8867
 176  1.532873
 177  -78.50115
 178  -60.12663
 179  -33.61485
 180  15.61149
 181  -15.37324
 182  -122.5406
 183  -35.66222
 184  -86.80653
 185  -43.82549
 186  -20.83401
 187  -21.72175
 188  -70.07494
 189  6.33784
 190  70.26613
 191  4.202186
 192  -51.86359
 193  -27.88562
 194  49.68962
 195  128.3648
 196  84.07935
 197  43.10056
 198  -19.74332
 199  -21.05727
 200  17.0258
 201  -88.97823
 202  16.44491
 203  -6.385709
 204  -13.94059
 205  -21.14372
 206  29.46177
 207  39.2368
 208  74.92447
 209  106.7753
 210  7.336282
 211  -87.21962
 212  -34.4082
 213  -77.04745
 214  -65.45426
 215  -40.70195
 216  34.43975
 217  70.02007
 218  -4.903011
 219  -25.97936
 220  -51.76928
 221  23.32463
 222  61.50657
 223  52.94083
 224  33.10205
 225  86.04093
 226  29.78621
 227  105.6798
 228  194.5483
 229  57.245
 230  0.1915542
 231  -7.203009
 232  17.59359
 233  28.74987
 234  106.251
 235  137.7703
 236  61.29853
 237  -63.8938
 238  18.05445
 239  10.55374
 240  -20.70147
 241  88.43391
 242  -3.273319
 243  81.89086
 244  -86.30542
 245  -29.896
 246  70.55293
 247  46.57833
 248  76.547
 249  -11.19333
 250  -115.9034
 251  -42.31088
 252  34.06573
 253  56.67306
 254  -17.37035
 255  18.78888
 256  25.62823
 257  -3.639649
 258  -67.88865
 259  17.13002
 260  -49.85889
 261  99.43717
 262  69.83643
 263  66.68468
 264  93.87786
 265  158.9535
 266  84.66783
 267  98.02278
 268  98.08324
 269  38.30556
 270  33.93666
 271  13.48623
 272  73.35184
 273  8.69239
 274  104.1807
 275  64.25948
 276  107.6315
 277  46.70505
 278  163.5155
 279  182.1371
 280  -128.3648
 281  3.325836
 282  -19.21781
 283  92.90389
 284  67.90803
 285  49.00909
 286  -21.43201
 287  37.83094
 288  104.4017
 289  -31.87334
 290  108.2522
 291  22.00825
 292  34.55676
 293  -12.45107
 294  51.94223
 295  63.37822
 296  32.69092
 297  29.01482
 298  46.89894
 299  156.9194
 300  96.15907
 301  16.6087
 302  4.59072
 303  144.2659
 304  194.4038
 305  161.4225
 306  31.27903
 307  -19.62753
 308  77.57861
 309  7.136736
 310  -18.02932
 311  104.5997
 312  -4.860558
 313  -68.91943
 314  -39.93193
 315  121.603
 316  -4.554489
 317  73.60276
 318  180.1067
 319  177.6286
 320  96.24845
 321  -36.56361
 322  -19.5004
 323  155.5184
 324  117.3443
 325  18.91226
 326  -22.96978
 327  76.43816
 328  -50.79546
 329  -55.06578
 330  -25.17572
 331  -60.49625
 332  -83.02118
 333  -47.52626
 334  -104.137
 335  -9.879131
 336  18.3417
 337  19.76966
 338  87.90784
 339  50.446
 340  132.3789
 341  114.1821
 342  -37.89858
 343  29.73786
 344  126.5554
 345  102.8738
 346  -47.08487
 347  -45.80732
 348  60.17729
 349  77.82956
 350  -36.39353
 351  -129.1691
 352  -89.16741
 353  -48.65013
 354  -43.68511
 355  -4.303945
 356  63.71381
 357  17.71435
 358  25.47282
 359  -47.9795
 360  -31.43985
 361  -40.29572
 362  56.10175
 363  -24.44822
 364  -68.98595
 365  16.61367
 366  49.17866
 367  -53.08695
 368  7.617475
 369  -5.303246
 370  24.38806
 371  36.72943
 372  26.52817
 373  30.99054
 374  -37.92001
 375  20.75231
 376  -3.461912
 377  79.6711
 378  38.27234
 379  -16.02349
 380  -6.420313
 381  -120.2736
 382  -17.21155
 383  -89.43182
 384  -190.2403
 385  -172.2624
 386  -14.84337
 387  -130.195
 388  -148.4072
 389  -136.2406
 390  -3.438985
 391  157.3646
 392  57.81744
 393  41.89418
 394  61.72021
 395  5.516902
 396  -136.9779
 397  -105.5663
 398  8.957351
 399  -35.50054
 400  34.29494
 401  -27.42723
 402  -91.70407
 403  2.646527
 404  117.5423
 405  155.4618
 406  139.4579
 407  145.784
 408  143.6684
 409  114.0843
 410  110.2826
 411  147.6983
 412  158.8311
 413  11.68566
 414  54.83533
 415  127.0328
 416  94.0389
 417  76.09839
 418  16.21251
 419  108.1298
 420  54.62985
 421  63.19486
 422  91.32662
 423  5.357214
 424  -58.09942
 425  107.9732
 426  67.22363
 427  54.45082
 428  120.478
 429  134.2697
 430  25.98853
 431  90.02856
 432  228.7622
 433  181.5065
 434  93.28557
 435  21.76693
 436  8.015454
 437  -109.5801
 438  -104.9468
 439  -24.34437
 440  -1.829542
 441  68.16202
 442  -8.91966
 443  17.74696
 444  -1.708999
 445  -13.02754
 446  31.54226
 447  -109.6159
 448  49.27289
 449  -12.20342
 450  -96.43312
 451  -152.8009
 452  49.62214
 453  -19.70389
 454  13.17862
 455  71.33097
 456  117.2099
 457  161.206
 458  46.06955
 459  -90.29248
 460  31.14711
 461  27.47035
 462  116.4004
 463  103.2799
 464  -33.25982
 465  -70.14358
 466  -43.109
 467  6.042256
 468  -3.350628
 469  36.11543
 470  81.16718
 471  78.61909
 472  49.26905
 473  -40.15337
 474  -88.28252
 475  76.50415
 476  80.51599
 477  161.1825
 478  131.3705
 479  -72.86249
 480  -111.469
 481  -21.15301
 482  56.61044
 483  -33.74272
 484  -95.91351
 485  0.7147673
 486  180.935
 487  0.1905506
 488  141.2968
 489  179.6272
 490  171.9293
 491  170.4949
 492  13.99194
 493  55.70852
 494  31.67543
 495  34.71862
 496  -61.65773
 497  1.218061
 498  113.0852
 499  134.6706
 500  37.77315
 501  39.01851
 502  89.81377
 503  -18.98989
 504  109.6397
 505  102.3427
 506  168.7567
 507  127.6465
 508  176.6888
 509  213.849
 510  453.662
 511  698.8873
