# Input file       =  1188091689.111320-PSRB0329-2ms-sampling-dd.dat
# Candidate        =  PSR_0332+5434
# Telescope        =  AR
# Epoch_topo       =  57995.061436473610
# Epoch_bary       =  N/A
# T_sample         =  0.002
# Data Folded      =  7340032
# Data Avg         =  -5.68621966790437e-10
# Data StdDev      =  3.41239545865002 
# Profile Bins     =  512
# Profile Avg      =  0.407347659611508
# Profile StdDev   =  408.576469582455 
# Reduced chi-sqr  =  1.348
# Prob(Noise)      <  2.23e-07   (~5.0 sigma)
# P_topo (ms)      =  714.463372076286  +/- 0.000578
# P'_topo (s/s)    =  -0                +/- 3.05e-10
# P''_topo (s/s^2) =  0                 +/- 1.35e-13
# P_bary (ms)      =  N/A
# P'_bary (s/s)    =  N/A
# P''_bary (s/s^2) =  N/A
# P_orb (s)        =  N/A
# asin(i)/c (s)    =  N/A
# eccentricity     =  N/A
# w (rad)          =  N/A
# T_peri           =  N/A
######################################################
   0  -418.6328
   1  -306.3536
   2  -125.053
   3  -326.0768
   4  -484.1953
   5  -589.0167
   6  -265.8203
   7  -286.2099
   8  -605.961
   9  -569.9549
  10  -317.9768
  11  -336.5654
  12  -309.5628
  13  -679.2953
  14  -783.0685
  15  -486.5105
  16  -230.3168
  17  -399.2757
  18  -115.9569
  19  91.41823
  20  -12.0175
  21  -104.0391
  22  -203.528
  23  70.0264
  24  -45.81673
  25  -288.4597
  26  -269.1117
  27  -227.7673
  28  -198.1024
  29  -331.7474
  30  -240.1862
  31  -136.4836
  32  44.40362
  33  -503.959
  34  -764.3869
  35  -312.3014
  36  -91.52096
  37  -411.0467
  38  -230.7552
  39  333.4967
  40  -303.8619
  41  -385.6165
  42  -419.8853
  43  -134.6636
  44  51.59306
  45  -23.34593
  46  -278.521
  47  -457.7059
  48  -351.2337
  49  -223.2472
  50  159.6531
  51  347.1116
  52  255.1373
  53  -109.4727
  54  -186.1149
  55  -295.213
  56  -200.2936
  57  -66.25552
  58  -42.03857
  59  76.3569
  60  311.5024
  61  457.0577
  62  -5.116575
  63  -175.6751
  64  -481.4308
  65  -425.987
  66  -381.2574
  67  -175.6599
  68  -282.4965
  69  -191.2984
  70  -82.986
  71  -300.6365
  72  -195.355
  73  -479.0533
  74  -478.5847
  75  -744.8503
  76  -547.165
  77  -348.0258
  78  -353.6976
  79  -669.0406
  80  -280.0363
  81  -188.896
  82  -195.7588
  83  -77.61459
  84  -27.9266
  85  90.46969
  86  277.713
  87  -77.83221
  88  -439.7443
  89  -354.4571
  90  -297.7906
  91  -427.6859
  92  -456.0336
  93  -373.9813
  94  285.0261
  95  -219.4149
  96  -355.5154
  97  -298.0253
  98  -311.9305
  99  -268.8316
 100  -409.0564
 101  -226.1342
 102  -236.0107
 103  -431.9818
 104  -387.5734
 105  -225.7477
 106  -61.24003
 107  -438.2709
 108  -221.7949
 109  -422.2891
 110  -410.8712
 111  -529.3748
 112  -201.0755
 113  -367.0227
 114  -599.4579
 115  -385.2935
 116  -294.7304
 117  -574.5797
 118  -419.5039
 119  -142.4274
 120  188.481
 121  96.73131
 122  -56.68004
 123  -69.32544
 124  -59.60351
 125  -19.22128
 126  -350.2369
 127  -77.7062
 128  -105.4085
 129  -288.6441
 130  -493.8169
 131  -358.9348
 132  -180.6782
 133  -62.79217
 134  -290.893
 135  3.914543
 136  10.21633
 137  -215.9482
 138  -421.7301
 139  -387.9893
 140  -207.271
 141  -300.0499
 142  1.650082
 143  -143.8892
 144  -254.3049
 145  -593.0677
 146  -198.7111
 147  47.82418
 148  -90.89438
 149  -18.76851
 150  -67.48322
 151  2.759491
 152  -379.9747
 153  -357.5922
 154  -264.0352
 155  -277.1982
 156  -441.8689
 157  -583.571
 158  -139.8108
 159  -214.1242
 160  -174.8062
 161  -456.433
 162  -279.7286
 163  -153.1763
 164  -262.6511
 165  217.5907
 166  16.8735
 167  -111.7733
 168  -160.1339
 169  -328.078
 170  -360.9936
 171  -481.3513
 172  -583.9167
 173  -490.234
 174  -227.6968
 175  -241.7329
 176  -219.743
 177  78.7358
 178  55.01482
 179  -246.4963
 180  -204.0622
 181  158.379
 182  53.04165
 183  -59.55425
 184  128.1023
 185  58.71696
 186  206.1478
 187  301.5508
 188  350.0014
 189  343.6617
 190  56.24886
 191  -77.003
 192  66.3843
 193  143.5421
 194  193.9618
 195  -310.7312
 196  -403.5737
 197  -258.8485
 198  74.19174
 199  -54.02235
 200  -4.535069
 201  37.07373
 202  -151.8064
 203  53.48257
 204  -223.1716
 205  -104.057
 206  150.9096
 207  118.5559
 208  140.8383
 209  53.83665
 210  202.878
 211  245.1053
 212  276.6938
 213  433.446
 214  635.2284
 215  57.28063
 216  -77.72531
 217  271.7265
 218  537.1628
 219  630.9125
 220  419.8355
 221  362.7914
 222  304.1317
 223  486.4449
 224  757.9568
 225  567.708
 226  399.811
 227  318.3988
 228  226.334
 229  -132.4036
 230  -117.1541
 231  286.4793
 232  104.2682
 233  -125.9138
 234  -11.33129
 235  732.6179
 236  880.2033
 237  639.5894
 238  427.3774
 239  343.4586
 240  254.2254
 241  -95.48906
 242  462.8969
 243  494.5713
 244  619.3692
 245  581.6835
 246  282.9711
 247  564.8218
 248  820.9179
 249  653.7312
 250  511.7984
 251  424.5023
 252  421.2065
 253  251.2115
 254  268.4623
 255  422.1277
 256  620.1302
 257  410.4596
 258  600.5345
 259  413.7719
 260  192.7188
 261  101.0898
 262  391.7559
 263  595.7824
 264  485.2841
 265  234.9783
 266  3.621026
 267  287.1079
 268  386.9976
 269  112.0009
 270  -102.6278
 271  224.5882
 272  526.1147
 273  355.753
 274  92.4925
 275  44.16274
 276  197.7347
 277  322.5965
 278  176.3112
 279  363.9755
 280  299.75
 281  301.3247
 282  179.8138
 283  381.5391
 284  516.5767
 285  439.9758
 286  410.5006
 287  156.6484
 288  169.1908
 289  342.7575
 290  434.8965
 291  544.1983
 292  300.5124
 293  137.1938
 294  100.2893
 295  495.7632
 296  660.7888
 297  339.92
 298  -109.6487
 299  -189.473
 300  163.2827
 301  97.06282
 302  -162.5454
 303  -210.8842
 304  -106.5495
 305  27.09985
 306  41.81837
 307  421.1549
 308  34.48432
 309  73.46965
 310  -91.15906
 311  -144.4203
 312  -110.3064
 313  -199.9607
 314  13.96414
 315  191.7716
 316  282.3058
 317  360.2068
 318  27.81025
 319  581.2754
 320  164.0881
 321  -78.1161
 322  258.3237
 323  37.33429
 324  65.58586
 325  968.588
 326  1545.098
 327  1550.442
 328  691.8037
 329  1281.89
 330  536.1107
 331  -446.3916
 332  410.7772
 333  386.413
 334  54.58123
 335  155.7138
 336  -7.237655
 337  -180.8741
 338  -280.7636
 339  -370.2646
 340  -220.3837
 341  124.153
 342  -58.56094
 343  -383.4572
 344  -222.8454
 345  -207.2662
 346  -274.5782
 347  -221.4318
 348  343.5535
 349  399.7814
 350  -164.1622
 351  -215.2978
 352  -243.541
 353  -125.9952
 354  -185.9992
 355  145.3732
 356  261.4907
 357  -130.365
 358  1.37308
 359  -153.2681
 360  -209.6439
 361  -126.4711
 362  75.65442
 363  416.8535
 364  368.2869
 365  -202.1394
 366  -411.4628
 367  -526.9938
 368  -68.87137
 369  -144.9893
 370  -111.7431
 371  -7.765911
 372  55.91582
 373  39.18464
 374  73.371
 375  -182.7675
 376  -187.6401
 377  -229.226
 378  12.99943
 379  -77.21043
 380  212.3751
 381  322.1268
 382  152.2526
 383  -28.04901
 384  136.3421
 385  536.582
 386  213.2722
 387  189.5507
 388  17.02683
 389  234.9914
 390  40.20605
 391  -313.5253
 392  0.1422144
 393  -228.3077
 394  -345.9601
 395  -270.842
 396  -402.2195
 397  -97.27197
 398  -34.28444
 399  3.034192
 400  200.9222
 401  -14.52321
 402  -371.5946
 403  -481.7141
 404  -68.8924
 405  51.4489
 406  190.4138
 407  429.2462
 408  447.3174
 409  118.9741
 410  -369.587
 411  -230.1508
 412  -397.6187
 413  -109.0732
 414  238.7413
 415  5.060055
 416  -78.10311
 417  43.2135
 418  141.7809
 419  207.5401
 420  225.1016
 421  210.0396
 422  139.5486
 423  -132.8742
 424  38.94016
 425  304.6689
 426  258.6524
 427  229.776
 428  -29.46191
 429  -140.4052
 430  -11.22139
 431  -373.4951
 432  -10.22161
 433  118.4391
 434  237.9265
 435  95.85489
 436  94.29933
 437  139.9453
 438  178.6969
 439  65.98829
 440  148.321
 441  207.736
 442  268.9169
 443  296.5999
 444  490.5755
 445  775.0052
 446  1267.004
 447  1223.145
 448  1590.644
 449  989.4149
 450  571.3062
 451  179.7974
 452  364.9399
 453  365.2629
 454  -87.39677
 455  -72.63077
 456  -51.82002
 457  -43.68712
 458  139.7611
 459  448.989
 460  418.8649
 461  32.72446
 462  -220.1697
 463  -187.1559
 464  -225.5835
 465  55.0652
 466  -168.356
 467  -392.5409
 468  -583.0937
 469  -345.6222
 470  -270.9397
 471  -206.5892
 472  101.2095
 473  -127.2228
 474  -45.17299
 475  -219.5689
 476  -216.4524
 477  317.4041
 478  -27.37764
 479  -182.4362
 480  -186.9297
 481  -35.03327
 482  188.6251
 483  -60.04563
 484  -277.4648
 485  -239.4799
 486  -81.5732
 487  -275.7605
 488  -126.3461
 489  385.2612
 490  179.6002
 491  111.6021
 492  -107.3188
 493  26.96852
 494  224.2891
 495  35.53273
 496  -375.6403
 497  -157.6162
 498  33.44599
 499  52.9558
 500  55.90883
 501  -33.19214
 502  -154.8893
 503  -368.5936
 504  -154.5896
 505  4.364141
 506  257.4277
 507  122.6562
 508  -60.2933
 509  -272.7614
 510  -25.34793
 511  -234.3026
