# Input file       =  1188795939.110369-PSRB0329-2ms-sampling-dd.dat
# Candidate        =  PSR_0332+5434
# Telescope        =  AR
# Epoch_topo       =  58003.212478129273
# Epoch_bary       =  N/A
# T_sample         =  0.002
# Data Folded      =  7340032
# Data Avg         =  3.66429882204128e-10
# Data StdDev      =  11.0068536848277 
# Profile Bins     =  512
# Profile Avg      =  -0.130879187926478
# Profile StdDev   =  1317.88401263922 
# Reduced chi-sqr  =  0.459
# Prob(Noise)      <  1   (~0.0 sigma)
# P_topo (ms)      =  714.46448761604   +/- 0.00246
# P'_topo (s/s)    =  -0                +/- 1.3e-09
# P''_topo (s/s^2) =  0                 +/- 5.73e-13
# P_bary (ms)      =  N/A
# P'_bary (s/s)    =  N/A
# P''_bary (s/s^2) =  N/A
# P_orb (s)        =  N/A
# asin(i)/c (s)    =  N/A
# eccentricity     =  N/A
# w (rad)          =  N/A
# T_peri           =  N/A
######################################################
   0  -1179.147
   1  -1304.292
   2  -1473.55
   3  -1457.967
   4  -1150.889
   5  -1075.518
   6  -1338.49
   7  -1370.005
   8  -1167.426
   9  -1069.532
  10  -658.9974
  11  -769.6897
  12  -623.8098
  13  -372.9511
  14  -168.6741
  15  -885.0296
  16  -1194.843
  17  -1023.672
  18  -1028.53
  19  -703.8344
  20  -612.4243
  21  -1047.672
  22  -1245.206
  23  -1133.708
  24  -1152.69
  25  -1021.071
  26  -551.0995
  27  -645.8598
  28  217.7754
  29  892.8627
  30  647.5363
  31  184.8762
  32  -134.8962
  33  -88.30322
  34  26.39725
  35  514.2221
  36  356.746
  37  200.8262
  38  210.5567
  39  -257.7568
  40  -292.1542
  41  -33.74181
  42  547.3806
  43  765.6708
  44  491.8534
  45  475.1626
  46  328.2097
  47  427.2416
  48  131.9426
  49  164.6514
  50  -126.7875
  51  103.066
  52  392.181
  53  -0.1661606
  54  621.4351
  55  277.9312
  56  287.4784
  57  236.6846
  58  -293.9054
  59  -465.5258
  60  30.79012
  61  197.4902
  62  245.3546
  63  398.2828
  64  672.9338
  65  -96.66702
  66  -145.2458
  67  -311.9846
  68  186.0913
  69  270.9712
  70  32.68652
  71  -125.2058
  72  -161.4702
  73  -566.2416
  74  -429.2465
  75  -367.2343
  76  -281.6227
  77  -37.75563
  78  -34.04965
  79  -113.2022
  80  380.6778
  81  -50.4391
  82  -1.014215
  83  54.97857
  84  118.7694
  85  173.9332
  86  -135.0896
  87  143.1402
  88  212.6739
  89  83.7974
  90  -227.5634
  91  155.0544
  92  -260.8463
  93  -559.1443
  94  -27.25758
  95  119.4599
  96  106.5743
  97  9.66756
  98  481.2444
  99  -68.92006
 100  -36.59097
 101  408.6482
 102  545.4942
 103  238.511
 104  152.3017
 105  265.4024
 106  -127.7469
 107  -154.3629
 108  -159.4273
 109  -447.0756
 110  -344.1817
 111  74.66055
 112  83.72597
 113  -416.5007
 114  -543.1664
 115  -149.9488
 116  3.395018
 117  558.4612
 118  195.2011
 119  54.89203
 120  126.2015
 121  50.48689
 122  -116.9906
 123  -222.2819
 124  -339.4703
 125  -351.2321
 126  -394.6846
 127  -251.2301
 128  360.5555
 129  -47.35211
 130  42.71491
 131  176.737
 132  -118.397
 133  -41.92886
 134  -388.439
 135  95.64443
 136  266.1016
 137  35.82851
 138  265.7524
 139  -109.0866
 140  -65.32521
 141  -29.60615
 142  213.7452
 143  396.2246
 144  607.7569
 145  530.2892
 146  300.5386
 147  -89.33649
 148  -570.6851
 149  -509.929
 150  -286.7077
 151  62.23714
 152  -4.547274
 153  5.940528
 154  -95.89369
 155  -592.3117
 156  -367.5461
 157  -118.0226
 158  -510.7123
 159  -670.0334
 160  -534.8134
 161  -324.8705
 162  171.1959
 163  581.397
 164  518.9763
 165  305.3002
 166  462.7093
 167  6.691545
 168  183.0659
 169  250.4585
 170  755.5381
 171  841.6091
 172  530.2458
 173  471.7036
 174  -197.9407
 175  -994.5515
 176  -897.3677
 177  -316.1862
 178  -356.7148
 179  269.443
 180  275.5435
 181  -32.55163
 182  114.6493
 183  134.1892
 184  17.29378
 185  -311.608
 186  -151.3566
 187  499.6119
 188  28.28378
 189  -406.5029
 190  -450.499
 191  -202.7615
 192  -66.93456
 193  112.6848
 194  -1.537493
 195  -247.9645
 196  -305.1913
 197  176.4424
 198  -288.3184
 199  200.255
 200  88.6844
 201  375.1228
 202  466.7736
 203  -291.0579
 204  41.53529
 205  311.3963
 206  -108.5225
 207  -172.6703
 208  127.3299
 209  29.52502
 210  263.3059
 211  -172.3374
 212  205.472
 213  556.5508
 214  34.92494
 215  181.9696
 216  30.7571
 217  120.3225
 218  -621.501
 219  -811.5563
 220  84.06917
 221  -145.8704
 222  -149.6091
 223  128.8238
 224  215.1892
 225  -213.5861
 226  -170.9388
 227  -115.7941
 228  320.8036
 229  197.9845
 230  477.0218
 231  275.0042
 232  135.1168
 233  663.2571
 234  696.184
 235  932.5576
 236  983.0666
 237  1014.077
 238  1362.16
 239  788.0708
 240  526.2278
 241  740.5972
 242  670.2325
 243  12.78967
 244  496.5273
 245  473.3516
 246  770.9738
 247  635.9872
 248  333.3331
 249  219.0153
 250  270.4153
 251  601.9202
 252  601.3689
 253  896.5854
 254  829.0475
 255  431.7268
 256  513.1712
 257  555.3694
 258  -7.067552
 259  153.0461
 260  553.5247
 261  1136.69
 262  827.311
 263  233.8241
 264  480.7976
 265  428.5581
 266  1089.043
 267  1062.04
 268  980.4009
 269  954.6255
 270  1240.348
 271  1050.882
 272  892.8397
 273  904.1751
 274  1054.168
 275  1320.255
 276  1178.359
 277  643.3917
 278  539.9403
 279  658.8907
 280  653.2048
 281  1165.833
 282  1076.681
 283  1199.993
 284  1284.776
 285  924.4604
 286  1061.633
 287  1451.106
 288  1260.542
 289  595.4529
 290  379.9947
 291  970.4081
 292  977.1132
 293  896.0498
 294  930.0342
 295  1183.272
 296  1557.946
 297  1140.385
 298  1041.994
 299  435.4652
 300  1186.015
 301  1544.064
 302  983.7048
 303  1104.394
 304  641.3671
 305  1085.016
 306  932.59
 307  823.3099
 308  775.6434
 309  245.4817
 310  308.9252
 311  618.4917
 312  944.6784
 313  984.7782
 314  804.0206
 315  508.3979
 316  922.3171
 317  462.4093
 318  568.8509
 319  1178.4
 320  2107.293
 321  1501.969
 322  973.9548
 323  1027.777
 324  1057.853
 325  436.8046
 326  990.2476
 327  1141.71
 328  1318.94
 329  1233.075
 330  1107.753
 331  1244.077
 332  911.0968
 333  1034.694
 334  1110.008
 335  1560.363
 336  1189.444
 337  1216.822
 338  772.941
 339  579.5404
 340  1076.368
 341  1496.603
 342  1643.923
 343  1136.19
 344  864.9078
 345  -580.5746
 346  -114.2741
 347  -288.699
 348  -431.7655
 349  -381.7616
 350  -421.6655
 351  -546.7057
 352  -415.5654
 353  171.2008
 354  -394.7555
 355  -341.4039
 356  -759.6892
 357  -304.2159
 358  27.45668
 359  -138.2349
 360  -316.782
 361  -191.3379
 362  -289.8373
 363  51.94718
 364  -270.566
 365  34.06761
 366  -110.1523
 367  238.284
 368  237.1248
 369  -139.8742
 370  -183.3736
 371  -608.3903
 372  -484.1234
 373  -596.7407
 374  -329.1666
 375  193.659
 376  50.79202
 377  -120.726
 378  -440.7276
 379  -895.6166
 380  -1064.248
 381  -618.6436
 382  -568.0645
 383  -320.1436
 384  -772.382
 385  -306.0461
 386  -576.2339
 387  -543.3376
 388  -384.1494
 389  -218.2232
 390  -375.2844
 391  -244.2341
 392  -484.0919
 393  -838.9191
 394  -572.6024
 395  -433.9167
 396  -396.3461
 397  74.18826
 398  -91.43517
 399  -274.9933
 400  -155.9475
 401  -57.71994
 402  -420.1942
 403  -267.3784
 404  -486.5938
 405  -336.9081
 406  -439.7378
 407  -112.9644
 408  -101.9316
 409  -78.76327
 410  -228.3119
 411  -400.1303
 412  -631.898
 413  -685.7354
 414  -1225.732
 415  -1291.847
 416  -1441.484
 417  -948.5977
 418  -565.4023
 419  -819.1927
 420  -570.7076
 421  -642.8001
 422  -795.2966
 423  -677.4532
 424  -728.4033
 425  -509.9513
 426  -459.7502
 427  -532.6422
 428  -922.8641
 429  -639.7421
 430  -519.2473
 431  -270.033
 432  -462.3631
 433  -786.6784
 434  -761.5324
 435  -1062.114
 436  -1051.293
 437  -999.1937
 438  -916.6554
 439  -493.3573
 440  -38.18842
 441  180.8034
 442  -12.24563
 443  606.7448
 444  919.1577
 445  526.5586
 446  384.3587
 447  228.3459
 448  -243.6257
 449  -300.9321
 450  -119.0868
 451  -360.5615
 452  -537.8384
 453  -694.3938
 454  -730.2892
 455  -784.6758
 456  -531.1856
 457  -108.1337
 458  -455.7472
 459  -201.9893
 460  -191.7777
 461  -464.6689
 462  -747.345
 463  -631.2185
 464  -668.2339
 465  -751.8951
 466  -172.1006
 467  -174.0717
 468  -461.7184
 469  -397.7582
 470  135.4274
 471  -128.6817
 472  -1136.146
 473  -1220.706
 474  -841.1694
 475  -317.0458
 476  -248.7395
 477  -511.5122
 478  -695.2557
 479  -794.079
 480  -653.6794
 481  -138.2699
 482  -601.9297
 483  -555.2634
 484  -388.9061
 485  -578.3303
 486  -892.8792
 487  -824.8419
 488  -418.9276
 489  -624.2032
 490  -420.1887
 491  -370.2572
 492  -493.5953
 493  -848.4868
 494  -1041.028
 495  -395.3523
 496  -836.7545
 497  -987.7851
 498  -773.8337
 499  -319.4526
 500  -474.7639
 501  -732.7008
 502  -879.6751
 503  -1079.312
 504  -1105.683
 505  -1091.533
 506  -1070.574
 507  -821.5059
 508  -968.1757
 509  -1062.619
 510  -882.5166
 511  -797.9248
