# Input file       =  1188278963.107433_cleaned.dat
# Candidate        =  PSR_0332+5434
# Telescope        =  AR
# Epoch_topo       =  57997.228959576772
# Epoch_bary       =  N/A
# T_sample         =  0.002
# Data Folded      =  7340032
# Data Avg         =  0.0101110358241669
# Data StdDev      =  1.00003406284783 
# Profile Bins     =  512
# Profile Avg      =  144.998274913621 
# Profile StdDev   =  119.737114824964 
# Reduced chi-sqr  =  1.266
# Prob(Noise)      <  4.03e-05   (~3.9 sigma)
# P_topo (ms)      =  714.463811356324  +/- 0.000129
# P'_topo (s/s)    =  -0                +/- 6.83e-11
# P''_topo (s/s^2) =  0                 +/- 3.02e-14
# P_bary (ms)      =  N/A
# P'_bary (s/s)    =  N/A
# P''_bary (s/s^2) =  N/A
# P_orb (s)        =  N/A
# asin(i)/c (s)    =  N/A
# eccentricity     =  N/A
# w (rad)          =  N/A
# T_peri           =  N/A
######################################################
   0  72.15211
   1  115.2698
   2  153.4836
   3  56.45047
   4  52.23466
   5  -124.3463
   6  -118.4882
   7  49.9007
   8  149.6735
   9  245.598
  10  61.24106
  11  -2.192304
  12  66.38614
  13  91.04915
  14  203.4056
  15  232.8466
  16  185.8859
  17  82.74746
  18  144.1178
  19  136.0875
  20  92.99935
  21  70.07715
  22  112.176
  23  177.7364
  24  277.1979
  25  277.3722
  26  83.44547
  27  38.69729
  28  -6.309715
  29  55.31118
  30  120.149
  31  128.2035
  32  -28.89014
  33  43.30127
  34  147.5002
  35  21.65056
  36  100.3618
  37  65.21922
  38  -17.80716
  39  52.49751
  40  64.59408
  41  169.1951
  42  128.2438
  43  258.3959
  44  287.8934
  45  48.46725
  46  63.88531
  47  226.0182
  48  284.1853
  49  169.1287
  50  141.2129
  51  249.0956
  52  272.5975
  53  196.2155
  54  121.0651
  55  63.35446
  56  161.9189
  57  222.7085
  58  239.3628
  59  213.4152
  60  54.32827
  61  -15.4275
  62  96.51147
  63  255.9894
  64  265.2766
  65  235.8528
  66  200.7155
  67  263.7367
  68  138.2378
  69  140.3793
  70  108.7817
  71  149.6089
  72  147.6372
  73  187.4845
  74  122.8068
  75  111.0453
  76  129.8677
  77  182.9594
  78  125.5913
  79  -43.2595
  80  30.95208
  81  118.6734
  82  98.23341
  83  19.66429
  84  54.5534
  85  150.6448
  86  221.3007
  87  230.8668
  88  -39.08854
  89  -34.95858
  90  90.26743
  91  183.0876
  92  92.89047
  93  54.60602
  94  62.48004
  95  39.85761
  96  78.54288
  97  204.2215
  98  92.60044
  99  84.34749
 100  75.71438
 101  74.90596
 102  -64.27655
 103  105.5224
 104  124.7711
 105  172.9337
 106  162.6606
 107  130.8294
 108  55.24584
 109  58.35863
 110  109.5252
 111  206.6161
 112  124.7475
 113  145.4086
 114  105.3018
 115  74.39168
 116  87.52028
 117  86.01118
 118  264.5525
 119  319.5093
 120  249.0039
 121  218.9989
 122  202.2213
 123  172.131
 124  68.1349
 125  92.41149
 126  191.9594
 127  108.0759
 128  164.0983
 129  148.5752
 130  189.0027
 131  135.4821
 132  256.3496
 133  309.1635
 134  255.5352
 135  142.436
 136  140.0019
 137  204.1147
 138  116.8255
 139  101.8597
 140  189.6546
 141  143.4621
 142  306.5077
 143  206.4678
 144  75.85361
 145  77.35365
 146  155.095
 147  218.3238
 148  247.3384
 149  223.9701
 150  160.7545
 151  63.16475
 152  110.6907
 153  128.9391
 154  159.735
 155  254.966
 156  225.6927
 157  226.9407
 158  120.4214
 159  195.5289
 160  241.833
 161  36.49143
 162  -3.064464
 163  -0.5475069
 164  162.3284
 165  340.8788
 166  215.0342
 167  325.8199
 168  384.9384
 169  205.8812
 170  68.795
 171  145.4881
 172  196.6209
 173  136.2142
 174  96.91341
 175  169.8149
 176  73.74645
 177  228.3892
 178  151.5778
 179  133.0114
 180  206.9832
 181  272.1566
 182  264.9888
 183  385.4871
 184  279.3703
 185  130.8746
 186  205.9251
 187  305.2384
 188  108.5533
 189  183.9191
 190  108.9357
 191  85.39471
 192  205.9124
 193  297.9965
 194  118.415
 195  143.1649
 196  294.6139
 197  219.6512
 198  123.7799
 199  74.94522
 200  129.8949
 201  292.0968
 202  188.1587
 203  178.992
 204  188.7511
 205  79.39674
 206  106.0291
 207  181.9163
 208  240.5453
 209  156.1636
 210  257.4552
 211  170.325
 212  119.7255
 213  189.2641
 214  257.4174
 215  163.8356
 216  133.3378
 217  113.7877
 218  19.67915
 219  65.35022
 220  89.21377
 221  275.8362
 222  248.696
 223  58.90339
 224  56.523
 225  91.83402
 226  132.3784
 227  196.0357
 228  112.7168
 229  125.5755
 230  172.7165
 231  178.3866
 232  218.32
 233  182.4884
 234  228.9366
 235  206.0002
 236  178.3819
 237  188.6995
 238  173.0357
 239  187.0521
 240  49.01098
 241  33.21204
 242  305.9977
 243  372.8582
 244  192.5831
 245  156.3419
 246  177.3189
 247  122.6404
 248  144.8056
 249  163.6098
 250  265.7585
 251  156.2188
 252  195.2647
 253  175.0061
 254  200.1086
 255  294.8616
 256  171.4888
 257  140.5682
 258  83.97863
 259  178.0823
 260  223.9118
 261  24.88134
 262  -38.59754
 263  159.9663
 264  204.9704
 265  104.1131
 266  275.5571
 267  405.513
 268  257.8559
 269  146.3152
 270  207.3515
 271  167.6897
 272  246.1825
 273  288.2197
 274  261.338
 275  307.4815
 276  212.5683
 277  139.8808
 278  151.8815
 279  137.0896
 280  204.9653
 281  230.6047
 282  312.6542
 283  258.692
 284  268.5271
 285  404.5006
 286  260.7526
 287  40.52972
 288  15.63937
 289  120.9866
 290  159.9609
 291  154.2241
 292  76.90838
 293  125.308
 294  187.5309
 295  213.6448
 296  262.2389
 297  190.5014
 298  155.022
 299  170.6284
 300  97.0756
 301  136.9275
 302  243.1984
 303  490.2844
 304  578.9629
 305  560.6321
 306  652.7217
 307  482.257
 308  322.813
 309  204.5724
 310  59.64153
 311  22.07211
 312  164.9128
 313  137.161
 314  212.4501
 315  230.5715
 316  223.2014
 317  204.3035
 318  252.8968
 319  242.45
 320  153.6689
 321  278.3721
 322  131.2624
 323  111.3936
 324  249.7357
 325  249.2773
 326  170.4364
 327  134.7892
 328  110.1079
 329  63.34787
 330  53.27046
 331  204.2152
 332  120.065
 333  57.60425
 334  16.5171
 335  164.867
 336  149.2365
 337  132.7055
 338  211.1137
 339  174.0572
 340  249.943
 341  200.0915
 342  63.88912
 343  133.9361
 344  206.4438
 345  272.7479
 346  275.615
 347  173.8082
 348  105.0423
 349  125.1578
 350  199.6742
 351  127.2315
 352  143.1168
 353  78.03015
 354  79.89001
 355  221.411
 356  308.8622
 357  240.8795
 358  68.21957
 359  75.95724
 360  114.4913
 361  8.10673
 362  88.74843
 363  59.74691
 364  129.9319
 365  -11.32847
 366  -39.36965
 367  21.47902
 368  28.00996
 369  73.69711
 370  -48.36373
 371  -30.11861
 372  71.98867
 373  21.93322
 374  -30.30595
 375  33.9325
 376  223.5231
 377  84.56033
 378  159.4305
 379  222.6728
 380  150.2061
 381  76.0457
 382  45.28646
 383  99.95194
 384  101.9215
 385  53.44088
 386  125.6697
 387  -33.16515
 388  99.92927
 389  -47.80679
 390  -9.140514
 391  29.57674
 392  75.12463
 393  71.55437
 394  13.40274
 395  125.4093
 396  165.1921
 397  146.4525
 398  236.2237
 399  187.4229
 400  170.2594
 401  131.6741
 402  -0.3602631
 403  153.5551
 404  178.3698
 405  185.3688
 406  121.6434
 407  1.456495
 408  -17.60634
 409  134.311
 410  152.0249
 411  215.2441
 412  147.5607
 413  92.86785
 414  252.2117
 415  125.8327
 416  23.4303
 417  168.6185
 418  182.053
 419  152.771
 420  167.1265
 421  340.2523
 422  286.4356
 423  259.7936
 424  118.3773
 425  44.57334
 426  248.1421
 427  192.8689
 428  119.8584
 429  283.7278
 430  215.9722
 431  214.2095
 432  128.6983
 433  136.6383
 434  133.526
 435  29.62069
 436  -17.92954
 437  72.55902
 438  43.1609
 439  69.96188
 440  -17.60785
 441  -19.18516
 442  125.3275
 443  63.23064
 444  56.11085
 445  73.79511
 446  52.00183
 447  15.10937
 448  57.97577
 449  92.1087
 450  149.0397
 451  280.5107
 452  121.4082
 453  152.8564
 454  114.226
 455  146.5382
 456  105.456
 457  27.15422
 458  138.4868
 459  215.493
 460  119.5931
 461  133.9417
 462  119.9483
 463  -18.23191
 464  -8.886112
 465  38.03439
 466  73.21175
 467  42.67131
 468  54.89953
 469  -59.22437
 470  6.40354
 471  51.70788
 472  179.5419
 473  170.1473
 474  99.1941
 475  126.0356
 476  55.12901
 477  35.62198
 478  111.735
 479  65.95941
 480  133.8082
 481  213.2166
 482  139.6835
 483  54.88653
 484  325.156
 485  290.3181
 486  222.6717
 487  59.18564
 488  129.7802
 489  -18.63968
 490  -7.205721
 491  172.4473
 492  192.1074
 493  167.7894
 494  260.2906
 495  208.8174
 496  99.03271
 497  92.2268
 498  159.336
 499  220.2995
 500  60.90823
 501  -72.76226
 502  73.73468
 503  166.051
 504  82.96925
 505  107.4813
 506  68.88699
 507  80.62753
 508  71.93283
 509  1.991403
 510  172.554
 511  149.9118
