# Input file       =  1188594055.109037_cleaned.dat
# Candidate        =  PSR_0332+5434
# Telescope        =  AR
# Epoch_topo       =  58000.875857743486
# Epoch_bary       =  N/A
# T_sample         =  0.002
# Data Folded      =  7143424
# Data Avg         =  0.0166890080788949
# Data StdDev      =  1.00005032520406 
# Profile Bins     =  512
# Profile Avg      =  232.792741358692 
# Profile StdDev   =  118.124528823735 
# Reduced chi-sqr  =  1.478
# Prob(Noise)      <  1.05e-11   (~6.7 sigma)
# P_topo (ms)      =  714.463806615618  +/- 0.000204
# P'_topo (s/s)    =  -0                +/- 1.11e-10
# P''_topo (s/s^2) =  0                 +/- 5.02e-14
# P_bary (ms)      =  N/A
# P'_bary (s/s)    =  N/A
# P''_bary (s/s^2) =  N/A
# P_orb (s)        =  N/A
# asin(i)/c (s)    =  N/A
# eccentricity     =  N/A
# w (rad)          =  N/A
# T_peri           =  N/A
######################################################
   0  888.8359
   1  960.2582
   2  778.2117
   3  562.3088
   4  426.8041
   5  456.4668
   6  461.2394
   7  355.8847
   8  281.0018
   9  277.1748
  10  271.3775
  11  301.5858
  12  424.0935
  13  310.5762
  14  133.27
  15  257.9741
  16  245.2471
  17  184.9801
  18  265.5514
  19  193.3542
  20  168.2198
  21  261.1666
  22  221.625
  23  183.384
  24  165.3448
  25  145.1873
  26  116.3062
  27  257.0175
  28  307.8504
  29  176.6854
  30  135.1485
  31  145.7993
  32  384.2632
  33  394.2379
  34  293.4384
  35  277.5893
  36  229.8453
  37  293.6212
  38  264.4639
  39  237.6284
  40  276.243
  41  276.7517
  42  290.4576
  43  249.5558
  44  230.4122
  45  208.6803
  46  152.3476
  47  108.3544
  48  60.11688
  49  134.8198
  50  211.8106
  51  192.4362
  52  260.2727
  53  224.9364
  54  191.8795
  55  250.5768
  56  223.1528
  57  178.294
  58  98.89239
  59  125.0369
  60  124.835
  61  135.5371
  62  235.0374
  63  339.5266
  64  291.9238
  65  222.3082
  66  240.271
  67  293.8993
  68  349.7942
  69  231.1531
  70  211.459
  71  161.5987
  72  168.6528
  73  118.3579
  74  231.3502
  75  274.8525
  76  191.2749
  77  290.0304
  78  232.8404
  79  135.8185
  80  148.6744
  81  252.1982
  82  164.7795
  83  176.7662
  84  178.8089
  85  259.4234
  86  215.7198
  87  -4.009604
  88  66.54642
  89  286.7808
  90  219.1404
  91  203.8293
  92  170.7276
  93  202.1085
  94  255.103
  95  269.8837
  96  334.0893
  97  174.6599
  98  129.9467
  99  229.2917
 100  277.7962
 101  294.9998
 102  233.9252
 103  291.8392
 104  199.8209
 105  19.57003
 106  167.644
 107  191.5017
 108  234.1998
 109  215.36
 110  235.1672
 111  179.8286
 112  286.0093
 113  317.2785
 114  286.07
 115  238.08
 116  226.861
 117  183.1404
 118  74.45318
 119  193.733
 120  201.7037
 121  185.7595
 122  149.5542
 123  205.9129
 124  289.6078
 125  230.0913
 126  184.3374
 127  142.2557
 128  130.0512
 129  67.87538
 130  249.4381
 131  365.4392
 132  213.6218
 133  280.7361
 134  183.9607
 135  200.4285
 136  184.1511
 137  105.3261
 138  220.1605
 139  162.0636
 140  304.611
 141  307.4204
 142  252.6951
 143  313.3776
 144  481.7621
 145  273.8507
 146  183.1081
 147  203.0174
 148  252.7533
 149  199.4035
 150  63.88208
 151  171.1647
 152  375.1039
 153  391.5893
 154  299.8402
 155  192.7577
 156  146.6376
 157  134.8135
 158  195.6769
 159  155.8166
 160  119.767
 161  115.5291
 162  6.465688
 163  243.7592
 164  134.0407
 165  156.3906
 166  237.4013
 167  217.3098
 168  279.3041
 169  258.9627
 170  130.5814
 171  174.508
 172  218.5242
 173  369.2287
 174  381.1527
 175  287.6395
 176  252.8808
 177  357.5164
 178  308.871
 179  291.5284
 180  322.1148
 181  171.2346
 182  179.9815
 183  223.0752
 184  207.2873
 185  236
 186  260.2307
 187  213.0333
 188  221.9007
 189  191.4222
 190  191.241
 191  133.3007
 192  186.5363
 193  251.9015
 194  289.0732
 195  266.8676
 196  147.9923
 197  207.5068
 198  164.587
 199  188.586
 200  181.4399
 201  249.3433
 202  233.274
 203  158.5924
 204  178.2442
 205  206.9094
 206  260.0956
 207  258.8138
 208  244.7167
 209  125.7041
 210  257.7842
 211  226.8731
 212  54.69431
 213  153.8616
 214  253.7717
 215  318.0073
 216  299.8968
 217  375.7886
 218  414.1145
 219  238.929
 220  115.0041
 221  219.7955
 222  278.2902
 223  240.1104
 224  320.1055
 225  331.6091
 226  201.3418
 227  184.1722
 228  230.341
 229  214.7692
 230  115.5262
 231  50.75307
 232  150.1526
 233  291.3112
 234  228.5348
 235  245.1353
 236  263.5689
 237  156.5773
 238  187.3985
 239  169.6402
 240  190.2733
 241  178.7249
 242  251.3338
 243  307.1276
 244  314.695
 245  201.7641
 246  184.5478
 247  181.7766
 248  225.5399
 249  287.6125
 250  259.5022
 251  246.5222
 252  140.4194
 253  217.296
 254  233.9493
 255  229.0015
 256  278.285
 257  319.5088
 258  220.1264
 259  171.098
 260  236.3909
 261  204.4533
 262  304.2052
 263  308.3542
 264  222.7073
 265  262.0796
 266  189.916
 267  139.6759
 268  132.7837
 269  223.7304
 270  160.1485
 271  196.5685
 272  162.2137
 273  362.7505
 274  298.6453
 275  270.1089
 276  287.8834
 277  233.84
 278  181.8396
 279  250.7035
 280  224.2157
 281  167.2167
 282  239.8086
 283  348.47
 284  290.2625
 285  348.5032
 286  372.3339
 287  234.1602
 288  295.7551
 289  387.2497
 290  280.1834
 291  193.6064
 292  294.3641
 293  263.2261
 294  122.3123
 295  114.6868
 296  289.8658
 297  339.4778
 298  282.1974
 299  373.0292
 300  359.6366
 301  335.8802
 302  170.635
 303  272.8484
 304  243.6321
 305  222.3484
 306  284.2554
 307  331.5288
 308  417.3289
 309  408.0771
 310  398.1295
 311  284.2289
 312  150.7097
 313  147.9574
 314  160.4029
 315  265.2185
 316  275.992
 317  185.9346
 318  190.2191
 319  261.3076
 320  243.9756
 321  217.8814
 322  155.7238
 323  152.0458
 324  247.4395
 325  170.2052
 326  303.8514
 327  200.8119
 328  340.7616
 329  365.8489
 330  224.6543
 331  258.7786
 332  252.8503
 333  229.2693
 334  224.2007
 335  152.0786
 336  155.105
 337  157.2056
 338  112.4239
 339  267.5367
 340  137.2243
 341  118.3462
 342  110.1768
 343  63.5702
 344  134.1994
 345  109.6566
 346  104.1731
 347  148.7681
 348  208.9672
 349  340.9378
 350  333.2747
 351  337.9669
 352  275.3173
 353  228.8815
 354  175.1138
 355  271.8028
 356  208.3017
 357  142.1195
 358  226.9885
 359  139.6133
 360  48.20133
 361  201.509
 362  105.9293
 363  63.94389
 364  79.7495
 365  295.1342
 366  245.7576
 367  139.7411
 368  91.50312
 369  210.5412
 370  201.8293
 371  264.7494
 372  255.0639
 373  185.2438
 374  279.8261
 375  256.5934
 376  337.0644
 377  406.4367
 378  196.3635
 379  18.25537
 380  128.4529
 381  151.8625
 382  99.9853
 383  155.1328
 384  233.382
 385  499.7381
 386  353.7747
 387  382.7883
 388  217.8992
 389  192.5479
 390  295.7113
 391  373.7717
 392  317.3318
 393  271.2275
 394  288.3485
 395  254.1486
 396  227.0652
 397  228.3637
 398  307.0315
 399  368.7269
 400  336.2855
 401  298.3099
 402  234.0008
 403  113.2126
 404  119.8429
 405  157.8851
 406  11.9592
 407  160.8744
 408  221.2048
 409  234.1418
 410  99.32755
 411  12.56791
 412  314.6624
 413  363.6652
 414  349.8558
 415  233.0427
 416  264.9044
 417  275.9793
 418  390.7516
 419  283.64
 420  237.6094
 421  153.0406
 422  198.9015
 423  192.9199
 424  269.7821
 425  266.7495
 426  250.2408
 427  261.6024
 428  166.4437
 429  125.2441
 430  183.2016
 431  152.2448
 432  205.2524
 433  249.1769
 434  302.0834
 435  315.1606
 436  151.7671
 437  119.1389
 438  243.9005
 439  293.8313
 440  289.4459
 441  292.0316
 442  345.901
 443  234.4861
 444  140.7076
 445  136.2563
 446  217.5125
 447  175.41
 448  209.1489
 449  205.529
 450  277.3788
 451  274.1163
 452  242.3082
 453  296.9503
 454  240.1178
 455  124.7522
 456  184.9232
 457  234.4568
 458  154.2215
 459  128.6549
 460  336.5135
 461  358.8328
 462  264.0651
 463  239.1931
 464  232.0934
 465  181.3822
 466  56.49807
 467  146.9154
 468  74.83042
 469  168.2458
 470  239.1469
 471  151.2645
 472  79.46515
 473  23.8802
 474  77.12651
 475  162.7284
 476  196.8274
 477  196.3573
 478  185.2113
 479  104.3655
 480  153.8771
 481  220.9652
 482  301.726
 483  235.6941
 484  277.8393
 485  291.9497
 486  286.0589
 487  82.06619
 488  167.3699
 489  326.8148
 490  250.6214
 491  247.7232
 492  184.8046
 493  221.3435
 494  164.5651
 495  236.2059
 496  227.8208
 497  224.7639
 498  229.82
 499  188.4443
 500  185.6908
 501  302.9467
 502  332.2072
 503  231.3874
 504  111.0792
 505  124.9722
 506  119.7388
 507  411.906
 508  604.2219
 509  579.2645
 510  755.0284
 511  708.9402
