# Input file       =  1188953313.119366_cleaned.dat
# Candidate        =  PSR_0332+5434
# Telescope        =  AR
# Epoch_topo       =  58005.033936566739
# Epoch_bary       =  N/A
# T_sample         =  0.002
# Data Folded      =  7340032
# Data Avg         =  0.0131834677806908
# Data StdDev      =  1.00001458699009 
# Profile Bins     =  512
# Profile Avg      =  189.041306028913 
# Profile StdDev   =  119.734782921381 
# Reduced chi-sqr  =  1.130
# Prob(Noise)      <  0.0219   (~2.0 sigma)
# P_topo (ms)      =  714.464468556259  +/- 8.23e-05
# P'_topo (s/s)    =  -0                +/- 4.34e-11
# P''_topo (s/s^2) =  0                 +/- 1.92e-14
# P_bary (ms)      =  N/A
# P'_bary (s/s)    =  N/A
# P''_bary (s/s^2) =  N/A
# P_orb (s)        =  N/A
# asin(i)/c (s)    =  N/A
# eccentricity     =  N/A
# w (rad)          =  N/A
# T_peri           =  N/A
######################################################
   0  228.4925
   1  275.0092
   2  220.2427
   3  227.7042
   4  175.6289
   5  186.1942
   6  -2.964678
   7  232.9572
   8  305.8369
   9  233.0882
  10  149.8137
  11  198.1076
  12  302.5869
  13  311.9056
  14  167.6556
  15  173.4998
  16  283.6603
  17  121.0085
  18  174.0119
  19  171.2923
  20  225.0203
  21  188.5139
  22  230.0504
  23  251.8878
  24  142.9444
  25  133.9512
  26  283.9671
  27  324.306
  28  223.8522
  29  237.0465
  30  276.482
  31  231.7721
  32  201.9701
  33  249.634
  34  190.3245
  35  24.25871
  36  106.2275
  37  214.8094
  38  221.9988
  39  215.5977
  40  256.106
  41  292.6257
  42  131.1118
  43  167.4195
  44  193.2705
  45  143.8049
  46  158.2038
  47  26.97292
  48  117.9605
  49  84.39746
  50  190.4473
  51  302.4318
  52  188.0868
  53  173.5797
  54  96.67269
  55  112.5517
  56  212.2999
  57  304.0983
  58  294.7237
  59  471.3012
  60  276.8008
  61  104.2436
  62  100.452
  63  172.3623
  64  271.8865
  65  279.8975
  66  238.212
  67  207.4344
  68  269.482
  69  156.441
  70  105.7501
  71  175.39
  72  64.00447
  73  56.2212
  74  37.30815
  75  88.06382
  76  172.0929
  77  89.82085
  78  148.6685
  79  142.5935
  80  170.9933
  81  155.7269
  82  178.2594
  83  248.785
  84  213.2006
  85  156.9859
  86  448.2689
  87  315.101
  88  205.8968
  89  243.1812
  90  209.9282
  91  115.8167
  92  30.54214
  93  147.7891
  94  303.0952
  95  259.4323
  96  147.6567
  97  156.8377
  98  226.4581
  99  250.3586
 100  182.0858
 101  199.8846
 102  101.6349
 103  83.9398
 104  -125.3803
 105  -47.77337
 106  194.5738
 107  255.1933
 108  239.464
 109  248.5407
 110  212.657
 111  171.8253
 112  50.71445
 113  172.5496
 114  210.3306
 115  137.2938
 116  250.4014
 117  257.9264
 118  160.754
 119  137.7413
 120  141.8442
 121  261.7281
 122  241.3868
 123  143.3026
 124  225.3672
 125  128.5596
 126  297.0916
 127  219.9368
 128  134.1936
 129  137.9078
 130  313.7314
 131  187.022
 132  115.0206
 133  204.7348
 134  200.4989
 135  153.7966
 136  220.5196
 137  390.0247
 138  207.5717
 139  192.4301
 140  219.4608
 141  227.8654
 142  297.7457
 143  223.222
 144  164.7203
 145  84.073
 146  296.2919
 147  316.7698
 148  171.0437
 149  106.9478
 150  213.5543
 151  213.6775
 152  278.6434
 153  246.7427
 154  154.8118
 155  161.0826
 156  168.1377
 157  269.7581
 158  205.219
 159  83.53603
 160  16.025
 161  122.6615
 162  107.5926
 163  140.4381
 164  173.9265
 165  258.9982
 166  221.2738
 167  288.6721
 168  232.6599
 169  90.45815
 170  174.1734
 171  207.2901
 172  219.2324
 173  228.4456
 174  184.1615
 175  181.4254
 176  143.423
 177  210.8579
 178  243.3751
 179  213.7468
 180  213.1534
 181  104.2728
 182  79.34581
 183  165.7389
 184  115.7093
 185  85.72935
 186  215.4811
 187  186.2508
 188  70.39826
 189  94.61966
 190  356.3278
 191  259.9031
 192  131.6905
 193  46.2314
 194  121.6021
 195  334.7756
 196  446.3598
 197  159.1746
 198  82.7685
 199  150.3812
 200  258.4009
 201  372.1732
 202  258.0652
 203  271.2039
 204  219.9366
 205  160.3304
 206  218.7634
 207  296.3102
 208  257.0983
 209  117.8084
 210  137.7972
 211  365.819
 212  330.5102
 213  241.0957
 214  302.3502
 215  269.7943
 216  382.826
 217  386.6799
 218  622.52
 219  787.9142
 220  690.3516
 221  335.7476
 222  213.344
 223  22.74957
 224  200.6772
 225  297.279
 226  238.5077
 227  205.5317
 228  126.3408
 229  187.6141
 230  -20.96836
 231  104.6491
 232  195.5238
 233  276.2367
 234  273.1946
 235  222.2735
 236  265.9722
 237  166.4273
 238  72.0714
 239  123.1976
 240  172.908
 241  155.1525
 242  210.4218
 243  48.4965
 244  92.78106
 245  87.16479
 246  208.4586
 247  54.36018
 248  188.4948
 249  238.5354
 250  159.7327
 251  186.0496
 252  240.8965
 253  126.485
 254  243.3511
 255  254.3044
 256  262.6983
 257  200.1142
 258  118.5852
 259  117.3554
 260  151.1059
 261  315.6979
 262  320.3999
 263  236.9904
 264  194.7009
 265  206.6649
 266  65.45071
 267  164.0769
 268  226.7579
 269  281.7661
 270  304.4929
 271  117.3193
 272  39.47171
 273  161.1842
 274  164.428
 275  137.2235
 276  144.4174
 277  230.4249
 278  211.0742
 279  57.48729
 280  56.0311
 281  203.2144
 282  283.2277
 283  258.7624
 284  88.1297
 285  27.4053
 286  131.1892
 287  184.4235
 288  127.824
 289  237.5403
 290  289.6205
 291  329.9804
 292  235.2343
 293  205.1832
 294  223.9594
 295  69.68755
 296  178.0022
 297  272.0833
 298  143.2354
 299  398.3564
 300  282.1339
 301  122.5289
 302  255.5118
 303  300.9517
 304  280.6693
 305  195.1618
 306  173.4058
 307  144.403
 308  168.3094
 309  231.6657
 310  131.4891
 311  127.2394
 312  244.9262
 313  150.7853
 314  179.6121
 315  341.8436
 316  270.4693
 317  150.9328
 318  96.4474
 319  204.2183
 320  144.161
 321  136.274
 322  171.333
 323  238.1322
 324  210.3654
 325  282.263
 326  299.0732
 327  83.87148
 328  -21.46054
 329  -32.65903
 330  141.1734
 331  185.8905
 332  229.008
 333  248.3643
 334  233.8063
 335  11.53651
 336  66.38939
 337  159.6173
 338  165.5538
 339  184.3893
 340  111.0291
 341  138.9628
 342  121.2354
 343  151.4421
 344  209.9395
 345  157.7124
 346  195.3911
 347  188.7876
 348  161.1336
 349  126.4525
 350  122.4509
 351  9.192727
 352  181.896
 353  230.7574
 354  122.2674
 355  26.92912
 356  144.2002
 357  249.2589
 358  130.0013
 359  207.9822
 360  176.402
 361  175.7774
 362  34.78379
 363  36.4226
 364  153.9899
 365  161.0999
 366  178.8945
 367  168.8734
 368  180.8098
 369  229.1954
 370  95.3089
 371  76.60924
 372  103.7905
 373  84.24992
 374  158.3323
 375  171.2608
 376  214.2513
 377  205.2541
 378  190.3015
 379  238.7005
 380  219.8462
 381  175.1684
 382  83.58327
 383  149.336
 384  87.75143
 385  142.0381
 386  236.7726
 387  281.6279
 388  253.3705
 389  186.0963
 390  249.465
 391  184.358
 392  89.63691
 393  68.66109
 394  92.07479
 395  103.9833
 396  105.0318
 397  151.8236
 398  119.476
 399  114.0506
 400  150.9951
 401  148.8604
 402  158.9551
 403  181.2677
 404  171.456
 405  149.7659
 406  173.7895
 407  185.7703
 408  273.6942
 409  274.6018
 410  214.0974
 411  222.8464
 412  269.7452
 413  294.0746
 414  285.5416
 415  306.572
 416  332.6751
 417  393.7313
 418  242.5516
 419  215.1334
 420  261.4517
 421  244.008
 422  174.2258
 423  208.4508
 424  97.44385
 425  160.2158
 426  64.63487
 427  42.49057
 428  124.3685
 429  327.837
 430  198.1033
 431  175.8413
 432  140.9986
 433  139.8896
 434  250.8939
 435  160.9683
 436  261.3344
 437  130.4188
 438  145.5833
 439  97.83747
 440  123.8674
 441  104.6499
 442  273.4935
 443  236.6778
 444  158.7368
 445  151.5753
 446  189.0053
 447  217.7622
 448  208.2312
 449  108.8508
 450  241.6703
 451  278.6668
 452  93.51915
 453  128.6097
 454  261.3855
 455  260.3921
 456  371.8127
 457  434.9034
 458  253.2912
 459  181.4834
 460  45.11557
 461  159.7166
 462  165.1614
 463  182.4838
 464  146.7669
 465  204.9489
 466  137.9303
 467  210.6823
 468  226.9614
 469  81.6359
 470  193.406
 471  264.4809
 472  251.9307
 473  71.70839
 474  114.6112
 475  239.8763
 476  260.8928
 477  113.7992
 478  211.7824
 479  251.0292
 480  247.0859
 481  302.5208
 482  230.4294
 483  180.8134
 484  280.0347
 485  137.9163
 486  76.54057
 487  162.86
 488  210.7621
 489  115.3697
 490  176.0805
 491  187.0092
 492  135.3136
 493  71.29784
 494  84.01806
 495  70.20418
 496  159.7276
 497  122.2501
 498  185.5521
 499  266.4846
 500  368.6404
 501  388.6551
 502  -2.291078
 503  27.68205
 504  263.7466
 505  213.7377
 506  0.9288536
 507  130.6748
 508  178.5441
 509  35.29002
 510  33.69431
 511  118.06
