# Input file       =  1188278963.107433-PSRB0329-2ms-sampling-dd.dat
# Candidate        =  PSR_0332+5434
# Telescope        =  AR
# Epoch_topo       =  57997.228959576772
# Epoch_bary       =  N/A
# T_sample         =  0.002
# Data Folded      =  7340032
# Data Avg         =  -1.27262265681543e-09
# Data StdDev      =  5.83117346446527 
# Profile Bins     =  512
# Profile Avg      =  0.247961915959906
# Profile StdDev   =  698.184104540054 
# Reduced chi-sqr  =  0.564
# Prob(Noise)      <  1   (~0.0 sigma)
# P_topo (ms)      =  714.463811356324  +/- 0.000141
# P'_topo (s/s)    =  -0                +/- 7.42e-11
# P''_topo (s/s^2) =  0                 +/- 3.27e-14
# P_bary (ms)      =  N/A
# P'_bary (s/s)    =  N/A
# P''_bary (s/s^2) =  N/A
# P_orb (s)        =  N/A
# asin(i)/c (s)    =  N/A
# eccentricity     =  N/A
# w (rad)          =  N/A
# T_peri           =  N/A
######################################################
   0  -140.5288
   1  -382.1157
   2  -322.4667
   3  -637.9268
   4  -239.8015
   5  -684.6918
   6  -664.7837
   7  -13.40047
   8  322.2913
   9  674.5023
  10  -237.1514
  11  -294.1991
  12  -339.1752
  13  34.67671
  14  316.5577
  15  529.9211
  16  364.7252
  17  -217.4162
  18  -28.73802
  19  -298.2409
  20  -403.7521
  21  -319.9466
  22  7.444907
  23  113.4729
  24  550.0378
  25  697.3762
  26  -171.652
  27  -658.7892
  28  -939.9651
  29  -373.8348
  30  -180.3486
  31  -172.7406
  32  -339.8957
  33  -181.9723
  34  -149.3176
  35  -759.5386
  36  -412.6967
  37  -272.4166
  38  -676.9496
  39  -320.4964
  40  -99.15337
  41  346.6992
  42  297.7354
  43  555.5836
  44  561.2646
  45  -198.8065
  46  -178.1928
  47  177.5637
  48  373.0946
  49  16.52843
  50  163.2978
  51  429.1474
  52  476.4963
  53  77.99107
  54  -161.4277
  55  -216.1347
  56  24.12778
  57  234.865
  58  71.36568
  59  -75.80225
  60  -730.5797
  61  -1007.739
  62  -610.8757
  63  61.98856
  64  16.03409
  65  -242.118
  66  85.64549
  67  319.4779
  68  -363.4514
  69  -185.8705
  70  28.03982
  71  260.8743
  72  224.7626
  73  511.9831
  74  546.2362
  75  46.08636
  76  109.4456
  77  365.2283
  78  23.07783
  79  -652.8124
  80  -416.6175
  81  -93.05529
  82  -338.7593
  83  -321.4433
  84  -439.7085
  85  -246.0503
  86  -285.862
  87  41.02135
  88  -642.5299
  89  -297.7266
  90  -94.94079
  91  136.2165
  92  -204.5126
  93  -542.3074
  94  -470.701
  95  -378.9699
  96  170.442
  97  380.5316
  98  -42.06811
  99  -237.5137
 100  -470.9214
 101  -400.6092
 102  -729.5447
 103  106.3053
 104  391.2466
 105  288.1914
 106  429.5591
 107  130.6866
 108  -121.8616
 109  -500.3132
 110  -96.76959
 111  313.2498
 112  80.10424
 113  602.926
 114  312.2263
 115  20.58287
 116  -239.0044
 117  8.213719
 118  537.7303
 119  428.5909
 120  437.7462
 121  440.046
 122  380.8596
 123  -22.24135
 124  -189.4003
 125  -43.05736
 126  -276.4866
 127  -749.6107
 128  -204.0706
 129  -7.651001
 130  -52.75448
 131  -191.9274
 132  328.9889
 133  382.0501
 134  -35.74488
 135  -307.6514
 136  -23.07264
 137  395.089
 138  201.8016
 139  124.0015
 140  670.3973
 141  238.4195
 142  644.9503
 143  342.5815
 144  -154.9772
 145  -230.469
 146  -26.31429
 147  385.6908
 148  311.4769
 149  94.46258
 150  102.3771
 151  -248.4122
 152  -114.7463
 153  -351.7979
 154  102.0102
 155  492.8723
 156  74.00961
 157  249.2002
 158  -179.6976
 159  244.6733
 160  -161.7962
 161  -760.0535
 162  -700.0688
 163  -599.7455
 164  -22.48157
 165  655.2043
 166  384.9846
 167  124.0022
 168  -10.03912
 169  -314.1673
 170  -77.26189
 171  215.2316
 172  257.9627
 173  85.52614
 174  -145.8414
 175  23.26839
 176  -395.3436
 177  207.2699
 178  241.3385
 179  259.4396
 180  443.4638
 181  162.8174
 182  231.8261
 183  539.2181
 184  432.2752
 185  -89.20514
 186  83.76839
 187  483.1279
 188  -180.5196
 189  283.5658
 190  -223.3764
 191  -375.0118
 192  -152.2289
 193  -107.5087
 194  -606.4603
 195  -338.4996
 196  259.155
 197  -276.7509
 198  -569.4435
 199  -414.3705
 200  5.512848
 201  206.2239
 202  -196.624
 203  109.7943
 204  149.8825
 205  -527.7908
 206  -64.29811
 207  227.7124
 208  386.8948
 209  140.0646
 210  579.6969
 211  336.382
 212  -15.09703
 213  152.7969
 214  269.8059
 215  -34.37151
 216  60.91027
 217  117.1167
 218  -198.5086
 219  16.77151
 220  110.1813
 221  796.7467
 222  410.4898
 223  -230.9068
 224  181.0082
 225  395.3269
 226  356.0851
 227  188.1732
 228  -72.36565
 229  -263.6703
 230  85.78636
 231  -3.645888
 232  164.0434
 233  561.3153
 234  649.9996
 235  541.3013
 236  389.1029
 237  622.9771
 238  241.5961
 239  113.2492
 240  -405.1907
 241  -425.139
 242  642.1819
 243  856.8281
 244  322.4896
 245  237.2789
 246  347.2255
 247  -124.4608
 248  -70.11979
 249  185.3832
 250  501.2169
 251  143.1748
 252  548.8605
 253  546.4987
 254  283.298
 255  218.1242
 256  -550.2515
 257  -584.1663
 258  -666.9907
 259  -50.8289
 260  190.3587
 261  -455.9009
 262  -720.6407
 263  -240.5286
 264  -185.7756
 265  -263.9134
 266  192.6694
 267  744.3995
 268  369.0183
 269  -195.7835
 270  136.4395
 271  -221.1826
 272  -90.05071
 273  50.17408
 274  0.07716504
 275  6.12046
 276  -356.3464
 277  -572.579
 278  -303.5955
 279  -37.21478
 280  -207.727
 281  -417.1464
 282  -59.95502
 283  -339.1268
 284  -167.5401
 285  409.9419
 286  184.6451
 287  -572.3997
 288  -887.1882
 289  -575.0912
 290  -483.7623
 291  -323.3923
 292  -553.8334
 293  -166.8171
 294  134.1063
 295  -92.82474
 296  -178.8986
 297  -472.4429
 298  -442.4472
 299  -10.74485
 300  21.8941
 301  131.8971
 302  394.7693
 303  925.7927
 304  1145.063
 305  890.8896
 306  1419.542
 307  1056.664
 308  621.8123
 309  185.2994
 310  -524.9698
 311  -772.76
 312  -107.3159
 313  -96.18192
 314  3.012622
 315  16.03438
 316  259.9734
 317  9.142659
 318  157.8478
 319  402.9277
 320  268.3483
 321  435.0782
 322  -190.2374
 323  -561.8943
 324  147.2678
 325  213.9233
 326  70.58025
 327  68.51933
 328  98.96403
 329  -280.9306
 330  -691.1678
 331  -100.401
 332  -566.1739
 333  -144.2876
 334  -192.2975
 335  329.2981
 336  342.114
 337  -114.3646
 338  -279.4203
 339  -564.7809
 340  -151.0992
 341  -97.38235
 342  -225.0894
 343  91.18415
 344  278.1615
 345  516.1904
 346  425.8453
 347  -187.9949
 348  -218.616
 349  39.44153
 350  353.2896
 351  134.2351
 352  213.6006
 353  235.103
 354  -130.9124
 355  -17.73767
 356  28.44766
 357  -278.9021
 358  -703.3964
 359  -545.0771
 360  -37.23273
 361  -257.7617
 362  15.36968
 363  -461.1839
 364  -411.1877
 365  -977.7968
 366  -770.8578
 367  -356.4538
 368  -366.9322
 369  3.512785
 370  -553.6432
 371  -569.8174
 372  -675.3797
 373  -612.6522
 374  -899.1052
 375  -664.6644
 376  -81.66376
 377  -453.2075
 378  -43.09743
 379  151.7891
 380  66.10172
 381  -429.1735
 382  40.15876
 383  256.944
 384  234.4722
 385  120.4195
 386  129.7589
 387  -61.30405
 388  134.6607
 389  -225.4491
 390  17.88479
 391  -159.9967
 392  25.0871
 393  -72.19705
 394  -110.737
 395  436.3639
 396  429.6728
 397  146.237
 398  378.8457
 399  181.3448
 400  432.4048
 401  284.3205
 402  -84.18731
 403  473.7637
 404  302.9432
 405  320.9199
 406  -85.1244
 407  -249.9844
 408  -538.775
 409  19.40931
 410  -17.78952
 411  363.7691
 412  -60.60598
 413  -360.4642
 414  122.9454
 415  -312.4392
 416  -473.8592
 417  233.5763
 418  288.157
 419  335.9319
 420  586.8986
 421  1008.403
 422  780.4755
 423  284.2703
 424  -126.5728
 425  -365.3351
 426  275.9022
 427  484.9434
 428  407.5909
 429  968.7479
 430  533.2748
 431  371.2684
 432  55.77781
 433  369.2821
 434  479.6423
 435  285.6031
 436  610.3892
 437  695.1036
 438  314.682
 439  -29.35441
 440  -687.3246
 441  -923.6072
 442  -225.9849
 443  -137.9174
 444  62.42514
 445  487.9445
 446  51.52959
 447  -185.0386
 448  -404.8744
 449  4.133977
 450  217.2241
 451  678.5338
 452  345.217
 453  672.867
 454  717.0299
 455  482.1278
 456  481.5894
 457  57.07071
 458  208.723
 459  564.0236
 460  297.3703
 461  376.7421
 462  198.1873
 463  -189.4444
 464  -221.1401
 465  -106.8543
 466  45.25304
 467  -240.1247
 468  -336.9102
 469  -380.6064
 470  9.402617
 471  146.29
 472  465.0227
 473  299.154
 474  -224.2069
 475  -145.0723
 476  -282.8227
 477  -355.2518
 478  174.3767
 479  -31.41876
 480  -184.1279
 481  -11.1868
 482  -328.9792
 483  -280.3082
 484  502.2231
 485  388.6102
 486  421.3089
 487  -47.53658
 488  146.8014
 489  -398.9524
 490  -422.44
 491  51.83785
 492  51.30931
 493  99.60526
 494  248.2137
 495  102.8408
 496  -160.1325
 497  -251.1602
 498  -109.6618
 499  -177.5904
 500  -523.7701
 501  -757.9448
 502  -159.2105
 503  364.383
 504  6.912593
 505  -91.30124
 506  -417.6008
 507  -519.4457
 508  -446.5026
 509  -698.7327
 510  51.50385
 511  -26.28721
