# Input file       =  1188264049.1201_cleaned.dat
# Candidate        =  PSR_0332+5434
# Telescope        =  AR
# Epoch_topo       =  57997.056343982636
# Epoch_bary       =  N/A
# T_sample         =  0.002
# Data Folded      =  7340032
# Data Avg         =  0.0160291123663358
# Data StdDev      =  2.34452665196565 
# Profile Bins     =  256
# Profile Avg      =  459.56251618995  
# Profile StdDev   =  396.994205648896 
# Reduced chi-sqr  =  1.607
# Prob(Noise)      <  2.54e-09   (~5.8 sigma)
# P_topo (ms)      =  714.463465103223  +/- 0.000162
# P'_topo (s/s)    =  -0                +/- 8.57e-11
# P''_topo (s/s^2) =  0                 +/- 3.79e-14
# P_bary (ms)      =  N/A
# P'_bary (s/s)    =  N/A
# P''_bary (s/s^2) =  N/A
# P_orb (s)        =  N/A
# asin(i)/c (s)    =  N/A
# eccentricity     =  N/A
# w (rad)          =  N/A
# T_peri           =  N/A
######################################################
   0  -130.8557
   1  455.5331
   2  -171.9409
   3  347.7314
   4  -32.86127
   5  554.7369
   6  -179.107
   7  -246.7805
   8  1031.158
   9  434.5433
  10  544.9697
  11  468.8172
  12  -55.58316
  13  54.30163
  14  111.8604
  15  470.6243
  16  1016.154
  17  511.4224
  18  184.9818
  19  852.4042
  20  1194.993
  21  766.7637
  22  362.8243
  23  480.4961
  24  415.5885
  25  526.4768
  26  57.16484
  27  497.4851
  28  487.1636
  29  387.6075
  30  -18.6154
  31  465.6314
  32  252.441
  33  496.0604
  34  725.8053
  35  302.1854
  36  554.1865
  37  284.894
  38  394.0236
  39  513.2809
  40  -39.44877
  41  878.0283
  42  110.2688
  43  -251.1126
  44  -366.0027
  45  820.7839
  46  662.1078
  47  153.634
  48  64.41326
  49  -45.96323
  50  356.3143
  51  333.3861
  52  575.1422
  53  348.5992
  54  -79.73231
  55  157.5547
  56  625.3167
  57  638.381
  58  414.8848
  59  881.7444
  60  -28.46369
  61  160.3756
  62  458.7373
  63  692.0536
  64  669.2977
  65  338.3898
  66  -238.3805
  67  479.9167
  68  420.8426
  69  269.5029
  70  943.7042
  71  687.9925
  72  500.8055
  73  -148.8119
  74  441.7603
  75  215.9355
  76  526.8673
  77  787.8948
  78  260.4623
  79  242.6731
  80  478.9285
  81  4.757787
  82  -307.8394
  83  467.0172
  84  251.6301
  85  446.8533
  86  947.4683
  87  916.3781
  88  487.3216
  89  779.2972
  90  461.737
  91  -271.141
  92  746.5327
  93  337.5335
  94  203.5305
  95  398.0292
  96  797.0672
  97  781.3859
  98  979.3881
  99  656.2925
 100  152.9153
 101  351.429
 102  962.2312
 103  767.7424
 104  412.3375
 105  -292.6401
 106  317.4162
 107  738.0433
 108  396.9342
 109  759.0978
 110  289.7073
 111  74.14845
 112  633.5883
 113  605.7518
 114  -449.6745
 115  429.9022
 116  52.07499
 117  58.71585
 118  328.0292
 119  -25.92785
 120  427.0736
 121  858.4143
 122  1045.34
 123  700.5942
 124  542.7338
 125  1016.327
 126  114.7749
 127  198.1125
 128  621.2206
 129  472.3394
 130  587.7484
 131  498.823
 132  817.7621
 133  679.6127
 134  -105.1718
 135  408.3442
 136  453.0457
 137  357.2615
 138  703.8781
 139  517.8752
 140  679.8723
 141  405.3804
 142  608.9392
 143  532.2578
 144  220.4023
 145  655.1935
 146  243.5915
 147  105.6814
 148  -28.38224
 149  1133.251
 150  229.8271
 151  1009.138
 152  487.5519
 153  435.6743
 154  580.7657
 155  370.0207
 156  378.5409
 157  472.4036
 158  441.8356
 159  445.5228
 160  1999.751
 161  3741.4
 162  2940.127
 163  916.6379
 164  857.1656
 165  173.9604
 166  607.162
 167  1025.969
 168  654.5419
 169  1159.5
 170  1043.371
 171  1031.088
 172  263.2058
 173  749.1107
 174  693.5013
 175  372.7357
 176  369.4948
 177  567.8442
 178  -243.5495
 179  196.9801
 180  77.55432
 181  775.452
 182  717.6435
 183  241.4451
 184  66.61417
 185  568.2518
 186  530.8218
 187  715.0161
 188  953.8986
 189  203.4382
 190  938.2682
 191  685.0119
 192  827.9393
 193  20.98656
 194  186.9249
 195  520.5962
 196  470.8669
 197  501.1522
 198  640.7128
 199  378.2216
 200  583.1852
 201  1206.912
 202  978.2702
 203  575.8088
 204  555.6063
 205  168.2511
 206  516.0786
 207  740.3787
 208  -19.57517
 209  281.5113
 210  969.0711
 211  13.71021
 212  -23.57598
 213  792.9434
 214  51.73979
 215  -479.3134
 216  641.182
 217  700.4802
 218  184.453
 219  215.6583
 220  391.8804
 221  573.4849
 222  -370.0929
 223  90.7952
 224  224.035
 225  212.6945
 226  466.4211
 227  567.7352
 228  2.685017
 229  141.885
 230  751.2911
 231  467.429
 232  597.3737
 233  475.5921
 234  684.0891
 235  585.828
 236  494.2479
 237  877.3409
 238  601.0535
 239  504.5772
 240  698.2639
 241  513.4376
 242  145.7112
 243  593.3624
 244  183.9359
 245  579.8813
 246  579.5928
 247  417.1627
 248  586.1606
 249  -279.5516
 250  315.2084
 251  260.48
 252  897.8372
 253  -253.1295
 254  -30.97486
 255  570.6979
