# Input file       =  1188522526.111912-PSRB0329-2ms-sampling-dd.dat
# Candidate        =  PSR_0332+5434
# Telescope        =  AR
# Epoch_topo       =  58000.047975832313
# Epoch_bary       =  N/A
# T_sample         =  0.002
# Data Folded      =  7340032
# Data Avg         =  1.13471651404991e-10
# Data StdDev      =  2.83777915941807 
# Profile Bins     =  512
# Profile Avg      =  0.217534185674212
# Profile StdDev   =  339.775915323833 
# Reduced chi-sqr  =  1.445
# Prob(Noise)      <  1.58e-10   (~6.3 sigma)
# P_topo (ms)      =  714.463724477626  +/- 0.000837
# P'_topo (s/s)    =  -0                +/- 4.41e-10
# P''_topo (s/s^2) =  0                 +/- 1.95e-13
# P_bary (ms)      =  N/A
# P'_bary (s/s)    =  N/A
# P''_bary (s/s^2) =  N/A
# P_orb (s)        =  N/A
# asin(i)/c (s)    =  N/A
# eccentricity     =  N/A
# w (rad)          =  N/A
# T_peri           =  N/A
######################################################
   0  2.290347
   1  -332.5778
   2  -402.0667
   3  0.8213834
   4  116.1018
   5  -217.2729
   6  -601.5425
   7  -417.7755
   8  -125.3992
   9  -129.7351
  10  -56.80747
  11  118.3315
  12  -363.0028
  13  -213.9179
  14  -127.4819
  15  -451.1005
  16  -127.7545
  17  186.3667
  18  -167.2527
  19  -384.7751
  20  -2.189017
  21  -93.53073
  22  -540.7888
  23  -660.6747
  24  -480.3333
  25  -351.7917
  26  -262.6292
  27  -174.7953
  28  -312.5066
  29  -411.8005
  30  -334.7346
  31  -255.7831
  32  -52.29056
  33  28.29663
  34  -272.4085
  35  -325.1882
  36  -380.7657
  37  -199.2639
  38  84.35098
  39  -86.6506
  40  -268.5257
  41  -398.8292
  42  -360.9728
  43  -288.164
  44  -287.9581
  45  -71.36375
  46  -207.5748
  47  -115.3493
  48  339.1571
  49  197.0342
  50  20.79892
  51  72.80819
  52  6.512875
  53  -422.3381
  54  -360.0572
  55  -412.2018
  56  -216.6387
  57  -48.3078
  58  -49.63186
  59  -136.4206
  60  -108.5225
  61  -277.2007
  62  -232.7918
  63  -281.0876
  64  -361.435
  65  -175.0221
  66  266.8766
  67  349.0945
  68  288.9859
  69  -370.4529
  70  -299.8065
  71  -292.992
  72  -88.2007
  73  89.23595
  74  150.1665
  75  54.28783
  76  -81.54776
  77  11.91382
  78  -148.4894
  79  -251.5426
  80  -143.8915
  81  -9.396652
  82  383.8044
  83  201.2879
  84  237.8725
  85  238.0743
  86  -94.61793
  87  -220.0104
  88  -374.3374
  89  -310.8044
  90  -500.5841
  91  -130.8443
  92  8.50361
  93  -111.9124
  94  -253.3236
  95  -139.4899
  96  -119.341
  97  -276.5733
  98  119.0142
  99  -30.23464
 100  133.826
 101  254.9181
 102  -264.2178
 103  149.8752
 104  -8.582625
 105  -145.1045
 106  -234.4214
 107  -72.51566
 108  171.3492
 109  246.1932
 110  -71.76788
 111  -9.991171
 112  5.056023
 113  -1.225059
 114  221.024
 115  456.8971
 116  69.23306
 117  -149.3619
 118  139.0415
 119  320.6976
 120  -4.229472
 121  -43.59663
 122  98.04472
 123  -262.4722
 124  -216.427
 125  16.2657
 126  -13.97693
 127  152.5482
 128  415.7324
 129  374.9575
 130  455.9178
 131  317.088
 132  223.8629
 133  105.6374
 134  82.41031
 135  -42.3074
 136  -224.2314
 137  -65.23994
 138  216.6232
 139  53.30286
 140  50.11041
 141  283.4741
 142  63.70257
 143  233.9977
 144  311.9873
 145  332.637
 146  453.6183
 147  251.379
 148  224.6454
 149  -14.26486
 150  -70.08764
 151  312.479
 152  147.6219
 153  105.2726
 154  215.8159
 155  52.28532
 156  -247.4332
 157  -324.446
 158  336.1621
 159  346.4518
 160  -236.7958
 161  -127.199
 162  67.12721
 163  84.26831
 164  8.572589
 165  -155.9797
 166  158.426
 167  364.9073
 168  277.4593
 169  -13.24528
 170  -13.53003
 171  -78.34634
 172  -105.4343
 173  229.5993
 174  23.87742
 175  -227.6621
 176  -52.97545
 177  -173.8812
 178  -176.5892
 179  -112.7509
 180  159.1291
 181  310.1184
 182  283.0998
 183  367.3965
 184  250.2766
 185  -153.6977
 186  209.907
 187  84.29404
 188  -8.172215
 189  -58.86349
 190  67.26759
 191  489.0356
 192  191.9846
 193  -15.85075
 194  -138.5722
 195  204.5758
 196  300.1726
 197  223.2531
 198  252.7271
 199  -48.11445
 200  68.675
 201  219.9025
 202  473.7979
 203  148.4767
 204  74.65713
 205  500.6719
 206  268.7719
 207  144.8542
 208  -57.77013
 209  -11.48116
 210  44.0051
 211  166.3512
 212  8.290151
 213  423.4117
 214  430.2585
 215  729.1577
 216  757.7203
 217  601.9337
 218  1045.984
 219  1176.194
 220  1431.236
 221  1845.483
 222  1971.101
 223  1830.024
 224  1080.641
 225  149.4244
 226  188.209
 227  488.0337
 228  487.0757
 229  706.4973
 230  440.1634
 231  308.1032
 232  589.0188
 233  553.5295
 234  646.901
 235  525.8557
 236  472.4914
 237  435.6084
 238  313.0049
 239  176.6521
 240  35.90541
 241  -220.0919
 242  -145.2691
 243  28.30538
 244  51.19764
 245  375.586
 246  124.4436
 247  -57.96169
 248  21.177
 249  170.1259
 250  71.72633
 251  153.0909
 252  119.1083
 253  -128.8704
 254  140.8393
 255  -126.3525
 256  -174.6353
 257  63.64836
 258  93.60774
 259  -157.4115
 260  271.1729
 261  188.7151
 262  17.92305
 263  89.31599
 264  19.24296
 265  -28.02293
 266  -87.17011
 267  107.9118
 268  -73.34991
 269  49.43962
 270  -32.17961
 271  -86.56898
 272  -18.38191
 273  -27.96671
 274  66.92287
 275  185.7725
 276  -96.74465
 277  39.02642
 278  172.4132
 279  90.35746
 280  75.294
 281  160.2847
 282  -102.0072
 283  -44.89466
 284  -215.147
 285  170.0876
 286  102.4883
 287  359.1253
 288  315.5073
 289  -33.04609
 290  425.4981
 291  189.7551
 292  -233.9494
 293  176.7517
 294  391.4691
 295  215.5038
 296  79.12434
 297  -12.84173
 298  52.90133
 299  -4.600236
 300  106.8193
 301  50.38988
 302  109.3075
 303  42.50829
 304  -93.03443
 305  -61.8976
 306  -272.4829
 307  -163.4977
 308  -11.19428
 309  -185.1026
 310  38.5591
 311  -71.12299
 312  165.9273
 313  161.3253
 314  64.10689
 315  165.0907
 316  159.978
 317  276.1509
 318  43.8402
 319  122.8427
 320  -63.46899
 321  9.959359
 322  -90.91445
 323  -148.2488
 324  142.869
 325  223.6706
 326  83.34926
 327  84.26042
 328  103.127
 329  256.7691
 330  346.2181
 331  -146.1626
 332  -330.7647
 333  -103.5005
 334  200.0729
 335  -187.5827
 336  -674.3904
 337  -367.6539
 338  -16.60916
 339  38.81537
 340  139.7326
 341  -229.5007
 342  -204.3612
 343  -119.6089
 344  -205.2502
 345  115.3089
 346  164.045
 347  142.6929
 348  191.5321
 349  373.5142
 350  -24.28397
 351  -130.96
 352  -314.8844
 353  -64.29134
 354  224.2387
 355  12.83692
 356  103.4374
 357  17.89139
 358  -229.9595
 359  -375.7723
 360  72.36616
 361  -20.56696
 362  -226.7985
 363  -151.1699
 364  -365.5865
 365  -257.0708
 366  -304.817
 367  -217.7732
 368  22.68104
 369  -144.6346
 370  -298.7305
 371  -316.0852
 372  -78.09612
 373  -645.9045
 374  -434.8314
 375  129.0388
 376  56.68443
 377  36.61551
 378  -271.0952
 379  -2.750216
 380  -94.16491
 381  -94.45011
 382  180.676
 383  -103.8371
 384  -60.93761
 385  407.0817
 386  344.8279
 387  238.545
 388  22.93899
 389  -75.12629
 390  -46.51375
 391  61.01194
 392  -340.8051
 393  -379.874
 394  -348.8202
 395  -272.6861
 396  -137.7566
 397  -431.4275
 398  -295.8289
 399  370.7296
 400  126.5927
 401  -264.795
 402  -417.4166
 403  -294.2481
 404  66.3769
 405  -31.22928
 406  -218.7081
 407  -297.7123
 408  -231.7915
 409  -407.3795
 410  -511.2719
 411  -160.8708
 412  81.38048
 413  -43.367
 414  -208.1765
 415  -275.9998
 416  -417.0254
 417  -306.2928
 418  -351.7141
 419  -532.4659
 420  -80.92098
 421  263.0574
 422  -110.3545
 423  -615.2952
 424  -264.1804
 425  -63.91368
 426  -105.1493
 427  -167.547
 428  -151.4011
 429  77.69984
 430  4.21983
 431  138.5315
 432  -107.1866
 433  -94.20827
 434  -75.91506
 435  -0.5757495
 436  -33.17294
 437  -45.03225
 438  -50.81149
 439  -269.14
 440  -174.7217
 441  -114.2995
 442  125.0605
 443  38.59649
 444  104.9145
 445  -234.0685
 446  -243.8767
 447  -260.3934
 448  24.81528
 449  90.86187
 450  -169.2978
 451  -288.7081
 452  52.92448
 453  115.9909
 454  -52.44664
 455  23.6603
 456  -251.7155
 457  -134.2965
 458  -139.6312
 459  -90.28434
 460  65.32081
 461  -116.8039
 462  -105.1045
 463  -225.361
 464  92.94402
 465  21.58562
 466  -86.48003
 467  -40.48101
 468  -143.3834
 469  -302.3893
 470  -389.0898
 471  -381.9112
 472  -249.3579
 473  -105.574
 474  8.340808
 475  -253.441
 476  -61.10767
 477  -133.9317
 478  -88.95549
 479  -160.113
 480  -312.3904
 481  -351.4417
 482  -232.4563
 483  -143.0669
 484  -12.35491
 485  -138.5675
 486  -473.8848
 487  21.63154
 488  -188.3846
 489  -343.4238
 490  -470.7822
 491  -283.3172
 492  -148.5352
 493  107.7281
 494  161.9924
 495  -77.90689
 496  -233.2348
 497  -92.12505
 498  24.14388
 499  234.7448
 500  16.26827
 501  34.92709
 502  -50.68587
 503  -113.3177
 504  -125.3385
 505  -165.9786
 506  50.55072
 507  270.2502
 508  58.77588
 509  -116.2818
 510  -187.3064
 511  192.1326
