# Input file       =  1188020427.116889-PSRB0329-2ms-sampling-dd.dat
# Candidate        =  PSR_0332+5434
# Telescope        =  AR
# Epoch_topo       =  57994.236644871402
# Epoch_bary       =  N/A
# T_sample         =  0.002
# Data Folded      =  7340032
# Data Avg         =  6.29120611557706e-10
# Data StdDev      =  5.93511167170016 
# Profile Bins     =  512
# Profile Avg      =  -0.0460948489111169
# Profile StdDev   =  710.628941687845 
# Reduced chi-sqr  =  0.520
# Prob(Noise)      <  1   (~0.0 sigma)
# P_topo (ms)      =  714.463687308994  +/- 0.00058
# P'_topo (s/s)    =  -0                +/- 3.06e-10
# P''_topo (s/s^2) =  0                 +/- 1.35e-13
# P_bary (ms)      =  N/A
# P'_bary (s/s)    =  N/A
# P''_bary (s/s^2) =  N/A
# P_orb (s)        =  N/A
# asin(i)/c (s)    =  N/A
# eccentricity     =  N/A
# w (rad)          =  N/A
# T_peri           =  N/A
######################################################
   0  -334.4869
   1  -226.0175
   2  -246.7769
   3  -276.8682
   4  141.8339
   5  -128.9821
   6  -294.3672
   7  -109.7964
   8  -207.8677
   9  -108.0736
  10  -10.03836
  11  94.68481
  12  -270.9283
  13  -473.9223
  14  -193.121
  15  459.7303
  16  387.016
  17  511.1237
  18  284.331
  19  813.9548
  20  540.7206
  21  290.8022
  22  -288.6422
  23  -528.7442
  24  -639.8407
  25  -450.161
  26  144.552
  27  -156.4097
  28  -124.4161
  29  396.718
  30  128.0219
  31  13.58566
  32  -674.697
  33  -437.3839
  34  -297.1263
  35  -277.895
  36  -674.7756
  37  -691.7417
  38  -828.3694
  39  -247.6326
  40  -299.6674
  41  -148.3188
  42  -497.2975
  43  -255.8444
  44  31.09355
  45  -224.4065
  46  31.59931
  47  56.39315
  48  705.4804
  49  568.0647
  50  359.507
  51  26.06758
  52  -398.224
  53  4.435873
  54  228.7954
  55  -229.1212
  56  -300.857
  57  62.0412
  58  426.2798
  59  335.2468
  60  250.0669
  61  784.6519
  62  249.4833
  63  -199.1686
  64  141.3228
  65  -193.3705
  66  -311.8612
  67  -640.7126
  68  246.2466
  69  289.2897
  70  389.4956
  71  210.2844
  72  -330.305
  73  -213.6309
  74  -405.9509
  75  -53.7186
  76  502.5457
  77  260.6198
  78  433.0125
  79  63.40355
  80  54.96945
  81  -155.1768
  82  -224.5623
  83  251.4267
  84  761.5009
  85  -192.2066
  86  872.6896
  87  473.2804
  88  -301.6479
  89  -345.6347
  90  -100.8232
  91  215.6122
  92  -98.87437
  93  269.3945
  94  -256.0152
  95  -506.9014
  96  -620.0847
  97  -207.2031
  98  -458.9475
  99  -119.2794
 100  84.75492
 101  370.1725
 102  713.4333
 103  196.7162
 104  -6.395609
 105  -406.4899
 106  -449.3601
 107  -175.0922
 108  -184.9054
 109  7.53405
 110  59.00051
 111  334.0862
 112  -141.5853
 113  -11.13384
 114  -326.207
 115  506.1007
 116  267.3874
 117  325.3825
 118  400.4921
 119  227.4097
 120  663.1501
 121  578.7851
 122  313.5368
 123  509.6953
 124  562.6476
 125  653.6111
 126  166.7206
 127  -291.3238
 128  27.38171
 129  141.8424
 130  -168.9526
 131  2.566454
 132  38.37888
 133  -445.3452
 134  -740.7938
 135  -458.4306
 136  -330.6467
 137  -242.0155
 138  -208.0433
 139  -323.7018
 140  -778.2087
 141  -629.0269
 142  5.001858
 143  61.24879
 144  282.5632
 145  -140.9599
 146  36.72521
 147  -254.8821
 148  -530.928
 149  -506.9377
 150  134.6384
 151  244.7739
 152  81.13177
 153  132.7518
 154  -295.6785
 155  -154.3204
 156  -186.2447
 157  -456.3556
 158  -718.9807
 159  -881.0102
 160  21.99281
 161  -329.6075
 162  -232.0631
 163  -144.3248
 164  -7.693883
 165  89.7949
 166  -97.6538
 167  -375.9024
 168  -369.4012
 169  -599.758
 170  -994.5992
 171  -773.8247
 172  -256.5172
 173  -381.3904
 174  -553.457
 175  -551.2892
 176  -376.7914
 177  65.02004
 178  -366.5521
 179  -274.2289
 180  -328.2671
 181  36.85404
 182  74.00583
 183  413.73
 184  544.3127
 185  562.8511
 186  574.8351
 187  280.7891
 188  -435.3097
 189  -186.2974
 190  539.3091
 191  451.58
 192  -101.8093
 193  143.0157
 194  -247.8975
 195  -229.9249
 196  -458.0126
 197  -286.798
 198  -226.3888
 199  -465.7259
 200  -207.361
 201  47.93073
 202  -459.2914
 203  -404.4873
 204  -281.9569
 205  -98.08807
 206  -83.02745
 207  -416.0305
 208  -515.7466
 209  -104.1931
 210  44.46896
 211  125.6691
 212  -276.9958
 213  30.26894
 214  214.8347
 215  -353.2259
 216  -824.336
 217  37.08116
 218  217.4977
 219  570.2573
 220  465.3884
 221  -48.94783
 222  -126.1122
 223  -132.0769
 224  -331.0909
 225  -365.7061
 226  -181.4325
 227  -77.51418
 228  286.3591
 229  238.5871
 230  75.63812
 231  -19.90834
 232  469.4656
 233  216.1217
 234  250.3326
 235  331.4828
 236  108.8765
 237  150.7881
 238  175.8412
 239  486.5641
 240  -42.52716
 241  -500.1537
 242  -482.9945
 243  -100.8466
 244  200.7195
 245  262.6086
 246  226.3157
 247  130.3626
 248  265.8758
 249  -13.21986
 250  63.91356
 251  260.854
 252  97.36533
 253  572.2079
 254  549.7456
 255  253.0902
 256  -225.2028
 257  -114.6714
 258  149.4665
 259  -415.7477
 260  -617.6126
 261  -820.4401
 262  -523.9069
 263  -160.2034
 264  215.4716
 265  357.3867
 266  558.7043
 267  417.6764
 268  -240.5542
 269  195.7608
 270  60.16914
 271  296.9547
 272  -116.3292
 273  -371.7925
 274  -640.1351
 275  -509.1997
 276  -617.9505
 277  -584.2538
 278  -166.1026
 279  97.04425
 280  -283.1225
 281  -417.1617
 282  -337.4471
 283  411.4268
 284  63.69914
 285  301.1241
 286  489.704
 287  699.6165
 288  866.1957
 289  470.5027
 290  191.3803
 291  -28.58001
 292  134.3028
 293  -403.2297
 294  15.75569
 295  518.8438
 296  294.7473
 297  140.9867
 298  -46.44644
 299  88.77499
 300  -133.6311
 301  133.1053
 302  217.3926
 303  -234.245
 304  -7.549849
 305  0.7173364
 306  -228.9182
 307  -331.3072
 308  -387.1389
 309  -397.8564
 310  -594.3347
 311  26.661
 312  -113.4522
 313  238.1854
 314  620.9872
 315  -17.23158
 316  -335.4983
 317  -43.1227
 318  348.6689
 319  -71.61432
 320  308.7688
 321  -361.0801
 322  -174.322
 323  -821.6115
 324  -353.7852
 325  -197.1569
 326  -189.0688
 327  322.6016
 328  387.8544
 329  435.4853
 330  -59.05264
 331  -440.5182
 332  -82.62803
 333  -419.6388
 334  -294.2298
 335  22.86846
 336  153.5883
 337  -62.53888
 338  213.7263
 339  183.9451
 340  -370.9237
 341  136.5798
 342  -332.5919
 343  -182.8091
 344  -2.087061
 345  599.4566
 346  430.6028
 347  69.4738
 348  -65.99352
 349  -67.75472
 350  -18.98915
 351  134.6918
 352  -257.237
 353  -425.3154
 354  -369.5027
 355  4.661228
 356  -162.1702
 357  -356.5876
 358  -554.7302
 359  -97.83028
 360  -398.1253
 361  28.08596
 362  247.3251
 363  393.2816
 364  451.4526
 365  -564.0064
 366  -197.8328
 367  584.0411
 368  269.8726
 369  295.6667
 370  297.3703
 371  635.9803
 372  -187.9758
 373  -288.9733
 374  -298.6711
 375  -206.9398
 376  -166.2012
 377  -612.2158
 378  -286.4112
 379  -281.0534
 380  62.31543
 381  -310.0605
 382  -425.6565
 383  -193.7634
 384  -9.156088
 385  210.6813
 386  74.49341
 387  -248.7095
 388  -252.4485
 389  -33.95104
 390  -177.2902
 391  -89.16074
 392  -150.2137
 393  -435.4252
 394  71.70377
 395  -248.5532
 396  -126.8715
 397  -101.6911
 398  332.259
 399  576.496
 400  662.9503
 401  775.1669
 402  268.1587
 403  68.20806
 404  232.0284
 405  128.4109
 406  -20.8417
 407  -28.08793
 408  325.4207
 409  -366.7288
 410  -343.3308
 411  47.87957
 412  241.765
 413  469.4525
 414  652.6125
 415  1043.789
 416  1063.036
 417  1243.037
 418  1077.658
 419  618.1068
 420  445.0736
 421  63.30608
 422  247.4158
 423  139.0862
 424  -25.66406
 425  -20.78468
 426  959.5742
 427  895.7753
 428  601.4715
 429  840.4238
 430  491.5038
 431  313.6528
 432  641.2167
 433  1155.743
 434  745.38
 435  709.1284
 436  603.0665
 437  337.7636
 438  232.8592
 439  -2.631987
 440  317.5325
 441  27.38555
 442  -214.4574
 443  -78.50146
 444  -228.8059
 445  565.3952
 446  76.27376
 447  167.6382
 448  -186.9294
 449  3.164658
 450  147.0549
 451  98.12756
 452  -150.1898
 453  -66.6049
 454  -173.9494
 455  -194.1304
 456  -162.6421
 457  184.7424
 458  494.073
 459  205.4291
 460  167.0164
 461  99.87182
 462  167.5012
 463  453.6579
 464  433.7543
 465  62.92519
 466  436.8643
 467  326.9487
 468  201.6808
 469  323.4368
 470  286.897
 471  -56.46745
 472  499.8868
 473  565.1845
 474  343.9793
 475  -74.09985
 476  -119.7445
 477  -468.1519
 478  -383.2185
 479  -265.0353
 480  -228.6624
 481  -489.2594
 482  -376.3893
 483  -422.5858
 484  -33.49563
 485  -200.9823
 486  239.9707
 487  319.8823
 488  314.1532
 489  -377.0667
 490  -285.161
 491  -73.87513
 492  159.1271
 493  -273.8512
 494  -311.2521
 495  -342.9766
 496  -329.9716
 497  -137.0539
 498  12.66468
 499  261.7589
 500  333.1956
 501  -326.3247
 502  -356.9297
 503  -478.557
 504  -157.9875
 505  -170.3918
 506  -167.0526
 507  399.5646
 508  283.8978
 509  299.4895
 510  -241.175
 511  -325.0821
