# Input file       =  1188077051.109435_cleaned.dat
# Candidate        =  PSR_0332+5434
# Telescope        =  AR
# Epoch_topo       =  57994.892015155499
# Epoch_bary       =  N/A
# T_sample         =  0.002
# Data Folded      =  7208960
# Data Avg         =  0.0753874053458935
# Data StdDev      =  3.52675660007477 
# Profile Bins     =  1024
# Profile Avg      =  530.723146723561 
# Profile StdDev   =  295.911482200071 
# Reduced chi-sqr  =  0.715
# Prob(Noise)      <  1   (~0.0 sigma)
# P_topo (ms)      =  714.463353818498  +/- 0.000104
# P'_topo (s/s)    =  -0                +/- 5.57e-11
# P''_topo (s/s^2) =  0                 +/- 2.5e-14
# P_bary (ms)      =  N/A
# P'_bary (s/s)    =  N/A
# P''_bary (s/s^2) =  N/A
# P_orb (s)        =  N/A
# asin(i)/c (s)    =  N/A
# eccentricity     =  N/A
# w (rad)          =  N/A
# T_peri           =  N/A
######################################################
   0  334.3749
   1  419.9654
   2  395.7233
   3  459.4929
   4  357.7984
   5  484.5554
   6  522.8267
   7  599.5756
   8  550.9421
   9  616.9971
  10  589.2923
  11  587.1785
  12  582.7774
  13  704.442
  14  738.5837
  15  655.4364
  16  581.5298
  17  645.5753
  18  643.7869
  19  635.4142
  20  563.7154
  21  600.6436
  22  562.9028
  23  603.4276
  24  618.6048
  25  483.8011
  26  472.7081
  27  492.0081
  28  587.3076
  29  561.5302
  30  653.2166
  31  677.3301
  32  659.8838
  33  551.2051
  34  583.053
  35  476.6107
  36  507.7769
  37  591.1139
  38  767.285
  39  669.3938
  40  623.3532
  41  693.3469
  42  727.8302
  43  693.7469
  44  519.8764
  45  489.8761
  46  433.9845
  47  451.5215
  48  431.8994
  49  461.5019
  50  471.5709
  51  482.124
  52  630.9102
  53  692.3995
  54  693.2197
  55  665.2286
  56  708.9277
  57  798.1276
  58  733.1165
  59  650.9218
  60  666.4358
  61  650.7746
  62  644.5256
  63  592.2188
  64  612.2662
  65  565.3927
  66  463.0509
  67  358.604
  68  410.0653
  69  495.5225
  70  563.2601
  71  712.309
  72  729.4319
  73  719.2
  74  694.6951
  75  759.85
  76  667.9969
  77  558.4836
  78  616.338
  79  729.383
  80  652.9758
  81  469.1569
  82  484.9484
  83  593.659
  84  607.4982
  85  523.9255
  86  562.5988
  87  556.7415
  88  575.9621
  89  637.8223
  90  693.1549
  91  630.7375
  92  463.7532
  93  504.6143
  94  558.417
  95  668.6559
  96  636.7097
  97  618.7241
  98  566.5218
  99  690.4088
 100  794.7563
 101  803.6383
 102  699.3207
 103  628.1399
 104  612.7403
 105  576.6544
 106  522.272
 107  571.9465
 108  571.7037
 109  568.5495
 110  664.6682
 111  584.5425
 112  447.3139
 113  322.1386
 114  430.4689
 115  715.9317
 116  691.3588
 117  663.3184
 118  483.7701
 119  449.9612
 120  455.3053
 121  507.9679
 122  531.158
 123  547.3679
 124  378.8695
 125  554.983
 126  552.5569
 127  573.1143
 128  482.4564
 129  388.2202
 130  435.4128
 131  446.425
 132  507.8299
 133  409.2573
 134  316.0756
 135  379.4698
 136  643.0792
 137  723.522
 138  597.28
 139  385.5746
 140  487.7071
 141  479.4496
 142  560.2524
 143  584.444
 144  655.0086
 145  670.1306
 146  527.4166
 147  521.9787
 148  550.7502
 149  438.4158
 150  471.9935
 151  525.4081
 152  606.5698
 153  421.9272
 154  420.3183
 155  520.9922
 156  626.0444
 157  676.3198
 158  757.423
 159  747.6986
 160  576.8007
 161  440.716
 162  361.14
 163  351.4903
 164  387.9417
 165  413.2819
 166  481.8337
 167  559.123
 168  751.1158
 169  827.2036
 170  786.1408
 171  650.317
 172  677.4253
 173  789.2886
 174  721.0416
 175  709.5476
 176  699.671
 177  717.0015
 178  644.6719
 179  527.3101
 180  493.2937
 181  339.4606
 182  344.5928
 183  323.8171
 184  383.6902
 185  463.59
 186  556.8498
 187  645.0349
 188  566.2362
 189  597.463
 190  651.7086
 191  672.6039
 192  505.381
 193  442.0514
 194  506.9805
 195  610.0072
 196  535.3716
 197  441.2508
 198  332.2191
 199  337.8007
 200  403.4877
 201  514.8134
 202  499.0714
 203  392.8569
 204  379.6355
 205  552.4468
 206  634.585
 207  613.7587
 208  607.4451
 209  648.3906
 210  522.0687
 211  421.8287
 212  474.47
 213  549.0103
 214  368.8387
 215  319.2115
 216  439.5978
 217  613.7437
 218  558.8625
 219  412.8474
 220  521.3754
 221  588.3674
 222  561.5458
 223  582.58
 224  597.4263
 225  661.5507
 226  604.7139
 227  776.5224
 228  738.838
 229  599.6145
 230  561.4155
 231  564.1125
 232  430.9297
 233  334.9258
 234  401.2624
 235  547.6786
 236  636.1076
 237  690.6398
 238  867.4197
 239  806.2762
 240  810.8944
 241  773.8474
 242  844.6554
 243  817.4578
 244  752.061
 245  743.7672
 246  539.942
 247  412.4056
 248  391.8294
 249  369.9287
 250  358.6576
 251  450.6205
 252  460.6638
 253  537.8652
 254  458.9556
 255  674.4698
 256  746.2047
 257  800.3293
 258  754.057
 259  687.8409
 260  637.4902
 261  582.8215
 262  501.7475
 263  498.8734
 264  530.1443
 265  515.5179
 266  503.1339
 267  515.881
 268  635.8641
 269  628.3877
 270  449.1946
 271  457.7161
 272  473.2021
 273  402.2261
 274  358.8378
 275  444.9806
 276  528.7499
 277  568.0468
 278  667.4756
 279  697.6251
 280  552.3374
 281  532.5648
 282  557.8063
 283  568.0895
 284  526.1629
 285  556.2679
 286  539.0945
 287  459.4528
 288  469.4051
 289  565.5657
 290  505.5016
 291  290.6887
 292  212.9497
 293  419.8977
 294  552.8762
 295  584.1368
 296  536.1727
 297  352.9384
 298  243.7694
 299  353.7708
 300  495.7095
 301  553.0248
 302  475.8483
 303  519.3711
 304  502.7041
 305  559.0044
 306  537.8193
 307  522.2099
 308  518.1881
 309  444.8537
 310  494.6152
 311  453.734
 312  363.3359
 313  291.6774
 314  350.2164
 315  383.0353
 316  459.845
 317  536.5192
 318  530.9405
 319  493.9024
 320  505.9487
 321  452.0421
 322  347.0376
 323  274.0724
 324  322.6134
 325  444.9058
 326  458.9202
 327  477.2551
 328  516.4534
 329  583.9144
 330  607.6791
 331  480.8815
 332  343.5981
 333  314.3889
 334  354.4057
 335  541.8193
 336  570.9236
 337  582.1247
 338  481.095
 339  386.9174
 340  310.7391
 341  246.2244
 342  297.1005
 343  396.9727
 344  521.0012
 345  483.5769
 346  466.5919
 347  445.6462
 348  433.9456
 349  387.0261
 350  477.8949
 351  687.5258
 352  739.741
 353  777.0471
 354  822.5969
 355  826.1722
 356  660.5976
 357  647.6685
 358  711.3993
 359  635.57
 360  492.4327
 361  379.7017
 362  492.0354
 363  377.2887
 364  313.6692
 365  319.9242
 366  516.9827
 367  608.6616
 368  666.3529
 369  642.9147
 370  650.6478
 371  789.6569
 372  880.3018
 373  954.9405
 374  857.4485
 375  775.4264
 376  722.2271
 377  551.0173
 378  319.9263
 379  306.4434
 380  388.6215
 381  429.7178
 382  332.6551
 383  315.5276
 384  472.7132
 385  513.485
 386  565.1333
 387  512.6843
 388  620.1508
 389  719.7665
 390  701.8364
 391  608.7498
 392  555.9312
 393  507.6056
 394  498.2822
 395  480.0938
 396  513.5024
 397  490.084
 398  465.6826
 399  386.5225
 400  333.0912
 401  410.8118
 402  517.9315
 403  599.2966
 404  621.7805
 405  598.1718
 406  579.1868
 407  505.8728
 408  509.9445
 409  407.3854
 410  222.3471
 411  132.965
 412  312.9717
 413  508.6673
 414  489.4047
 415  389.6156
 416  444.3421
 417  547.5112
 418  533.3424
 419  578.2817
 420  569.7806
 421  611.6488
 422  644.9641
 423  582.9497
 424  455.5692
 425  355.7602
 426  352.8221
 427  466.0082
 428  337.3752
 429  330.1245
 430  426.9928
 431  627.6254
 432  641.4816
 433  627.9764
 434  644.199
 435  735.3786
 436  607.3229
 437  563.5311
 438  550.4066
 439  520.8541
 440  446.5267
 441  384.5958
 442  443.593
 443  488.9505
 444  633.6009
 445  699.4914
 446  570.1793
 447  327.5163
 448  199.9076
 449  324.7606
 450  399.0989
 451  442.9751
 452  470.0374
 453  478.1175
 454  455.5604
 455  397.8048
 456  274.7898
 457  353.8489
 458  427.5711
 459  596.9521
 460  506.998
 461  429.7227
 462  456.7564
 463  516.4872
 464  563.704
 465  346.2606
 466  294.4081
 467  254.9694
 468  447.58
 469  564.4929
 470  698.7033
 471  590.7676
 472  536.2889
 473  479.2007
 474  489.3026
 475  457.0012
 476  422.4397
 477  431.3076
 478  457.8442
 479  484.5428
 480  512.8052
 481  491.3107
 482  368.1103
 483  281.4769
 484  388.0533
 485  554.407
 486  568.7573
 487  462.6419
 488  537.3684
 489  593.0714
 490  597.788
 491  564.6818
 492  513.2483
 493  457.5656
 494  347.9503
 495  406.5377
 496  425.034
 497  398.0376
 498  429.4956
 499  459.922
 500  589.0919
 501  652.0994
 502  641.7175
 503  741.3016
 504  735.44
 505  799.946
 506  624.0385
 507  430.6816
 508  406.1337
 509  404.2183
 510  479.9167
 511  438.6897
 512  464.3059
 513  408.7143
 514  377.4449
 515  507.4855
 516  530.3975
 517  609.0754
 518  603.01
 519  726.2146
 520  757.4653
 521  695.6509
 522  618.8372
 523  607.9235
 524  555.8374
 525  408.713
 526  349.4663
 527  353.815
 528  559.5254
 529  568.4499
 530  445.727
 531  203.1911
 532  290.7561
 533  378.4367
 534  393.6427
 535  404.3278
 536  549.2119
 537  458.3508
 538  408.2717
 539  370.7588
 540  450.1713
 541  502.346
 542  553.2358
 543  488.1031
 544  263.0078
 545  295.771
 546  367.0706
 547  533.3175
 548  546.9523
 549  648.971
 550  699.7534
 551  632.1448
 552  457.3626
 553  373.0814
 554  452.6279
 555  359.786
 556  319.6811
 557  306.9733
 558  477.1832
 559  457.6391
 560  538.997
 561  486.0825
 562  445.427
 563  326.7954
 564  271.9023
 565  327.7889
 566  235.5291
 567  214.5592
 568  288.9054
 569  418.7159
 570  491.321
 571  481.3249
 572  431.3064
 573  453.8875
 574  367.5361
 575  382.3246
 576  430.3044
 577  370.1783
 578  315.1886
 579  388.4778
 580  551.0035
 581  582.7054
 582  514.295
 583  631.7409
 584  634.6996
 585  510.2543
 586  518.3536
 587  623.3745
 588  684.5149
 589  535.5961
 590  492.9863
 591  433.5241
 592  475.6324
 593  600.3521
 594  725.9689
 595  603.0161
 596  384.5386
 597  422.2613
 598  567.7239
 599  624.0876
 600  474.4211
 601  626.7141
 602  699.3126
 603  630.4862
 604  365.0396
 605  287.1119
 606  312.5015
 607  369.9254
 608  523.5987
 609  428.6129
 610  398.113
 611  369.1276
 612  396.1959
 613  473.852
 614  436.8272
 615  467.2758
 616  498.8342
 617  519.0768
 618  471.2019
 619  460.0186
 620  401.3608
 621  564.0689
 622  629.8294
 623  773.8012
 624  619.6318
 625  478.1512
 626  323.6703
 627  315.8643
 628  391.3634
 629  425.5207
 630  510.0197
 631  508.0049
 632  550.7676
 633  461.3116
 634  501.5423
 635  663.5384
 636  764.7396
 637  783.3752
 638  801.8513
 639  748.3764
 640  767.7253
 641  806.5315
 642  859.9785
 643  871.3686
 644  911.415
 645  953.3309
 646  1039.205
 647  996.2031
 648  1073.363
 649  1058.644
 650  971.0822
 651  861.7988
 652  922.5427
 653  863.6405
 654  661.7853
 655  351.7249
 656  431.6229
 657  277.3045
 658  387.445
 659  474.6995
 660  356.1352
 661  130.9274
 662  115.8601
 663  386.3998
 664  558.9953
 665  537.7029
 666  516.2377
 667  516.9032
 668  532.4697
 669  633.9557
 670  548.1699
 671  455.4637
 672  305.5234
 673  387.7594
 674  618.4199
 675  618.2557
 676  581.9053
 677  529.8959
 678  547.0757
 679  510.3534
 680  546.2468
 681  528.5056
 682  525.1107
 683  595.2538
 684  616.8659
 685  520.332
 686  332.3287
 687  260.8158
 688  264.9926
 689  202.1298
 690  150.0016
 691  289.8388
 692  432.2019
 693  537.2602
 694  461.5602
 695  543.7932
 696  519.7045
 697  476.6549
 698  459.9189
 699  532.4642
 700  657.0574
 701  637.3871
 702  665.1129
 703  775.6455
 704  699.4341
 705  537.3922
 706  573.5243
 707  697.46
 708  652.8006
 709  495.1702
 710  449.7124
 711  501.0824
 712  389.3157
 713  525.7619
 714  517.6897
 715  520.3406
 716  461.7703
 717  548.6976
 718  606.165
 719  507.7916
 720  363.3098
 721  392.1767
 722  347.1214
 723  335.9493
 724  338.336
 725  359.0776
 726  346.2614
 727  237.4667
 728  341.291
 729  286.634
 730  171.7163
 731  256.5331
 732  402.4431
 733  611.0342
 734  568.2971
 735  701.8155
 736  773.6658
 737  767.8466
 738  802.5908
 739  820.4323
 740  742.3162
 741  474.8553
 742  344.8669
 743  394.6306
 744  458.5263
 745  358.01
 746  452.0846
 747  616.1888
 748  786.9464
 749  624.6234
 750  627.2662
 751  590.0377
 752  556.9091
 753  429.0176
 754  491.0239
 755  593.9274
 756  633.3564
 757  604.8785
 758  460.493
 759  248.9307
 760  299.9301
 761  407.975
 762  439.4114
 763  290.8921
 764  365.1693
 765  493.406
 766  561.8329
 767  516.4265
 768  475.2454
 769  611.9806
 770  664.4302
 771  715.7332
 772  630.5082
 773  435.6039
 774  355.3585
 775  433.7068
 776  547.774
 777  468.4242
 778  378.8475
 779  473.9816
 780  557.0164
 781  612.4547
 782  575.8051
 783  511.9527
 784  398.7454
 785  405.9156
 786  451.5544
 787  496.7966
 788  321.7115
 789  324.4639
 790  475.0697
 791  696.1011
 792  618.4795
 793  616.5559
 794  624.1013
 795  661.7357
 796  677.0684
 797  656.1133
 798  589.3412
 799  529.0723
 800  453.2732
 801  599.2764
 802  597.6401
 803  526.8232
 804  439.2701
 805  493.3993
 806  601.3657
 807  567.6902
 808  617.5966
 809  545.3315
 810  513.7877
 811  514.2065
 812  707.8466
 813  715.6462
 814  702.4702
 815  633.4591
 816  615.2729
 817  574.7509
 818  578.2809
 819  646.3835
 820  711.1756
 821  627.6578
 822  611.1888
 823  540.2983
 824  602.983
 825  623.4714
 826  558.8124
 827  548.0299
 828  478.4232
 829  514.7266
 830  503.9404
 831  506.8637
 832  461.8435
 833  432.437
 834  461.1437
 835  534.5293
 836  454.9214
 837  577.9147
 838  712.264
 839  823.1805
 840  846.9453
 841  828.8971
 842  795.3501
 843  647.3696
 844  547.2576
 845  591.4013
 846  614.5227
 847  738.1395
 848  773.1237
 849  765.2728
 850  733.6935
 851  653.6041
 852  561.9043
 853  491.5769
 854  459.8459
 855  540.0322
 856  562.6512
 857  513.9793
 858  438.7173
 859  384.1585
 860  487.8449
 861  611.4933
 862  676.6207
 863  558.8198
 864  383.7243
 865  354.8561
 866  457.4752
 867  502.8101
 868  397.1656
 869  311.665
 870  389.126
 871  455.3139
 872  509.2859
 873  405.2967
 874  444.9119
 875  411.3605
 876  442.1633
 877  528.8551
 878  400.8032
 879  370.8708
 880  378.2452
 881  501.5759
 882  492.3529
 883  441.8469
 884  421.6119
 885  413.3835
 886  361.9765
 887  436.4917
 888  447.8503
 889  487.866
 890  414.2042
 891  554.2218
 892  667.7827
 893  621.7765
 894  407.9461
 895  453.6408
 896  549.8376
 897  616.1288
 898  561.8201
 899  504.1282
 900  464.6307
 901  448.5547
 902  602.174
 903  651.9282
 904  590.7543
 905  444.2108
 906  432.4583
 907  450.155
 908  525.9828
 909  550.8599
 910  571.2109
 911  580.7237
 912  650.9896
 913  649.5581
 914  626.0267
 915  534.9053
 916  539.2289
 917  571.5996
 918  595.0377
 919  585.3104
 920  655.059
 921  582.3573
 922  504.3697
 923  362.2285
 924  425.799
 925  539.525
 926  564.4393
 927  577.1862
 928  617.7239
 929  622.936
 930  608.225
 931  556.5817
 932  629.0697
 933  605.4255
 934  549.3334
 935  443.9436
 936  338.3737
 937  313.5779
 938  454.2064
 939  534.219
 940  577.8132
 941  577.9864
 942  731.6823
 943  716.8834
 944  574.1461
 945  570.4271
 946  653.2137
 947  701.6622
 948  603.874
 949  704.0462
 950  803.3221
 951  756.1395
 952  718.162
 953  707.7108
 954  677.299
 955  696.0715
 956  685.6199
 957  739.9934
 958  569.5908
 959  464.1823
 960  471.2142
 961  548.4166
 962  465.3366
 963  396.8513
 964  396.5637
 965  520.4694
 966  481.7518
 967  454.3998
 968  385.4351
 969  441.041
 970  443.9857
 971  564.439
 972  669.6918
 973  777.753
 974  660.0557
 975  615.757
 976  676.7255
 977  726.6596
 978  658.7944
 979  619.1251
 980  508.3107
 981  479.804
 982  442.5335
 983  480.7297
 984  517.8836
 985  672.0219
 986  818.6533
 987  721.8268
 988  555.696
 989  425.5462
 990  375.5073
 991  394.6737
 992  495.7045
 993  639.3118
 994  647.9191
 995  506.3603
 996  424.3143
 997  497.6886
 998  520.5839
 999  501.2045
1000  431.5166
1001  380.6091
1002  367.8244
1003  440.3918
1004  553.9558
1005  563.8494
1006  583.4614
1007  680.372
1008  681.1613
1009  605.7756
1010  450.3855
1011  409.6451
1012  381.4559
1013  364.8259
1014  496.6704
1015  596.922
1016  670.9097
1017  549.598
1018  515.3388
1019  577.1187
1020  520.3549
1021  479.738
1022  393.55
1023  454.1574
