# Input file       =  1188436404.113469_cleaned.dat
# Candidate        =  PSR_0332+5434
# Telescope        =  AR
# Epoch_topo       =  57999.051193442931
# Epoch_bary       =  N/A
# T_sample         =  0.002
# Data Folded      =  7340032
# Data Avg         =  0.0195276022745279
# Data StdDev      =  2.35439591838612 
# Profile Bins     =  512
# Profile Avg      =  279.912380551558 
# Profile StdDev   =  281.898972141434 
# Reduced chi-sqr  =  1.158
# Prob(Noise)      <  0.00761   (~2.4 sigma)
# P_topo (ms)      =  714.463622708772  +/- 0.000173
# P'_topo (s/s)    =  -0                +/- 9.12e-11
# P''_topo (s/s^2) =  0                 +/- 4.03e-14
# P_bary (ms)      =  N/A
# P'_bary (s/s)    =  N/A
# P''_bary (s/s^2) =  N/A
# P_orb (s)        =  N/A
# asin(i)/c (s)    =  N/A
# eccentricity     =  N/A
# w (rad)          =  N/A
# T_peri           =  N/A
######################################################
   0  322.2874
   1  389.3086
   2  370.2729
   3  290.6584
   4  140.551
   5  324.0601
   6  426.5489
   7  263.9778
   8  358.346
   9  386.2013
  10  -4.351083
  11  357.1927
  12  99.45208
  13  44.7354
  14  203.7375
  15  579.2274
  16  867.375
  17  520.756
  18  273.9642
  19  254.6319
  20  131.4556
  21  226.3782
  22  34.81877
  23  198.1962
  24  407.1185
  25  307.3519
  26  147.1078
  27  97.04731
  28  210.1688
  29  346.6329
  30  389.5343
  31  66.09372
  32  189.5341
  33  442.4813
  34  143.2435
  35  332.1655
  36  289.4832
  37  10.76779
  38  64.40355
  39  86.93194
  40  443.8542
  41  354.0896
  42  223.2942
  43  279.6444
  44  -151.6312
  45  -114.8757
  46  167.3888
  47  186.8202
  48  335.597
  49  302.1424
  50  322.5496
  51  114.0716
  52  -40.06813
  53  42.31778
  54  -47.10603
  55  228.5297
  56  370.719
  57  272.0702
  58  -119.4602
  59  199.4297
  60  506.5779
  61  383.205
  62  300.2008
  63  84.21957
  64  243.1062
  65  318.4168
  66  255.6836
  67  -1.561337
  68  -199.6138
  69  393.7684
  70  622.6036
  71  702.6337
  72  857.1777
  73  899.4529
  74  1128.886
  75  1461.603
  76  1610.928
  77  1234.791
  78  624.8242
  79  465.9616
  80  405.545
  81  341.8228
  82  254.2353
  83  -32.70984
  84  149.2829
  85  171.4493
  86  29.73742
  87  253.1864
  88  497.2811
  89  555.1638
  90  507.4346
  91  388.9386
  92  247.5575
  93  454.2386
  94  387.0448
  95  596.3933
  96  567.1829
  97  345.4182
  98  381.4287
  99  344.6501
 100  300.8206
 101  620.4614
 102  407.1694
 103  123.9673
 104  127.1531
 105  -136.6422
 106  61.22985
 107  76.01038
 108  442.5654
 109  537.034
 110  65.87072
 111  91.02422
 112  212.9036
 113  308.3325
 114  468.4419
 115  586.1912
 116  282.9527
 117  333.3835
 118  435.33
 119  520.002
 120  255.8885
 121  128.091
 122  76.68511
 123  215.3334
 124  653.6768
 125  911.5085
 126  749.6712
 127  445.0727
 128  284.3093
 129  62.84295
 130  309.1625
 131  388.8398
 132  533.928
 133  573.4421
 134  378.8321
 135  485.4184
 136  702.0866
 137  888.687
 138  783.4584
 139  314.782
 140  103.8332
 141  37.97866
 142  291.6537
 143  296.3558
 144  438.2344
 145  293.1603
 146  147.9124
 147  316.5185
 148  93.98236
 149  73.7925
 150  394.9684
 151  376.8672
 152  35.95753
 153  279.9858
 154  240.1598
 155  65.35708
 156  371.7067
 157  43.93174
 158  278.6358
 159  587.1978
 160  370.4323
 161  -15.97037
 162  -16.5232
 163  130.8822
 164  121.2431
 165  251.8314
 166  110.4742
 167  285.1201
 168  247.2241
 169  71.65546
 170  -129.3717
 171  98.13004
 172  406.3205
 173  184.4011
 174  -202.8428
 175  15.09834
 176  157.0444
 177  254.4932
 178  153.1382
 179  284.1092
 180  531.0203
 181  130.5267
 182  225.9017
 183  146.3862
 184  210.8743
 185  427.7882
 186  320.4072
 187  146.6875
 188  -91.80769
 189  134.2644
 190  301.9298
 191  124.123
 192  188.5297
 193  478.4161
 194  305.0706
 195  33.42186
 196  29.51864
 197  356.0657
 198  501.4394
 199  464.4936
 200  324.9938
 201  263.3674
 202  182.0275
 203  187.763
 204  390.8105
 205  -49.49479
 206  31.39315
 207  416.3762
 208  373.3948
 209  317.3935
 210  604.7413
 211  652.4339
 212  416.6394
 213  260.184
 214  273.1967
 215  343.2764
 216  390.9562
 217  162.0899
 218  197.2325
 219  -252.5156
 220  30.46853
 221  59.19432
 222  -82.25992
 223  -66.1549
 224  187.7397
 225  282.6441
 226  320.2811
 227  300.1086
 228  276.3761
 229  65.8083
 230  165.6224
 231  363.2908
 232  565.0042
 233  690.1987
 234  284.1384
 235  270.9079
 236  238.9016
 237  532.412
 238  606.3038
 239  507.1475
 240  453.5142
 241  335.3568
 242  -145.5097
 243  144.6414
 244  167.7575
 245  19.83337
 246  -66.10011
 247  299.4895
 248  301.4483
 249  135.9707
 250  251.8223
 251  633.4196
 252  430.0119
 253  115.7635
 254  204.0854
 255  407.9361
 256  445.1609
 257  122.6431
 258  -44.31501
 259  166.7621
 260  247.369
 261  532.0582
 262  505.7177
 263  161.508
 264  221.8343
 265  519.5322
 266  369.4292
 267  560.4511
 268  611.5732
 269  229.3581
 270  -11.76643
 271  407.4739
 272  515.566
 273  260.7546
 274  285.0561
 275  391.6581
 276  138.4246
 277  191.6396
 278  483.5316
 279  607.5547
 280  440.286
 281  229.3667
 282  132.057
 283  232.4982
 284  347.3046
 285  94.83348
 286  108.4538
 287  235.6401
 288  297.8182
 289  200.1483
 290  124.0034
 291  36.83178
 292  94.41025
 293  -8.30306
 294  207.7386
 295  101.9265
 296  15.64964
 297  111.4452
 298  350.5881
 299  251.7672
 300  622.2808
 301  572.9308
 302  89.49776
 303  -52.67837
 304  564.8611
 305  699.2589
 306  309.853
 307  268.6852
 308  397.6937
 309  185.0224
 310  344.0232
 311  119.7071
 312  349.5901
 313  505.5972
 314  494.8869
 315  429.9673
 316  67.99344
 317  104.9455
 318  324.3172
 319  212.4231
 320  183.6191
 321  488.8677
 322  533.0306
 323  251.9701
 324  279.5838
 325  202.2643
 326  -42.99123
 327  36.74529
 328  269.9904
 329  96.84098
 330  226.5508
 331  138.0455
 332  211.5992
 333  284.4986
 334  309.5508
 335  241.4946
 336  -69.16783
 337  56.11865
 338  258.3012
 339  405.5377
 340  595.985
 341  125.9931
 342  154.0134
 343  204.1871
 344  388.8669
 345  331.8388
 346  266.7759
 347  150.9151
 348  135.0641
 349  141.1123
 350  110.3328
 351  70.36419
 352  163.2843
 353  21.10294
 354  2.232919
 355  246.2717
 356  400.6503
 357  520.3992
 358  211.6197
 359  59.7457
 360  12.06874
 361  295.381
 362  -2.922895
 363  46.81269
 364  103.8459
 365  294.969
 366  54.64099
 367  176.0895
 368  372.8626
 369  404.2371
 370  86.74084
 371  -268.5049
 372  18.29213
 373  325.2879
 374  276.2504
 375  226.6089
 376  357.4527
 377  394.65
 378  282.9915
 379  113.6392
 380  217.5394
 381  244.1674
 382  223.9673
 383  492.0753
 384  278.3873
 385  226.8044
 386  -1.334949
 387  -50.66972
 388  441.1846
 389  397.1792
 390  76.60013
 391  179.1183
 392  77.01015
 393  9.39433
 394  91.11832
 395  612.6806
 396  480.7817
 397  369.4638
 398  520.8866
 399  369.8371
 400  373.9265
 401  -24.864
 402  255.966
 403  22.01543
 404  186.8587
 405  323.8454
 406  322.5991
 407  121.3006
 408  174.1994
 409  266.0499
 410  -36.39848
 411  74.39245
 412  169.027
 413  482.1021
 414  102.6166
 415  -129.6326
 416  34.04379
 417  97.63051
 418  204.0008
 419  173.2922
 420  443.4922
 421  391.3117
 422  405.3154
 423  186.054
 424  177.7939
 425  242.6993
 426  63.32918
 427  52.78506
 428  253.544
 429  579.1544
 430  357.1485
 431  307.1223
 432  272.0881
 433  379.2953
 434  326.9664
 435  268.7618
 436  540.0101
 437  424.1542
 438  279.1793
 439  182.6428
 440  258.9348
 441  148.9484
 442  174.7171
 443  292.6095
 444  305.6773
 445  471.4785
 446  555.7097
 447  379.125
 448  326.9616
 449  504.5732
 450  660.02
 451  192.9417
 452  6.787711
 453  97.78193
 454  529.4419
 455  507.928
 456  292.0455
 457  39.35808
 458  458.7913
 459  629.0349
 460  453.787
 461  620.7145
 462  482.8924
 463  432.0805
 464  26.94295
 465  244.6924
 466  369.7899
 467  377.3916
 468  451.3198
 469  474.7066
 470  349.4084
 471  717.9814
 472  761.4514
 473  526.9664
 474  526.0669
 475  496.6551
 476  542.2619
 477  279.3558
 478  123.572
 479  263.6661
 480  423.9744
 481  258.5143
 482  500.7288
 483  316.4783
 484  -80.05449
 485  289.0318
 486  298.0144
 487  353.9571
 488  682.0976
 489  487.7018
 490  183.0435
 491  70.18137
 492  435.2183
 493  219.2504
 494  179.368
 495  252.1767
 496  20.18348
 497  -31.15494
 498  384.8408
 499  395.2676
 500  161.1656
 501  -3.716537
 502  221.914
 503  275.7516
 504  51.13727
 505  157.1458
 506  334.8686
 507  292.7444
 508  66.88896
 509  81.49417
 510  408.1264
 511  336.066
