# Input file       =  1188507916.120346_cleaned.dat
# Candidate        =  PSR_0332+5434
# Telescope        =  AR
# Epoch_topo       =  57999.878878707706
# Epoch_bary       =  N/A
# T_sample         =  0.002
# Data Folded      =  7143424
# Data Avg         =  0.165640972827031
# Data StdDev      =  3.64749997496614 
# Profile Bins     =  512
# Profile Avg      =  2311.04398203039 
# Profile StdDev   =  430.837533940646 
# Reduced chi-sqr  =  0.601
# Prob(Noise)      <  1   (~0.0 sigma)
# P_topo (ms)      =  714.463691854891  +/- 0.00114
# P'_topo (s/s)    =  -0                +/- 6.2e-10
# P''_topo (s/s^2) =  0                 +/- 2.81e-13
# P_bary (ms)      =  N/A
# P'_bary (s/s)    =  N/A
# P''_bary (s/s^2) =  N/A
# P_orb (s)        =  N/A
# asin(i)/c (s)    =  N/A
# eccentricity     =  N/A
# w (rad)          =  N/A
# T_peri           =  N/A
######################################################
   0  1822.774
   1  2045.887
   2  2362.82
   3  2415.384
   4  2529.05
   5  2517.159
   6  2311.425
   7  2183.973
   8  2364.988
   9  2130.33
  10  1968.874
  11  2172.788
  12  2019.22
  13  2324.001
  14  2394.434
  15  2312.509
  16  2140.722
  17  2184.725
  18  2301.748
  19  2184.375
  20  2278.566
  21  2000.544
  22  2107.239
  23  2109.845
  24  2175.52
  25  2171.746
  26  2284.979
  27  2448.507
  28  2257.147
  29  2649.119
  30  2369.938
  31  2019.775
  32  2014.034
  33  2221.317
  34  2389.836
  35  2083.702
  36  2311.433
  37  2433
  38  2346.467
  39  1926.733
  40  1867.981
  41  2244.519
  42  2268.463
  43  1852.833
  44  2140.279
  45  2245.64
  46  2043.18
  47  2293.14
  48  2342.148
  49  2223.097
  50  2198.729
  51  2153.328
  52  2095.786
  53  2054.599
  54  2394.179
  55  2276.273
  56  2280.574
  57  2181.37
  58  2262.968
  59  2269.849
  60  2149.068
  61  2220
  62  2061.392
  63  2100.709
  64  2165.509
  65  1875.668
  66  2016.361
  67  2427.741
  68  2314.967
  69  2383.52
  70  2259.927
  71  1921.849
  72  2131.545
  73  2175.458
  74  2155.463
  75  2238.886
  76  2194.185
  77  2358.192
  78  2415.005
  79  2276.921
  80  2486.718
  81  2459.505
  82  2124.781
  83  2060.508
  84  2096.461
  85  2376.14
  86  2323.282
  87  2554.981
  88  2327.491
  89  2118.888
  90  2343.022
  91  2330.021
  92  2286.509
  93  2399.183
  94  2678.692
  95  2369.473
  96  2241.74
  97  2243.672
  98  2165.418
  99  2192.581
 100  2620.157
 101  2595.619
 102  2419.611
 103  2390.02
 104  2421.896
 105  2522.31
 106  1997.64
 107  2124.011
 108  2183.557
 109  2067.128
 110  2100.17
 111  2664.623
 112  2549.56
 113  2203.042
 114  2310.941
 115  2093.98
 116  1976.863
 117  1929.392
 118  2512.344
 119  2487.312
 120  2479.996
 121  2544.066
 122  2335.512
 123  2113.256
 124  2216.098
 125  2505.492
 126  2424.293
 127  2211.943
 128  2252.808
 129  2091.396
 130  2537.122
 131  2747.513
 132  2491.24
 133  2369.458
 134  2431.637
 135  2061.382
 136  1862.686
 137  2047.036
 138  2487.066
 139  2131.555
 140  1929.629
 141  2337.589
 142  2305.14
 143  2328.842
 144  2534.784
 145  2627.358
 146  2192.966
 147  2154.851
 148  2259.586
 149  2146.639
 150  2402.798
 151  2581.793
 152  2408.505
 153  2622.256
 154  2681.73
 155  2089.405
 156  2202.461
 157  2404.971
 158  2592.18
 159  2773.777
 160  2935.009
 161  2515.665
 162  2512.57
 163  2800.527
 164  3523.082
 165  3614.785
 166  3643.795
 167  3699.104
 168  3254.781
 169  2950.207
 170  2821.302
 171  2516.899
 172  2622.847
 173  2122.971
 174  2437.27
 175  2156.821
 176  1997.277
 177  1899.934
 178  1955.123
 179  2091.065
 180  2219.315
 181  2293.51
 182  2204.657
 183  2210.345
 184  2153.718
 185  1973.32
 186  1957.3
 187  2274.608
 188  2377.272
 189  2244.87
 190  1796.163
 191  1857.724
 192  2159.969
 193  2099.549
 194  2036.643
 195  1919.879
 196  2204.403
 197  2070.997
 198  2132.732
 199  2207.718
 200  2509.597
 201  2307.493
 202  2067.56
 203  2094.571
 204  2243.292
 205  2147.726
 206  1981.125
 207  2311.709
 208  1861.109
 209  1942.136
 210  1957.138
 211  1930.37
 212  2095.97
 213  1951.532
 214  2329.337
 215  1985.485
 216  1970.381
 217  2256.574
 218  2457.074
 219  2337.168
 220  2095.931
 221  2179.632
 222  2710.25
 223  2761.16
 224  2390.945
 225  2778.631
 226  2645.275
 227  2396.287
 228  2419.696
 229  2577.765
 230  2101.38
 231  1970.655
 232  2431.997
 233  2233.263
 234  2101.198
 235  2127.013
 236  2365.706
 237  2679.419
 238  2584.569
 239  2467.711
 240  2442.056
 241  2316.45
 242  2279.972
 243  2224.099
 244  2081.262
 245  2274.051
 246  2185.916
 247  2080.708
 248  2216.671
 249  2404.185
 250  2168.85
 251  2273.495
 252  1955.63
 253  2231.008
 254  2024.551
 255  1871.788
 256  2269.719
 257  2055.942
 258  2558.937
 259  2486.386
 260  2328.27
 261  2294.645
 262  2207.959
 263  2176.131
 264  2057.146
 265  2285.784
 266  2260.013
 267  2389.674
 268  2421.108
 269  2344.246
 270  2343.396
 271  2285.944
 272  2417.82
 273  2310.003
 274  2130.663
 275  2292.736
 276  2524.352
 277  2566.052
 278  2330.94
 279  2191.994
 280  2233.621
 281  2276.594
 282  2125.238
 283  2342.068
 284  2217.405
 285  2323.126
 286  2375.067
 287  2846.419
 288  2483.085
 289  2336.084
 290  2097.768
 291  2261.67
 292  2279.838
 293  2294.498
 294  2295.844
 295  1934.02
 296  1844.444
 297  2111.891
 298  2400.857
 299  2424.518
 300  2419.425
 301  2639.32
 302  2686.446
 303  2499.184
 304  2197.294
 305  2164.231
 306  2138.497
 307  2238.688
 308  2552.957
 309  2433.051
 310  2485.563
 311  2570.116
 312  2616.728
 313  2399.568
 314  2285.509
 315  2230.774
 316  2383.24
 317  2465.291
 318  2466.277
 319  2391.292
 320  2571.403
 321  2535.809
 322  2252.683
 323  2404.624
 324  2291.571
 325  2258.236
 326  2189.192
 327  2125.506
 328  2355.794
 329  2634.76
 330  2881.965
 331  2525.166
 332  2719.781
 333  2449.081
 334  2460.717
 335  2424.547
 336  2366.683
 337  2229.495
 338  2016.551
 339  2121.446
 340  2101.151
 341  2272.798
 342  2523.18
 343  2468.569
 344  2565.183
 345  2445.274
 346  2768.836
 347  2969.462
 348  2081.244
 349  2233.45
 350  2807.914
 351  2743.823
 352  2351.288
 353  2268.825
 354  2370.131
 355  2222.516
 356  2511.482
 357  2291.428
 358  2125.194
 359  2263.475
 360  2426.807
 361  2546.436
 362  2286.331
 363  2156.154
 364  2255.866
 365  2367.518
 366  2465.879
 367  2370.865
 368  2188.342
 369  2335.541
 370  2434.414
 371  1934.661
 372  2200.18
 373  2201.039
 374  2270.644
 375  1885.583
 376  2062.708
 377  2153.702
 378  2390.663
 379  2506.903
 380  2427.732
 381  2514.812
 382  2179.519
 383  2350.306
 384  2281.663
 385  2319.827
 386  2388.349
 387  2311.499
 388  2486.622
 389  1995.092
 390  2198.955
 391  2187.146
 392  2156.565
 393  2019.377
 394  2233.181
 395  2153.242
 396  2262.75
 397  2518.215
 398  2499.11
 399  2392.357
 400  2096.762
 401  2026.783
 402  2326.486
 403  2662.844
 404  2624.937
 405  2584.475
 406  2203.919
 407  2013.881
 408  1997.595
 409  2482.675
 410  2373.456
 411  2093.246
 412  2152.117
 413  2297.838
 414  2426.5
 415  2358.091
 416  2469.656
 417  2417.512
 418  2634.263
 419  2636.753
 420  2348.223
 421  2515.447
 422  2463.055
 423  2468.009
 424  2543.824
 425  2264.345
 426  2211.741
 427  2065.586
 428  2287.035
 429  2518.342
 430  2491.853
 431  2270.872
 432  2240.637
 433  2354.203
 434  2455.56
 435  2461.093
 436  2574.866
 437  2430.936
 438  2109.316
 439  2362.398
 440  2399.834
 441  2499.368
 442  2462.508
 443  2323.309
 444  2120.081
 445  2429.51
 446  2382.916
 447  2440.119
 448  2683.761
 449  2246.81
 450  2281.749
 451  1983.622
 452  2021.697
 453  2160.514
 454  2170.415
 455  2544.994
 456  2116.244
 457  2193.223
 458  2355.032
 459  2186.543
 460  2002.146
 461  2241.108
 462  2437.267
 463  2312.519
 464  2589.989
 465  2662.269
 466  2268.589
 467  2415.225
 468  2405.73
 469  2310.457
 470  2202.954
 471  2074.069
 472  2524.564
 473  2109.972
 474  2271.924
 475  2428.215
 476  2375.379
 477  2383.071
 478  2307.511
 479  2372.709
 480  2410.26
 481  2253.418
 482  2095.363
 483  2468.917
 484  2390.297
 485  2204.898
 486  2328.526
 487  2271.33
 488  2168.326
 489  2010.53
 490  2353.423
 491  2060.057
 492  2121.569
 493  2110.336
 494  2274.779
 495  2024.138
 496  2159.629
 497  2433.332
 498  2491.37
 499  2411.402
 500  2415.618
 501  2660.563
 502  2493.976
 503  2337.151
 504  2043.785
 505  2176.25
 506  2207.115
 507  2634.602
 508  2681.298
 509  2514.259
 510  2795.169
 511  2085.391
