# Input file       =  1188522526.111912_cleaned.dat
# Candidate        =  PSR_0332+5434
# Telescope        =  AR
# Epoch_topo       =  58000.047975832313
# Epoch_bary       =  N/A
# T_sample         =  0.002
# Data Folded      =  7340032
# Data Avg         =  0.00640734725519517
# Data StdDev      =  2.37580877322598 
# Profile Bins     =  512
# Profile Avg      =  91.9155995454363 
# Profile StdDev   =  284.462798268907 
# Reduced chi-sqr  =  1.587
# Prob(Noise)      <  5.45e-16   (~8.0 sigma)
# P_topo (ms)      =  714.463724475054  +/- 0.000276
# P'_topo (s/s)    =  -0                +/- 1.46e-10
# P''_topo (s/s^2) =  0                 +/- 6.44e-14
# P_bary (ms)      =  N/A
# P'_bary (s/s)    =  N/A
# P''_bary (s/s^2) =  N/A
# P_orb (s)        =  N/A
# asin(i)/c (s)    =  N/A
# eccentricity     =  N/A
# w (rad)          =  N/A
# T_peri           =  N/A
######################################################
   0  -103.3689
   1  178.498
   2  182.9211
   3  -70.3695
   4  -113.0092
   5  -309.7327
   6  -169.8416
   7  -120.4394
   8  -356.8646
   9  -34.94288
  10  397.9865
  11  268.9186
  12  -350.09
  13  -204.5266
  14  238.8643
  15  99.3765
  16  126.6959
  17  -56.03317
  18  280.5827
  19  157.0331
  20  215.3638
  21  119.6326
  22  34.37917
  23  204.4172
  24  232.6644
  25  155.2287
  26  93.11378
  27  146.873
  28  -59.06758
  29  20.7882
  30  85.65157
  31  333.1619
  32  195.2043
  33  342.7218
  34  49.89497
  35  -69.28794
  36  -98.97543
  37  56.88993
  38  340.1719
  39  88.37534
  40  -134.4916
  41  88.0049
  42  377.2237
  43  147.7511
  44  194.0863
  45  -96.64496
  46  -44.07712
  47  58.45952
  48  -57.89251
  49  185.7954
  50  10.89635
  51  132.4319
  52  -71.09362
  53  225.4075
  54  319.655
  55  131.0953
  56  146.7523
  57  60.77126
  58  6.205589
  59  -173.7662
  60  -205.9758
  61  -199.1249
  62  19.41316
  63  182.5054
  64  4.22745
  65  79.44975
  66  128.3602
  67  -13.75759
  68  -58.96878
  69  -161.867
  70  -230.6786
  71  -125.2018
  72  -17.81805
  73  101.3302
  74  67.40802
  75  -325.9579
  76  86.79842
  77  120.3963
  78  -213.9494
  79  -297.2805
  80  -122.3616
  81  -79.15364
  82  174.2637
  83  273.3437
  84  144.817
  85  -165.4967
  86  -135.9807
  87  -4.419674
  88  369.7882
  89  228.3988
  90  153.0836
  91  189.7074
  92  -21.79872
  93  -50.91251
  94  -77.3474
  95  -30.03756
  96  348.1802
  97  278.5736
  98  20.41058
  99  -101.2322
 100  89.69199
 101  211.6138
 102  -61.64962
 103  -341.5612
 104  174.786
 105  410.5085
 106  291.6689
 107  -265.3606
 108  -250.9806
 109  52.49324
 110  101.8327
 111  13.6094
 112  357.266
 113  22.52498
 114  -67.89631
 115  218.6536
 116  -29.97147
 117  44.75902
 118  489.1959
 119  202.0505
 120  -149.3553
 121  129.0739
 122  288.4511
 123  -140.9166
 124  -361.6048
 125  -232.6915
 126  -63.57605
 127  -127.4089
 128  1.345579
 129  -83.5335
 130  -200
 131  -76.62357
 132  56.19822
 133  247.1193
 134  250.143
 135  -5.395468
 136  -125.2976
 137  -161.7684
 138  -88.25416
 139  300.5833
 140  307.4053
 141  -11.39315
 142  -76.58916
 143  -176.4042
 144  -35.99899
 145  -39.81902
 146  -7.249744
 147  76.94652
 148  -131.2538
 149  483.6809
 150  376.3982
 151  180.0652
 152  -3.977176
 153  56.0728
 154  -281.1413
 155  -334.804
 156  -269.3307
 157  -131.5098
 158  161.6899
 159  73.44483
 160  -115.1709
 161  -133.2525
 162  -228.8828
 163  -139.6362
 164  -35.95826
 165  -206.0472
 166  -209.7517
 167  223.7345
 168  363.3096
 169  351.755
 170  -321.1418
 171  -329.907
 172  -144.1431
 173  5.618547
 174  140.5405
 175  195.1285
 176  155.1927
 177  -85.04366
 178  92.50206
 179  81.8354
 180  -107.3272
 181  32.28281
 182  28.43762
 183  424.1972
 184  327.4996
 185  199.0599
 186  332.1921
 187  74.64713
 188  -34.0295
 189  -164.6989
 190  -238.4579
 191  -288.887
 192  -124.9188
 193  123.5589
 194  -10.04916
 195  -79.30717
 196  -86.67723
 197  40.60798
 198  -222.3848
 199  162.351
 200  179.9552
 201  96.93385
 202  401.0745
 203  -98.65195
 204  72.19571
 205  152.2347
 206  4.401754
 207  -98.60347
 208  -22.23639
 209  272.9047
 210  384.2719
 211  72.73051
 212  54.96467
 213  92.65829
 214  80.13785
 215  185.253
 216  525.6205
 217  249.059
 218  -116.2219
 219  -25.58796
 220  313.3752
 221  124.0694
 222  -159.6879
 223  213.5924
 224  -138.8242
 225  -174.3506
 226  -37.32117
 227  125.5712
 228  178.1755
 229  519.6653
 230  429.104
 231  499.7242
 232  419.8647
 233  229.5968
 234  226.9321
 235  117.417
 236  66.93335
 237  -253.73
 238  -71.9106
 239  145.5759
 240  226.1093
 241  71.67232
 242  294.8287
 243  91.43014
 244  166.6813
 245  360.3275
 246  302.0836
 247  354.589
 248  252.4409
 249  130.5035
 250  65.43635
 251  -179.9115
 252  160.2879
 253  139.2517
 254  95.3014
 255  211.9559
 256  117.8252
 257  -122.3077
 258  -277.2451
 259  169.3857
 260  497.8488
 261  -199.6641
 262  -231.6943
 263  49.18179
 264  66.92502
 265  67.81078
 266  -257.6953
 267  -22.54815
 268  329.4572
 269  332.1583
 270  126.2367
 271  -51.18766
 272  -13.15803
 273  -243.4598
 274  83.69691
 275  118.3762
 276  -202.5734
 277  -0.3888877
 278  -109.508
 279  -196.4402
 280  -200.3061
 281  39.33135
 282  233.7467
 283  204.7505
 284  313.6043
 285  363.2191
 286  -126.5521
 287  -53.81239
 288  -0.8066687
 289  -200.593
 290  -139.3807
 291  -98.81908
 292  356.7832
 293  294.6389
 294  -39.78417
 295  -180.9773
 296  23.46585
 297  290.9186
 298  146.9306
 299  224.2426
 300  -61.84752
 301  9.620899
 302  125.8063
 303  424.447
 304  258.424
 305  -12.52294
 306  319.316
 307  372.8809
 308  174.8151
 309  80.58193
 310  -17.14391
 311  93.42733
 312  168.457
 313  -95.51971
 314  168.6649
 315  298.9456
 316  545.4463
 317  786.3419
 318  519.382
 319  849.8069
 320  1061.871
 321  1221.587
 322  1700.128
 323  1959.922
 324  1870.081
 325  1261.584
 326  211.1526
 327  28.78935
 328  301.7001
 329  331.3668
 330  546.1935
 331  467.0061
 332  221.0988
 333  574.899
 334  603.6795
 335  679.6197
 336  615.4501
 337  407.9819
 338  368.905
 339  263.1143
 340  93.88041
 341  56.86999
 342  -169.9156
 343  -172.1295
 344  68.63151
 345  38.52141
 346  180.6649
 347  190.7641
 348  -232.4556
 349  -69.47369
 350  92.19299
 351  222.7101
 352  89.34406
 353  180.0029
 354  -182.4098
 355  -4.640934
 356  -41.86544
 357  -195.7512
 358  -86.39346
 359  8.585031
 360  -187.3471
 361  173.5746
 362  284.5952
 363  136.108
 364  124.7839
 365  45.61586
 366  79.61719
 367  -62.89158
 368  163.7562
 369  91.66147
 370  90.273
 371  139.8362
 372  -42.63059
 373  188.5976
 374  138.9881
 375  169.4807
 376  292.1075
 377  94.24004
 378  18.1072
 379  160.5877
 380  87.22105
 381  44.0656
 382  148.0384
 383  -1.505998
 384  -41.31313
 385  -82.04633
 386  86.12272
 387  138.0138
 388  256.2562
 389  302.2774
 390  -45.61927
 391  194.7799
 392  399.142
 393  -62.50411
 394  194.6483
 395  445.8784
 396  290.2565
 397  79.4828
 398  -12.19811
 399  93.0082
 400  112.4834
 401  288.369
 402  203.477
 403  148.0283
 404  145.168
 405  13.80598
 406  118.7345
 407  -102.1503
 408  -186.2736
 409  27.37016
 410  -61.74309
 411  80.38477
 412  110.7552
 413  177.0414
 414  342.9055
 415  172.7713
 416  202.3701
 417  230.9555
 418  395.4951
 419  214.7202
 420  204.2124
 421  57.56767
 422  73.66352
 423  48.00667
 424  -161.5594
 425  63.8882
 426  416.8093
 427  289.2914
 428  265.5745
 429  216.846
 430  309.2611
 431  438.845
 432  109.7968
 433  -134.7864
 434  -43.44681
 435  412.7436
 436  157.1634
 437  -509.5269
 438  -431.5686
 439  16.448
 440  114.4839
 441  264.8087
 442  7.135537
 443  -103.8223
 444  111.5608
 445  -97.81078
 446  216.1018
 447  246.9783
 448  309.2303
 449  181.5843
 450  481.3168
 451  152.5892
 452  55.61684
 453  -101.5445
 454  -141.2811
 455  282.3585
 456  189.3713
 457  166.6444
 458  154.9183
 459  -3.704311
 460  -232.8378
 461  76.56471
 462  149.4607
 463  -72.94431
 464  90.42833
 465  -133.6945
 466  -138.396
 467  -103.5687
 468  -133.1689
 469  81.22052
 470  21.8892
 471  -124.0942
 472  -189.1926
 473  141.6727
 474  -244.5798
 475  -506.5755
 476  121.8619
 477  159.6865
 478  73.61101
 479  -154.8456
 480  -11.87357
 481  65.21059
 482  -38.79641
 483  254.913
 484  130.8552
 485  -43.4127
 486  436.2766
 487  524.316
 488  421.2267
 489  243.2679
 490  89.56498
 491  20.48689
 492  197.7398
 493  -62.65292
 494  -285.7989
 495  -188.4098
 496  -156.2144
 497  -66.3142
 498  -149.4353
 499  -271.4501
 500  544.007
 501  471.1667
 502  104.0827
 503  -165.3288
 504  -180.8567
 505  197.0546
 506  146.6944
 507  21.40345
 508  -154.146
 509  18.80443
 510  -157.4514
 511  -295.5175
