# Input file       =  1188953313.119366-PSRB0329-2ms-sampling-dd.dat
# Candidate        =  PSR_0332+5434
# Telescope        =  AR
# Epoch_topo       =  58005.033936566739
# Epoch_bary       =  N/A
# T_sample         =  0.002
# Data Folded      =  7340032
# Data Avg         =  6.1334455755297e-10
# Data StdDev      =  3.07576956464757 
# Profile Bins     =  512
# Profile Avg      =  0.91537987070124 
# Profile StdDev   =  368.271229170497 
# Reduced chi-sqr  =  0.885
# Prob(Noise)      <  0.971   (~0.0 sigma)
# P_topo (ms)      =  714.464468556259  +/- 0.000117
# P'_topo (s/s)    =  -0                +/- 6.17e-11
# P''_topo (s/s^2) =  0                 +/- 2.72e-14
# P_bary (ms)      =  N/A
# P'_bary (s/s)    =  N/A
# P''_bary (s/s^2) =  N/A
# P_orb (s)        =  N/A
# asin(i)/c (s)    =  N/A
# eccentricity     =  N/A
# w (rad)          =  N/A
# T_peri           =  N/A
######################################################
   0  -111.6689
   1  -41.89917
   2  -126.3274
   3  -27.29701
   4  -129.2551
   5  -17.15538
   6  -401.8636
   7  125.4097
   8  131.8826
   9  -73.70071
  10  -193.5412
  11  40.81055
  12  222.0347
  13  180.2886
  14  -152.7029
  15  -188.7606
  16  158.0351
  17  -292.2667
  18  -152.6367
  19  -183.6585
  20  30.55842
  21  -86.22619
  22  44.62903
  23  34.87183
  24  -382.146
  25  -390.8678
  26  39.41387
  27  168.3593
  28  9.321791
  29  3.053227
  30  130.5654
  31  -37.4296
  32  -99.71043
  33  -12.67748
  34  -233.359
  35  -610.5386
  36  -415.5219
  37  -57.21851
  38  -41.33754
  39  -64.28616
  40  68.12457
  41  153.0425
  42  -305.8697
  43  -128.3293
  44  18.62677
  45  -147.2721
  46  -170.3643
  47  -448.3067
  48  -156.5977
  49  -405.8214
  50  -197.1937
  51  138.7682
  52  -94.11555
  53  -158.6593
  54  -389.0695
  55  -218.2675
  56  -25.08174
  57  104.6221
  58  66.63627
  59  544.6794
  60  160.0716
  61  -298.7496
  62  -195.37
  63  -34.35598
  64  226.6904
  65  179.2172
  66  -31.23315
  67  -103.1963
  68  52.51631
  69  -104.416
  70  -212.9954
  71  -67.52454
  72  -377.3265
  73  -338.1126
  74  -311.8166
  75  -236.9331
  76  -103.3014
  77  -340.846
  78  -148.4603
  79  -183.9651
  80  -45.77271
  81  -55.80676
  82  -127.0737
  83  98.84388
  84  115.7653
  85  -11.95423
  86  590.1929
  87  204.4236
  88  -28.43688
  89  93.8251
  90  -52.96394
  91  -328.882
  92  -405.0154
  93  -98.23216
  94  214.2998
  95  81.81998
  96  -137.7629
  97  -41.66846
  98  83.96312
  99  26.8889
 100  -108.6096
 101  -31.84644
 102  -196.7552
 103  -235.6921
 104  -711.5912
 105  -523.5777
 106  71.4682
 107  103.7926
 108  38.44909
 109  182.7746
 110  141.2023
 111  99.91239
 112  -258.5812
 113  -21.72216
 114  23.777
 115  -147.6856
 116  110.5477
 117  160.4422
 118  43.49058
 119  -101.7888
 120  -182.3773
 121  74.90325
 122  95.20563
 123  -140.2781
 124  112.4974
 125  -41.93097
 126  295.1087
 127  178.5888
 128  -89.81588
 129  -133.7576
 130  226.7032
 131  -91.33225
 132  -143.9311
 133  65.36231
 134  117.6449
 135  -62.55592
 136  109.794
 137  565.1246
 138  85.90572
 139  56.36888
 140  65.59782
 141  70.40589
 142  277.2953
 143  175.4889
 144  -113.9121
 145  -248.6608
 146  351.8478
 147  293.6063
 148  -160.4678
 149  -368.3052
 150  -85.98315
 151  -50.6031
 152  205.235
 153  158.9131
 154  -132.1599
 155  -212.5602
 156  -189.0217
 157  114.8927
 158  -13.22319
 159  -322.5067
 160  -494.3131
 161  -256.1451
 162  -252.7264
 163  -181.5116
 164  -136.7046
 165  113.2882
 166  97.82542
 167  326.4746
 168  205.3676
 169  -215.4046
 170  47.17769
 171  29.55502
 172  18.80506
 173  69.87229
 174  -51.62659
 175  -36.43377
 176  -73.07361
 177  20.33515
 178  42.36522
 179  -122.318
 180  -160.4112
 181  -400.8659
 182  -516.7049
 183  -152.6266
 184  -206.0964
 185  -158.3903
 186  29.85894
 187  -53.86623
 188  -449.0545
 189  -435.7497
 190  269.2803
 191  195.5832
 192  -44.60844
 193  -315.0855
 194  -198.0276
 195  275.7729
 196  482.4684
 197  -263.8629
 198  -350.7454
 199  -61.91323
 200  307.1746
 201  563.8911
 202  162.7216
 203  148.2428
 204  25.09603
 205  -95.60294
 206  41.992
 207  365.8973
 208  300.2602
 209  -56.7305
 210  -109.6917
 211  489.1994
 212  449.5699
 213  296.3858
 214  335.1083
 215  264.7785
 216  569.0507
 217  629.5579
 218  1259.744
 219  1463.977
 220  1229.615
 221  308.212
 222  -30.73956
 223  -438.7211
 224  -5.476446
 225  347.8675
 226  189.7049
 227  113.2085
 228  -142.2283
 229  -99.77804
 230  -624.2148
 231  -293.2155
 232  110.9481
 233  401.8326
 234  419.2444
 235  261.7309
 236  226.8532
 237  -15.88661
 238  -352.4805
 239  -144.6856
 240  10.9076
 241  -51.4433
 242  111.0787
 243  -374.1508
 244  -384.3089
 245  -380.2007
 246  54.35691
 247  -356.0659
 248  -65.69151
 249  146.8622
 250  -1.369439
 251  -47.74368
 252  110.8472
 253  -177.0841
 254  159.4633
 255  85.17195
 256  64.11133
 257  153.1818
 258  -83.0707
 259  -101.625
 260  -40.14538
 261  335.2901
 262  280.8517
 263  -40.94251
 264  -86.9637
 265  -11.34101
 266  -213.7849
 267  -62.96271
 268  135.1226
 269  244.8762
 270  227.9848
 271  -213.0831
 272  -415.6732
 273  -84.27287
 274  24.72301
 275  -15.09411
 276  -38.36076
 277  89.06418
 278  -9.786968
 279  -326.0369
 280  -340.0923
 281  46.65194
 282  271.5887
 283  258.2866
 284  -223.8128
 285  -306.3333
 286  -82.42893
 287  143.5239
 288  -57.32722
 289  200.7207
 290  375.6035
 291  363.423
 292  154.0148
 293  51.74841
 294  178.6018
 295  -229.3844
 296  -33.62602
 297  227.4167
 298  38.8814
 299  837.9893
 300  559.0366
 301  129.4152
 302  402.9456
 303  438.7641
 304  338.6566
 305  106.7263
 306  57.86581
 307  78.9064
 308  144.3996
 309  292.8468
 310  19.50198
 311  -16.54641
 312  264.0637
 313  102.9048
 314  280.0708
 315  780.7319
 316  616.1592
 317  247.1464
 318  -12.11402
 319  281.376
 320  249.061
 321  253.9121
 322  323.4915
 323  518.7824
 324  372.4098
 325  473.6562
 326  466.9828
 327  -99.7722
 328  -279.1907
 329  -374.4198
 330  45.52461
 331  195.7432
 332  258.3577
 333  256.609
 334  222.5937
 335  -262.6252
 336  -161.5898
 337  84.83578
 338  147.1224
 339  159.6309
 340  13.17668
 341  38.57012
 342  47.25843
 343  45.76146
 344  179.2134
 345  146.0832
 346  108.3991
 347  -40.8564
 348  -16.90094
 349  2.720738
 350  21.99743
 351  -291.6631
 352  139.559
 353  181.5491
 354  -166.3009
 355  -315.7846
 356  37.80059
 357  348.1757
 358  16.64156
 359  138.0875
 360  177.3254
 361  119.3514
 362  -343.1556
 363  -242.8077
 364  5.934059
 365  -16.23023
 366  48.62168
 367  14.20281
 368  35.98133
 369  112.1699
 370  -147.2821
 371  -260.5203
 372  -208.7025
 373  -338.0085
 374  -144.8971
 375  -9.97011
 376  119.4728
 377  44.78787
 378  -31.39843
 379  103.46
 380  51.25828
 381  -6.533889
 382  -220.5658
 383  -81.31828
 384  -175.7497
 385  -140.14
 386  128.4727
 387  263.1492
 388  177.5486
 389  -13.70199
 390  156.4574
 391  -7.951658
 392  -165.0048
 393  -146.4357
 394  -88.6358
 395  -144.5433
 396  -267.0392
 397  -99.97662
 398  -141.5641
 399  -166.8788
 400  -67.75893
 401  -58.67876
 402  35.5714
 403  42.88626
 404  49.63205
 405  -66.78362
 406  -97.77087
 407  -76.1282
 408  148.2607
 409  257.4323
 410  53.44585
 411  113.9071
 412  242.1934
 413  186.5346
 414  171.7192
 415  170.1357
 416  246.0324
 417  512.4651
 418  222.1952
 419  173.9397
 420  197.6534
 421  79.04797
 422  -124.0665
 423  -9.351084
 424  -262.2865
 425  -79.8418
 426  -328.6488
 427  -402.8787
 428  -141.2637
 429  289.4563
 430  -15.24326
 431  -48.94687
 432  -136.1636
 433  -179.827
 434  172.8157
 435  14.97217
 436  252.5709
 437  -160.6162
 438  -120.2966
 439  -143.4683
 440  -49.27754
 441  -63.44789
 442  336.5175
 443  359.7393
 444  127.6394
 445  -98.18509
 446  -121.724
 447  5.054166
 448  -27.36862
 449  -207.0354
 450  147.109
 451  267.7095
 452  -222.8164
 453  -298.558
 454  19.379
 455  40.0609
 456  369.4387
 457  611.8073
 458  259.2438
 459  72.81448
 460  -415.7633
 461  -121.8233
 462  -232.6487
 463  -220.4988
 464  -242.8108
 465  -93.62416
 466  -243.0267
 467  -42.47906
 468  4.995281
 469  -402.6759
 470  -157.011
 471  83.31791
 472  44.29443
 473  -386.9171
 474  -313.097
 475  93.81869
 476  159.2421
 477  -218.3435
 478  -72.65759
 479  -67.52463
 480  -158.0552
 481  142.7564
 482  17.79454
 483  -183.7127
 484  185.8474
 485  -64.8263
 486  -289.9964
 487  -198.3345
 488  -94.66434
 489  -277.0427
 490  -105.4388
 491  -65.21708
 492  -123.2928
 493  -264.9151
 494  -382.2679
 495  -382.1404
 496  -186.1376
 497  -287.9695
 498  -139.1302
 499  66.15012
 500  422.4437
 501  473.2694
 502  -480.201
 503  -440.3737
 504  15.41796
 505  11.88908
 506  -503.8274
 507  -196.7075
 508  -16.66355
 509  -257.8156
 510  -307.3781
 511  -141.6487
