# Input file       =  1188365153.119957_cleaned.dat
# Candidate        =  PSR_0332+5434
# Telescope        =  AR
# Epoch_topo       =  57998.226529166168
# Epoch_bary       =  N/A
# T_sample         =  0.002
# Data Folded      =  7340032
# Data Avg         =  0.0377683934826305
# Data StdDev      =  2.86583064101511 
# Profile Bins     =  256
# Profile Avg      =  1083.27363019804 
# Profile StdDev   =  485.265611248307 
# Reduced chi-sqr  =  1.870
# Prob(Noise)      <  1.21e-15   (~7.9 sigma)
# P_topo (ms)      =  714.463885412459  +/- 0.000356
# P'_topo (s/s)    =  -0                +/- 1.88e-10
# P''_topo (s/s^2) =  0                 +/- 8.3e-14
# P_bary (ms)      =  N/A
# P'_bary (s/s)    =  N/A
# P''_bary (s/s^2) =  N/A
# P_orb (s)        =  N/A
# asin(i)/c (s)    =  N/A
# eccentricity     =  N/A
# w (rad)          =  N/A
# T_peri           =  N/A
######################################################
   0  1466.013
   1  918.9662
   2  680.0922
   3  1417.193
   4  774.2368
   5  729.8027
   6  769.9662
   7  830.0461
   8  277.1556
   9  746.8748
  10  698.0652
  11  -56.87572
  12  488.319
  13  672.8273
  14  1374.357
  15  1429.961
  16  1522.127
  17  1442.214
  18  1439.412
  19  1612.042
  20  1958.97
  21  2201.807
  22  1770.984
  23  1686.34
  24  1015.652
  25  1310.106
  26  1524.358
  27  727.5014
  28  1563.182
  29  1424.226
  30  1350.562
  31  1754.838
  32  1221.822
  33  1368.076
  34  680.4594
  35  593.9056
  36  871.752
  37  1221.243
  38  220.8612
  39  1414.012
  40  1367.513
  41  578.7598
  42  238.4984
  43  1179.084
  44  765.0141
  45  269.8824
  46  906.8207
  47  800.3794
  48  1852.963
  49  1256.573
  50  856.3524
  51  1165.38
  52  290.3994
  53  1127.088
  54  918.0831
  55  1529.646
  56  1150.973
  57  1347.841
  58  1368.701
  59  1527.263
  60  765.2599
  61  1265.576
  62  1693.697
  63  1200.539
  64  1490.513
  65  1613.235
  66  1255.994
  67  1377.121
  68  1392.47
  69  430.3071
  70  1053.021
  71  787.5022
  72  845.0206
  73  944.3832
  74  787.0044
  75  727.6741
  76  -83.20438
  77  224.7688
  78  1040.341
  79  331.1179
  80  379.7286
  81  399.6799
  82  465.1988
  83  753.4039
  84  1511.1
  85  595.0897
  86  135.188
  87  814.7758
  88  1282.969
  89  1244.205
  90  1134.308
  91  865.8489
  92  1499.972
  93  1071.512
  94  1279.331
  95  1159.736
  96  864.8863
  97  918.8746
  98  1669.201
  99  1567.067
 100  1627.351
 101  741.7382
 102  912.626
 103  759.5801
 104  269.261
 105  907.4937
 106  472.3561
 107  1052.616
 108  124.8152
 109  474.2797
 110  856.5399
 111  487.8642
 112  830.0969
 113  1158.885
 114  1046.791
 115  462.1788
 116  621.5807
 117  806.6349
 118  626.3042
 119  617.3766
 120  1311.9
 121  1202.745
 122  896.8026
 123  970.1375
 124  1357.894
 125  941.9917
 126  558.6114
 127  1575.61
 128  852.4611
 129  1083.084
 130  1849.411
 131  1629.383
 132  1101.405
 133  1860.721
 134  2091.213
 135  1585.466
 136  1232.45
 137  1530.351
 138  1712.323
 139  1791.149
 140  1331.908
 141  1214.798
 142  1259.197
 143  979.1104
 144  1527.749
 145  1149.424
 146  850.6843
 147  518.5816
 148  882.8793
 149  1284.904
 150  1375.645
 151  1499.932
 152  1445.515
 153  1577.817
 154  1721.895
 155  1146.303
 156  530.4537
 157  1186.665
 158  1163.935
 159  1553.682
 160  3014.61
 161  4469.401
 162  3263.377
 163  2368.783
 164  1137.922
 165  1729.851
 166  2272.645
 167  2275.029
 168  2380.557
 169  2187.192
 170  1725.84
 171  1674.404
 172  1562.119
 173  1533.93
 174  1773.407
 175  1436.604
 176  1774.996
 177  1647.406
 178  840.4661
 179  1805.163
 180  982.9088
 181  828.2408
 182  617.6264
 183  1112.457
 184  935.8873
 185  1134.261
 186  760.2487
 187  1285.01
 188  1424.937
 189  86.28758
 190  1146.362
 191  1005.807
 192  948.494
 193  569.3572
 194  1009.314
 195  491.3684
 196  1462.531
 197  1045.622
 198  1353.809
 199  1359.373
 200  810.824
 201  482.6943
 202  1575.166
 203  1450.751
 204  534.6332
 205  702.485
 206  1305.499
 207  497.6418
 208  769.6909
 209  1428.722
 210  736.2277
 211  682.467
 212  346.6898
 213  1233.052
 214  401.4141
 215  447.9633
 216  151.2764
 217  190.8862
 218  1086.503
 219  1145.644
 220  659.4344
 221  449.5892
 222  189.1325
 223  221.6492
 224  252.8499
 225  617.8777
 226  1262.775
 227  622.3805
 228  -691.9961
 229  -77.59283
 230  352.4978
 231  450.7368
 232  212.9458
 233  545.2851
 234  759.1907
 235  1137.478
 236  362.4908
 237  1002.722
 238  788.5727
 239  1346.953
 240  1841.978
 241  1250.705
 242  1139.86
 243  1598.23
 244  1411.543
 245  1101.22
 246  1246.675
 247  1116.968
 248  1509.286
 249  1350.883
 250  1345.103
 251  1359.719
 252  805.2719
 253  1055.313
 254  882.9213
 255  865.9248
