# Input file       =  1188795939.110369_cleaned.dat
# Candidate        =  PSR_0332+5434
# Telescope        =  AR
# Epoch_topo       =  58003.212478129273
# Epoch_bary       =  N/A
# T_sample         =  0.002
# Data Folded      =  7340032
# Data Avg         =  0.00940357576588305
# Data StdDev      =  1.00001993848939 
# Profile Bins     =  512
# Profile Avg      =  134.813649202223 
# Profile StdDev   =  119.735423672642 
# Reduced chi-sqr  =  1.202
# Prob(Noise)      <  0.00112   (~3.1 sigma)
# P_topo (ms)      =  714.464486671636  +/- 0.000192
# P'_topo (s/s)    =  -0                +/- 1.01e-10
# P''_topo (s/s^2) =  0                 +/- 4.47e-14
# P_bary (ms)      =  N/A
# P'_bary (s/s)    =  N/A
# P''_bary (s/s^2) =  N/A
# P_orb (s)        =  N/A
# asin(i)/c (s)    =  N/A
# eccentricity     =  N/A
# w (rad)          =  N/A
# T_peri           =  N/A
######################################################
   0  613.6295
   1  553.5206
   2  443.7063
   3  290.1502
   4  270.0448
   5  240.5589
   6  199.7412
   7  169.2877
   8  195.6845
   9  236.2939
  10  195.9397
  11  283.3431
  12  240.1101
  13  90.28738
  14  214.3236
  15  279.0647
  16  237.6461
  17  231.354
  18  176.528
  19  131.4531
  20  143.4587
  21  271.4102
  22  216.7524
  23  146.4733
  24  296.9848
  25  375.9398
  26  193.2615
  27  -45.77865
  28  21.20403
  29  97.31953
  30  241.5617
  31  191.6702
  32  106.7081
  33  53.51598
  34  96.79298
  35  171.8437
  36  274.6253
  37  148.1486
  38  191.1252
  39  199.9267
  40  121.8695
  41  118.2612
  42  155.2127
  43  132.0185
  44  168.1149
  45  233.5314
  46  203.0959
  47  57.53292
  48  -75.43986
  49  45.62309
  50  241.4101
  51  56.98727
  52  95.86497
  53  175.2174
  54  127.7062
  55  78.20611
  56  96.54753
  57  165.2504
  58  117.0022
  59  133.8423
  60  95.95684
  61  68.97485
  62  123.2817
  63  7.941052
  64  -39.3183
  65  51.25702
  66  92.97105
  67  37.37187
  68  -35.23612
  69  -60.24159
  70  -14.73454
  71  79.47554
  72  45.77256
  73  -16.51795
  74  112.542
  75  89.91009
  76  159.4024
  77  233.9035
  78  152.4693
  79  126.3219
  80  197.9685
  81  281.1964
  82  98.60031
  83  72.22821
  84  103.9458
  85  125.7102
  86  177.3549
  87  142.2293
  88  -11.93823
  89  59.05499
  90  141.3126
  91  176.134
  92  271.2281
  93  329.7387
  94  274.9271
  95  214.4239
  96  215.2126
  97  174.8398
  98  53.63067
  99  52.66913
 100  70.08172
 101  58.07683
 102  198.8688
 103  212.1393
 104  298.452
 105  138.7734
 106  101.8979
 107  117.3669
 108  225.2421
 109  304.3832
 110  203.5634
 111  169.0152
 112  110.904
 113  91.05097
 114  166.8347
 115  202.5762
 116  125.5934
 117  3.070604
 118  209.4142
 119  127.5943
 120  113.1151
 121  150.8898
 122  83.78024
 123  110.9362
 124  73.71844
 125  -82.11909
 126  -55.3605
 127  53.27621
 128  3.946509
 129  23.43034
 130  141.6491
 131  146.8678
 132  37.23114
 133  105.8472
 134  112.1512
 135  215.7118
 136  201.4815
 137  70.87669
 138  40.57529
 139  41.60276
 140  -41.47634
 141  3.867664
 142  -30.44046
 143  41.44172
 144  165.4991
 145  129.795
 146  88.30143
 147  179.6363
 148  81.48163
 149  171.9065
 150  175.9871
 151  222.2847
 152  245.5549
 153  124.5262
 154  219.2088
 155  221.9263
 156  238.1222
 157  89.60949
 158  166.0749
 159  22.63286
 160  96.13091
 161  170.4412
 162  139.2106
 163  64.97486
 164  151.069
 165  152.7432
 166  169.7846
 167  136.2304
 168  289.1987
 169  239.015
 170  192.5567
 171  175.0472
 172  102.8925
 173  136.3916
 174  219.4023
 175  86.52912
 176  -70.13998
 177  0.6168736
 178  128.3019
 179  -1.483339
 180  -50.85956
 181  49.86164
 182  130.5483
 183  103.3067
 184  212.0485
 185  99.87626
 186  134.7697
 187  156.9449
 188  147.7743
 189  97.49124
 190  23.79645
 191  78.47498
 192  32.75919
 193  1.195252
 194  76.89464
 195  172.651
 196  -11.52179
 197  83.49886
 198  57.82637
 199  46.59261
 200  58.75673
 201  -22.24733
 202  182.1585
 203  101.778
 204  26.71513
 205  35.74992
 206  81.77115
 207  193.9261
 208  202.5781
 209  167.7883
 210  215.3301
 211  284.5734
 212  197.7935
 213  138.1534
 214  61.61188
 215  12.86647
 216  7.856842
 217  117.5627
 218  179.125
 219  164.6299
 220  180.6749
 221  55.58039
 222  -16.38526
 223  111.0424
 224  155.4783
 225  -9.514832
 226  11.33843
 227  64.5592
 228  121.0674
 229  217.5586
 230  300.7801
 231  239.8396
 232  263.7567
 233  212.0262
 234  101.9617
 235  173.2353
 236  161.3333
 237  262.4134
 238  166.7172
 239  143.7828
 240  209.3559
 241  -16.03045
 242  -159.5396
 243  0.1415072
 244  44.28712
 245  -44.50667
 246  141.4024
 247  137.0512
 248  168.7379
 249  227.8835
 250  142.3018
 251  54.40237
 252  -45.52118
 253  19.53874
 254  196.4832
 255  7.14926
 256  47.18903
 257  9.058833
 258  130.4655
 259  137.0899
 260  121.9813
 261  58.2492
 262  5.234599
 263  132.2331
 264  179.2146
 265  40.34836
 266  201.5225
 267  125.0545
 268  216.6319
 269  126.5595
 270  48.37622
 271  100.8993
 272  91.7923
 273  32.90044
 274  100.3312
 275  147.0815
 276  144.4072
 277  196.927
 278  48.34909
 279  162.7052
 280  118.7261
 281  125.1627
 282  165.1919
 283  86.62147
 284  171.5527
 285  -11.5846
 286  45.90725
 287  124.8964
 288  23.73524
 289  144.7069
 290  163.7464
 291  215.7044
 292  90.10938
 293  76.8353
 294  110.9173
 295  223.0211
 296  171.9323
 297  173.0401
 298  8.017069
 299  32.77122
 300  95.83363
 301  110.7638
 302  218.3331
 303  301.3384
 304  270.0681
 305  276.5156
 306  69.44087
 307  81.67907
 308  169.4941
 309  74.16568
 310  133.7629
 311  238.9647
 312  123.7331
 313  139.1532
 314  41.87083
 315  51.71711
 316  50.30081
 317  116.353
 318  233.5021
 319  151.2399
 320  124.7677
 321  52.54182
 322  89.56963
 323  73.56093
 324  25.10969
 325  -25.64216
 326  70.42699
 327  140.0187
 328  141.5048
 329  56.66795
 330  -22.63626
 331  127.5277
 332  185.6923
 333  316.5536
 334  123.5492
 335  33.90974
 336  84.82596
 337  158.1989
 338  173.5862
 339  139.123
 340  170.8318
 341  139.1039
 342  194.054
 343  127.9043
 344  13.19814
 345  -15.73862
 346  70.30434
 347  141.3119
 348  160.4203
 349  142.5253
 350  171.7723
 351  201.2604
 352  105.0443
 353  162.2928
 354  249.5737
 355  169.4455
 356  26.31929
 357  101.4666
 358  158.8643
 359  179.1164
 360  123.8907
 361  131.4385
 362  169.5468
 363  190.3983
 364  119.9624
 365  13.12546
 366  15.10995
 367  254.1179
 368  226.3283
 369  58.62854
 370  46.47043
 371  14.00917
 372  182.0693
 373  129.2792
 374  134.3245
 375  120.2472
 376  -62.01407
 377  127.0547
 378  74.38222
 379  142.2993
 380  105.983
 381  17.50423
 382  38.31002
 383  96.25449
 384  50.54256
 385  154.3839
 386  253.9228
 387  321.4834
 388  123.9059
 389  41.42714
 390  140.058
 391  205.656
 392  131.2842
 393  227.13
 394  149.8378
 395  112.8619
 396  65.49332
 397  106.7735
 398  201.5443
 399  223.3877
 400  243.7466
 401  201.1771
 402  187.8412
 403  86.41996
 404  88.85509
 405  -85.97047
 406  26.34038
 407  244.2633
 408  239.7033
 409  218.9834
 410  128.0547
 411  97.52302
 412  10.31732
 413  180.1304
 414  165.7257
 415  140.2045
 416  139.4503
 417  69.43257
 418  63.05775
 419  192.8443
 420  228.1174
 421  210.6244
 422  73.35856
 423  -27.20752
 424  170.1726
 425  304.1889
 426  178.5789
 427  123.1112
 428  105.5747
 429  171.4567
 430  151.6911
 431  31.3679
 432  208.1611
 433  203.9614
 434  235.791
 435  227.5561
 436  174.4728
 437  142.5641
 438  34.08931
 439  204.3359
 440  126.3235
 441  301.8185
 442  315.0062
 443  303.5389
 444  213.1457
 445  159.8037
 446  56.96659
 447  138.4977
 448  181.5999
 449  222.1031
 450  146.8518
 451  118.1164
 452  186.1845
 453  98.62932
 454  167.4213
 455  190.4448
 456  211.3318
 457  194.2685
 458  301.8651
 459  133.5627
 460  109.3081
 461  89.94061
 462  5.399375
 463  69.20653
 464  267.4514
 465  165.0287
 466  154.0922
 467  193.6938
 468  212.5214
 469  119.8962
 470  232.1523
 471  108.2168
 472  172.4613
 473  178.6643
 474  202.6529
 475  213.2469
 476  217.6355
 477  187.6918
 478  92.08251
 479  109.2243
 480  89.3495
 481  -17.49122
 482  12.04202
 483  -65.16329
 484  106.7556
 485  105.1795
 486  83.5279
 487  152.9659
 488  197.5861
 489  122.1321
 490  152.3947
 491  228.5811
 492  269.2718
 493  208.6627
 494  116.6077
 495  137.0843
 496  108.5833
 497  140.2567
 498  193.1379
 499  98.35727
 500  131.2619
 501  54.6943
 502  85.52464
 503  134.1161
 504  38.57167
 505  108.6041
 506  210.879
 507  320.0997
 508  271.2114
 509  341.9347
 510  613.2849
 511  618.7002
