# Input file       =  1188507916.120346_cleaned.dat
# Candidate        =  PSR_0332+5434
# Telescope        =  AR
# Epoch_topo       =  57999.878878707706
# Epoch_bary       =  N/A
# T_sample         =  0.002
# Data Folded      =  7143424
# Data Avg         =  0.165640972827031
# Data StdDev      =  3.64749997496614 
# Profile Bins     =  256
# Profile Avg      =  4622.0879642509  
# Profile StdDev   =  609.296283678241 
# Reduced chi-sqr  =  0.682
# Prob(Noise)      <  1   (~0.0 sigma)
# P_topo (ms)      =  714.463691986789  +/- 0.00115
# P'_topo (s/s)    =  -0                +/- 6.23e-10
# P''_topo (s/s^2) =  0                 +/- 2.83e-13
# P_bary (ms)      =  N/A
# P'_bary (s/s)    =  N/A
# P''_bary (s/s^2) =  N/A
# P_orb (s)        =  N/A
# asin(i)/c (s)    =  N/A
# eccentricity     =  N/A
# w (rad)          =  N/A
# T_peri           =  N/A
######################################################
   0  4758.235
   1  4404.255
   2  4972.534
   3  4401.296
   4  4660.786
   5  4816.213
   6  4600.381
   7  4257.713
   8  4460.097
   9  4086.51
  10  4281.892
  11  4916.977
  12  4924.742
  13  4537.337
  14  4610.549
  15  4727.605
  16  4377.884
  17  4421.315
  18  4181.758
  19  4389.168
  20  4830.721
  21  4850.876
  22  4110.345
  23  5077.385
  24  5145.497
  25  4129.913
  26  4596.103
  27  4399.515
  28  4532.867
  29  4770.782
  30  4899.014
  31  5217.527
  32  4893.365
  33  4932.03
  34  4747.896
  35  4277.804
  36  4868.278
  37  4684.61
  38  4658.112
  39  4933.093
  40  4974.242
  41  4484.493
  42  4901.604
  43  4712.434
  44  4606.26
  45  4889.409
  46  4825.898
  47  4246.342
  48  4202.167
  49  4731.965
  50  4331.957
  51  4498.403
  52  4332.41
  53  4724.835
  54  5236.683
  55  4700.326
  56  4672.705
  57  4326.321
  58  4588.21
  59  4760.609
  60  4724.102
  61  4663.541
  62  4619.078
  63  4638.649
  64  4587.052
  65  4580.128
  66  4178.01
  67  4337.984
  68  4289.194
  69  4279.447
  70  4688.09
  71  4868.844
  72  5090.257
  73  4755.212
  74  4208.191
  75  4975.245
  76  5206.677
  77  4708.961
  78  3952.702
  79  4793.772
  80  5029.647
  81  4497.814
  82  4435.114
  83  4168.021
  84  4370.697
  85  4669.205
  86  4366.792
  87  4482.442
  88  4239.967
  89  4236.939
  90  4379.702
  91  4696.824
  92  4954.807
  93  4294.54
  94  4327.873
  95  4435.919
  96  4781.684
  97  4136.563
  98  4248.368
  99  4054.8
 100  4415.193
 101  4371.081
 102  4521.491
 103  4352.007
 104  4153.233
 105  4670.588
 106  4473.898
 107  4528.967
 108  4372.424
 109  4135.613
 110  3977.294
 111  4546.099
 112  4725.42
 113  4115.859
 114  4298.398
 115  4404.562
 116  4602.486
 117  4703.528
 118  4933.684
 119  4140.91
 120  4511.431
 121  4895.895
 122  4424.603
 123  4671.847
 124  4744.851
 125  4966.275
 126  4484.864
 127  4410.349
 128  5228.979
 129  4758.37
 130  4945.522
 131  4131.51
 132  4161.329
 133  4899.002
 134  4668.802
 135  4414.538
 136  3948.883
 137  5039.417
 138  5007.775
 139  4369.485
 140  4785.397
 141  4614.412
 142  4335.619
 143  5324.951
 144  4835.8
 145  4414.342
 146  3958.417
 147  4591.689
 148  4351.653
 149  4623.36
 150  5133.933
 151  4353.55
 152  4384.703
 153  5026.584
 154  5112.355
 155  4610.42
 156  4678.385
 157  5447.774
 158  5342.177
 159  5508.036
 160  7185.214
 161  7318.122
 162  6085.435
 163  5291.895
 164  4691.741
 165  4552.392
 166  3925.863
 167  4056.187
 168  4531.981
 169  4386.286
 170  4065.263
 171  4322.097
 172  4531.02
 173  3697.544
 174  4245.286
 175  3983.505
 176  4282.481
 177  4404.929
 178  4787.693
 179  4149.776
 180  4320.906
 181  4300.488
 182  3783.477
 183  3928.109
 184  4072.129
 185  4248.404
 186  4321.88
 187  4778.138
 188  4292.982
 189  5487.552
 190  5249.321
 191  4936.522
 192  4960.727
 193  4087.919
 194  4601.871
 195  4309.025
 196  5111.219
 197  5029.073
 198  4701.882
 199  4461.701
 200  4394.265
 201  4241.557
 202  4648.737
 203  4386.088
 204  4248.846
 205  3911.426
 206  4325.414
 207  5073.875
 208  4594.191
 209  4332.626
 210  4371.231
 211  4663.922
 212  4729.156
 213  4657.923
 214  4717.247
 215  4467.987
 216  5081.153
 217  4509.153
 218  4511.486
 219  4463.946
 220  4534.788
 221  5258.412
 222  4703.746
 223  4432.226
 224  4598.343
 225  4170.124
 226  4037.564
 227  4828.875
 228  5086.794
 229  5124.665
 230  4333.081
 231  4421.268
 232  4976.971
 233  5054.58
 234  5008.62
 235  4509.322
 236  4892.181
 237  4886.833
 238  5069.81
 239  4623.428
 240  4515.51
 241  4321.734
 242  5130.782
 243  5356.166
 244  5180.725
 245  4846.994
 246  4541.206
 247  4146.809
 248  4396.735
 249  5024.097
 250  4998.555
 251  5703.375
 252  4378.692
 253  5531.278
 254  4625.345
 255  4593.502
