# Input file       =  1188852543.125190-PSRB0329-2ms-sampling-dd.dat
# Candidate        =  PSR_0332+5434
# Telescope        =  AR
# Epoch_topo       =  58003.867617189702
# Epoch_bary       =  N/A
# T_sample         =  0.002
# Data Folded      =  7208960
# Data Avg         =  -4.79557975792227e-10
# Data StdDev      =  5.09327194100326 
# Profile Bins     =  512
# Profile Avg      =  0.0341856425812052
# Profile StdDev   =  604.363450611763 
# Reduced chi-sqr  =  0.788
# Prob(Noise)      <  1   (~0.0 sigma)
# P_topo (ms)      =  714.464246704547  +/- 0.00143
# P'_topo (s/s)    =  -0                +/- 7.66e-10
# P''_topo (s/s^2) =  0                 +/- 3.44e-13
# P_bary (ms)      =  N/A
# P'_bary (s/s)    =  N/A
# P''_bary (s/s^2) =  N/A
# P_orb (s)        =  N/A
# asin(i)/c (s)    =  N/A
# eccentricity     =  N/A
# w (rad)          =  N/A
# T_peri           =  N/A
######################################################
   0  -113.3876
   1  -285.6277
   2  138.7392
   3  344.5143
   4  -220.8066
   5  -245.1262
   6  -164.8944
   7  -389.8741
   8  -855.1766
   9  -457.1227
  10  -276.4629
  11  -410.1913
  12  -249.2422
  13  -214.0793
  14  -171.3806
  15  -272.1664
  16  -478.0343
  17  -529.8095
  18  -496.8225
  19  -297.4181
  20  -475.2338
  21  -102.2374
  22  -254.4087
  23  -456.4423
  24  -442.953
  25  -179.8265
  26  -265.3577
  27  -384.2921
  28  -70.2616
  29  -310.8004
  30  -202.6207
  31  -515.7591
  32  -552.4984
  33  -727.1646
  34  -675.0962
  35  -278.463
  36  100.7215
  37  -22.05351
  38  -149.8405
  39  -294.8733
  40  -74.13885
  41  -201.9793
  42  -450.9305
  43  -48.89219
  44  -365.2623
  45  404.778
  46  699.5745
  47  1141.565
  48  1520.63
  49  1310.19
  50  1232.421
  51  69.6682
  52  123.3661
  53  -311.4962
  54  235.2829
  55  631.8037
  56  207.8162
  57  -90.13969
  58  7.656866
  59  235.609
  60  -241.8388
  61  -30.17274
  62  -75.3181
  63  -374.8569
  64  -371.4956
  65  -160.6539
  66  -344.5357
  67  -506.7743
  68  -679.3512
  69  -446.9958
  70  -344.3222
  71  -100.7541
  72  -80.19591
  73  -458.5638
  74  -145.6512
  75  -384.36
  76  -115.9148
  77  -376.0354
  78  -533.1473
  79  -294.8459
  80  -135.0521
  81  -126.8701
  82  -82.11314
  83  37.57736
  84  99.66272
  85  13.14698
  86  -439.3819
  87  -758.1174
  88  -131.7579
  89  -186.278
  90  -209.0143
  91  -134.9684
  92  -192.5134
  93  -251.9215
  94  -360.4766
  95  -542.5986
  96  -261.9613
  97  18.43259
  98  -317.62
  99  -680.8499
 100  -744.9828
 101  -369.5403
 102  -119.968
 103  -180.4925
 104  -426.6975
 105  -451.9957
 106  -589.007
 107  -801.3079
 108  -895.8378
 109  -591.0132
 110  -150.0585
 111  -402.2505
 112  -178.822
 113  -442.2023
 114  -594.9474
 115  -594.6449
 116  -416.026
 117  92.88625
 118  -481.3169
 119  -288.7393
 120  -265.3355
 121  268.7241
 122  454.547
 123  -93.10298
 124  -222.0276
 125  -135.2712
 126  -450.4556
 127  -382.748
 128  -472.1993
 129  -313.6032
 130  -253.8277
 131  -441.635
 132  74.26157
 133  -231.2536
 134  -207.289
 135  -198.849
 136  -279.6042
 137  -54.1982
 138  -25.08291
 139  231.2996
 140  -306.4039
 141  -464.2566
 142  -861.3341
 143  -232.638
 144  127.4484
 145  -192.9731
 146  112.1982
 147  -82.69874
 148  -407.3528
 149  -637.1981
 150  -52.27413
 151  -274.9208
 152  -284.0353
 153  -255.4521
 154  -362.4256
 155  10.17693
 156  -144.8886
 157  86.42204
 158  216.7251
 159  -73.39751
 160  -577.8237
 161  -588.7234
 162  -368.6244
 163  -51.64217
 164  -238.0632
 165  -170.6494
 166  -226.4483
 167  -429.7264
 168  -269.3632
 169  -546.4347
 170  -188.5941
 171  -209.1432
 172  -87.26781
 173  -83.20741
 174  -203.4694
 175  -305.4609
 176  -247.6442
 177  43.73613
 178  -204.2114
 179  -212.4295
 180  124.7529
 181  -92.55595
 182  -87.09612
 183  -320.4965
 184  -140.433
 185  107.3611
 186  15.71039
 187  659.6092
 188  112.7404
 189  -1.76013
 190  -274.2462
 191  -113.7337
 192  17.58125
 193  -61.69705
 194  87.70637
 195  -175.1497
 196  270.0392
 197  623.3474
 198  536.699
 199  842.1901
 200  560.9805
 201  338.2201
 202  120.401
 203  10.04955
 204  861.7253
 205  753.8007
 206  1132.066
 207  603.877
 208  443.0167
 209  326.4749
 210  222.5704
 211  268.1104
 212  -114.0439
 213  -205.8032
 214  -126.7175
 215  14.56375
 216  356.7925
 217  440.8454
 218  375.4607
 219  295.3286
 220  364.1146
 221  497.2164
 222  74.70088
 223  514.6428
 224  549.1317
 225  575.705
 226  768.3577
 227  246.7523
 228  189.3583
 229  313.8006
 230  331.3946
 231  105.2253
 232  379.8865
 233  457.5601
 234  210.621
 235  -218.7631
 236  -174.9052
 237  -282.6797
 238  -157.6553
 239  50.49316
 240  643.7359
 241  740.2863
 242  615.8061
 243  296.1648
 244  139.986
 245  264.8041
 246  391.9838
 247  803.2464
 248  477.1403
 249  560.5386
 250  535.3226
 251  558.5428
 252  506.1025
 253  629.6584
 254  779.4165
 255  437.2683
 256  591.1452
 257  320.4738
 258  355.9542
 259  612.5628
 260  434.474
 261  735.9818
 262  604.5722
 263  842.6876
 264  461.8141
 265  397.2565
 266  920.121
 267  231.3873
 268  451.8523
 269  775.3773
 270  1135.617
 271  489.2252
 272  808.8207
 273  885.3188
 274  607.8051
 275  366.6662
 276  468.2579
 277  428.1488
 278  489.9668
 279  361.6867
 280  202.3842
 281  369.794
 282  216.6437
 283  595.98
 284  770.225
 285  512.2466
 286  472.0131
 287  352.0725
 288  637.9233
 289  680.8962
 290  857.6943
 291  733.8555
 292  424.1848
 293  755.7285
 294  406.2014
 295  599.2375
 296  216.7893
 297  400.9467
 298  365.3249
 299  380.6289
 300  471.6761
 301  165.994
 302  624.8814
 303  426.0383
 304  433.7868
 305  272.109
 306  496.2973
 307  804.9974
 308  599.6849
 309  144.4298
 310  -311.9343
 311  -149.491
 312  363.4586
 313  378.1651
 314  707.42
 315  637.5247
 316  41.26053
 317  -83.32682
 318  -170.0591
 319  28.49298
 320  -422.8416
 321  -234.1664
 322  -312.8616
 323  -260.6282
 324  279.1288
 325  123.2816
 326  -70.91373
 327  -361.9502
 328  -149.8041
 329  -213.5471
 330  -401.201
 331  -224.5854
 332  -85.02127
 333  -37.26096
 334  -253.9816
 335  -135.9359
 336  -112.7542
 337  -107.0706
 338  -206.6191
 339  -545.0109
 340  -532.3129
 341  -317.2816
 342  -189.5097
 343  -207.0272
 344  -146.4783
 345  -302.2916
 346  -487.7398
 347  -602.8749
 348  -218.4951
 349  -237.2149
 350  -181.2109
 351  -425.4633
 352  -369.5765
 353  -32.23446
 354  -486.783
 355  -361.8728
 356  -464.189
 357  -116.1123
 358  25.99818
 359  -337.6334
 360  70.53715
 361  -0.9346958
 362  -123.8325
 363  -391.5523
 364  -256.987
 365  131.1722
 366  132.7653
 367  212.776
 368  -73.33587
 369  -55.32357
 370  -37.63157
 371  13.88825
 372  149.2314
 373  -230.5752
 374  -269.9771
 375  -457.1092
 376  -310.454
 377  136.1142
 378  -76.42154
 379  -302.9412
 380  -514.3026
 381  -555.1347
 382  -318.5147
 383  -124.7301
 384  137.0987
 385  -68.57112
 386  -525.9918
 387  -1063.443
 388  -751.8184
 389  -449.9987
 390  -54.30586
 391  167.8636
 392  217.093
 393  217.6195
 394  27.58313
 395  -105.3557
 396  -56.18906
 397  -24.78176
 398  84.2051
 399  48.10428
 400  -160.1544
 401  183.9512
 402  -1.695653
 403  134.3461
 404  2.235198
 405  174.9218
 406  368.962
 407  -52.13279
 408  -66.88857
 409  -271.5404
 410  -89.09649
 411  -47.02148
 412  -434.8812
 413  -211.6364
 414  -495.8796
 415  -743.8172
 416  -690.9582
 417  -283.4972
 418  50.34922
 419  -48.61536
 420  -101.8246
 421  -515.6329
 422  -141.1485
 423  8.504505
 424  -299.6513
 425  -7.108994
 426  -187.1876
 427  -105.5515
 428  -369.679
 429  -261.2217
 430  -161.6107
 431  4.74576
 432  252.7394
 433  52.82996
 434  -45.09068
 435  -308.7386
 436  -177.4001
 437  81.36758
 438  -135.5609
 439  -68.91496
 440  274.6331
 441  351.1832
 442  -192.7717
 443  -153.6471
 444  -358.5688
 445  -476.0282
 446  -363.1381
 447  -470.3225
 448  -265.1438
 449  -199.0779
 450  -194.5971
 451  -313.7873
 452  -410.8008
 453  -200.4097
 454  246.7233
 455  -146.6134
 456  215.8692
 457  456.8615
 458  186.6017
 459  178.8048
 460  122.1823
 461  253.2261
 462  288.7813
 463  52.33682
 464  328.4894
 465  333.7848
 466  206.2249
 467  -38.58657
 468  296.264
 469  305.6183
 470  519.3775
 471  240.6516
 472  -160.3663
 473  35.85284
 474  135.951
 475  539.4581
 476  407.9404
 477  381.8878
 478  71.97474
 479  -190.1589
 480  240.2913
 481  -2.255378
 482  -0.2038494
 483  1.111739
 484  296.1754
 485  307.6703
 486  -144.5585
 487  130.8484
 488  -67.7533
 489  218.5652
 490  419.4524
 491  89.71275
 492  310.1271
 493  382.6435
 494  683.6746
 495  569.5121
 496  43.17752
 497  172.8052
 498  108.1803
 499  -66.20898
 500  220.1841
 501  152.0742
 502  207.7054
 503  -141.0448
 504  -9.548779
 505  62.46213
 506  180.6523
 507  157.533
 508  -39.27229
 509  -349.0696
 510  -376.6396
 511  -78.51561
