# Input file       =  1188766390.112221_cleaned.dat
# Candidate        =  PSR_0332+5434
# Telescope        =  AR
# Epoch_topo       =  58002.870475835894
# Epoch_bary       =  N/A
# T_sample         =  0.002
# Data Folded      =  7208960
# Data Avg         =  -0.0186888584994117
# Data StdDev      =  2.69407764691706 
# Profile Bins     =  512
# Profile Avg      =  -263.153551311205
# Profile StdDev   =  319.677033106952 
# Reduced chi-sqr  =  0.821
# Prob(Noise)      <  0.999   (~0.0 sigma)
# P_topo (ms)      =  714.464084770796  +/- 0.00123
# P'_topo (s/s)    =  -0                +/- 6.6e-10
# P''_topo (s/s^2) =  0                 +/- 2.97e-13
# P_bary (ms)      =  N/A
# P'_bary (s/s)    =  N/A
# P''_bary (s/s^2) =  N/A
# P_orb (s)        =  N/A
# asin(i)/c (s)    =  N/A
# eccentricity     =  N/A
# w (rad)          =  N/A
# T_peri           =  N/A
######################################################
   0  -324.7959
   1  -346.5017
   2  -256.2162
   3  -462.108
   4  -462.1327
   5  -113.0982
   6  -414.6021
   7  -576.1505
   8  -427.0284
   9  -213.4518
  10  -456.1997
  11  -274.9724
  12  -278.6025
  13  -121.056
  14  -206.7297
  15  -458.6655
  16  -465.3175
  17  -312.157
  18  -201.0145
  19  22.91169
  20  -349.8323
  21  -610.6682
  22  -527.5065
  23  -386.2261
  24  -383.5078
  25  -398.7137
  26  -343.8929
  27  -240.469
  28  -206.1735
  29  -506.2044
  30  -587.0713
  31  -227.1698
  32  -113.4181
  33  10.37712
  34  64.83581
  35  -170.8134
  36  -629.8903
  37  -367.063
  38  -295.0688
  39  -230.2039
  40  -473.5768
  41  -380.378
  42  53.56505
  43  -254.6379
  44  -275.5003
  45  62.47528
  46  -32.4908
  47  64.26563
  48  -102.2971
  49  -201.9299
  50  -248.5184
  51  -112.4478
  52  -310.2862
  53  -405.0231
  54  -236.3791
  55  51.54367
  56  -27.09139
  57  -309.5601
  58  -118.3263
  59  -373.3704
  60  -196.5424
  61  -174.0565
  62  -98.63555
  63  -58.11738
  64  49.51807
  65  146.1691
  66  371.3097
  67  1092.193
  68  1031.385
  69  722.1186
  70  444.3073
  71  102.7024
  72  6.583141
  73  -212.3392
  74  20.52493
  75  18.12526
  76  -382.8936
  77  -202.5952
  78  -51.63916
  79  51.70882
  80  13.56119
  81  -90.88328
  82  -77.53225
  83  -163.2245
  84  -361.8918
  85  76.51185
  86  -31.84024
  87  -119.2337
  88  -340.1119
  89  -299.8304
  90  117.5364
  91  -134.1674
  92  -387.5041
  93  -306.6827
  94  -547.4428
  95  -318.0369
  96  67.0689
  97  193.3242
  98  -159.0784
  99  -482.5403
 100  -39.29157
 101  118.8642
 102  -169.8398
 103  -500.4672
 104  -528.6737
 105  -184.8584
 106  -37.66205
 107  -292.4896
 108  -436.7901
 109  -101.2141
 110  -332.5471
 111  -50.82541
 112  -325.7969
 113  -312.2511
 114  -281.2397
 115  -515.3884
 116  -433.4049
 117  -73.54641
 118  -55.14373
 119  -33.05306
 120  -453.6528
 121  -441.4155
 122  -211.8656
 123  -317.7915
 124  -368.0295
 125  -46.46985
 126  -288.542
 127  -376.6194
 128  -70.48152
 129  -169.6079
 130  -211.2634
 131  -109.481
 132  -10.7297
 133  -26.36645
 134  -42.95206
 135  -320.3212
 136  -416.6396
 137  -194.2585
 138  -551.4091
 139  -745.512
 140  -416.1704
 141  -355.2127
 142  -408.1505
 143  -312.2193
 144  -399.5879
 145  -477.0442
 146  -457.3583
 147  -353.5384
 148  -335.9117
 149  -565.5319
 150  -355.5202
 151  -411.3408
 152  -88.36245
 153  -248.9612
 154  -350.8142
 155  -339.7049
 156  -305.673
 157  -39.46408
 158  -253.5181
 159  -367.6336
 160  -318.9535
 161  25.21778
 162  55.19346
 163  -209.9201
 164  -208.8943
 165  -502.8462
 166  -190.9528
 167  -104.5759
 168  -549.4414
 169  -343.1665
 170  5.449688
 171  -150.0681
 172  -63.79123
 173  -312.4301
 174  -535.1096
 175  -275.7515
 176  -398.7265
 177  -271.5946
 178  -326.8255
 179  -90.8749
 180  -15.62849
 181  -126.4893
 182  -265.6539
 183  -249.216
 184  -456.023
 185  -252.4273
 186  -51.57755
 187  39.00636
 188  -176.6668
 189  -254.1159
 190  -405.9873
 191  -106.5495
 192  -192.8921
 193  -65.22484
 194  -335.9499
 195  -159.5569
 196  -172.2204
 197  -241.248
 198  108.4955
 199  103.0441
 200  -179.2386
 201  -240.2325
 202  -313.1671
 203  -101.5648
 204  -1.771253
 205  -172.774
 206  -560.2615
 207  -506.776
 208  -225.0127
 209  -574.6874
 210  -544.2388
 211  -398.8008
 212  -325.8676
 213  -344.7151
 214  -667.1437
 215  -480.0533
 216  -219.9017
 217  -76.75426
 218  -412.1459
 219  -362.1289
 220  -228.8978
 221  -223.9851
 222  -325.7567
 223  -221.5031
 224  -118.8613
 225  -206.3963
 226  -331.6326
 227  -635.9209
 228  -593.4377
 229  -386.362
 230  -300.9997
 231  -444.2194
 232  -438.9247
 233  -211.9394
 234  -301.4869
 235  -352.83
 236  -588.1115
 237  -391.1743
 238  -453.0032
 239  -450.1836
 240  -142.5101
 241  -322.3691
 242  -440.5671
 243  -284.3146
 244  -258.0136
 245  -368.7144
 246  -417.3659
 247  -361.6026
 248  -208.3636
 249  -424.1771
 250  -513.1093
 251  -552.0602
 252  -363.366
 253  -698.2356
 254  -282.0503
 255  -235.321
 256  -487.886
 257  -473.2595
 258  -243.5865
 259  -187.3929
 260  -601.9121
 261  -360.4895
 262  -190.9557
 263  -6.614016
 264  -29.18221
 265  -142.3327
 266  -248.4835
 267  -408.5525
 268  -273.8749
 269  -457.191
 270  -242.7064
 271  -383.7907
 272  -320.938
 273  -360.9258
 274  -156.5828
 275  -286.8181
 276  -385.7939
 277  -109.3864
 278  -112.6139
 279  -375.3223
 280  -389.3446
 281  -542.8057
 282  -489.3661
 283  -577.0474
 284  -236.2397
 285  -252.8042
 286  -333.8517
 287  -380.5826
 288  -426.5275
 289  -336.8564
 290  -344.2656
 291  -97.71001
 292  -303.7199
 293  -231.79
 294  -332.64
 295  -261.9301
 296  76.0607
 297  -38.81353
 298  -275.888
 299  -319.4621
 300  -360.3683
 301  -259.7671
 302  -244.9968
 303  -68.95815
 304  -111.4416
 305  -495.7603
 306  -438.5263
 307  -205.5496
 308  -408.9092
 309  -206.7322
 310  -288.3564
 311  -184.4978
 312  -269.4226
 313  -522.284
 314  -223.0945
 315  -285.752
 316  -355.201
 317  -256.711
 318  -549.6705
 319  -563.7394
 320  -363.387
 321  -236.1645
 322  -207.1234
 323  -335.9346
 324  -362.9012
 325  -405.4699
 326  -497.669
 327  -387.0271
 328  -275.7851
 329  -129.9884
 330  -67.24236
 331  -245.2242
 332  -242.9717
 333  80.83968
 334  -152.8415
 335  -88.51022
 336  42.20712
 337  -109.3585
 338  -276.4561
 339  -363.0251
 340  -242.6967
 341  -455.5163
 342  -244.2955
 343  -154.4425
 344  -58.11509
 345  -262.7102
 346  -146.9028
 347  131.859
 348  -531.6907
 349  -547.395
 350  -289.4877
 351  -234.4026
 352  -159.0982
 353  -155.6414
 354  -234.7203
 355  -310.8549
 356  -117.2851
 357  -295.1214
 358  -182.97
 359  -219.1201
 360  -276.4225
 361  -330.5401
 362  -198.8565
 363  -233.4548
 364  -293.8789
 365  -258.1859
 366  -281.6689
 367  -80.81255
 368  -211.8117
 369  -276.5801
 370  -353.7687
 371  -181.095
 372  104.6503
 373  56.09737
 374  -1.215906
 375  -310.1696
 376  -163.8683
 377  -235.5749
 378  -375.2818
 379  -187.7525
 380  -88.38941
 381  -546.8036
 382  -564.9398
 383  -234.5737
 384  -216.6766
 385  -389.2325
 386  52.70329
 387  12.66902
 388  69.79675
 389  -358.8875
 390  -472.6856
 391  -166.892
 392  86.59264
 393  -229.5441
 394  -453.1105
 395  -172.4281
 396  -204.9772
 397  -481.1111
 398  -348.8918
 399  -423.7979
 400  -605.2561
 401  -594.499
 402  -500.9801
 403  -484.4266
 404  -317.9647
 405  -341.8518
 406  -184.1389
 407  -177.1046
 408  -264.5644
 409  52.15794
 410  -339.5558
 411  -420.6167
 412  -167.1101
 413  -28.31318
 414  -309.6823
 415  -559.8343
 416  -378.1488
 417  -167.7392
 418  -293.1116
 419  -655.2108
 420  -558.5452
 421  -494.6633
 422  -488.9332
 423  -487.2451
 424  -257.0594
 425  -328.0882
 426  -330.834
 427  -421.5748
 428  -494.054
 429  -403.9877
 430  -323.8864
 431  -203.8754
 432  -511.8528
 433  -354.7309
 434  -282.6076
 435  -476.5529
 436  -359.2376
 437  -376.6412
 438  -325.2849
 439  -232.1571
 440  -278.2763
 441  -261.8361
 442  -363.6338
 443  -382.1293
 444  -381.8224
 445  -303.1926
 446  -147.4447
 447  -300.9572
 448  -432.1458
 449  -544.15
 450  -570.3926
 451  -409.2246
 452  -755.8297
 453  -817.2796
 454  -373.9442
 455  -461.364
 456  -802.5984
 457  -700.5562
 458  -544.7178
 459  -100.8487
 460  -73.826
 461  -167.0502
 462  54.21701
 463  -322.056
 464  -507.3173
 465  -755.0061
 466  -329.1114
 467  -377.3906
 468  -412.3733
 469  -268.6271
 470  -602.3993
 471  -484.3044
 472  -219.3505
 473  -66.03669
 474  -38.14254
 475  -143.8898
 476  -62.30199
 477  -57.10693
 478  -53.78921
 479  -16.36656
 480  186.1161
 481  -115.66
 482  -410.9348
 483  -120.3298
 484  -231.7677
 485  -101.8974
 486  -295.2885
 487  -26.13038
 488  -176.0735
 489  -292.0731
 490  -269.6968
 491  -233.2831
 492  -446.2772
 493  -92.81177
 494  14.23577
 495  -222.1487
 496  -201.479
 497  -41.63815
 498  -163.8074
 499  -252.8744
 500  104.7444
 501  131.4183
 502  -35.94479
 503  -281.8757
 504  -319.1538
 505  -512.9467
 506  -660.5155
 507  -433.8947
 508  -490.778
 509  -199.59
 510  -296.6607
 511  -383.9428
