# Input file       =  1188938671.110717_cleaned.dat
# Candidate        =  PSR_0332+5434
# Telescope        =  AR
# Epoch_topo       =  58004.864468874039
# Epoch_bary       =  N/A
# T_sample         =  0.002
# Data Folded      =  7208960
# Data Avg         =  0.00553137960487312
# Data StdDev      =  1.00013316108053 
# Profile Bins     =  512
# Profile Avg      =  77.8735750282663 
# Profile StdDev   =  118.674976577593 
# Reduced chi-sqr  =  1.345
# Prob(Noise)      <  2.74e-07   (~5.0 sigma)
# P_topo (ms)      =  714.46442335013   +/- 0.000126
# P'_topo (s/s)    =  -0                +/- 6.76e-11
# P''_topo (s/s^2) =  0                 +/- 3.04e-14
# P_bary (ms)      =  N/A
# P'_bary (s/s)    =  N/A
# P''_bary (s/s^2) =  N/A
# P_orb (s)        =  N/A
# asin(i)/c (s)    =  N/A
# eccentricity     =  N/A
# w (rad)          =  N/A
# T_peri           =  N/A
######################################################
   0  672.1941
   1  484.4265
   2  445.2406
   3  338.1772
   4  79.50608
   5  71.68817
   6  113.1732
   7  8.031055
   8  151.5632
   9  89.41575
  10  90.51526
  11  113.9832
  12  284.8457
  13  220.7253
  14  -11.57201
  15  133.1514
  16  208.5104
  17  165.2821
  18  180.767
  19  225.3654
  20  112.8527
  21  14.96262
  22  31.99802
  23  83.34075
  24  101.2954
  25  186.7941
  26  158.6614
  27  3.648622
  28  -67.67036
  29  -52.77502
  30  18.18492
  31  27.77368
  32  50.4607
  33  39.98462
  34  8.461337
  35  59.1706
  36  -1.076246
  37  -107.3142
  38  -102.7968
  39  70.25886
  40  120.414
  41  30.02228
  42  63.17088
  43  207.4908
  44  190.0497
  45  14.98919
  46  -42.40142
  47  -58.66722
  48  -0.1662536
  49  146.8954
  50  120.6563
  51  175.2377
  52  112.2253
  53  28.08283
  54  13.1903
  55  124.4606
  56  159.0441
  57  87.13393
  58  83.46637
  59  143.7051
  60  171.4145
  61  157.9462
  62  212.452
  63  78.56106
  64  -19.88456
  65  15.51368
  66  66.83412
  67  154.6433
  68  81.55663
  69  98.08137
  70  -41.93814
  71  176.3961
  72  227.1211
  73  215.9747
  74  52.58847
  75  194.4711
  76  125.4173
  77  240.6273
  78  302.847
  79  89.9953
  80  55.93042
  81  132.9588
  82  199.758
  83  193.8533
  84  147.6344
  85  -2.011317
  86  -21.49837
  87  7.663203
  88  16.23022
  89  68.51413
  90  97.97462
  91  179.3133
  92  24.40031
  93  141.588
  94  63.70934
  95  -33.40845
  96  18.67155
  97  94.06076
  98  185.8549
  99  171.57
 100  118.3799
 101  92.87183
 102  142.0275
 103  167.8873
 104  71.43009
 105  -13.35606
 106  -59.15191
 107  -24.63644
 108  118.3661
 109  152.725
 110  27.13019
 111  -12.56222
 112  -13.58011
 113  23.7572
 114  -5.489752
 115  -24.81889
 116  83.15077
 117  136.5426
 118  75.25581
 119  43.12979
 120  135.2952
 121  160.9265
 122  -25.28668
 123  99.42452
 124  75.8485
 125  272.4541
 126  220.4392
 127  272.4561
 128  285.5859
 129  -6.709318
 130  108.5346
 131  174.1912
 132  126.7391
 133  159.5995
 134  76.54266
 135  219.7655
 136  112.3057
 137  55.05777
 138  58.59716
 139  115.0463
 140  161.5231
 141  140.6956
 142  -38.12938
 143  -77.04229
 144  -8.287027
 145  -101.8855
 146  -83.95749
 147  132.9087
 148  200.1634
 149  89.6487
 150  24.69464
 151  49.94386
 152  69.2309
 153  19.83325
 154  79.6619
 155  24.90589
 156  30.79052
 157  22.63519
 158  162.8221
 159  191.5
 160  111.4725
 161  -44.22556
 162  39.8223
 163  105.266
 164  100.6401
 165  81.99506
 166  191.1226
 167  70.98548
 168  78.54754
 169  55.2
 170  -35.76226
 171  58.17122
 172  90.74273
 173  114.6754
 174  127.8551
 175  157.1718
 176  -32.1353
 177  -45.21534
 178  -36.77625
 179  42.83293
 180  -89.69206
 181  -83.2078
 182  40.80234
 183  110.2647
 184  2.284965
 185  120.2563
 186  90.76354
 187  15.89146
 188  -44.76997
 189  -80.50664
 190  -10.46213
 191  124.1275
 192  95.24669
 193  73.86857
 194  93.12174
 195  84.91972
 196  15.32996
 197  -26.26729
 198  -0.6378414
 199  168.1295
 200  102.2592
 201  -20.56891
 202  11.13858
 203  1.921624
 204  104.7981
 205  52.46548
 206  38.52649
 207  170.8397
 208  216.6071
 209  100.7337
 210  -61.79893
 211  -139.6162
 212  6.582212
 213  50.8636
 214  71.97617
 215  -50.66708
 216  -233.7922
 217  -151.833
 218  -52.16629
 219  56.83676
 220  32.23576
 221  21.99336
 222  -29.37156
 223  -6.671951
 224  107.4036
 225  20.58133
 226  -54.52299
 227  88.66788
 228  120.6049
 229  -20.53127
 230  -18.35365
 231  -63.6381
 232  8.350451
 233  76.40357
 234  85.10382
 235  57.69542
 236  -50.21468
 237  -62.26507
 238  -32.10095
 239  -45.32368
 240  -122.9999
 241  206.9215
 242  56.53222
 243  -23.16822
 244  83.15424
 245  54.473
 246  85.88281
 247  80.97656
 248  107.4247
 249  135.3617
 250  190.5322
 251  171.1431
 252  -12.80406
 253  -137.5116
 254  2.063241
 255  -35.16534
 256  131.2079
 257  239.769
 258  76.00007
 259  17.38893
 260  79.84098
 261  0.1151254
 262  36.82553
 263  64.89855
 264  40.03232
 265  -11.34456
 266  -23.09213
 267  156.3862
 268  181.8663
 269  81.79623
 270  -45.08771
 271  -51.02249
 272  172.9074
 273  164.4041
 274  141.5018
 275  87.16795
 276  25.65447
 277  -17.21689
 278  21.0302
 279  -2.272891
 280  169.3131
 281  159.0756
 282  26.62965
 283  -46.62417
 284  26.01304
 285  2.265904
 286  46.61779
 287  160.0913
 288  118.8136
 289  137.8992
 290  93.84637
 291  10.36738
 292  -58.15743
 293  83.36395
 294  169.0304
 295  9.757682
 296  -46.45575
 297  143.1745
 298  121.6779
 299  -16.21757
 300  -38.94485
 301  17.3259
 302  86.49358
 303  126.6294
 304  138.4114
 305  53.23775
 306  -21.74761
 307  5.072478
 308  182.3115
 309  164.7193
 310  32.65811
 311  55.94718
 312  50.62107
 313  33.16273
 314  -82.03442
 315  43.51397
 316  46.01848
 317  74.82794
 318  114.3099
 319  33.41641
 320  23.21158
 321  5.795837
 322  47.95767
 323  -1.055328
 324  77.34235
 325  12.22448
 326  72.14954
 327  148.0432
 328  184.8492
 329  81.91204
 330  93.09969
 331  104.051
 332  160.8119
 333  209.9924
 334  -10.16665
 335  -44.39991
 336  60.53431
 337  -63.69957
 338  4.680158
 339  96.47818
 340  136.3813
 341  71.49513
 342  96.8278
 343  75.99461
 344  176.2624
 345  207.0041
 346  40.17479
 347  27.13481
 348  131.9771
 349  96.29972
 350  64.38329
 351  129.7071
 352  195.7152
 353  204.2444
 354  164.7899
 355  87.46193
 356  110.1443
 357  158.7299
 358  123.5319
 359  95.00112
 360  54.29013
 361  110.2459
 362  81.18271
 363  127.9812
 364  150.7928
 365  36.70663
 366  -54.13771
 367  42.68072
 368  166.6309
 369  182.3857
 370  127.9201
 371  86.10156
 372  117.479
 373  132.989
 374  164.214
 375  110.9223
 376  122.9462
 377  164.4725
 378  50.85098
 379  179.2155
 380  137.9181
 381  130.8965
 382  74.90948
 383  80.69724
 384  54.42443
 385  124.1362
 386  78.31209
 387  -18.72364
 388  126.5786
 389  190.6508
 390  171.203
 391  23.58925
 392  -104.483
 393  11.29282
 394  101.0548
 395  118.0385
 396  203.1617
 397  134.4695
 398  115.0106
 399  45.68118
 400  174.5913
 401  86.73071
 402  -42.30143
 403  153.8509
 404  219.277
 405  58.2045
 406  -39.99855
 407  -19.43834
 408  159.5476
 409  236.2481
 410  158.6421
 411  127.6853
 412  204.7721
 413  59.22869
 414  51.64652
 415  110.3895
 416  92.21835
 417  -82.0056
 418  -32.51539
 419  23.57005
 420  60.58278
 421  82.51409
 422  115.3749
 423  78.01391
 424  186.0208
 425  109.1147
 426  -39.92313
 427  -74.67953
 428  -25.94477
 429  61.83304
 430  80.61763
 431  18.06012
 432  -9.509837
 433  4.006543
 434  0.3338746
 435  58.79662
 436  77.45134
 437  -36.14127
 438  -71.53095
 439  121.0554
 440  96.94151
 441  165.8032
 442  18.34978
 443  25.05388
 444  -77.65363
 445  -35.24663
 446  -38.55421
 447  133.4868
 448  211.3987
 449  42.13726
 450  -55.84398
 451  72.86009
 452  126.3946
 453  186.3817
 454  163.5468
 455  79.58787
 456  12.90845
 457  -83.97958
 458  -12.76681
 459  -54.04577
 460  131.3747
 461  133.2965
 462  67.31611
 463  28.09184
 464  29.25035
 465  81.22117
 466  -65.5159
 467  54.74369
 468  114.4927
 469  36.39511
 470  -13.38309
 471  -33.2145
 472  69.74614
 473  128.7237
 474  181.5709
 475  166.1082
 476  68.69685
 477  63.73848
 478  1.963766
 479  9.091232
 480  -25.47557
 481  -143.8058
 482  15.87387
 483  126.8841
 484  62.7933
 485  -21.04087
 486  23.41282
 487  17.15517
 488  69.51556
 489  136.7536
 490  57.81476
 491  19.41573
 492  98.1758
 493  124.7771
 494  83.36116
 495  4.663147
 496  29.22687
 497  48.80612
 498  76.70813
 499  116.0772
 500  205.8601
 501  118.5555
 502  99.58424
 503  232.0517
 504  200.4658
 505  411.9225
 506  254.2447
 507  326.607
 508  400.8173
 509  299.0154
 510  524.2375
 511  606.0718
