# Input file       =  1188451331.12315_cleaned.dat
# Candidate        =  PSR_0332+5434
# Telescope        =  AR
# Epoch_topo       =  57999.223959758681
# Epoch_bary       =  N/A
# T_sample         =  0.002
# Data Folded      =  7340032
# Data Avg         =  0.0356931791736445
# Data StdDev      =  2.96321089687409 
# Profile Bins     =  512
# Profile Avg      =  511.215175625146 
# Profile StdDev   =  354.794238107455 
# Reduced chi-sqr  =  1.247
# Prob(Noise)      <  0.000116   (~3.7 sigma)
# P_topo (ms)      =  714.463975149412  +/- 0.000241
# P'_topo (s/s)    =  -0                +/- 1.27e-10
# P''_topo (s/s^2) =  0                 +/- 5.62e-14
# P_bary (ms)      =  N/A
# P'_bary (s/s)    =  N/A
# P''_bary (s/s^2) =  N/A
# P_orb (s)        =  N/A
# asin(i)/c (s)    =  N/A
# eccentricity     =  N/A
# w (rad)          =  N/A
# T_peri           =  N/A
######################################################
   0  245.7149
   1  487.6573
   2  329.4554
   3  344.4511
   4  362.9296
   5  507.6983
   6  326.9484
   7  24.11888
   8  78.89688
   9  -190.3505
  10  -83.86155
  11  243.1543
  12  400.2561
  13  184.0831
  14  -58.54971
  15  152.683
  16  395.209
  17  387.9568
  18  198.665
  19  -18.6991
  20  -18.61633
  21  250.3778
  22  84.39861
  23  415.8308
  24  359.9342
  25  223.6916
  26  363.9318
  27  685.0391
  28  388.2361
  29  260.1046
  30  202.1745
  31  131.9697
  32  405.1307
  33  542.8828
  34  542.6078
  35  495.2573
  36  997.5203
  37  633.958
  38  411.1523
  39  611.6647
  40  272.625
  41  457.0567
  42  368.3591
  43  528.4296
  44  541.6782
  45  -10.78156
  46  300.3863
  47  439.2172
  48  326.6063
  49  192.3613
  50  337.4021
  51  471.1343
  52  533.4231
  53  163.4273
  54  243.0149
  55  368.6782
  56  331.5633
  57  432.6087
  58  71.0269
  59  328.4916
  60  717.9384
  61  627.1391
  62  323.1555
  63  190.432
  64  336.0234
  65  349.6456
  66  145.3362
  67  400.4734
  68  365.8882
  69  434.2913
  70  241.0117
  71  434.2528
  72  361.691
  73  364.0273
  74  -32.07484
  75  168.3137
  76  -150.0449
  77  334.5374
  78  703.3694
  79  594.4022
  80  724.4505
  81  833.4141
  82  570.9476
  83  365.9452
  84  374.199
  85  431.7182
  86  201.6396
  87  279.1355
  88  426.9978
  89  585.9031
  90  -161.5246
  91  312.9099
  92  225.382
  93  -104.5299
  94  329.0227
  95  696.1119
  96  530.4667
  97  561.6506
  98  312.6206
  99  423.411
 100  757.6158
 101  526.7267
 102  695.9003
 103  796.4854
 104  366.095
 105  563.5765
 106  826.4618
 107  652.6073
 108  602.0984
 109  964.8022
 110  1112.234
 111  928.2452
 112  352.5199
 113  337.1881
 114  757.8604
 115  728.5314
 116  968.2121
 117  766.3099
 118  700.4778
 119  659.3842
 120  394.7916
 121  475.032
 122  870.9597
 123  1035.68
 124  737.3248
 125  513.923
 126  679.9841
 127  746.9766
 128  570.5908
 129  144.7303
 130  563.6731
 131  567.0195
 132  567.0399
 133  464.1786
 134  249.6878
 135  369.1626
 136  521.5416
 137  253.8786
 138  335.4419
 139  390.2283
 140  700.5646
 141  509.6095
 142  629.4647
 143  708.8251
 144  534.2447
 145  23.53204
 146  196.1114
 147  624.7361
 148  967.5391
 149  868.0924
 150  706.6613
 151  374.5846
 152  277.9277
 153  721.0518
 154  596.1951
 155  504.5349
 156  805.972
 157  570.0617
 158  573.0869
 159  1062.82
 160  929.827
 161  564.5125
 162  551.749
 163  831.8484
 164  665.6874
 165  883.1507
 166  742.952
 167  538.1741
 168  492.8316
 169  764.4634
 170  791.0945
 171  560.63
 172  418.7502
 173  470.7285
 174  26.10126
 175  457.4971
 176  625.9648
 177  501.3383
 178  514.0734
 179  710.942
 180  494.8181
 181  495.181
 182  478.2888
 183  704.3735
 184  786.767
 185  663.254
 186  377.6481
 187  519.1798
 188  750.3009
 189  507.2892
 190  328.5573
 191  454.7148
 192  710.7951
 193  665.4022
 194  484.3543
 195  607.9976
 196  855.9131
 197  1004.005
 198  715.9257
 199  588.4592
 200  837.069
 201  667.8398
 202  564.4806
 203  1189.956
 204  1207.474
 205  1042.323
 206  657.8288
 207  787.7511
 208  819.7662
 209  403.195
 210  578.4096
 211  525.7966
 212  656.3735
 213  819.2811
 214  197.4562
 215  24.38523
 216  249.2409
 217  346.8319
 218  318.964
 219  526.9309
 220  586.0609
 221  510.2263
 222  468.5033
 223  763.4965
 224  776.9028
 225  427.3925
 226  231.4314
 227  381.1961
 228  779.975
 229  630.1964
 230  334.4624
 231  -17.20294
 232  97.19852
 233  625.4091
 234  346.2707
 235  205.1714
 236  282.6472
 237  210.1369
 238  326.4224
 239  162.5423
 240  -25.97667
 241  -106.0731
 242  437.5937
 243  929.7059
 244  537.0148
 245  -45.78734
 246  17.53617
 247  -46.22679
 248  581.8178
 249  939.6075
 250  735.8083
 251  458.0457
 252  329.7061
 253  510.8802
 254  262.9466
 255  573.8783
 256  399.0239
 257  304.1208
 258  410.7562
 259  672.3983
 260  869.8678
 261  839.5403
 262  470.4263
 263  717.4292
 264  445.0346
 265  445.3985
 266  636.8633
 267  481.4363
 268  464.1317
 269  591.356
 270  795.1161
 271  498.4461
 272  -135.8248
 273  296.5492
 274  663.5092
 275  461.9267
 276  774.8018
 277  962.1649
 278  633.2787
 279  538.178
 280  705.8814
 281  687.3588
 282  450.2795
 283  414.73
 284  508.2666
 285  503.558
 286  384.408
 287  222.0217
 288  409.165
 289  578.3497
 290  328.7726
 291  102.5898
 292  389.1261
 293  208.9939
 294  55.59126
 295  14.39854
 296  642.0334
 297  706.4125
 298  780.2419
 299  723.1617
 300  424.4132
 301  488.7079
 302  471.7031
 303  524.9757
 304  695.2269
 305  692.6679
 306  575.0757
 307  814.3124
 308  512.3945
 309  497.0856
 310  339.2535
 311  437.1349
 312  607.8042
 313  496.272
 314  590.2496
 315  790.5515
 316  625.2886
 317  473.2903
 318  704.8237
 319  882.032
 320  1007.548
 321  1403.095
 322  1530.868
 323  1446.038
 324  1797.696
 325  1697.875
 326  961.4566
 327  817.2916
 328  615.9974
 329  148.7702
 330  565.9057
 331  209.267
 332  158.0351
 333  660.2366
 334  797.275
 335  1198.66
 336  1300.015
 337  1153.98
 338  1184.74
 339  986.9517
 340  677.6501
 341  512.5873
 342  251.3871
 343  820.0507
 344  394.9997
 345  271.5884
 346  345.0452
 347  257.4704
 348  603.9748
 349  1017.329
 350  676.1776
 351  758.4735
 352  657.5963
 353  1181.03
 354  1036.892
 355  363.8818
 356  357.4163
 357  579.1221
 358  875.8217
 359  825.6525
 360  600.9873
 361  398.6459
 362  49.56594
 363  419.7197
 364  478.6439
 365  486.4031
 366  974.2615
 367  870.8674
 368  599.7908
 369  456.4879
 370  552.4992
 371  140.6657
 372  125.2164
 373  364.8787
 374  949.179
 375  795.0374
 376  851.2961
 377  737.045
 378  706.2299
 379  62.69296
 380  -50.02024
 381  143.8027
 382  198.4107
 383  208.3009
 384  330.4799
 385  -66.22175
 386  185.7373
 387  189.2668
 388  422.8546
 389  418.3738
 390  423.7485
 391  71.18958
 392  -124.4327
 393  214.6159
 394  272.8078
 395  99.79118
 396  283.5384
 397  362.1508
 398  487.3638
 399  -157.3392
 400  227.9885
 401  688.5919
 402  1068.449
 403  821.8752
 404  711.2795
 405  812.5764
 406  680.6808
 407  631.3708
 408  643.731
 409  909.1586
 410  821.3401
 411  1015.324
 412  644.4345
 413  778.0239
 414  492.969
 415  708.6714
 416  711.3608
 417  748.5138
 418  487.3531
 419  574.9991
 420  918.7639
 421  654.7693
 422  417.8422
 423  394.5855
 424  623.7471
 425  485.9509
 426  267.3149
 427  178.8459
 428  324.6874
 429  335.6978
 430  67.03784
 431  246.2526
 432  893.5517
 433  1023.924
 434  516.3748
 435  650.7101
 436  395.4155
 437  689.0992
 438  706.1104
 439  523.951
 440  571.4482
 441  439.5507
 442  503.8052
 443  455.9402
 444  598.6693
 445  593.9282
 446  750.9874
 447  846.168
 448  443.8101
 449  138.0044
 450  140.0923
 451  615.8162
 452  454.1819
 453  451.6546
 454  507.4861
 455  346.5992
 456  740.2412
 457  469.4458
 458  407.0431
 459  374.549
 460  766.3186
 461  421.5872
 462  251.1364
 463  236.8909
 464  601.982
 465  396.6966
 466  498.87
 467  387.9809
 468  -29.89526
 469  346.3971
 470  497.3488
 471  339.2816
 472  747.1923
 473  1063.122
 474  451.1525
 475  643.251
 476  1088.487
 477  545.0898
 478  450.7366
 479  873.611
 480  825.8425
 481  419.1408
 482  499.9832
 483  942.3354
 484  755.8256
 485  661.6149
 486  614.8164
 487  302.3457
 488  406.2173
 489  682.8211
 490  490.4273
 491  237.0397
 492  381.3143
 493  575.9119
 494  624.1854
 495  385.2273
 496  351.6678
 497  200.7205
 498  224.3457
 499  191.5397
 500  565.1748
 501  788.8792
 502  746.1188
 503  527.3632
 504  297.6059
 505  362.8821
 506  330.7499
 507  576.353
 508  395.1922
 509  366.8303
 510  302.9682
 511  275.1791
