# Input file       =  1188867141.111164_cleaned.dat
# Candidate        =  PSR_0332+5434
# Telescope        =  AR
# Epoch_topo       =  58004.036575360697
# Epoch_bary       =  N/A
# T_sample         =  0.002
# Data Folded      =  7340032
# Data Avg         =  0.0107456780496385
# Data StdDev      =  1.00004401298125 
# Profile Bins     =  512
# Profile Avg      =  154.091116492661 
# Profile StdDev   =  119.738306184652 
# Reduced chi-sqr  =  1.237
# Prob(Noise)      <  0.000201   (~3.5 sigma)
# P_topo (ms)      =  714.464287765067  +/- 0.000137
# P'_topo (s/s)    =  -0                +/- 7.25e-11
# P''_topo (s/s^2) =  0                 +/- 3.2e-14
# P_bary (ms)      =  N/A
# P'_bary (s/s)    =  N/A
# P''_bary (s/s^2) =  N/A
# P_orb (s)        =  N/A
# asin(i)/c (s)    =  N/A
# eccentricity     =  N/A
# w (rad)          =  N/A
# T_peri           =  N/A
######################################################
   0  540.2188
   1  448.1854
   2  570.0828
   3  268.9337
   4  143.9703
   5  163.9333
   6  289.8421
   7  176.5979
   8  115.7361
   9  61.7465
  10  83.18658
  11  109.8234
  12  263.1941
  13  232.7393
  14  68.37206
  15  92.71958
  16  136.9898
  17  94.2066
  18  -8.699674
  19  4.289268
  20  125.8326
  21  84.82801
  22  99.54248
  23  39.85405
  24  209.8044
  25  263.7213
  26  95.09913
  27  81.74623
  28  170.2373
  29  176.4665
  30  203.3414
  31  139.1286
  32  123.0613
  33  155.0394
  34  116.1635
  35  80.70475
  36  65.65728
  37  106.5232
  38  192.8067
  39  142.2144
  40  181.4639
  41  99.81926
  42  81.43967
  43  223.8716
  44  174.7713
  45  301.3459
  46  195.2906
  47  197.1702
  48  25.57854
  49  133.0227
  50  225.2813
  51  216.7328
  52  160.1297
  53  211.9839
  54  26.83014
  55  44.0229
  56  293.2379
  57  258.0512
  58  216.7957
  59  142.2731
  60  -20.58965
  61  -63.35037
  62  -26.21822
  63  9.08799
  64  59.2634
  65  155.7493
  66  162.0914
  67  94.76994
  68  109.3633
  69  48.08532
  70  139.5455
  71  179.5853
  72  45.6506
  73  202.7432
  74  339.6754
  75  160.9921
  76  175.5418
  77  224.159
  78  105.8492
  79  34.21395
  80  142.4001
  81  26.58863
  82  132.7701
  83  125.3272
  84  136.5959
  85  63.32243
  86  -41.36356
  87  126.8248
  88  201.1907
  89  240.3711
  90  244.4595
  91  131.8898
  92  309.399
  93  170.1446
  94  71.34761
  95  102.422
  96  158.4978
  97  165.8631
  98  158.5577
  99  162.7763
 100  140.6998
 101  59.58265
 102  144.4732
 103  217.9787
 104  201.2067
 105  139.9255
 106  183.8689
 107  231.0894
 108  132.9754
 109  155.4935
 110  208.1531
 111  277.5305
 112  236.8378
 113  185.5874
 114  239.4044
 115  311.7598
 116  238.8496
 117  214.3136
 118  213.2115
 119  233.325
 120  221.6962
 121  146.2156
 122  114.7899
 123  81.20853
 124  51.8053
 125  83.2875
 126  34.80159
 127  39.08327
 128  42.03465
 129  71.106
 130  45.20831
 131  154.1356
 132  -17.54594
 133  45.98048
 134  91.83359
 135  234.6035
 136  215.9092
 137  153.0175
 138  329.6822
 139  283.8178
 140  130.8871
 141  -16.2394
 142  68.31313
 143  93.53459
 144  173.3733
 145  153.9333
 146  158.0836
 147  221.0632
 148  258.3441
 149  174.2098
 150  112.5383
 151  119.3948
 152  48.75784
 153  198.2969
 154  208.767
 155  268.9425
 156  212.2672
 157  183.2477
 158  140.7254
 159  160.7487
 160  104.8579
 161  82.8568
 162  79.18891
 163  99.85732
 164  333.1844
 165  194.4113
 166  93.02092
 167  220.1721
 168  204.8859
 169  95.01579
 170  113.1933
 171  301.044
 172  389.0177
 173  284.4292
 174  266.4279
 175  79.83807
 176  36.42578
 177  141.1591
 178  84.25067
 179  57.92094
 180  221.8177
 181  241.4549
 182  155.5517
 183  177.9428
 184  270.172
 185  241.9067
 186  178.0625
 187  124.5076
 188  174.9405
 189  306.9111
 190  332.1699
 191  135.3331
 192  115.766
 193  27.17492
 194  109.6015
 195  178.7125
 196  220.789
 197  121.5423
 198  71.63851
 199  254.985
 200  203.916
 201  -23.63861
 202  56.83432
 203  24.82412
 204  87.4108
 205  169.2942
 206  151.6015
 207  123.9458
 208  -45.58341
 209  53.45354
 210  18.64026
 211  -70.46646
 212  67.86262
 213  137.0774
 214  186.83
 215  120.4629
 216  128.6659
 217  129.0846
 218  13.4827
 219  2.939162
 220  82.02611
 221  102.3377
 222  127.3022
 223  231.4246
 224  293.042
 225  226.5919
 226  318.3134
 227  180.7333
 228  106.1322
 229  32.45132
 230  111.8508
 231  85.18207
 232  167.8688
 233  254.153
 234  141.1742
 235  157.0248
 236  153.811
 237  109.4392
 238  167.6563
 239  104.6358
 240  265.6976
 241  238.4413
 242  235.6961
 243  153.7366
 244  285.5972
 245  190.1121
 246  246.5034
 247  216.7562
 248  83.02032
 249  134.1952
 250  179.372
 251  193.7026
 252  191.0679
 253  97.47191
 254  39.59131
 255  103.2162
 256  312.2772
 257  242.7772
 258  190.1146
 259  251.1033
 260  324.4732
 261  230.1735
 262  160.3083
 263  137.3545
 264  278.8853
 265  225.2805
 266  255.6382
 267  217.4436
 268  258.7716
 269  380.8917
 270  247.6211
 271  234.5802
 272  114.2132
 273  267.9939
 274  268.5056
 275  145.3184
 276  196.0687
 277  92.02742
 278  18.50448
 279  171.3046
 280  356.6461
 281  241.6164
 282  198.3294
 283  196.1471
 284  223.6785
 285  173.2166
 286  144.1458
 287  164.0251
 288  335.0488
 289  262.5542
 290  231.2008
 291  152.1855
 292  258.4411
 293  193.4398
 294  31.93252
 295  86.28568
 296  93.13811
 297  132.2126
 298  45.42413
 299  96.05481
 300  106.6725
 301  153.9036
 302  50.26877
 303  222.2823
 304  244.0327
 305  197.0678
 306  234.8571
 307  183.8928
 308  233.5129
 309  175.2662
 310  68.86462
 311  106.6316
 312  205.5776
 313  158.8572
 314  162.5584
 315  -6.485129
 316  117.3814
 317  94.65727
 318  98.75125
 319  182.4333
 320  164.7808
 321  85.91259
 322  -21.75416
 323  -18.3726
 324  36.11795
 325  115.684
 326  184.2099
 327  80.21658
 328  39.61319
 329  31.96642
 330  49.06417
 331  9.875857
 332  82.50443
 333  176.391
 334  239.5934
 335  169.3068
 336  215.3807
 337  214.9253
 338  53.21558
 339  -3.531525
 340  45.08492
 341  7.952388
 342  64.96696
 343  243.9482
 344  297.1023
 345  263.762
 346  156.9146
 347  55.36519
 348  110.6339
 349  127.2545
 350  97.32349
 351  287.0487
 352  298.2556
 353  368.7579
 354  234.8777
 355  201.2021
 356  151.5829
 357  194.8051
 358  157.7844
 359  98.9676
 360  125.1315
 361  80.4434
 362  94.99264
 363  115.4783
 364  42.47168
 365  251.3996
 366  292.242
 367  140.8543
 368  141.6993
 369  140.6628
 370  106.6877
 371  156.9136
 372  148.323
 373  168.6588
 374  130.8665
 375  -79.87457
 376  -85.70012
 377  26.24891
 378  72.81836
 379  139.9443
 380  141.5866
 381  233.3832
 382  251.4146
 383  177.0088
 384  212.7908
 385  76.95051
 386  92.34774
 387  141.8194
 388  124.8035
 389  95.85665
 390  75.8504
 391  117.2636
 392  166.5041
 393  151.3753
 394  124.3279
 395  56.51936
 396  125.5876
 397  295.909
 398  321.532
 399  194.1121
 400  23.22756
 401  40.96029
 402  52.67879
 403  207.8042
 404  178.6865
 405  149.3718
 406  170.0281
 407  219.6246
 408  216.895
 409  54.28786
 410  80.89762
 411  -36.96487
 412  71.12312
 413  50.2631
 414  -92.64734
 415  -118.8071
 416  102.5208
 417  128.9358
 418  80.98061
 419  202.8972
 420  167.6526
 421  170.6787
 422  222.6127
 423  154.0969
 424  161.4975
 425  81.92236
 426  234.6312
 427  92.84504
 428  85.57953
 429  35.64681
 430  93.14069
 431  94.73199
 432  178.8075
 433  255.537
 434  124.1248
 435  185.4063
 436  167.9779
 437  150.3353
 438  72.72521
 439  23.42027
 440  189.5125
 441  235.6425
 442  184.0736
 443  78.80141
 444  109.7699
 445  -5.515319
 446  97.39249
 447  126.7095
 448  174.841
 449  7.019569
 450  176.9867
 451  230.6143
 452  97.49355
 453  143.8614
 454  91.74377
 455  180.4741
 456  183.8311
 457  176.2435
 458  128.1933
 459  228.9805
 460  285.3814
 461  138.0888
 462  69.10262
 463  118.7941
 464  189.5244
 465  39.79008
 466  17.19239
 467  73.62776
 468  152.7255
 469  203.7676
 470  184.2695
 471  180.9595
 472  145.2027
 473  52.73152
 474  61.21653
 475  157.5685
 476  180.6207
 477  178.944
 478  96.54118
 479  248.149
 480  137.2511
 481  30.47496
 482  24.91303
 483  124.1992
 484  174.7678
 485  96.45878
 486  207.7206
 487  269.3329
 488  187.8883
 489  126.8153
 490  109.6752
 491  269.1116
 492  190.205
 493  210.416
 494  346.0691
 495  286.1042
 496  208.5098
 497  218.0638
 498  134.9288
 499  90.46978
 500  4.516357
 501  179.1708
 502  304.1052
 503  290.8974
 504  241.1392
 505  284.5387
 506  313.351
 507  267.4789
 508  272.3723
 509  457.9582
 510  641.0426
 511  636.6945
