# Input file       =  1188091689.11132_cleaned.dat
# Candidate        =  PSR_0332+5434
# Telescope        =  AR
# Epoch_topo       =  57995.061436473610
# Epoch_bary       =  N/A
# T_sample         =  0.002
# Data Folded      =  7340032
# Data Avg         =  0.0101680955672886
# Data StdDev      =  2.54886604973902 
# Profile Bins     =  512
# Profile Avg      =  146.187340497788 
# Profile StdDev   =  305.183471452907 
# Reduced chi-sqr  =  1.521
# Prob(Noise)      <  2.45e-13   (~7.2 sigma)
# P_topo (ms)      =  714.463372076286  +/- 0.000149
# P'_topo (s/s)    =  -0                +/- 7.87e-11
# P''_topo (s/s^2) =  0                 +/- 3.47e-14
# P_bary (ms)      =  N/A
# P'_bary (s/s)    =  N/A
# P''_bary (s/s^2) =  N/A
# P_orb (s)        =  N/A
# asin(i)/c (s)    =  N/A
# eccentricity     =  N/A
# w (rad)          =  N/A
# T_peri           =  N/A
######################################################
   0  -139.5741
   1  23.73536
   2  231.4769
   3  64.23882
   4  -59.10481
   5  -117.1364
   6  161.4736
   7  67.54014
   8  -252.4733
   9  -260.2723
  10  3.824491
  11  -44.60664
  12  10.5224
  13  -410.5462
  14  -544.8528
  15  -186.9472
  16  56.52498
  17  -100.5898
  18  226.0765
  19  478.444
  20  340.2258
  21  235.759
  22  123.9895
  23  322.2124
  24  249.1224
  25  77.87527
  26  164.8066
  27  142.6026
  28  202.9877
  29  20.77148
  30  85.35532
  31  161.0294
  32  337.9088
  33  -78.47246
  34  -348.7779
  35  156.5501
  36  302.3954
  37  -63.64457
  38  128.7505
  39  689.2949
  40  60.00309
  41  -97.06545
  42  -121.8403
  43  125.7136
  44  322.4464
  45  309.8134
  46  60.72511
  47  -162.2349
  48  -87.17874
  49  60.60712
  50  355.0328
  51  511.4665
  52  363.7419
  53  -61.65549
  54  -62.47437
  55  -85.25908
  56  71.12908
  57  186.983
  58  124.4864
  59  164.468
  60  356.3183
  61  473.4562
  62  95.97717
  63  3.155583
  64  -245.6339
  65  -161.9804
  66  -146.0494
  67  77.51289
  68  -31.90575
  69  -11.37619
  70  15.46558
  71  -76.04848
  72  48.17339
  73  -272.4261
  74  -289.0113
  75  -555.4538
  76  -291.1761
  77  -134.7854
  78  -164.1432
  79  -503.056
  80  -127.5305
  81  25.23014
  82  -53.82588
  83  64.38924
  84  83.59854
  85  216.6563
  86  378.7938
  87  -36.90448
  88  -304.6227
  89  -225.5372
  90  -141.8369
  91  -192.7449
  92  -265.2745
  93  -147.4827
  94  424.4221
  95  -118.6476
  96  -240.7486
  97  -208.6446
  98  -142.0239
  99  -122.0822
 100  -258.9557
 101  -6.039667
 102  -22.59934
 103  -229.2326
 104  -99.50029
 105  48.87464
 106  117.9405
 107  -285.4185
 108  -16.26551
 109  -151.8826
 110  -179.282
 111  -318.9765
 112  -36.90635
 113  -205.2362
 114  -429.9963
 115  -108.0905
 116  10.59017
 117  -354.7654
 118  -179.2816
 119  -28.83084
 120  284.259
 121  154.5208
 122  63.9061
 123  144.8611
 124  183.0278
 125  244.257
 126  -101.1212
 127  202.3845
 128  150.1476
 129  -8.156792
 130  -186.5919
 131  -6.596456
 132  123.3616
 133  145.1658
 134  -131.5799
 135  140.7296
 136  107.8253
 137  -36.58591
 138  -213.2616
 139  -203.7523
 140  18.10889
 141  -10.21173
 142  257.7143
 143  28.24771
 144  -60.03901
 145  -288.5714
 146  138.6549
 147  417.2068
 148  247.6081
 149  114.2057
 150  57.62326
 151  180.9401
 152  -141.6558
 153  -109.7111
 154  -47.98305
 155  -64.67049
 156  -268.8675
 157  -380.8051
 158  115.9528
 159  25.04415
 160  -8.410058
 161  -303.1166
 162  -67.14694
 163  51.77939
 164  -4.006343
 165  445.9894
 166  215.0158
 167  61.10273
 168  -18.20237
 169  -76.76244
 170  -69.85612
 171  -164.0688
 172  -213.9173
 173  -159.25
 174  41.97076
 175  -24.81447
 176  -52.67106
 177  186.0798
 178  115.2556
 179  -110.7175
 180  -8.029008
 181  329.8216
 182  257.1526
 183  120.4002
 184  189.381
 185  126.3421
 186  302.8561
 187  419.1169
 188  548.4752
 189  576.5349
 190  299.6683
 191  231.8835
 192  331.7177
 193  326.9032
 194  352.2424
 195  -130.5045
 196  -243.6084
 197  -67.53606
 198  333.1638
 199  175.9543
 200  252.288
 201  176.5437
 202  -68.10686
 203  106.0716
 204  -197.9575
 205  -124.2432
 206  214.0121
 207  264.3533
 208  244.8689
 209  149.3886
 210  265.0187
 211  263.2957
 212  248.941
 213  459.841
 214  770.5714
 215  124.4462
 216  -125.5345
 217  247.2885
 218  482.3108
 219  495.8937
 220  264.2239
 221  295.1598
 222  258.4958
 223  451.2822
 224  683.6974
 225  523.8195
 226  385.8466
 227  383.9276
 228  236.8531
 229  -147.6297
 230  -151.4447
 231  251.5875
 232  76.37964
 233  -154.5625
 234  -34.99916
 235  630.8704
 236  874.9238
 237  589.2996
 238  327.6433
 239  275.7421
 240  166.6735
 241  -88.71786
 242  410.3291
 243  476.5014
 244  592.4542
 245  499.2826
 246  59.02724
 247  445.3139
 248  665.5236
 249  489.3406
 250  382.7963
 251  354.6492
 252  367.3979
 253  159.4501
 254  187.0811
 255  355.7375
 256  594.1904
 257  442.1616
 258  632.2248
 259  383.7043
 260  269.5695
 261  96.26718
 262  402.9444
 263  646.1702
 264  440.6157
 265  228.2968
 266  49.57595
 267  357.5015
 268  381.1517
 269  134.4093
 270  -21.62847
 271  242.9487
 272  465.5834
 273  361.0683
 274  137.1961
 275  56.20445
 276  107.4242
 277  238.6231
 278  126.6599
 279  326.1532
 280  240.1041
 281  219.8968
 282  64.01492
 283  315.6367
 284  459.9377
 285  368.1188
 286  340.471
 287  5.454852
 288  22.84817
 289  193.1466
 290  223.9436
 291  323.2612
 292  186.4608
 293  59.36226
 294  71.6311
 295  440.654
 296  618.3014
 297  367.747
 298  -179.8748
 299  -195.0781
 300  255.6354
 301  154.1716
 302  -103.689
 303  -100.4542
 304  92.19761
 305  114.199
 306  50.9677
 307  455.7759
 308  52.87642
 309  46.41066
 310  -95.88277
 311  -153.9613
 312  -30.16418
 313  -94.36346
 314  76.54659
 315  253.676
 316  261.9601
 317  392.2252
 318  99.28812
 319  515.7318
 320  267.8817
 321  143.2194
 322  161.203
 323  141.1276
 324  236.6357
 325  414.1172
 326  237.6478
 327  394.3039
 328  548.6606
 329  356.5067
 330  29.18674
 331  -92.83387
 332  236.5594
 333  413.1982
 334  302.1324
 335  176.7632
 336  140.3674
 337  -32.66656
 338  -229.9428
 339  -172.7974
 340  -29.43147
 341  203.9716
 342  98.21503
 343  -244.4809
 344  -107.4822
 345  -90.5459
 346  -203.9753
 347  -183.2466
 348  399.8062
 349  495.1581
 350  -121.7858
 351  -73.76592
 352  -121.4035
 353  -76.66759
 354  -116.8984
 355  265.8566
 356  320.6131
 357  -30.90116
 358  129.5223
 359  -46.73769
 360  -203.6409
 361  -16.93854
 362  269.6946
 363  610.694
 364  563.7558
 365  -20.66464
 366  -217.0104
 367  -361.7662
 368  73.77583
 369  40.17584
 370  103.5564
 371  163.8071
 372  222.9581
 373  222.226
 374  242.3859
 375  -40.02285
 376  -94.82286
 377  -50.03201
 378  166.1098
 379  28.75449
 380  382.1879
 381  462.4762
 382  289.1095
 383  145.8358
 384  280.6808
 385  720.3143
 386  409.6793
 387  401.3122
 388  194.6521
 389  385.1172
 390  170.871
 391  -111.4097
 392  209.6375
 393  -50.66172
 394  -145.0973
 395  -0.5625318
 396  -253.3173
 397  64.58672
 398  45.33046
 399  95.71416
 400  314.5739
 401  37.59199
 402  -260.3168
 403  -343.4231
 404  99.53519
 405  104.221
 406  248.0371
 407  536.4528
 408  654.5457
 409  360.4022
 410  -196.0751
 411  34.17862
 412  -164.5371
 413  138.8031
 414  411.4369
 415  212.767
 416  95.87568
 417  84.10629
 418  259.0436
 419  360.1647
 420  370.2436
 421  404.735
 422  378.9177
 423  124.7128
 424  255.4152
 425  579.7838
 426  561.5311
 427  477.4954
 428  150.389
 429  103.4673
 430  200.7833
 431  -146.2226
 432  188.5704
 433  303.1333
 434  503.3617
 435  332.6298
 436  353.6225
 437  277.2104
 438  273.1458
 439  168.9311
 440  267.3799
 441  397.4201
 442  409.7018
 443  506.8208
 444  674.1923
 445  918.0485
 446  1470.908
 447  1453.209
 448  1795.937
 449  1187.713
 450  775.3497
 451  351.8575
 452  534.137
 453  533.9688
 454  61.05487
 455  123.4105
 456  142.7985
 457  198.8453
 458  416.9005
 459  653.4151
 460  628.5004
 461  285.4839
 462  95.98669
 463  105.887
 464  109.5189
 465  322.5481
 466  107.7767
 467  -76.53958
 468  -275.6322
 469  -22.74811
 470  -12.15692
 471  54.37363
 472  319.2216
 473  151.0998
 474  190.4672
 475  -33.07908
 476  -6.258904
 477  641.6044
 478  338.1555
 479  182.1286
 480  173.9637
 481  222.3348
 482  389.8358
 483  124.3504
 484  -14.18461
 485  123.1813
 486  265.2538
 487  88.07449
 488  198.8199
 489  606.4257
 490  365.536
 491  424.3958
 492  265.0692
 493  405.3583
 494  624.192
 495  417.6668
 496  -101.98
 497  66.82871
 498  200.8698
 499  206.997
 500  266.7188
 501  192.4572
 502  59.73646
 503  -121.3904
 504  90.87044
 505  265.2485
 506  458.9471
 507  271.3418
 508  188.7962
 509  -60.72588
 510  184.0214
 511  -65.25655
