# Input file       =  1188709785.114631_cleaned.dat
# Candidate        =  PSR_0332+5434
# Telescope        =  AR
# Epoch_topo       =  58002.215325400823
# Epoch_bary       =  N/A
# T_sample         =  0.002
# Data Folded      =  7340032
# Data Avg         =  0.0103891760402697
# Data StdDev      =  1.00002353823645 
# Profile Bins     =  512
# Profile Avg      =  148.970179016369 
# Profile StdDev   =  119.735854681287 
# Reduced chi-sqr  =  1.190
# Prob(Noise)      <  0.00197   (~2.9 sigma)
# P_topo (ms)      =  714.4643353213    +/- 0.000245
# P'_topo (s/s)    =  -0                +/- 1.3e-10
# P''_topo (s/s^2) =  0                 +/- 5.72e-14
# P_bary (ms)      =  N/A
# P'_bary (s/s)    =  N/A
# P''_bary (s/s^2) =  N/A
# P_orb (s)        =  N/A
# asin(i)/c (s)    =  N/A
# eccentricity     =  N/A
# w (rad)          =  N/A
# T_peri           =  N/A
######################################################
   0  695.8882
   1  708.9809
   2  568.8392
   3  335.1699
   4  83.83254
   5  183.4833
   6  256.649
   7  219.1969
   8  114.4562
   9  147.7275
  10  82.84756
  11  85.78133
  12  376.4396
  13  406.6665
  14  197.8727
  15  187.9998
  16  282.0246
  17  312.4619
  18  299.5902
  19  174.9295
  20  118.9189
  21  79.10291
  22  179.7507
  23  123.5342
  24  247.9085
  25  96.5071
  26  220.8287
  27  173.8302
  28  125.0645
  29  142.7424
  30  116.4026
  31  179.0777
  32  40.15938
  33  69.6221
  34  94.21078
  35  82.10455
  36  131.7214
  37  188.8557
  38  96.59804
  39  39.85749
  40  164.942
  41  70.22639
  42  181.1893
  43  143.0228
  44  73.23267
  45  207.9599
  46  125.3393
  47  42.70661
  48  42.67519
  49  205.8864
  50  128.9182
  51  115.5717
  52  251.7366
  53  143.5475
  54  2.025188
  55  147.884
  56  175.0587
  57  165.5014
  58  58.34101
  59  113.7963
  60  147.1398
  61  100.5113
  62  3.955407
  63  -35.08504
  64  84.69762
  65  67.63031
  66  3.256571
  67  178.0593
  68  189.0738
  69  225.7112
  70  182.2371
  71  110.6309
  72  -3.528416
  73  122.8774
  74  98.60874
  75  31.98302
  76  77.92063
  77  125.2318
  78  24.42393
  79  52.89644
  80  230.2453
  81  202.4054
  82  83.39922
  83  103.1379
  84  170.1279
  85  158.3959
  86  22.21365
  87  73.35011
  88  55.26735
  89  0.4136236
  90  77.18748
  91  7.77735
  92  102.8162
  93  97.57526
  94  150.1279
  95  195.8472
  96  188.4832
  97  88.64098
  98  141.2265
  99  9.214059
 100  166.3544
 101  163.259
 102  144.6036
 103  42.60215
 104  14.35578
 105  -4.60865
 106  32.62341
 107  115.0609
 108  193.1888
 109  95.39875
 110  95.737
 111  146.5119
 112  118.2667
 113  72.12672
 114  16.73681
 115  91.17693
 116  -67.29094
 117  -13.43941
 118  191.4422
 119  219.9082
 120  155.3832
 121  96.52303
 122  105.7823
 123  205.3704
 124  186.0013
 125  126.4409
 126  162.2237
 127  137.0572
 128  16.65765
 129  13.62366
 130  -3.361275
 131  81.53574
 132  96.44818
 133  123.9237
 134  131.5231
 135  54.83029
 136  91.2009
 137  92.46622
 138  97.76203
 139  145.2707
 140  116.2167
 141  -9.447736
 142  124.8761
 143  241.1434
 144  25.34822
 145  175.1363
 146  202.55
 147  124.5084
 148  66.10467
 149  97.61982
 150  212.7197
 151  371.3292
 152  201.9266
 153  177.5464
 154  133.2855
 155  269.7033
 156  248.1703
 157  132.0977
 158  81.59783
 159  257.1661
 160  189.757
 161  243.0061
 162  216.9085
 163  76.72162
 164  123.8624
 165  78.41693
 166  72.54832
 167  112.0236
 168  211.3003
 169  174.449
 170  157.5433
 171  197.6988
 172  272.2871
 173  238.5341
 174  299.3336
 175  134.5399
 176  95.48901
 177  6.223238
 178  -20.98296
 179  93.13665
 180  230.6993
 181  151.6076
 182  53.08922
 183  17.68292
 184  108.4721
 185  123.2425
 186  69.04946
 187  106.3251
 188  127.7114
 189  191.3955
 190  139.0627
 191  119.6526
 192  228.5027
 193  171.4846
 194  86.04588
 195  75.37039
 196  21.93016
 197  203.722
 198  169.0355
 199  153.4108
 200  174.1412
 201  1.57803
 202  95.6614
 203  74.82403
 204  132.3106
 205  122.5514
 206  238.4644
 207  146.4864
 208  130.5457
 209  135.2132
 210  163.0155
 211  240.3088
 212  189.7544
 213  149.8226
 214  69.13669
 215  26.31437
 216  -8.862623
 217  128.4798
 218  194.5959
 219  146.2065
 220  117.9031
 221  16.09981
 222  65.66142
 223  185.7551
 224  150.6858
 225  164.4605
 226  316.3852
 227  236.577
 228  -22.27083
 229  32.86735
 230  160.2523
 231  70.57803
 232  207.9918
 233  342.8721
 234  269.745
 235  180.3153
 236  141.8764
 237  180.7234
 238  330.6992
 239  389.5801
 240  236.2135
 241  186.9428
 242  186.5073
 243  231.784
 244  130.8681
 245  171.6161
 246  261.9588
 247  172.7601
 248  83.16717
 249  106.2625
 250  184.6746
 251  193.47
 252  184.966
 253  139.1176
 254  110.1939
 255  178.7164
 256  258.6744
 257  113.8143
 258  116.2793
 259  148.7764
 260  239.1089
 261  175.7816
 262  194.1544
 263  120.4057
 264  56.9318
 265  92.40276
 266  344.4423
 267  344.8655
 268  267.1924
 269  120.8876
 270  206.768
 271  144.6744
 272  109.2714
 273  39.30438
 274  5.710463
 275  37.54119
 276  45.55366
 277  48.86435
 278  136.8471
 279  70.71973
 280  42.14292
 281  169.2209
 282  149.7331
 283  137.0817
 284  73.19108
 285  174.3082
 286  212.7268
 287  21.51292
 288  27.91895
 289  165.2833
 290  259.996
 291  191.481
 292  100.571
 293  163.4457
 294  279.5798
 295  241.0006
 296  260.6994
 297  155.7018
 298  17.44996
 299  40.49409
 300  168.6724
 301  356.8712
 302  211.2018
 303  119.6535
 304  173.1496
 305  174.7579
 306  127.7097
 307  129.5882
 308  106.7946
 309  149.276
 310  135.3374
 311  96.025
 312  74.91277
 313  81.81023
 314  134.718
 315  241.7122
 316  111.1027
 317  210.2227
 318  118.9504
 319  107.6874
 320  143.3572
 321  316.5774
 322  242.576
 323  114.9266
 324  118.1825
 325  177.0208
 326  76.74396
 327  129.2079
 328  133.0572
 329  42.54965
 330  87.03821
 331  240.7814
 332  173.9347
 333  116.8822
 334  262.5457
 335  304.1236
 336  171.8056
 337  111.9452
 338  206.3642
 339  152.0699
 340  3.611214
 341  150.4485
 342  68.53882
 343  65.48122
 344  102.3399
 345  83.76765
 346  217.0072
 347  113.5874
 348  230.2626
 349  198.9093
 350  41.19516
 351  57.94108
 352  101.7084
 353  173.3824
 354  154.8875
 355  94.84948
 356  63.86467
 357  103.708
 358  175.7253
 359  245.3713
 360  247.2462
 361  336.975
 362  82.47909
 363  146.3573
 364  264.0632
 365  305.5272
 366  229.5335
 367  179.7037
 368  154.4714
 369  214.5086
 370  345.4542
 371  222.8678
 372  28.71109
 373  8.280376
 374  149.6025
 375  239.6477
 376  217.195
 377  139.0139
 378  164.3845
 379  154.8638
 380  169.0821
 381  150.2296
 382  109.0592
 383  186.7456
 384  284.5768
 385  285.3263
 386  104.3784
 387  97.62462
 388  145.3032
 389  176.1765
 390  116.1905
 391  132.2978
 392  -37.23542
 393  -76.89709
 394  94.67803
 395  273.1658
 396  124.4899
 397  212.3609
 398  209.2274
 399  54.41717
 400  102.6394
 401  207.3245
 402  191.3062
 403  280.1747
 404  186.2741
 405  110.1369
 406  66.49712
 407  228.9287
 408  175.9811
 409  107.7103
 410  147.3978
 411  244.5795
 412  196.03
 413  236.5688
 414  214.0542
 415  227.8909
 416  252.2467
 417  87.43686
 418  157.8631
 419  305.111
 420  128.4112
 421  -52.74966
 422  78.76639
 423  224.9634
 424  279.6372
 425  238.4541
 426  112.1811
 427  85.17624
 428  35.811
 429  50.14767
 430  115.0454
 431  123.8536
 432  71.55852
 433  107.9932
 434  20.3071
 435  64.29149
 436  121.993
 437  122.7984
 438  187.1548
 439  90.89742
 440  121.1892
 441  -4.33695
 442  127.2721
 443  159.7311
 444  -40.59263
 445  136.9047
 446  331.2685
 447  226.1823
 448  168.6194
 449  162.1641
 450  153.5053
 451  121.2229
 452  91.56757
 453  89.08743
 454  187.0267
 455  180.2617
 456  184.6894
 457  122.3134
 458  47.20475
 459  292.4065
 460  313.4505
 461  79.91274
 462  78.0763
 463  151.9152
 464  155.8474
 465  137.2589
 466  209.3412
 467  264.2805
 468  218.0844
 469  125.5324
 470  122.0713
 471  142.1487
 472  173.4528
 473  190.4304
 474  73.39954
 475  165.2018
 476  177.3175
 477  165.9523
 478  164.7908
 479  131.8323
 480  171.2677
 481  217.1305
 482  183.7095
 483  122.0687
 484  143.0185
 485  92.68316
 486  144.5939
 487  251.8609
 488  160.4509
 489  177.2513
 490  155.5077
 491  66.92966
 492  187.6083
 493  232.4302
 494  135.8108
 495  106.0065
 496  26.98726
 497  54.27599
 498  77.74509
 499  145.5412
 500  189.3742
 501  218.8801
 502  234.2444
 503  233.3202
 504  178.4909
 505  233.9913
 506  189.8065
 507  106.491
 508  138.3411
 509  317.9526
 510  534.093
 511  708.6456
