# Input file       =  1188852543.12519_cleaned.dat
# Candidate        =  PSR_0332+5434
# Telescope        =  AR
# Epoch_topo       =  58003.867617189702
# Epoch_bary       =  N/A
# T_sample         =  0.002
# Data Folded      =  7143424
# Data Avg         =  0.0252991953962448
# Data StdDev      =  1.00017417727395 
# Profile Bins     =  512
# Profile Avg      =  352.917546647182 
# Profile StdDev   =  118.139158054916 
# Reduced chi-sqr  =  1.276
# Prob(Noise)      <  2.3e-05   (~4.1 sigma)
# P_topo (ms)      =  714.464246567699  +/- 0.000236
# P'_topo (s/s)    =  -0                +/- 1.28e-10
# P''_topo (s/s^2) =  0                 +/- 5.8e-14
# P_bary (ms)      =  N/A
# P'_bary (s/s)    =  N/A
# P''_bary (s/s^2) =  N/A
# P_orb (s)        =  N/A
# asin(i)/c (s)    =  N/A
# eccentricity     =  N/A
# w (rad)          =  N/A
# T_peri           =  N/A
######################################################
   0  468.3524
   1  334.8329
   2  488.3748
   3  600.1309
   4  354.4686
   5  380.3029
   6  448.4175
   7  405.9963
   8  286.5963
   9  304.8915
  10  260.5653
  11  210.4546
  12  339.47
  13  441.6389
  14  371.4026
  15  385.3646
  16  263.9792
  17  315.8368
  18  289.7642
  19  290.4111
  20  290.1377
  21  401.2189
  22  339.9811
  23  226.7389
  24  304.2352
  25  375.802
  26  298.6552
  27  349.41
  28  453.005
  29  387.9041
  30  348.8217
  31  286.3412
  32  312.4745
  33  283.472
  34  319.9195
  35  364.0141
  36  414.7184
  37  427.7234
  38  368.3014
  39  275.1891
  40  401.4336
  41  462.9255
  42  390.5409
  43  406.0812
  44  322.5229
  45  557.5492
  46  726.7219
  47  815.7538
  48  995.9447
  49  1038.244
  50  945.4034
  51  544.8865
  52  440.6828
  53  273.3006
  54  409.0828
  55  497.1188
  56  304.6765
  57  347.9257
  58  416.3128
  59  538.8414
  60  349.8449
  61  372.0739
  62  313.6885
  63  245.622
  64  271.4195
  65  412.7366
  66  316.2366
  67  115.7548
  68  164.08
  69  260.4085
  70  311.3272
  71  342.9698
  72  359.8195
  73  288.1821
  74  305.7226
  75  287.9506
  76  421.4182
  77  238.5122
  78  181.6395
  79  235.7881
  80  257.998
  81  211.0578
  82  321.899
  83  381.9757
  84  421.7987
  85  417.4064
  86  264.9441
  87  136.2376
  88  352.9038
  89  346.7938
  90  323.123
  91  291.9187
  92  254.3789
  93  289.634
  94  340.8453
  95  285.4948
  96  281.4815
  97  386.2423
  98  316.7503
  99  235.3469
 100  192.5932
 101  180.9102
 102  272.2991
 103  288.4503
 104  242.5461
 105  296.7326
 106  316.0298
 107  285.696
 108  153.9045
 109  277.4748
 110  330.3831
 111  355.2596
 112  388.4507
 113  299.2126
 114  253.0601
 115  268.9981
 116  413.4411
 117  516.2565
 118  273.4924
 119  285.9007
 120  281.2901
 121  437.19
 122  506.1511
 123  437.7105
 124  372.8895
 125  414.2757
 126  324.1136
 127  384.0628
 128  359.4212
 129  410.8307
 130  351.992
 131  272.3301
 132  492.6188
 133  448.5975
 134  482.1746
 135  489.6024
 136  346.0565
 137  375.9703
 138  429.4956
 139  491.1838
 140  404.288
 141  319.4985
 142  217.7251
 143  395.5628
 144  495.0865
 145  340.6842
 146  340.8323
 147  359.2109
 148  194.5489
 149  223.1005
 150  447.515
 151  380.2511
 152  331.933
 153  402.1909
 154  411.0864
 155  412.7953
 156  258.6439
 157  337.44
 158  395.523
 159  456.7608
 160  394.9352
 161  334.5922
 162  428.1434
 163  421.8711
 164  316.8305
 165  327.245
 166  297.122
 167  231.7483
 168  338.7608
 169  332.7718
 170  385.9398
 171  444.9635
 172  386.9403
 173  338.6695
 174  371.314
 175  298.0534
 176  312.837
 177  422.2317
 178  359.3906
 179  282.6672
 180  404.758
 181  396.7657
 182  370.385
 183  299.5309
 184  329.6713
 185  346.8591
 186  281.2833
 187  532.1865
 188  459.5723
 189  403.8294
 190  290.5276
 191  364.3052
 192  348.1464
 193  329.5948
 194  366.7327
 195  371.8362
 196  504.896
 197  465.8029
 198  361.7538
 199  400.0198
 200  368.3845
 201  423.8799
 202  394.9047
 203  378.3891
 204  530.3482
 205  400.0492
 206  394.4303
 207  379.0524
 208  328.2763
 209  386.7806
 210  359.6199
 211  318.075
 212  215.784
 213  236.1566
 214  224.8392
 215  242.8756
 216  341.603
 217  351.013
 218  347.0027
 219  354.0229
 220  431.0093
 221  326.4749
 222  223.1477
 223  338.7524
 224  313.0728
 225  343.5133
 226  406.0358
 227  285.4034
 228  198.1875
 229  324.7246
 230  401.2866
 231  332.5316
 232  362.312
 233  405.0116
 234  295.3911
 235  141.4472
 236  205.1145
 237  179.0383
 238  265.0553
 239  318.9933
 240  391.8293
 241  417.9967
 242  363.1275
 243  344.1125
 244  315.802
 245  328.694
 246  375.8385
 247  391.6885
 248  291.3831
 249  260.5942
 250  261.3449
 251  396.7967
 252  340.4757
 253  341.7788
 254  352.929
 255  344.4946
 256  364.6407
 257  256.64
 258  290.0644
 259  265.7409
 260  202.3355
 261  294.5867
 262  375.9832
 263  433.2852
 264  321.0712
 265  311.123
 266  474.1154
 267  265.01
 268  361.4275
 269  447.3807
 270  514.0161
 271  271.4442
 272  424.4353
 273  459.3223
 274  413.9193
 275  292.2531
 276  367.1051
 277  312.6699
 278  412.7343
 279  402.092
 280  370.6301
 281  314.124
 282  255.0871
 283  347.3311
 284  416.3272
 285  357.9836
 286  348.9235
 287  373.0191
 288  449.5885
 289  522.0756
 290  471.803
 291  400.7138
 292  228.7647
 293  351.943
 294  344.4534
 295  375.3189
 296  350.6273
 297  428.5509
 298  448.045
 299  373.7473
 300  341.8609
 301  261.5685
 302  385.5536
 303  359.2451
 304  383.4593
 305  210.9443
 306  278.2101
 307  354.4428
 308  313.9225
 309  219.5031
 310  214.8755
 311  279.3901
 312  367.2741
 313  432.7721
 314  473.0652
 315  519.8356
 316  427.2327
 317  425.3804
 318  407.265
 319  444.4155
 320  247.1135
 321  325.8108
 322  351.686
 323  307.4903
 324  382.7523
 325  367.8051
 326  272.4218
 327  213.1934
 328  304.3315
 329  313.5262
 330  367.5868
 331  399.7115
 332  328.7198
 333  281.692
 334  269.4386
 335  320.0837
 336  275.1858
 337  286.7798
 338  264.3602
 339  224.4771
 340  314.6271
 341  333.4544
 342  426.1566
 343  353.2878
 344  307.0142
 345  301.0022
 346  312.1112
 347  358.0928
 348  464.2092
 349  470.7104
 350  413.1773
 351  257.662
 352  346.7212
 353  440.7896
 354  338.9991
 355  219.1503
 356  211.2796
 357  328.6372
 358  385.7588
 359  300.5638
 360  402.7348
 361  519.4964
 362  381.4976
 363  387.8611
 364  400.455
 365  412.2303
 366  402.4701
 367  424.4325
 368  408.7116
 369  417.031
 370  428.7594
 371  461.8752
 372  480.1745
 373  339.2331
 374  264.2365
 375  220.5535
 376  290.5057
 377  460.6635
 378  411.6191
 379  264.9579
 380  264.9654
 381  293.7507
 382  294.7738
 383  361.5324
 384  413.8005
 385  352.3149
 386  150.4577
 387  78.7544
 388  207.5644
 389  302.4094
 390  340.8019
 391  382.176
 392  422.2018
 393  415.9672
 394  326.204
 395  352.8634
 396  444.4556
 397  389.0372
 398  293.5598
 399  236.9837
 400  328.0376
 401  441.8082
 402  413.0743
 403  408.5448
 404  301.7729
 405  361.4793
 406  393.0373
 407  393.4423
 408  419.4964
 409  348.6947
 410  339.4823
 411  315.5721
 412  278.1497
 413  388.4863
 414  260.9008
 415  176.0432
 416  209.4962
 417  314.2541
 418  422.0443
 419  401.264
 420  402.2394
 421  324.9432
 422  355.1814
 423  375.1389
 424  277.741
 425  360.3481
 426  311.9441
 427  262.2075
 428  170.4777
 429  214.472
 430  210.0325
 431  321.7732
 432  338.5322
 433  333.4139
 434  331.5472
 435  293.6178
 436  349.6585
 437  496.511
 438  377.9935
 439  360.1046
 440  517.14
 441  478.1438
 442  307.3444
 443  389.8419
 444  325.5381
 445  371.7551
 446  403.5944
 447  243.033
 448  295.0006
 449  283.2673
 450  386.6787
 451  329.0707
 452  252.8114
 453  359.1828
 454  519.7898
 455  314.5243
 456  364.3507
 457  469.3016
 458  331.393
 459  342.2787
 460  341.6889
 461  317.1352
 462  407.5439
 463  298.616
 464  422.9253
 465  410.4617
 466  349.2987
 467  302.3682
 468  331.6473
 469  401.3327
 470  517.0931
 471  409.7143
 472  353.7148
 473  403.6282
 474  419.3927
 475  429.851
 476  439.6372
 477  475.6554
 478  456.8425
 479  424.5115
 480  454.7487
 481  243.3056
 482  220.7092
 483  283.5192
 484  376.0113
 485  399.0565
 486  282.6615
 487  300.7347
 488  262.2242
 489  426.0522
 490  478.8219
 491  439.3241
 492  361.4896
 493  365.3539
 494  392.8913
 495  390.9618
 496  306.2692
 497  338.1816
 498  395.0605
 499  277.584
 500  320.2842
 501  293.7574
 502  285.7288
 503  203.975
 504  267.8852
 505  299.808
 506  376.5213
 507  381.4551
 508  313.5058
 509  284.878
 510  298.8623
 511  349.0158
