# Input file       =  1188623559.105416-PSRB0329-2ms-sampling-dd.dat
# Candidate        =  PSR_0332+5434
# Telescope        =  AR
# Epoch_topo       =  58001.217339183058
# Epoch_bary       =  N/A
# T_sample         =  0.002
# Data Folded      =  7340032
# Data Avg         =  1.23735815105847e-11
# Data StdDev      =  7.38357534219823 
# Profile Bins     =  512
# Profile Avg      =  -0.111560553543411
# Profile StdDev   =  884.057895038013 
# Reduced chi-sqr  =  1.408
# Prob(Noise)      <  2.83e-09   (~5.8 sigma)
# P_topo (ms)      =  714.464198288696  +/- 0.000173
# P'_topo (s/s)    =  -0                +/- 9.15e-11
# P''_topo (s/s^2) =  0                 +/- 4.04e-14
# P_bary (ms)      =  N/A
# P'_bary (s/s)    =  N/A
# P''_bary (s/s^2) =  N/A
# P_orb (s)        =  N/A
# asin(i)/c (s)    =  N/A
# eccentricity     =  N/A
# w (rad)          =  N/A
# T_peri           =  N/A
######################################################
   0  -1260.629
   1  -677.2284
   2  -740.3142
   3  -19.42839
   4  -9.186052
   5  -354.1685
   6  -358.2003
   7  -614.4526
   8  245.8817
   9  1033.399
  10  925.0052
  11  -325.4597
  12  -545.1921
  13  -1008.919
  14  -735.5147
  15  -1023.33
  16  -441.6925
  17  -658.5332
  18  -443.5628
  19  -703.2122
  20  -1278.318
  21  -1321.181
  22  -1011.634
  23  -1325.238
  24  -1182.64
  25  -864.783
  26  -555.9875
  27  -859.2097
  28  -291.1273
  29  -157.3603
  30  -1213.459
  31  -1735.777
  32  -1538.155
  33  -1073.367
  34  -1104.303
  35  -1206.213
  36  -830.323
  37  -370.109
  38  -624.4061
  39  -430.7094
  40  -793.3583
  41  -1124.643
  42  -1764.926
  43  -835.8785
  44  -202.1938
  45  320.0238
  46  157.8306
  47  -41.7428
  48  -59.88046
  49  -609.2974
  50  -587.8194
  51  -730.8431
  52  -861.0714
  53  -707.7967
  54  -634.7595
  55  -191.5748
  56  170.4966
  57  66.43242
  58  485.3671
  59  904.8127
  60  171.7194
  61  -198.207
  62  -443.1764
  63  132.013
  64  381.2973
  65  1140.143
  66  508.9824
  67  -61.15876
  68  -145.9382
  69  -505.0327
  70  -353.1987
  71  -21.60879
  72  32.78963
  73  -97.35972
  74  154.7293
  75  -43.40218
  76  -297.971
  77  -624.324
  78  -858.9855
  79  -460.2711
  80  -297.0601
  81  -1020.735
  82  -1329.961
  83  -1267.295
  84  -903.5909
  85  -716.7175
  86  150.7681
  87  -452.3921
  88  -772.7036
  89  -868.4036
  90  -948.8388
  91  -259.8936
  92  -149.9464
  93  -280.8081
  94  309.2986
  95  -40.02371
  96  35.23734
  97  -391.5976
  98  -540.1453
  99  -809.6147
 100  -1125.286
 101  -1083.915
 102  -1185.777
 103  -636.0435
 104  -311.9771
 105  -758.7526
 106  -555.1581
 107  -781.9927
 108  -933.8699
 109  -733.5245
 110  -995.2685
 111  -1097.401
 112  -370.6474
 113  -618.2946
 114  -235.6078
 115  -726.7975
 116  -326.4188
 117  -799.5378
 118  -831.4284
 119  -442.0287
 120  -596.3615
 121  -846.7881
 122  -940.8076
 123  -1338.071
 124  -1006.522
 125  -543.4172
 126  -1121.768
 127  -1096.433
 128  -1049.955
 129  -998.9617
 130  -814.0121
 131  -588.8867
 132  -429.5807
 133  -954.9183
 134  -1466.594
 135  -1100.885
 136  -1153.561
 137  -1275.47
 138  -701.0366
 139  -491.6475
 140  -1072.54
 141  -812.935
 142  -663.5916
 143  -508.2433
 144  212.7625
 145  350.6866
 146  400.2144
 147  -242.3205
 148  -492.9307
 149  -608.7958
 150  -439.859
 151  -54.50171
 152  -158.4664
 153  -146.8594
 154  26.8324
 155  -600.1163
 156  -332.5574
 157  -586.437
 158  -1440.113
 159  -1378.147
 160  -510.0754
 161  -185.007
 162  -626.1947
 163  -668.856
 164  -573.8546
 165  -841.1487
 166  -926.3687
 167  -1709.36
 168  -1487.651
 169  -912.2241
 170  -114.0681
 171  57.97369
 172  -477.9104
 173  -98.93484
 174  -243.7533
 175  -817.1136
 176  -787.0236
 177  119.1058
 178  465.8255
 179  474.0501
 180  898.9155
 181  790.0536
 182  -228.7178
 183  591.4532
 184  285.3803
 185  21.2157
 186  604.6635
 187  677.5888
 188  900.7845
 189  -14.30931
 190  572.1249
 191  425.101
 192  8.788964
 193  -946.6712
 194  -485.2839
 195  -167.0118
 196  85.45203
 197  -18.02631
 198  -174.7694
 199  187.4339
 200  115.9541
 201  289.1274
 202  935.0272
 203  135.9312
 204  -124.4438
 205  -56.12655
 206  274.5154
 207  751.9804
 208  1600.916
 209  1747.74
 210  1217.387
 211  1538.471
 212  740.8868
 213  541.22
 214  624.9544
 215  1349.487
 216  1827.241
 217  1866.628
 218  974.5815
 219  531.0834
 220  549.2164
 221  805.9757
 222  1061.41
 223  814.1144
 224  752.073
 225  470.4967
 226  854.4691
 227  1199.689
 228  1183.717
 229  1262.873
 230  1059.103
 231  804.5279
 232  1653.54
 233  1595.663
 234  1298.538
 235  1578.1
 236  1012.971
 237  813.5269
 238  -29.98464
 239  150.523
 240  500.8117
 241  -300.3739
 242  -130.8123
 243  386.9776
 244  854.4586
 245  796.3275
 246  869.692
 247  172.5066
 248  -484.5385
 249  -355.5303
 250  17.0789
 251  935.698
 252  999.7559
 253  276.2677
 254  26.97435
 255  177.5544
 256  1062.266
 257  900.4767
 258  801.2549
 259  237.9923
 260  439.7379
 261  524.108
 262  319.8704
 263  42.02866
 264  -123.0041
 265  399.2424
 266  820.2813
 267  224.226
 268  -371.7751
 269  -25.72841
 270  -359.5567
 271  -166.4352
 272  -6.688172
 273  -382.7921
 274  -76.75793
 275  -115.2478
 276  191.4028
 277  359.1074
 278  811.5215
 279  787.6597
 280  1008.104
 281  1888.458
 282  2093.707
 283  2236.533
 284  1908.17
 285  1719.262
 286  678.5058
 287  839.4275
 288  893.4014
 289  429.3774
 290  699.1276
 291  228.0376
 292  474.0948
 293  655.8049
 294  899.5099
 295  1003.298
 296  675.9548
 297  250.8353
 298  24.22337
 299  241.9088
 300  -208.8484
 301  119.5538
 302  461.8229
 303  -210.5637
 304  100.2041
 305  469.6562
 306  970.4624
 307  288.4993
 308  -5.262281
 309  -580.0805
 310  126.312
 311  299.4395
 312  221.5314
 313  292.9171
 314  1050.594
 315  1290.608
 316  290.8756
 317  601.2515
 318  592.1557
 319  1150.266
 320  1293.984
 321  1324.788
 322  1451.165
 323  799.3676
 324  271.9714
 325  283.3435
 326  676.4891
 327  1209.71
 328  1234.715
 329  488.1983
 330  514.6245
 331  -344.8965
 332  -176.8095
 333  -84.80124
 334  773.9966
 335  1110.963
 336  390.2374
 337  -834.7285
 338  -1173.923
 339  -955.6833
 340  -512.2892
 341  -130.4271
 342  792.6835
 343  1066.332
 344  375.7035
 345  727.6379
 346  309.5837
 347  217.6467
 348  468.4147
 349  1292.138
 350  1176.193
 351  1010.484
 352  1345.952
 353  1063.52
 354  401.2758
 355  426.9778
 356  484.6063
 357  216.2539
 358  -674.2341
 359  -780.7729
 360  -307.3961
 361  151.5456
 362  -327.6128
 363  -363.0026
 364  30.44674
 365  -27.28944
 366  -46.49902
 367  -66.80274
 368  570.9425
 369  -473.2119
 370  -880.0795
 371  -472.0688
 372  -156.1118
 373  -131.3508
 374  -147.2561
 375  -618.9379
 376  -572.7222
 377  -509.256
 378  -487.6234
 379  -193.8583
 380  564.7961
 381  216.7279
 382  124.5491
 383  295.8433
 384  514.142
 385  526.4877
 386  496.3779
 387  715.7621
 388  82.21658
 389  -851.5993
 390  -1284.341
 391  -1203.415
 392  -820.0805
 393  -530.1899
 394  -366.9591
 395  -286.6787
 396  -834.4667
 397  -1022.84
 398  -584.5913
 399  -120.246
 400  -976.9949
 401  -927.7658
 402  -448.4608
 403  -768.6632
 404  -764.6006
 405  416.6666
 406  887.6089
 407  1331.183
 408  2084.951
 409  1699.313
 410  1237.674
 411  -264.9688
 412  240.1801
 413  1387.734
 414  1949.411
 415  2661.525
 416  1987.945
 417  1211.369
 418  292.4969
 419  48.3083
 420  -469.4825
 421  188.0576
 422  439.0186
 423  152.1455
 424  719.8331
 425  527.8055
 426  499.5096
 427  683.645
 428  794.9019
 429  1522.075
 430  1046.442
 431  687.1536
 432  661.9882
 433  151.5186
 434  579.0421
 435  169.0107
 436  433.6609
 437  -145.0727
 438  -203.2774
 439  531.662
 440  648.1086
 441  285.0869
 442  -84.23544
 443  -15.48031
 444  -360.9799
 445  18.66773
 446  199.7558
 447  270.1353
 448  234.5554
 449  280.6506
 450  -249.0209
 451  -232.8776
 452  -577.8088
 453  -312.5404
 454  -245.9116
 455  56.39494
 456  61.71195
 457  202.5172
 458  -92.50065
 459  -377.1525
 460  -418.7219
 461  -558.4824
 462  287.6806
 463  1092.803
 464  727.3109
 465  104.9039
 466  -13.11151
 467  -916.9899
 468  -822.7566
 469  -1079.431
 470  -764.9105
 471  -141.8302
 472  -442.3044
 473  -42.25889
 474  -595.1852
 475  -396.7344
 476  -613.8176
 477  -594.4557
 478  -499.3292
 479  57.09145
 480  -179.9234
 481  449.4579
 482  326.9387
 483  93.28571
 484  -70.52504
 485  57.88581
 486  -194.4815
 487  -282.1537
 488  -580.5374
 489  -373.1274
 490  288.8723
 491  783.6717
 492  1019.575
 493  677.1959
 494  383.6427
 495  -46.35252
 496  -339.9576
 497  -16.75889
 498  -93.28294
 499  526.0186
 500  216.9735
 501  220.6813
 502  54.902
 503  -457.4596
 504  -1248.576
 505  -1041.068
 506  -724.1525
 507  -907.8429
 508  -151.6105
 509  -323.4583
 510  -865.9694
 511  -1369.111
