# Input file       =  1188680202.123785-PSRB0329-2ms-sampling-dd.dat
# Candidate        =  PSR_0332+5434
# Telescope        =  AR
# Epoch_topo       =  58001.872929673438
# Epoch_bary       =  N/A
# T_sample         =  0.002
# Data Folded      =  7208960
# Data Avg         =  7.61274986364581e-10
# Data StdDev      =  4.5269292704881  
# Profile Bins     =  512
# Profile Avg      =  0.0767809230009856
# Profile StdDev   =  537.161696111727 
# Reduced chi-sqr  =  0.638
# Prob(Noise)      <  1   (~0.0 sigma)
# P_topo (ms)      =  714.46393870983   +/- 0.000138
# P'_topo (s/s)    =  -0                +/- 7.4e-11
# P''_topo (s/s^2) =  0                 +/- 3.33e-14
# P_bary (ms)      =  N/A
# P'_bary (s/s)    =  N/A
# P''_bary (s/s^2) =  N/A
# P_orb (s)        =  N/A
# asin(i)/c (s)    =  N/A
# eccentricity     =  N/A
# w (rad)          =  N/A
# T_peri           =  N/A
######################################################
   0  -57.40531
   1  -134.8163
   2  -83.17052
   3  -504.9345
   4  -496.2326
   5  -654.15
   6  -535.2389
   7  483.9164
   8  410.6799
   9  -74.46255
  10  18.30627
  11  -39.53877
  12  -484.9768
  13  -562.8981
  14  -89.8656
  15  -50.26439
  16  -530.4653
  17  -454.6639
  18  -363.1566
  19  -603.4677
  20  -398.8152
  21  -116.7043
  22  15.41064
  23  32.04616
  24  -362.3331
  25  -131.4807
  26  97.49818
  27  -318.1039
  28  -316.1564
  29  -363.6136
  30  -203.1258
  31  -336.2795
  32  44.20184
  33  -14.86517
  34  -142.469
  35  -348.507
  36  -317.8613
  37  -715.8437
  38  -570.6085
  39  -236.7073
  40  -0.9419227
  41  245.4997
  42  147.3146
  43  8.002454
  44  -135.577
  45  -334.573
  46  -172.924
  47  296.4623
  48  459.2919
  49  229.0522
  50  -69.21201
  51  -85.97327
  52  -203.1705
  53  -14.21623
  54  414.2552
  55  160.1601
  56  -282.5904
  57  -179.1633
  58  45.32612
  59  -449.5901
  60  -452.4599
  61  -55.44871
  62  -160.3386
  63  -135.4339
  64  -132.5194
  65  255.2575
  66  284.0731
  67  237.808
  68  -162.8095
  69  -183.8824
  70  96.47267
  71  -4.843045
  72  -5.07666
  73  319.0001
  74  498.8594
  75  477.1863
  76  1155.926
  77  1421.739
  78  1231.706
  79  1333.845
  80  1288.264
  81  751.2138
  82  511.5401
  83  258.4957
  84  536.5259
  85  346.439
  86  75.65805
  87  72.06918
  88  90.35315
  89  310.8228
  90  -155.0942
  91  -126.9092
  92  -27.75519
  93  -313.9611
  94  -265.9953
  95  -275.7459
  96  -122.0886
  97  -124.8012
  98  -170.831
  99  -360.1634
 100  -21.31238
 101  97.34577
 102  276.4271
 103  407.5462
 104  151.4608
 105  101.5321
 106  186.8832
 107  -274.2708
 108  -346.9152
 109  -289.5112
 110  -288.0205
 111  -96.37482
 112  -104.4963
 113  -102.1162
 114  213.9002
 115  181.8896
 116  -13.67232
 117  -327.0231
 118  -349.8849
 119  -111.9677
 120  -28.13451
 121  -782.0105
 122  -832.6948
 123  -748.4582
 124  20.23636
 125  77.89117
 126  -281.7406
 127  -374.1473
 128  -410.0005
 129  -305.3795
 130  -303.6014
 131  -80.47958
 132  95.16331
 133  278.22
 134  52.50919
 135  -194.7266
 136  147.0972
 137  -147.9743
 138  -267.1202
 139  84.10985
 140  -90.56745
 141  -239.6962
 142  -46.6592
 143  142.8965
 144  -196.205
 145  20.91784
 146  53.08304
 147  165.1482
 148  155.2089
 149  299.803
 150  68.27203
 151  89.51942
 152  20.77865
 153  -199.864
 154  -580.4454
 155  -252.46
 156  -57.07514
 157  -262.4853
 158  -141.7522
 159  -422.3788
 160  -425.6523
 161  -318.9624
 162  -423.4144
 163  -107.1527
 164  -47.21799
 165  516.3016
 166  298.3264
 167  32.68005
 168  -42.82769
 169  -0.8576473
 170  -345.4509
 171  -435.4742
 172  130.4369
 173  201.764
 174  87.72147
 175  -129.2756
 176  100.579
 177  229.7471
 178  -67.30022
 179  -59.27633
 180  -65.07249
 181  212.9688
 182  -73.06764
 183  -303.9107
 184  -159.9501
 185  -254.0493
 186  -436.954
 187  -200.3043
 188  23.00956
 189  291.8907
 190  554.333
 191  348.2669
 192  53.55991
 193  -203.776
 194  -137.5671
 195  -131.579
 196  -294.8657
 197  -163.5177
 198  63.52417
 199  -233.0511
 200  -180.9991
 201  102.2003
 202  328.5735
 203  32.97097
 204  105.3198
 205  327.7491
 206  279.6058
 207  -506.1046
 208  -354.6618
 209  -121.2667
 210  89.60313
 211  49.07606
 212  66.76983
 213  -74.2235
 214  -46.31405
 215  -363.6488
 216  -99.74678
 217  -86.26032
 218  -41.21235
 219  222.9955
 220  108.1205
 221  187.7456
 222  -613.4463
 223  -265.2955
 224  -338.7621
 225  -484.1958
 226  -263.6206
 227  -130.8203
 228  -112.9227
 229  -483.9705
 230  -223.9453
 231  109.1218
 232  -14.2516
 233  -302.634
 234  4.463714
 235  -38.03214
 236  -27.44628
 237  140.4346
 238  105.2828
 239  84.758
 240  -368.5107
 241  -274.4667
 242  -234.3342
 243  77.80027
 244  439.4646
 245  246.2847
 246  416.2084
 247  466.6309
 248  453.3598
 249  80.36581
 250  300.248
 251  106.4196
 252  249.6475
 253  254.6273
 254  622.4243
 255  661.3935
 256  677.3708
 257  690.538
 258  555.599
 259  176.5883
 260  72.02316
 261  106.0236
 262  109.454
 263  617.9186
 264  650.9076
 265  145.1554
 266  287.2598
 267  240.7194
 268  430.9467
 269  615.1105
 270  781.271
 271  791.4664
 272  673.2941
 273  387.8072
 274  -52.49079
 275  -140.5079
 276  63.99867
 277  271.7807
 278  532.2493
 279  535.9749
 280  185.4664
 281  166.9271
 282  5.62348
 283  354.3235
 284  166.813
 285  152.7447
 286  150.8191
 287  -24.08348
 288  7.744951
 289  -155.2149
 290  81.49391
 291  -115.1346
 292  179.4611
 293  347.0862
 294  36.06364
 295  200.8898
 296  225.8995
 297  183.0845
 298  402.4301
 299  294.3613
 300  333.6433
 301  -15.74056
 302  -276.0353
 303  331.7696
 304  133.2484
 305  -77.61842
 306  -141.2918
 307  -144.5468
 308  -92.38314
 309  -98.40049
 310  -224.7148
 311  -265.2134
 312  -150.423
 313  52.44428
 314  25.19606
 315  145.014
 316  164.7775
 317  -337.9495
 318  -476.0545
 319  -373.0862
 320  -499.5301
 321  -154.0133
 322  94.71444
 323  158.7096
 324  -1.485132
 325  -396.9617
 326  -428.2025
 327  -247.2179
 328  88.19327
 329  295.8448
 330  203.978
 331  83.75854
 332  -90.70207
 333  -264.5969
 334  -294.9618
 335  -172.3781
 336  147.1133
 337  420.8024
 338  319.4215
 339  167.8364
 340  177.7103
 341  149.9336
 342  186.7949
 343  141.0804
 344  -162.9543
 345  242.554
 346  427.1956
 347  30.64662
 348  71.46958
 349  114.2231
 350  52.97261
 351  -158.999
 352  125.8491
 353  54.7177
 354  -5.622576
 355  -236.907
 356  -272.8988
 357  -320.9483
 358  29.27849
 359  -15.20374
 360  67.95174
 361  455.6527
 362  155.6513
 363  198.1349
 364  130.9764
 365  -265.607
 366  -178.8334
 367  39.44649
 368  527.3645
 369  601.2969
 370  533.5767
 371  563.9826
 372  541.0241
 373  395.5563
 374  315.7324
 375  45.52646
 376  233.0635
 377  31.92674
 378  -25.62082
 379  438.7274
 380  164.4585
 381  -13.08656
 382  -183.2677
 383  -192.9873
 384  -377.2375
 385  -230.0908
 386  -107.2881
 387  51.45
 388  -242.1496
 389  174.2696
 390  -60.68342
 391  -269.7491
 392  -106.5758
 393  -173.6596
 394  -57.96686
 395  304.6904
 396  482.505
 397  166.6969
 398  -111.5653
 399  -108.5905
 400  -168.333
 401  -135.3463
 402  -210.7078
 403  242.0334
 404  490.064
 405  288.6283
 406  5.729593
 407  167.0754
 408  118.8349
 409  -106.5169
 410  -203.2392
 411  85.95199
 412  112.975
 413  151.2475
 414  154.6749
 415  210.2203
 416  112.1187
 417  -30.43628
 418  260.2065
 419  162.0849
 420  -118.1054
 421  -138.8942
 422  -47.27268
 423  141.9604
 424  52.68241
 425  -153.8887
 426  3.220715
 427  263.5019
 428  469.2779
 429  332.9614
 430  395.9104
 431  78.3348
 432  119.9553
 433  -92.7178
 434  -67.54575
 435  -58.00301
 436  -127.4194
 437  698.2805
 438  290.2891
 439  286.7545
 440  230.4896
 441  200.8898
 442  -102.5788
 443  -97.72878
 444  82.05803
 445  -5.416299
 446  129.3118
 447  4.149246
 448  10.42106
 449  -155.134
 450  -383.549
 451  -361.0017
 452  75.16262
 453  156.9581
 454  268.6426
 455  371.4046
 456  -145.356
 457  -474.4729
 458  -398.4059
 459  -111.8669
 460  -209.2653
 461  -65.97703
 462  15.03524
 463  -146.2532
 464  -222.6548
 465  -563.4268
 466  -224.5135
 467  -314.5767
 468  -1.546644
 469  215.8592
 470  314.6888
 471  244.4351
 472  -31.72849
 473  -51.16776
 474  89.71304
 475  -134.4937
 476  -412.786
 477  94.83565
 478  187.278
 479  430.1626
 480  208.8284
 481  12.92186
 482  -292.7285
 483  -485.6102
 484  -525.8065
 485  -135.3144
 486  -113.7537
 487  -317.9262
 488  -186.7858
 489  -489.9944
 490  -454.611
 491  -498.1014
 492  -279.3772
 493  -171.8081
 494  -278.308
 495  -91.661
 496  -23.10861
 497  -177.2572
 498  -625.8519
 499  -387.9031
 500  -268.7051
 501  -5.112029
 502  -117.7652
 503  -421.2142
 504  -154.316
 505  -197.556
 506  -413.9457
 507  -506.1696
 508  -152.5062
 509  -437.8212
 510  -425.5864
 511  -98.56671
