# Input file       =  1188249402.122966_cleaned.dat
# Candidate        =  PSR_0332+5434
# Telescope        =  AR
# Epoch_topo       =  57996.886818552848
# Epoch_bary       =  N/A
# T_sample         =  0.002
# Data Folded      =  7208960
# Data Avg         =  0.0176717251004717
# Data StdDev      =  1.00006696877252 
# Profile Bins     =  512
# Profile Avg      =  248.823297406111 
# Profile StdDev   =  118.667122252881 
# Reduced chi-sqr  =  1.326
# Prob(Noise)      <  9.86e-07   (~4.8 sigma)
# P_topo (ms)      =  714.463440708967  +/- 0.000249
# P'_topo (s/s)    =  -0                +/- 1.34e-10
# P''_topo (s/s^2) =  0                 +/- 6.02e-14
# P_bary (ms)      =  N/A
# P'_bary (s/s)    =  N/A
# P''_bary (s/s^2) =  N/A
# P_orb (s)        =  N/A
# asin(i)/c (s)    =  N/A
# eccentricity     =  N/A
# w (rad)          =  N/A
# T_peri           =  N/A
######################################################
   0  395.9451
   1  267.8917
   2  229.12
   3  266.3817
   4  282.041
   5  355.8235
   6  247.5619
   7  259.0797
   8  224.6051
   9  66.51833
  10  193.9317
  11  283.5305
  12  391.8924
  13  342.1874
  14  372.5809
  15  292.5254
  16  348.6585
  17  374.815
  18  313.3282
  19  245.4115
  20  211.9404
  21  186.416
  22  254.9357
  23  233.2038
  24  300.4757
  25  366.3848
  26  204.8613
  27  50.90591
  28  288.66
  29  424.9803
  30  342.7233
  31  195.9857
  32  213.4244
  33  386.5076
  34  260.2616
  35  100.7476
  36  174.0535
  37  337.1064
  38  410.8932
  39  251.5636
  40  164.6562
  41  203.0145
  42  106.2645
  43  225.8337
  44  204.0244
  45  252.2222
  46  241.4302
  47  239.4205
  48  239.7545
  49  216.6489
  50  365.9616
  51  269.2128
  52  201.2528
  53  350.0172
  54  388.5503
  55  317.546
  56  286.5618
  57  204.652
  58  231.5595
  59  204.0716
  60  191.0252
  61  238.764
  62  276.2073
  63  302.0411
  64  299.181
  65  233.0306
  66  90.3079
  67  175.9675
  68  314.3196
  69  270.5855
  70  195.6464
  71  114.304
  72  135.5548
  73  181.8717
  74  314.9134
  75  209.707
  76  266.1329
  77  325.4595
  78  305.0447
  79  321.098
  80  366.5457
  81  198.3512
  82  260.7794
  83  372.2636
  84  236.7215
  85  234.2395
  86  328.3659
  87  222.9286
  88  315.5121
  89  241.4434
  90  205.2972
  91  266.05
  92  300.8001
  93  247.6436
  94  260.2949
  95  235.2444
  96  174.9065
  97  73.90618
  98  176.2535
  99  342.4979
 100  275.1993
 101  227.386
 102  135.3203
 103  106.569
 104  63.68916
 105  210.3473
 106  209.5631
 107  80.67639
 108  138.1637
 109  185.4995
 110  109.7442
 111  122.6828
 112  242.8368
 113  173.4082
 114  147.7713
 115  206.1648
 116  198.2479
 117  213.2663
 118  221.0466
 119  165.6624
 120  194.6645
 121  297.4765
 122  226.663
 123  206.2054
 124  277.0631
 125  307.348
 126  169.1474
 127  168.3768
 128  135.0132
 129  257.3404
 130  219.5758
 131  154.1255
 132  194.8796
 133  245.2378
 134  139.1113
 135  166.7021
 136  269.6745
 137  247.7155
 138  274.4884
 139  285.3871
 140  337.2211
 141  419.0459
 142  403.6345
 143  331.1364
 144  196.2374
 145  240.9814
 146  333.5364
 147  289.0395
 148  308.4252
 149  161.5994
 150  271.5605
 151  372.6334
 152  260.7431
 153  210.3418
 154  224.3985
 155  176.5874
 156  103.1947
 157  5.229692
 158  65.84967
 159  244.1073
 160  330.5889
 161  279.2967
 162  225.8503
 163  291.3758
 164  151.7537
 165  141.0586
 166  281.4595
 167  262.3474
 168  213.0817
 169  200.367
 170  139.5728
 171  104.9871
 172  101.449
 173  190.6887
 174  357.369
 175  297.2107
 176  192.215
 177  207.7365
 178  249.8574
 179  254.5541
 180  210.3844
 181  267.637
 182  262.7003
 183  161.7084
 184  222.7376
 185  298.8485
 186  336.8662
 187  288.0117
 188  185.3919
 189  204.982
 190  326.0459
 191  269.9117
 192  176.0059
 193  163.5953
 194  201.1576
 195  116.7293
 196  56.4479
 197  160.1157
 198  271.9802
 199  235.3158
 200  190.0293
 201  125.7797
 202  16.26651
 203  158.8201
 204  265.8712
 205  138.3697
 206  110.7089
 207  147.1495
 208  107.1985
 209  9.696897
 210  155.8671
 211  373.5339
 212  390.4152
 213  453.1103
 214  357.5777
 215  215.5494
 216  212.0727
 217  166.3869
 218  174.7068
 219  149.0865
 220  153.033
 221  254.2476
 222  324.4048
 223  243.4129
 224  284.2033
 225  90.74511
 226  268.498
 227  175.8902
 228  92.91996
 229  241.8374
 230  198.3937
 231  109.6495
 232  171.7892
 233  205.0203
 234  185.4722
 235  162.3133
 236  232.9336
 237  252.7908
 238  179.313
 239  127.386
 240  198.2629
 241  208.6373
 242  181.7327
 243  222.1105
 244  304.5453
 245  353.8853
 246  137.9959
 247  114.1056
 248  321.3554
 249  203.6211
 250  177.2544
 251  267.5607
 252  285.033
 253  285.6316
 254  266.3683
 255  244.9212
 256  201.4707
 257  151.1658
 258  190.0533
 259  347.7944
 260  311.2154
 261  219.9706
 262  300.0953
 263  298.6278
 264  345.2632
 265  142.6122
 266  122.3531
 267  184.7714
 268  237.23
 269  296.3128
 270  256.9621
 271  205.9771
 272  107.747
 273  201.3671
 274  289.5245
 275  181.0764
 276  261.0232
 277  289.4923
 278  165.4959
 279  272.302
 280  431.2892
 281  262.9654
 282  241.6961
 283  240.9264
 284  235.8752
 285  246.92
 286  179.6134
 287  211.6457
 288  320.707
 289  267.8377
 290  205.3567
 291  377.9694
 292  333.9412
 293  275.5605
 294  213.0726
 295  135.5945
 296  131.3392
 297  192.6331
 298  202.7298
 299  139.2407
 300  241.4328
 301  293.168
 302  187.6667
 303  159.066
 304  200.993
 305  357.0871
 306  354.3037
 307  300.5403
 308  284.4456
 309  289.4063
 310  296.5711
 311  321.9804
 312  379.2038
 313  266.6913
 314  193.8687
 315  200.4063
 316  143.2956
 317  162.4867
 318  189.506
 319  244.6676
 320  289.4724
 321  183.2892
 322  350.6556
 323  349.6143
 324  419.063
 325  454.5893
 326  462.5975
 327  376.2838
 328  261.7671
 329  294.0984
 330  314.9912
 331  279.0988
 332  186.141
 333  119.4147
 334  207.8631
 335  140.92
 336  302.996
 337  312.3064
 338  370.8801
 339  490.5875
 340  437.5892
 341  417.468
 342  445.9909
 343  590.6713
 344  813.9247
 345  816.2468
 346  798.9576
 347  798.3831
 348  575.074
 349  350.0948
 350  193.9429
 351  190.0197
 352  216.6455
 353  208.7383
 354  135.6883
 355  269.7949
 356  372.4739
 357  238.0289
 358  190.8886
 359  227.5861
 360  263.4982
 361  419.2914
 362  368.2505
 363  202.5308
 364  243.1349
 365  288.94
 366  232.082
 367  251.4991
 368  231.6126
 369  271.7177
 370  232.2664
 371  310.8875
 372  184.2735
 373  79.8913
 374  120.5428
 375  261.5988
 376  321.7293
 377  272.1833
 378  292.4257
 379  270.3907
 380  125.8722
 381  337.4834
 382  285.4185
 383  147.3321
 384  177.8848
 385  292.1273
 386  236.8578
 387  124.9496
 388  196.7625
 389  321.1399
 390  231.1944
 391  189.2809
 392  282.8864
 393  245.7625
 394  154.1581
 395  150.5279
 396  200.1854
 397  226.089
 398  173.2859
 399  326.1619
 400  325.0862
 401  331.4856
 402  327.2766
 403  286.524
 404  245.9955
 405  376.8499
 406  237.7854
 407  112.9563
 408  273.3657
 409  352.4862
 410  295.1346
 411  218.4269
 412  43.82768
 413  46.3203
 414  165.2688
 415  227.2655
 416  395.706
 417  230.0532
 418  197.7156
 419  176.2809
 420  237.8313
 421  278.5864
 422  225.1233
 423  107.0495
 424  107.0796
 425  249.2191
 426  200.2991
 427  301.598
 428  347.3902
 429  324.5663
 430  249.9985
 431  232.7826
 432  265.7504
 433  291.9363
 434  223.68
 435  235.8133
 436  209.1899
 437  336.3557
 438  353.3567
 439  312.4538
 440  333.353
 441  407.3235
 442  297.6382
 443  155.2744
 444  217.9105
 445  279.9469
 446  299.2273
 447  382.9285
 448  216.182
 449  176.7989
 450  356.3777
 451  255.652
 452  286.1489
 453  364.5143
 454  422.3486
 455  341.1988
 456  211.2115
 457  213.0507
 458  130.1714
 459  112.3172
 460  169.7373
 461  87.44215
 462  215.6885
 463  336.0359
 464  216.9792
 465  266.4002
 466  494.5149
 467  352.3835
 468  300.6653
 469  311.6559
 470  250.7864
 471  236.8687
 472  185.1821
 473  301.4003
 474  272.5576
 475  249.8513
 476  344.2962
 477  282.3582
 478  182.1007
 479  204.2162
 480  133.146
 481  221.421
 482  206.4453
 483  302.8364
 484  185.3844
 485  221.4376
 486  248.8264
 487  217.5191
 488  297.8209
 489  288.1453
 490  314.716
 491  297.9756
 492  153.9316
 493  66.7483
 494  160.8576
 495  267.5194
 496  262.0089
 497  258.3284
 498  315.5939
 499  274.5589
 500  248.1743
 501  235.3362
 502  350.9371
 503  266.4308
 504  258.6545
 505  404.0924
 506  223.5263
 507  206.6964
 508  263.2697
 509  376.9926
 510  336.9916
 511  318.5595
