# Input file       =  1188882056.107708-PSRB0329-2ms-sampling-dd.dat
# Candidate        =  PSR_0332+5434
# Telescope        =  AR
# Epoch_topo       =  58004.209202635509
# Epoch_bary       =  N/A
# T_sample         =  0.002
# Data Folded      =  7340032
# Data Avg         =  1.03284504593381e-10
# Data StdDev      =  4.97855136302626 
# Profile Bins     =  512
# Profile Avg      =  -0.068800045562611
# Profile StdDev   =  596.097071452822 
# Reduced chi-sqr  =  0.554
# Prob(Noise)      <  1   (~0.0 sigma)
# P_topo (ms)      =  714.464653217015  +/- 0.000124
# P'_topo (s/s)    =  -0                +/- 6.53e-11
# P''_topo (s/s^2) =  0                 +/- 2.88e-14
# P_bary (ms)      =  N/A
# P'_bary (s/s)    =  N/A
# P''_bary (s/s^2) =  N/A
# P_orb (s)        =  N/A
# asin(i)/c (s)    =  N/A
# eccentricity     =  N/A
# w (rad)          =  N/A
# T_peri           =  N/A
######################################################
   0  -85.45677
   1  303.3796
   2  344.4449
   3  67.46283
   4  -613.7325
   5  -524.8148
   6  -190.2433
   7  170.363
   8  524.1566
   9  321.7379
  10  50.48636
  11  -478.1304
  12  -317.8971
  13  -304.9249
  14  -691.7365
  15  -452.8535
  16  4.585082
  17  -311.6738
  18  52.49656
  19  231.1565
  20  -80.53464
  21  -326.6303
  22  -396.1037
  23  -442.9727
  24  -140.6552
  25  -163.3146
  26  -204.0426
  27  -587.1739
  28  -616.7079
  29  -458.3139
  30  -150.3709
  31  -500.3315
  32  -765.6644
  33  -282.9873
  34  -413.7776
  35  -120.0468
  36  41.70526
  37  -13.53695
  38  -467.1194
  39  -572.9901
  40  -220.7289
  41  -279.4104
  42  67.28665
  43  181.1449
  44  330.9533
  45  163.805
  46  123.7002
  47  -194.339
  48  -65.39247
  49  301.7407
  50  -22.84058
  51  -124.7897
  52  -186.7245
  53  71.00445
  54  82.29154
  55  153.5161
  56  -302.5867
  57  -422.88
  58  -27.70172
  59  169.3522
  60  -90.92283
  61  -301.2998
  62  -455.5746
  63  -522.201
  64  -519.1956
  65  -318.0854
  66  107.5393
  67  321.3031
  68  40.39502
  69  -351.1753
  70  -519.2441
  71  -592.9358
  72  -614.2154
  73  113.3922
  74  -153.7165
  75  185.4071
  76  -6.939359
  77  114.2565
  78  370.2207
  79  75.82087
  80  -349.6884
  81  -655.9519
  82  -365.5641
  83  -322.5455
  84  52.12447
  85  -116.2598
  86  -207.7155
  87  61.6971
  88  -19.26861
  89  -177.6231
  90  -263.6488
  91  -116.5277
  92  -245.6353
  93  -197.9131
  94  -489.9388
  95  -857.1358
  96  -619.584
  97  -163.4877
  98  -13.31544
  99  -4.298952
 100  143.3967
 101  19.03025
 102  -188.5121
 103  67.53272
 104  206.9283
 105  -241.9388
 106  -232.511
 107  -231.9967
 108  -428.8784
 109  -993.9651
 110  -678.407
 111  -289.4777
 112  -152.9696
 113  142.1595
 114  -170.1745
 115  47.84753
 116  -261.2309
 117  -408.8769
 118  -289.206
 119  -643.408
 120  -265.0993
 121  34.53272
 122  -44.69354
 123  -206.1205
 124  -218.7786
 125  -26.1298
 126  747.3039
 127  1355.63
 128  1347.982
 129  844.1306
 130  299.7725
 131  84.30352
 132  -205.3726
 133  359.8954
 134  27.38602
 135  259.5457
 136  -39.34007
 137  -595.5866
 138  -571.1836
 139  -609.8481
 140  -50.17286
 141  -96.99628
 142  138.1563
 143  -28.8379
 144  315.3591
 145  -7.334419
 146  -184.0818
 147  118.5321
 148  313.6653
 149  84.61975
 150  -277.7173
 151  322.9518
 152  -191.1266
 153  -92.02201
 154  -364.7737
 155  -133.776
 156  -276.818
 157  -745.4246
 158  -470.2171
 159  194.628
 160  168.8716
 161  -131.8623
 162  304.3621
 163  56.66887
 164  67.14702
 165  -7.962605
 166  102.9563
 167  -157.7563
 168  -36.96065
 169  196.8238
 170  -12.9606
 171  -157.6895
 172  -105.6026
 173  148.8301
 174  649.2946
 175  628.7474
 176  212.2769
 177  343.5584
 178  81.46443
 179  177.2937
 180  498.5616
 181  470.0757
 182  390.4415
 183  -49.51891
 184  53.7951
 185  -413.2776
 186  -447.001
 187  -151.0407
 188  -190.9393
 189  -61.57563
 190  -278.3541
 191  -223.1146
 192  -346.1486
 193  -130.3245
 194  458.523
 195  592.1898
 196  425.3955
 197  365.1594
 198  84.8026
 199  -262.0294
 200  -156.6781
 201  -17.43862
 202  14.20028
 203  19.07982
 204  37.24415
 205  -180.3828
 206  -198.3438
 207  -265.9872
 208  -501.1882
 209  156.3813
 210  676.3381
 211  322.4373
 212  216.2246
 213  -31.86979
 214  487.9002
 215  72.38867
 216  121.2501
 217  87.89927
 218  142.8975
 219  30.54182
 220  12.39585
 221  237.4321
 222  610.5662
 223  216.1127
 224  26.99452
 225  -142.9237
 226  100.5083
 227  -329.1353
 228  -345.7232
 229  78.56189
 230  -59.61583
 231  -15.0557
 232  288.5351
 233  186.1597
 234  161.0136
 235  -436.4807
 236  -18.29948
 237  606.7976
 238  204.6148
 239  -57.46392
 240  -56.59071
 241  127.0836
 242  398.2788
 243  278.5017
 244  320.6836
 245  159.6685
 246  -174.1062
 247  203.9474
 248  201.2543
 249  -87.93173
 250  25.97758
 251  169.0948
 252  157.8181
 253  694.9331
 254  447.3459
 255  267.0287
 256  23.58247
 257  144.098
 258  -42.27339
 259  323.3708
 260  590.7343
 261  427.5993
 262  354.9723
 263  193.2043
 264  -140.7393
 265  -177.9869
 266  166.5205
 267  -113.4155
 268  -278.255
 269  133.1833
 270  329.9282
 271  256.3529
 272  603.9742
 273  67.78304
 274  -20.06174
 275  25.92848
 276  -261.7386
 277  -75.12819
 278  168.2118
 279  293.6478
 280  854.9889
 281  822.0975
 282  369.1948
 283  184.171
 284  295.0909
 285  274.8724
 286  139.7131
 287  -170.3934
 288  380.0305
 289  137.3578
 290  334.4122
 291  243.4469
 292  58.20141
 293  -329.3699
 294  -57.02232
 295  77.68066
 296  106.6026
 297  65.65072
 298  -213.9306
 299  -350.7722
 300  -255.4389
 301  -71.43918
 302  -9.099221
 303  103.8665
 304  371.5898
 305  183.6581
 306  19.69671
 307  89.82292
 308  438.4646
 309  478.9212
 310  294.785
 311  403.252
 312  324.6624
 313  -106.937
 314  29.92978
 315  361.1952
 316  54.60096
 317  169.4272
 318  425.073
 319  314.9266
 320  30.82003
 321  480.0284
 322  449.3205
 323  -85.07156
 324  -316.1248
 325  -65.94769
 326  274.6623
 327  351.4393
 328  634.6588
 329  438.2606
 330  -12.80392
 331  -441.3884
 332  -141.9603
 333  -276.2556
 334  -646.3185
 335  -129.1187
 336  70.11491
 337  295.9924
 338  -253.8086
 339  -123.6347
 340  -211.5271
 341  16.83261
 342  39.63215
 343  -260.4629
 344  252.9855
 345  149.9327
 346  436.4257
 347  906.1357
 348  519.7649
 349  -245.1489
 350  -386.1395
 351  -23.70085
 352  345.7374
 353  114.2542
 354  238.8762
 355  811.2886
 356  497.7656
 357  97.60864
 358  -305.2184
 359  9.353221
 360  -398.2857
 361  311.0535
 362  506.2732
 363  52.30411
 364  -264.7743
 365  213.4563
 366  304.5791
 367  -223.887
 368  -464.5474
 369  -300.9088
 370  -122.3457
 371  154.9341
 372  308.6628
 373  249.781
 374  56.57594
 375  -225.5699
 376  0.1614671
 377  179.1556
 378  122.4533
 379  105.7703
 380  -11.2866
 381  -64.36912
 382  108.9616
 383  242.7287
 384  153.6378
 385  -13.86926
 386  -43.15926
 387  -395.5614
 388  -523.1399
 389  -80.78848
 390  528.5261
 391  710.5533
 392  -78.00531
 393  -163.4108
 394  -42.92003
 395  348.5009
 396  173.2847
 397  320.2914
 398  227.4685
 399  -433.3783
 400  -5.251391
 401  -29.60025
 402  -689.897
 403  -662.1763
 404  -231.0798
 405  -399.7643
 406  -490.1255
 407  -126.1866
 408  193.9248
 409  182.6864
 410  -35.14068
 411  207.5706
 412  -10.17016
 413  354.852
 414  53.3305
 415  -105.7884
 416  -473.9684
 417  -590.9619
 418  -63.44724
 419  28.46464
 420  -275.3084
 421  -181.4987
 422  297.6049
 423  -61.10976
 424  -113.1959
 425  -169.7162
 426  -35.21169
 427  41.84023
 428  -306.59
 429  -256.8054
 430  -580.2538
 431  -80.24129
 432  273.7044
 433  317.9147
 434  -96.4689
 435  296.7416
 436  317.5739
 437  790.1123
 438  587.2786
 439  46.60729
 440  -95.79449
 441  75.64796
 442  -48.8539
 443  -250.9234
 444  -103.0852
 445  7.133743
 446  -109.597
 447  -185.7446
 448  -556.8408
 449  -444.1281
 450  -510.2571
 451  -427.3861
 452  62.68909
 453  449.9788
 454  723.452
 455  298.56
 456  227.5006
 457  -102.4664
 458  -244.4162
 459  -127.0696
 460  -336.6602
 461  -149.8555
 462  319.7851
 463  24.93451
 464  47.61348
 465  -39.48767
 466  114.7343
 467  -76.46181
 468  90.87986
 469  62.21455
 470  10.43863
 471  219.8212
 472  199.819
 473  -202.2721
 474  -288.5735
 475  -402.9804
 476  -37.768
 477  58.04497
 478  248.4775
 479  503.2471
 480  239.2945
 481  -46.86526
 482  302.9144
 483  315.0724
 484  -88.11726
 485  -113.6946
 486  123.7679
 487  9.879422
 488  239.0316
 489  391.9189
 490  -63.67194
 491  77.006
 492  73.67464
 493  -298.6387
 494  -317.0618
 495  -517.7798
 496  102.5637
 497  245.2483
 498  335.6891
 499  272.7507
 500  202.0607
 501  82.75528
 502  -372.8082
 503  -454.9033
 504  -318.5847
 505  -269.7596
 506  58.8084
 507  -394.5023
 508  88.76107
 509  42.15314
 510  -166.085
 511  -54.81124
