# Input file       =  1188335615.117973_cleaned.dat
# Candidate        =  PSR_0332+5434
# Telescope        =  AR
# Epoch_topo       =  57997.884654143207
# Epoch_bary       =  N/A
# T_sample         =  0.002
# Data Folded      =  7208960
# Data Avg         =  0.0139477510751237
# Data StdDev      =  1.00005516367091 
# Profile Bins     =  512
# Profile Avg      =  196.397826705285 
# Profile StdDev   =  118.665721469255 
# Reduced chi-sqr  =  1.440
# Prob(Noise)      <  2.49e-10   (~6.2 sigma)
# P_topo (ms)      =  714.463507827718  +/- 0.000122
# P'_topo (s/s)    =  -0                +/- 6.57e-11
# P''_topo (s/s^2) =  0                 +/- 2.95e-14
# P_bary (ms)      =  N/A
# P'_bary (s/s)    =  N/A
# P''_bary (s/s^2) =  N/A
# P_orb (s)        =  N/A
# asin(i)/c (s)    =  N/A
# eccentricity     =  N/A
# w (rad)          =  N/A
# T_peri           =  N/A
######################################################
   0  318.0293
   1  197.5847
   2  145.482
   3  100.6949
   4  221.2418
   5  201.707
   6  -18.35745
   7  33.15092
   8  114.5768
   9  139.237
  10  126.9611
  11  53.14574
  12  127.3215
  13  167.696
  14  129.1262
  15  35.66275
  16  286.6535
  17  329.8161
  18  212.9658
  19  181.9076
  20  195.5045
  21  177.1253
  22  119.7532
  23  59.11994
  24  130.403
  25  69.36778
  26  189.9192
  27  127.7837
  28  128.1375
  29  97.5143
  30  24.31966
  31  76.2505
  32  111.6562
  33  109.1235
  34  127.3695
  35  298.2749
  36  292.5312
  37  158.4257
  38  90.82328
  39  176.358
  40  179.955
  41  104.015
  42  47.06336
  43  102.5483
  44  169.868
  45  138.6265
  46  68.73535
  47  44.15724
  48  136.5358
  49  142.2636
  50  127.9286
  51  197.2797
  52  168.3694
  53  246.5315
  54  196.2866
  55  306.5294
  56  188.4151
  57  94.26261
  58  167.9875
  59  152.4986
  60  5.121679
  61  37.43972
  62  96.02833
  63  41.0489
  64  114.9365
  65  136.3897
  66  101.6248
  67  -7.017716
  68  174.5145
  69  380.0767
  70  181.6049
  71  -14.59366
  72  165.6621
  73  210.788
  74  137.6321
  75  197.3326
  76  117.2378
  77  62.39445
  78  238.3424
  79  313.0825
  80  236.9356
  81  266.6384
  82  334.1138
  83  208.8626
  84  147.1477
  85  168.3304
  86  63.21287
  87  190.938
  88  173.5851
  89  88.01742
  90  56.33187
  91  168.246
  92  304.9305
  93  286.9631
  94  234.3269
  95  261.5105
  96  265.4761
  97  257.3542
  98  212.8475
  99  303.3137
 100  267.3008
 101  148.3118
 102  235.4997
 103  189.2537
 104  94.40778
 105  162.8783
 106  247.2056
 107  313.6707
 108  197.2747
 109  251.3516
 110  157.3213
 111  141.8575
 112  215.5787
 113  75.18955
 114  183.1499
 115  267.1443
 116  385.2842
 117  248.5531
 118  104.092
 119  110.6915
 120  164.5766
 121  316.1035
 122  304.7298
 123  134.1759
 124  48.50872
 125  145.2076
 126  185.2038
 127  143.9468
 128  235.9946
 129  179.329
 130  293.5803
 131  286.2649
 132  137.8089
 133  70.35519
 134  190.7084
 135  197.0388
 136  195.6916
 137  150.7697
 138  245.8087
 139  227.2171
 140  193.2739
 141  295.7473
 142  298.9518
 143  287.8539
 144  126.4715
 145  179.7642
 146  218.4999
 147  211.6143
 148  152.9265
 149  137.2006
 150  256.8491
 151  213.7479
 152  15.2726
 153  137.2792
 154  107.2144
 155  -58.23345
 156  -50.78766
 157  42.38562
 158  219.7584
 159  355.5452
 160  227.9415
 161  120.9137
 162  242.2862
 163  257.7812
 164  191.9208
 165  163.9989
 166  120.6881
 167  152.7256
 168  119.519
 169  251.0479
 170  144.2722
 171  121.8109
 172  193.4265
 173  226.9779
 174  241.0243
 175  136.1716
 176  154.0776
 177  130.5896
 178  104.8524
 179  86.97533
 180  298.7915
 181  318.0327
 182  215.9435
 183  254.2315
 184  254.704
 185  329.3465
 186  245.4182
 187  148.7265
 188  71.92524
 189  55.82863
 190  206.419
 191  240.6841
 192  222.4779
 193  223.5754
 194  218.6482
 195  226.2409
 196  284.0594
 197  223.4146
 198  244.1656
 199  265.4697
 200  314.3966
 201  217.3477
 202  177.2819
 203  171.4466
 204  213.7558
 205  280.5397
 206  205.6682
 207  281.9277
 208  232.2844
 209  176.9538
 210  298.2753
 211  224.0021
 212  161.8746
 213  132.7177
 214  135.5537
 215  145.2487
 216  162.0532
 217  308.8712
 218  282.8781
 219  161.892
 220  153.4767
 221  236.8522
 222  263.5507
 223  84.42067
 224  158.0026
 225  286.8558
 226  147.09
 227  94.32973
 228  202.2688
 229  213.7892
 230  134.3308
 231  76.50887
 232  221.5041
 233  136.3755
 234  77.62143
 235  160.5549
 236  295.1666
 237  179.5928
 238  93.57805
 239  -37.50515
 240  24.01229
 241  87.18555
 242  116.7428
 243  199.4401
 244  83.91099
 245  167.6364
 246  201.4539
 247  166.4184
 248  116.8411
 249  226.9105
 250  258.539
 251  345.766
 252  150.8707
 253  104.8732
 254  193.6286
 255  129.2626
 256  68.79691
 257  301.7621
 258  190.8637
 259  100.2306
 260  66.76955
 261  6.780747
 262  165.8076
 263  191.2617
 264  151.5771
 265  237.944
 266  181.3805
 267  188.3876
 268  96.51674
 269  197.7403
 270  291.4257
 271  235.6098
 272  434.0629
 273  394.9489
 274  265.6613
 275  209.7767
 276  346.2238
 277  293.9124
 278  137.7392
 279  261.1339
 280  231.9201
 281  292.8315
 282  284.116
 283  237.2642
 284  339.8011
 285  474.5378
 286  543.8283
 287  655.6863
 288  707.7883
 289  894.4142
 290  748.2917
 291  687.2122
 292  475.3066
 293  318.1406
 294  250.7026
 295  246.7653
 296  376.2439
 297  266.3335
 298  216.993
 299  293.1391
 300  379.0989
 301  391.0613
 302  256.7151
 303  226.3157
 304  221.8235
 305  199.8797
 306  286.0396
 307  240.305
 308  218.2502
 309  185.082
 310  217.1096
 311  272.3623
 312  116.4152
 313  180.0253
 314  285.7737
 315  266.7641
 316  232.6151
 317  254.0038
 318  157.7978
 319  16.00218
 320  156.7457
 321  211.5201
 322  124.8391
 323  103.7445
 324  160.8663
 325  210.0938
 326  270.7185
 327  182.6628
 328  253.3784
 329  284.5153
 330  342.4692
 331  339.8611
 332  303.1785
 333  230.0275
 334  127.8799
 335  203.9084
 336  232.7881
 337  152.8766
 338  140.2317
 339  84.20105
 340  148.2296
 341  230.498
 342  180.6287
 343  278.4529
 344  276.6298
 345  263.4782
 346  212.2198
 347  312.9253
 348  282.2303
 349  152.214
 350  164.3401
 351  120.5083
 352  127.1445
 353  112.8237
 354  205.6304
 355  211.1571
 356  183.9401
 357  234.3821
 358  127.5234
 359  164.8603
 360  211.5195
 361  123.0998
 362  143.3504
 363  103.9059
 364  170.954
 365  206.1892
 366  267.9062
 367  191.8661
 368  240.9397
 369  360.0706
 370  307.9139
 371  170.5886
 372  256.5144
 373  338.1085
 374  388.6771
 375  268.5225
 376  259.6427
 377  375.4203
 378  304.4359
 379  260.9016
 380  314.2685
 381  458.3194
 382  213.9014
 383  164.6372
 384  183.2888
 385  125.2616
 386  92.5895
 387  229.1088
 388  244.3832
 389  159.7033
 390  187.1932
 391  238.9101
 392  216.3817
 393  200.5139
 394  137.0353
 395  124.0058
 396  223.7312
 397  149.876
 398  184.7451
 399  236.6033
 400  261.1904
 401  163.5854
 402  70.28719
 403  76.68316
 404  167.3567
 405  214.3267
 406  201.6751
 407  251.1669
 408  384.8052
 409  287.3465
 410  218.2464
 411  221.443
 412  132.6247
 413  -68.67548
 414  74.58087
 415  147.144
 416  199.0624
 417  173.9593
 418  153.4282
 419  193.0466
 420  146.0916
 421  260.2017
 422  302.7728
 423  255.8665
 424  190.1797
 425  163.0947
 426  160.6485
 427  168.2844
 428  211.3909
 429  195.124
 430  225.3417
 431  346.5304
 432  326.8014
 433  135.6246
 434  205.3198
 435  177.0688
 436  67.00137
 437  23.47995
 438  51.27509
 439  147.2694
 440  308.1957
 441  377.2122
 442  272.6421
 443  284.347
 444  123.696
 445  194.6754
 446  247.6831
 447  349.5383
 448  339.4544
 449  236.6489
 450  233.0805
 451  189.2435
 452  186.3843
 453  215.6762
 454  133.3382
 455  205.1844
 456  162.3093
 457  202.5104
 458  297.5454
 459  248.3689
 460  66.37103
 461  62.40153
 462  186.8888
 463  193.5535
 464  200.955
 465  289.1043
 466  212.8444
 467  194.8961
 468  203.5352
 469  78.21989
 470  249.5236
 471  187.2219
 472  157.7789
 473  131.0121
 474  156.8417
 475  104.5304
 476  124.5677
 477  155.8671
 478  218.6646
 479  174.4324
 480  200.7947
 481  348.2809
 482  149.4766
 483  -2.23404
 484  128.1724
 485  -34.20497
 486  113.2301
 487  229.4604
 488  109.1745
 489  84.95461
 490  117.1323
 491  96.45876
 492  271.0438
 493  225.0156
 494  143.177
 495  128.0071
 496  122.6323
 497  147.797
 498  188.4218
 499  199.8263
 500  53.99778
 501  79.51063
 502  71.2317
 503  332.2295
 504  281.0286
 505  142.3536
 506  201.1659
 507  178.4668
 508  95.04816
 509  163.5091
 510  119.4338
 511  201.8707
