# Input file       =  1188968228.122402_cleaned.dat
# Candidate        =  PSR_0332+5434
# Telescope        =  AR
# Epoch_topo       =  58005.206563916690
# Epoch_bary       =  N/A
# T_sample         =  0.002
# Data Folded      =  7340032
# Data Avg         =  0.0399332163880381
# Data StdDev      =  3.36243212864521 
# Profile Bins     =  256
# Profile Avg      =  1144.76650463959 
# Profile StdDev   =  569.354189614641 
# Reduced chi-sqr  =  1.193
# Prob(Noise)      <  0.0188   (~2.1 sigma)
# P_topo (ms)      =  714.464835847327  +/- 0.000181
# P'_topo (s/s)    =  -0                +/- 9.56e-11
# P''_topo (s/s^2) =  0                 +/- 4.22e-14
# P_bary (ms)      =  N/A
# P'_bary (s/s)    =  N/A
# P''_bary (s/s^2) =  N/A
# P_orb (s)        =  N/A
# asin(i)/c (s)    =  N/A
# eccentricity     =  N/A
# w (rad)          =  N/A
# T_peri           =  N/A
######################################################
   0  1592.709
   1  1276.785
   2  1350.724
   3  1276.411
   4  1675.871
   5  1096.21
   6  617.3312
   7  1091.026
   8  2078.798
   9  951.6542
  10  1788.5
  11  1934.947
  12  1766.089
  13  1274.668
  14  1693.186
  15  1173.575
  16  1420.602
  17  1925.004
  18  2027.427
  19  1888.05
  20  878.7303
  21  1396.648
  22  1290.347
  23  744.6985
  24  1380.182
  25  1648.653
  26  2414.903
  27  1724.957
  28  588.0844
  29  1609.695
  30  2106.763
  31  1076.524
  32  1190.501
  33  1779.393
  34  2534.71
  35  1108.95
  36  903.2726
  37  1581.831
  38  1783.505
  39  1173.058
  40  941.6899
  41  1388.085
  42  588.9562
  43  1282.417
  44  793.5962
  45  1009.939
  46  1233.268
  47  1353.473
  48  860.6116
  49  835.9719
  50  1328.75
  51  974.2556
  52  1668.913
  53  1031.465
  54  1319.146
  55  1811.555
  56  1049.71
  57  707.4412
  58  1389.619
  59  697.983
  60  448.7197
  61  602.2264
  62  1196.99
  63  713.5999
  64  463.2846
  65  1748.977
  66  1392.276
  67  769.2755
  68  817.2115
  69  1853.978
  70  749.4221
  71  1256.022
  72  1487.155
  73  999.3874
  74  534.9003
  75  871.7544
  76  822.4043
  77  1014.75
  78  533.2999
  79  1655.738
  80  1294.024
  81  1824.31
  82  1387.948
  83  913.1389
  84  710.0532
  85  890.262
  86  1503.632
  87  274.4725
  88  1101.416
  89  432.3776
  90  774.7131
  91  445.3817
  92  428.2341
  93  144.0116
  94  1391.846
  95  674.3939
  96  687.8258
  97  1371.969
  98  916.2674
  99  947.2377
 100  719.7302
 101  767.6799
 102  1201.437
 103  712.0708
 104  2545.785
 105  857.0769
 106  1148.985
 107  1518.698
 108  2327.995
 109  1387.826
 110  2164.856
 111  1226.934
 112  2203.524
 113  844.8593
 114  1084.446
 115  1061.764
 116  1696.194
 117  633.7489
 118  906.8981
 119  2072.273
 120  1600.563
 121  963.6584
 122  896.6987
 123  1485.847
 124  938.3101
 125  1774.085
 126  1053.686
 127  2059.54
 128  737.2325
 129  969.6526
 130  781.7168
 131  832.015
 132  1973.653
 133  519.9933
 134  376.4987
 135  -259.8071
 136  1097.448
 137  759.822
 138  1370.813
 139  43.14671
 140  844.9857
 141  1018.729
 142  1473.157
 143  601.8609
 144  1653.836
 145  1623.021
 146  259.0746
 147  867.5389
 148  1203.684
 149  1234.882
 150  864.7166
 151  1111.433
 152  632.7894
 153  1630.443
 154  1503.449
 155  991.5175
 156  1237.18
 157  1461.595
 158  1482.325
 159  2554.503
 160  3059.336
 161  2767.278
 162  2440.301
 163  1223.381
 164  1273.847
 165  588.0121
 166  1183.584
 167  1271.544
 168  1389.774
 169  1538.734
 170  1248.031
 171  493.8084
 172  565.2951
 173  -623.8708
 174  471.6967
 175  292.4082
 176  843.8827
 177  1460.232
 178  897.837
 179  843.5086
 180  527.6033
 181  887.7018
 182  1452.527
 183  983.4565
 184  424.9575
 185  184.5718
 186  240.8867
 187  1103.066
 188  496.146
 189  1184.292
 190  -72.55185
 191  252.812
 192  1277.419
 193  858.238
 194  1417.685
 195  1568.359
 196  893.9355
 197  456.8144
 198  1019.246
 199  799.1802
 200  629.7713
 201  749.6925
 202  942.3944
 203  1007.443
 204  650.0817
 205  1152.266
 206  992.8701
 207  1884.09
 208  1680.246
 209  903.0189
 210  1263.93
 211  1078.91
 212  1596.407
 213  969.9752
 214  1488.208
 215  2410.471
 216  1216.511
 217  1328.507
 218  2123.395
 219  618.3252
 220  1392.758
 221  445.8929
 222  1047.958
 223  1396.097
 224  1289.069
 225  1104.663
 226  518.0953
 227  1264.021
 228  1643.299
 229  1346.684
 230  1009.895
 231  887.3064
 232  1356.078
 233  726.9841
 234  997.8457
 235  969.5565
 236  1068.682
 237  709.9564
 238  1045.243
 239  1858.052
 240  1065.563
 241  890.537
 242  1285.816
 243  492.7031
 244  353.8469
 245  419.2921
 246  1032.979
 247  1097.005
 248  1374.714
 249  711.6594
 250  1968.958
 251  925.1302
 252  1534.076
 253  1240.339
 254  1023.655
 255  1259.555
