# Input file       =  1188537430.114192_cleaned.dat
# Candidate        =  PSR_0332+5434
# Telescope        =  AR
# Epoch_topo       =  58000.220475858703
# Epoch_bary       =  N/A
# T_sample         =  0.002
# Data Folded      =  7340032
# Data Avg         =  0.0117499456458895
# Data StdDev      =  1.00002147137478 
# Profile Bins     =  512
# Profile Avg      =  168.427692990983 
# Profile StdDev   =  119.735607209664 
# Reduced chi-sqr  =  1.142
# Prob(Noise)      <  0.0143   (~2.2 sigma)
# P_topo (ms)      =  714.464077598686  +/- 0.000176
# P'_topo (s/s)    =  -0                +/- 9.31e-11
# P''_topo (s/s^2) =  0                 +/- 4.11e-14
# P_bary (ms)      =  N/A
# P'_bary (s/s)    =  N/A
# P''_bary (s/s^2) =  N/A
# P_orb (s)        =  N/A
# asin(i)/c (s)    =  N/A
# eccentricity     =  N/A
# w (rad)          =  N/A
# T_peri           =  N/A
######################################################
   0  518.3006
   1  535.6873
   2  526.798
   3  235.8478
   4  299.9115
   5  188.8519
   6  173.1238
   7  150.9196
   8  331.1389
   9  240.6617
  10  206.0341
  11  259.5241
  12  209.2796
  13  186.8782
  14  111.6895
  15  159.1391
  16  186.2597
  17  132.676
  18  195.3738
  19  120.6499
  20  168.4193
  21  191.8603
  22  148.981
  23  60.81171
  24  183.3699
  25  135.3864
  26  23.48466
  27  154.2365
  28  121.9657
  29  119.9289
  30  131.9624
  31  150.3043
  32  220.273
  33  164.5262
  34  186.1539
  35  297.9604
  36  300.3071
  37  191.8205
  38  225.3999
  39  177.5398
  40  56.80566
  41  201.2775
  42  243.5489
  43  164.4123
  44  250.456
  45  273.4953
  46  247.4731
  47  198.6449
  48  219.7091
  49  292.9909
  50  175.0936
  51  237.4285
  52  343.4008
  53  255.9328
  54  301.5322
  55  262.39
  56  119.435
  57  172.3996
  58  190.9783
  59  309.9578
  60  234.2424
  61  135.8997
  62  134.6569
  63  118.8376
  64  137.226
  65  83.02366
  66  208.2201
  67  138.2194
  68  145.4812
  69  324.2003
  70  458.9013
  71  208.3775
  72  31.59503
  73  238.216
  74  244.391
  75  123.2599
  76  138.2769
  77  143.7684
  78  203.4678
  79  215.6983
  80  289.7997
  81  108.8125
  82  48.62204
  83  165.0381
  84  35.66363
  85  36.24051
  86  106.1061
  87  100.7098
  88  133.871
  89  35.83699
  90  45.82107
  91  123.9824
  92  159.3139
  93  132.131
  94  142.4862
  95  134.6427
  96  20.19646
  97  -64.16271
  98  88.60011
  99  126.9249
 100  121.9922
 101  78.65791
 102  13.8965
 103  190.5614
 104  328.1672
 105  254.3133
 106  285.9844
 107  330.0027
 108  237.6971
 109  157.3905
 110  83.97012
 111  217.1111
 112  184.1533
 113  148.4294
 114  215.4685
 115  203.897
 116  192.9129
 117  228.3426
 118  275.2182
 119  173.9902
 120  208.0381
 121  195.4449
 122  229.9302
 123  187.6047
 124  103.8858
 125  224.6974
 126  260.1452
 127  122.9369
 128  136.4486
 129  245.2817
 130  180.6201
 131  52.08153
 132  168.5189
 133  179.2304
 134  109.8174
 135  252.7457
 136  354.1565
 137  117.4487
 138  179.9268
 139  191.6975
 140  152.0911
 141  63.42063
 142  177.4297
 143  223.2073
 144  171.0295
 145  31.10538
 146  104.5007
 147  55.49951
 148  113.1942
 149  96.95498
 150  142.2061
 151  246.0919
 152  403.6601
 153  166.5468
 154  -48.80621
 155  -17.02303
 156  65.99015
 157  138.7779
 158  219.3474
 159  160.1258
 160  202.3794
 161  -34.57541
 162  3.54534
 163  136.4296
 164  190.8495
 165  138.7196
 166  172.4622
 167  77.02187
 168  50.30431
 169  87.89239
 170  145.7819
 171  93.56271
 172  64.74986
 173  39.87059
 174  143.6398
 175  47.42179
 176  72.48115
 177  95.55766
 178  247.5183
 179  141.8434
 180  111.0811
 181  100.2878
 182  74.14061
 183  124.0826
 184  100.2125
 185  133.0303
 186  167.5448
 187  231.0087
 188  174.7153
 189  81.65183
 190  100.4549
 191  108.2686
 192  278.9304
 193  267.7768
 194  47.8975
 195  158.6116
 196  316.1854
 197  270.2072
 198  238.4757
 199  208.7864
 200  268.3192
 201  183.5164
 202  295.3352
 203  330.2375
 204  359.8206
 205  225.3731
 206  351.891
 207  224.3725
 208  48.54484
 209  127.04
 210  90.65443
 211  133.802
 212  263.2456
 213  161.489
 214  48.19464
 215  78.68908
 216  30.2077
 217  -19.38997
 218  60.77575
 219  147.8681
 220  196.6212
 221  187.5607
 222  304.2247
 223  280.7043
 224  114.5844
 225  154.4942
 226  120.1644
 227  287.2295
 228  279.583
 229  265.2514
 230  226.1216
 231  120.6007
 232  159.7587
 233  111.5766
 234  -54.8625
 235  90.69063
 236  155.2447
 237  92.09072
 238  113.5389
 239  88.01171
 240  215.7674
 241  293.5841
 242  211.9573
 243  204.933
 244  140.1734
 245  171.9597
 246  148.3174
 247  122.0745
 248  160.9071
 249  104.4018
 250  175.1789
 251  60.73989
 252  169.2155
 253  223.9645
 254  345.239
 255  272.3489
 256  60.66563
 257  8.00405
 258  144.6662
 259  96.08698
 260  64.19007
 261  81.6871
 262  244.7895
 263  214.3457
 264  72.94695
 265  160.5158
 266  290.4055
 267  226.9361
 268  143.709
 269  89.08887
 270  110.9533
 271  230.1365
 272  70.68925
 273  97.6218
 274  283.3637
 275  184.843
 276  196.9981
 277  176.7731
 278  197.0564
 279  185.0581
 280  219.7925
 281  103.5758
 282  66.2908
 283  201.2378
 284  210.717
 285  221.3961
 286  279.8103
 287  209.9993
 288  129.7594
 289  91.1633
 290  224.0737
 291  62.32846
 292  138.5923
 293  172.1263
 294  223.7531
 295  105.4523
 296  64.67619
 297  119.6506
 298  92.13563
 299  126.7357
 300  90.39082
 301  103.4917
 302  81.23461
 303  165.3656
 304  256.7389
 305  235.8534
 306  77.87298
 307  98.65137
 308  137.4715
 309  214.2342
 310  199.8759
 311  53.41095
 312  166.7488
 313  285.5846
 314  117.6147
 315  209.6638
 316  124.6388
 317  106.8683
 318  119.3624
 319  29.46514
 320  -27.62611
 321  98.51379
 322  164.4816
 323  259.3533
 324  161.241
 325  34.34571
 326  199.8884
 327  164.6616
 328  76.81995
 329  25.28254
 330  148.5448
 331  213.2791
 332  225.7139
 333  202.8734
 334  51.87737
 335  5.955284
 336  63.64487
 337  177.742
 338  165.5758
 339  322.7658
 340  211.1961
 341  151.1203
 342  233.1993
 343  251.4545
 344  296.279
 345  156.0024
 346  103.0815
 347  171.1798
 348  240.4432
 349  241.6173
 350  231.7235
 351  239.2913
 352  192.6756
 353  124.5423
 354  135.4936
 355  31.75281
 356  209.6844
 357  180.5309
 358  200.1495
 359  140.8497
 360  142.6684
 361  192.5997
 362  215.002
 363  184.1205
 364  230.7423
 365  319.055
 366  376.6781
 367  293.015
 368  187.4537
 369  143.9164
 370  142.1333
 371  189.5017
 372  96.35051
 373  0.9415814
 374  8.255903
 375  126.4888
 376  260.6451
 377  211.7118
 378  183.8937
 379  197.8723
 380  211.1354
 381  118.7346
 382  127.2274
 383  189.349
 384  208.98
 385  218.5237
 386  164.9948
 387  252.9345
 388  243.8044
 389  196.6473
 390  186.8494
 391  140.1346
 392  223.8416
 393  200.0952
 394  242.2945
 395  96.0879
 396  86.40541
 397  53.61734
 398  154.784
 399  289.739
 400  240.4509
 401  146.1396
 402  77.44997
 403  102.2915
 404  168.3616
 405  205.8398
 406  85.51979
 407  169.8518
 408  114.8506
 409  176.2222
 410  314.8244
 411  286.4091
 412  236.4207
 413  226.5343
 414  223.3401
 415  275.1734
 416  229.2027
 417  344.8423
 418  179.5856
 419  108.184
 420  223.3125
 421  197.3682
 422  246.3339
 423  155.1149
 424  45.38443
 425  163.0181
 426  263.388
 427  225.9872
 428  158.0658
 429  167.6858
 430  6.519435
 431  161.816
 432  98.08212
 433  59.00776
 434  76.84611
 435  200.5926
 436  331.9779
 437  184.8188
 438  77.16429
 439  81.41558
 440  119.0617
 441  -19.24734
 442  205.9718
 443  105.3735
 444  26.65721
 445  -58.03512
 446  -17.68032
 447  211.042
 448  60.90729
 449  127.4755
 450  234.5518
 451  181.3019
 452  282.5696
 453  213.1346
 454  234.8627
 455  197.0933
 456  206.7128
 457  168.054
 458  162.2879
 459  167.2896
 460  -14.77205
 461  -33.1046
 462  58.84342
 463  138.0571
 464  331.2177
 465  192.7186
 466  83.65192
 467  23.50862
 468  97.78726
 469  164.5643
 470  197.0053
 471  180.6917
 472  274.5323
 473  203.6915
 474  59.04399
 475  133.1576
 476  218.5873
 477  202.6826
 478  90.3554
 479  124.5106
 480  174.7858
 481  40.49877
 482  101.3558
 483  276.9072
 484  221.7861
 485  146.4957
 486  149.388
 487  151.0891
 488  -39.36863
 489  112.2623
 490  89.57681
 491  113.4901
 492  266.1293
 493  239.8896
 494  129.7518
 495  131.7688
 496  119.8329
 497  73.94691
 498  168.4786
 499  197.0694
 500  282.4304
 501  84.40132
 502  80.86946
 503  136.3218
 504  132.9987
 505  286.2284
 506  298.5583
 507  241.7151
 508  345.6932
 509  486.6503
 510  661.1514
 511  505.2511
