# Input file       =  1188278963.107433_cleaned.dat
# Candidate        =  PSR_0332+5434
# Telescope        =  AR
# Epoch_topo       =  57997.228959576772
# Epoch_bary       =  N/A
# T_sample         =  0.002
# Data Folded      =  7340032
# Data Avg         =  0.0358072539498347
# Data StdDev      =  3.26188128797679 
# Profile Bins     =  512
# Profile Avg      =  513.419314395694 
# Profile StdDev   =  390.554950910017 
# Reduced chi-sqr  =  1.274
# Prob(Noise)      <  2.46e-05   (~4.1 sigma)
# P_topo (ms)      =  714.463811356324  +/- 0.000132
# P'_topo (s/s)    =  -0                +/- 6.95e-11
# P''_topo (s/s^2) =  0                 +/- 3.07e-14
# P_bary (ms)      =  N/A
# P'_bary (s/s)    =  N/A
# P''_bary (s/s^2) =  N/A
# P_orb (s)        =  N/A
# asin(i)/c (s)    =  N/A
# eccentricity     =  N/A
# w (rad)          =  N/A
# T_peri           =  N/A
######################################################
   0  206.5345
   1  324.3003
   2  476.6764
   3  165.9838
   4  146.3611
   5  -394.9894
   6  -335.1158
   7  169.7113
   8  426.602
   9  801.7714
  10  206.8375
  11  28.80975
  12  195.6461
  13  262.0041
  14  661.5439
  15  752.3255
  16  518.4845
  17  180.1191
  18  414.9015
  19  459.4209
  20  264.454
  21  210.111
  22  400.2001
  23  714.2261
  24  993.1911
  25  1036.627
  26  377.2256
  27  212.1635
  28  13.37022
  29  183.3444
  30  345.0932
  31  458.1898
  32  86.12866
  33  216.4512
  34  440.2816
  35  38.83931
  36  328.5811
  37  265.8945
  38  9.203783
  39  311.0325
  40  246.8043
  41  500.1505
  42  495.3037
  43  915.5632
  44  911.8048
  45  195.2789
  46  336.0247
  47  861.8511
  48  908.9124
  49  434.9729
  50  459.3888
  51  808.8356
  52  902.4987
  53  615.8489
  54  365.9087
  55  216.3833
  56  541.2341
  57  730.5726
  58  780.7394
  59  657.8152
  60  195.6372
  61  8.243149
  62  323.5411
  63  831.3213
  64  899.3389
  65  805.1785
  66  691.5182
  67  955.7106
  68  512.3135
  69  476.0023
  70  349.1584
  71  498.6624
  72  477.8108
  73  640.7831
  74  398.7061
  75  267.9927
  76  377.8442
  77  676.0032
  78  424.959
  79  -34.14101
  80  228.3502
  81  353.3852
  82  250.6186
  83  77.84152
  84  296.8058
  85  565.0695
  86  714.3747
  87  711.4904
  88  -210.0698
  89  -59.24348
  90  355.9698
  91  618.1877
  92  316.7646
  93  234.3648
  94  266.8012
  95  147.9607
  96  304.0382
  97  604.9484
  98  314.5057
  99  294.77
 100  260.3858
 101  274.069
 102  -128.8133
 103  428.9222
 104  410.3441
 105  571.061
 106  549.7218
 107  396.6947
 108  260.7377
 109  153.2676
 110  344.353
 111  711.2809
 112  433.4471
 113  439.4665
 114  331.3827
 115  283.3666
 116  326.6799
 117  315.0109
 118  1025.892
 119  1163.104
 120  897.7409
 121  792.5929
 122  830.5941
 123  708.2178
 124  418.2243
 125  549.0941
 126  829.3133
 127  354.1542
 128  595.8569
 129  543.9526
 130  647.5423
 131  475.7821
 132  975.6058
 133  1174.65
 134  907.2726
 135  564.6795
 136  569.6389
 137  665.0516
 138  427.292
 139  356.5811
 140  633.7794
 141  480.0331
 142  992.6824
 143  715.8835
 144  251.1273
 145  272.4263
 146  593.6894
 147  751.5504
 148  792.5153
 149  793.9865
 150  622.3442
 151  315.4641
 152  438.2262
 153  420.2091
 154  464.9628
 155  867.0494
 156  739.1432
 157  662.1537
 158  312.074
 159  730.6605
 160  910.1894
 161  135.3096
 162  10.87953
 163  151.2023
 164  602.5114
 165  1203.242
 166  785.5981
 167  1119.974
 168  1184.147
 169  714.8641
 170  355.1788
 171  556.4304
 172  653.3912
 173  460.4647
 174  423.8439
 175  651.2137
 176  281.3821
 177  837.5409
 178  647.8459
 179  606.3205
 180  792.5405
 181  940.7111
 182  1001.755
 183  1333.406
 184  1079.723
 185  649.5503
 186  757.1047
 187  1024.929
 188  485.7321
 189  788.1529
 190  584.1151
 191  345.6877
 192  745.9251
 193  1132.66
 194  526.8272
 195  613.3796
 196  942.7111
 197  651.1295
 198  449.4027
 199  282.0105
 200  557.0667
 201  1095.771
 202  771.8696
 203  657.9059
 204  699.3615
 205  293.425
 206  400.1578
 207  520.9418
 208  820.2307
 209  651.4877
 210  936.3635
 211  631.9666
 212  512.4827
 213  663.7947
 214  878.5444
 215  622.6166
 216  555.8251
 217  455.3421
 218  167.6546
 219  259.2153
 220  361.3564
 221  983.676
 222  864.0629
 223  241.0182
 224  381.9093
 225  474.4593
 226  524.2245
 227  637.6597
 228  426.7718
 229  477.8229
 230  607.2797
 231  502.8365
 232  729.9902
 233  687.2098
 234  800.6606
 235  732.0966
 236  547.1754
 237  616.6175
 238  593.852
 239  588.8745
 240  105.9464
 241  162.6389
 242  1148.114
 243  1360.826
 244  688.4295
 245  510.1882
 246  593.5297
 247  379.3461
 248  532.5491
 249  719.6682
 250  942.498
 251  561.1849
 252  639.725
 253  667.1025
 254  610.1456
 255  974.5688
 256  485.6215
 257  440.5845
 258  333.4753
 259  671.803
 260  844.9804
 261  126.3277
 262  -108.3389
 263  529.4578
 264  752.9901
 265  465.0807
 266  932.9344
 267  1349.58
 268  951.7094
 269  477.4218
 270  668.8146
 271  670.9962
 272  821.7806
 273  915.2767
 274  849.4122
 275  1063.151
 276  742.9877
 277  479.8451
 278  571.3215
 279  559.1393
 280  732.3908
 281  867.5023
 282  1119.963
 283  836.7952
 284  831.8339
 285  1305.516
 286  732.4965
 287  66.97396
 288  102.1686
 289  524.1976
 290  587.397
 291  548.6906
 292  304.1539
 293  438.3725
 294  613.6573
 295  677.3261
 296  889.4511
 297  698.7466
 298  677.5116
 299  551.2726
 300  305.6353
 301  424.6142
 302  747.637
 303  1522.678
 304  1796.872
 305  1673.484
 306  1974.92
 307  1510.614
 308  993.0186
 309  611.7541
 310  190.8983
 311  69.52061
 312  564.3192
 313  435.3767
 314  754.3624
 315  777.2847
 316  707.7161
 317  629.4829
 318  821.8551
 319  721.2798
 320  558.8362
 321  921.4515
 322  459.716
 323  375.361
 324  822.7844
 325  808.2389
 326  621.8372
 327  411.8976
 328  371.7598
 329  231.35
 330  151.279
 331  687.6241
 332  394.217
 333  160.4228
 334  66.63367
 335  601.2426
 336  535.4614
 337  379.2775
 338  660.066
 339  547.5822
 340  888.334
 341  729.8611
 342  405.9142
 343  636.6649
 344  776.8854
 345  1005.754
 346  940.0083
 347  607.1203
 348  478.254
 349  648.6187
 350  767.1332
 351  454.1312
 352  525.7195
 353  327.1156
 354  334.1934
 355  801.9869
 356  1045.96
 357  780.0735
 358  232.0511
 359  365.7466
 360  404.4562
 361  32.9238
 362  312.1871
 363  171.1977
 364  420.7476
 365  15.11705
 366  -66.69855
 367  -16.22829
 368  127.537
 369  279.6447
 370  -68.66205
 371  -108.613
 372  239.4564
 373  112.1563
 374  -184.6245
 375  57.40522
 376  813.9634
 377  346.2309
 378  596.5739
 379  734.8298
 380  555.7642
 381  249.7865
 382  253.9814
 383  473.9612
 384  381.3453
 385  327.8048
 386  563.5305
 387  24.86292
 388  381.8462
 389  -93.91614
 390  19.6335
 391  114.1744
 392  308.174
 393  354.9392
 394  109.7626
 395  483.5532
 396  542.8351
 397  508.3127
 398  861.8324
 399  715.2119
 400  694.1176
 401  516.1761
 402  59.70014
 403  529.2783
 404  599.768
 405  516.0894
 406  424.9771
 407  53.83776
 408  21.99607
 409  495.8162
 410  564.9556
 411  783.6382
 412  533.0303
 413  288.4729
 414  753.0082
 415  342.7303
 416  144.6117
 417  727.7066
 418  763.394
 419  719.8569
 420  728.2379
 421  1096.966
 422  957.2544
 423  889.462
 424  319.1678
 425  183.752
 426  931.4548
 427  776.1903
 428  597.2416
 429  1073.053
 430  881.8785
 431  856.9377
 432  523.0671
 433  593.5656
 434  486.8882
 435  107.4623
 436  4.399918
 437  305.3798
 438  273.6959
 439  333.5719
 440  11.22206
 441  -64.55067
 442  461.331
 443  235.6273
 444  191.8256
 445  315.5858
 446  190.92
 447  58.38358
 448  147.1857
 449  231.4782
 450  418.6909
 451  818.252
 452  378.3057
 453  395.9843
 454  328.2507
 455  461.913
 456  452.9092
 457  132.6531
 458  395.8319
 459  719.3532
 460  502.8043
 461  398.9341
 462  393.7243
 463  32.04955
 464  9.907239
 465  183.3445
 466  274.6733
 467  224.7657
 468  113.0693
 469  -192.7648
 470  -18.2117
 471  196.3964
 472  539.2949
 473  544.8389
 474  311.1954
 475  457.6345
 476  133.5744
 477  87.6441
 478  390.382
 479  250.988
 480  411.4516
 481  645.5254
 482  457.3014
 483  243.5744
 484  1112.073
 485  963.1876
 486  739.7102
 487  225.8385
 488  473.4218
 489  -13.89516
 490  63.86256
 491  636.5221
 492  602.9053
 493  562.4665
 494  889.8422
 495  682.096
 496  371.2489
 497  407.1382
 498  622.1296
 499  731.8396
 500  194.978
 501  -164.974
 502  218.7799
 503  487.1944
 504  257.6212
 505  380.6318
 506  333.9074
 507  330.976
 508  335.7531
 509  23.36156
 510  547.177
 511  464.0663
