# Input file       =  1188507916.120346_cleaned.dat
# Candidate        =  PSR_0332+5434
# Telescope        =  AR
# Epoch_topo       =  57999.878878707706
# Epoch_bary       =  N/A
# T_sample         =  0.002
# Data Folded      =  7143424
# Data Avg         =  0.0240088451033072
# Data StdDev      =  1.00005690095658 
# Profile Bins     =  512
# Profile Avg      =  334.981619548735 
# Profile StdDev   =  118.125305542314 
# Reduced chi-sqr  =  1.490
# Prob(Noise)      <  3.84e-12   (~6.8 sigma)
# P_topo (ms)      =  714.463690960434  +/- 0.000202
# P'_topo (s/s)    =  -0                +/- 1.09e-10
# P''_topo (s/s^2) =  0                 +/- 4.96e-14
# P_bary (ms)      =  N/A
# P'_bary (s/s)    =  N/A
# P''_bary (s/s^2) =  N/A
# P_orb (s)        =  N/A
# asin(i)/c (s)    =  N/A
# eccentricity     =  N/A
# w (rad)          =  N/A
# T_peri           =  N/A
######################################################
   0  975.7042
   1  844.097
   2  664.5901
   3  568.7883
   4  488.5449
   5  443.5364
   6  290.485
   7  321.7681
   8  285.0911
   9  180.6456
  10  115.4654
  11  179.9512
  12  253.795
  13  349.4762
  14  331.9824
  15  323.8571
  16  272.2757
  17  266.492
  18  217.4551
  19  159.5124
  20  308.7165
  21  405.8212
  22  299.4321
  23  96.0149
  24  127.0813
  25  243.7136
  26  259.2756
  27  194.0627
  28  103.2625
  29  163.8417
  30  232.6717
  31  266.9091
  32  303.6533
  33  429.3688
  34  371.5398
  35  245.4788
  36  222.4574
  37  315.5898
  38  298.1493
  39  257.1976
  40  356.5768
  41  220.0312
  42  232.4645
  43  149.7343
  44  193.934
  45  241.1015
  46  222.5747
  47  365.0341
  48  238.1507
  49  189.8316
  50  306.2379
  51  433.3324
  52  410.8091
  53  285.4417
  54  271.4653
  55  431.9132
  56  539.2658
  57  396.1332
  58  471.2187
  59  509.0975
  60  432.1029
  61  369.9706
  62  437.0476
  63  261.6419
  64  169.7379
  65  367.6644
  66  375.7845
  67  257.2364
  68  271.3268
  69  307.0692
  70  448.7076
  71  442.4564
  72  351.1285
  73  368.3069
  74  311.6938
  75  311.5921
  76  337.685
  77  295.251
  78  416.9392
  79  360.4369
  80  264.7322
  81  261.6654
  82  385.6206
  83  250.0856
  84  358.7408
  85  163.6503
  86  302.476
  87  274.6753
  88  156.9108
  89  294.1162
  90  247.644
  91  387.4511
  92  407.1324
  93  351.5574
  94  312.605
  95  338.6325
  96  305.863
  97  273.2642
  98  318.3102
  99  263.04
 100  326.1041
 101  316.7259
 102  334.9783
 103  384.7144
 104  361.1895
 105  359.8968
 106  357.4097
 107  244.0937
 108  380.572
 109  416.2119
 110  516.2247
 111  340.1783
 112  250.6881
 113  264.0735
 114  307.8796
 115  285.8376
 116  424.0058
 117  283.9036
 118  296.9072
 119  296.2341
 120  534.1841
 121  420.0221
 122  390.0554
 123  275.9893
 124  382.1055
 125  296.4911
 126  326.6137
 127  311.0721
 128  151.6875
 129  135.4047
 130  267.7961
 131  385.9868
 132  372.327
 133  399.1803
 134  477.9572
 135  465.7579
 136  392.6512
 137  371.4481
 138  303.2018
 139  213.5792
 140  321.081
 141  489.9115
 142  458.6403
 143  448.8068
 144  497.6541
 145  496.4669
 146  368.5343
 147  244.2023
 148  269.963
 149  388.0051
 150  460.3694
 151  481.4016
 152  345.1146
 153  429.0113
 154  378.9634
 155  329.7881
 156  400.9341
 157  357.0724
 158  310.7754
 159  293.4217
 160  237.4195
 161  281.3835
 162  448.6618
 163  555.0457
 164  425.826
 165  530.943
 166  408.7006
 167  411.1069
 168  328.0748
 169  336.5723
 170  314.7322
 171  276.9943
 172  259.0192
 173  209.2702
 174  254.2953
 175  400.0003
 176  366.6812
 177  435.536
 178  407.1113
 179  490.4682
 180  641.2609
 181  284.2391
 182  252.4403
 183  519.7319
 184  572.7321
 185  314.4808
 186  300.6626
 187  447.105
 188  392.6803
 189  512.8774
 190  384.051
 191  292.1502
 192  279.6781
 193  362.7353
 194  419.9117
 195  374.941
 196  305.9819
 197  293.2916
 198  302.7023
 199  364.3142
 200  322.6034
 201  222.5959
 202  335.0826
 203  379.0237
 204  192.4548
 205  291.2091
 206  265.2159
 207  341.2367
 208  177.2732
 209  205.4207
 210  252.4997
 211  367.7038
 212  352.915
 213  367.5886
 214  453.7453
 215  381.3704
 216  346.7544
 217  294.651
 218  325.4688
 219  372.077
 220  338.1371
 221  384.7601
 222  228.3811
 223  301.8728
 224  312.3254
 225  268.4892
 226  254.5275
 227  293.0216
 228  240.6375
 229  303.1427
 230  393.7669
 231  368.4584
 232  338.5137
 233  245.948
 234  223.3117
 235  325.7173
 236  420.0918
 237  490.0865
 238  439.0027
 239  348.5439
 240  293.1962
 241  270.5749
 242  353.4161
 243  326.7607
 244  255.0846
 245  269.2396
 246  232.7511
 247  344.0586
 248  392.2941
 249  444.9211
 250  379.9993
 251  391.2464
 252  415.6483
 253  369.4619
 254  358.9358
 255  364.1872
 256  344.9461
 257  344.7899
 258  312.707
 259  263.9651
 260  272.2981
 261  302.4588
 262  405.5643
 263  346.1488
 264  316.6328
 265  264.4906
 266  349.8014
 267  417.8685
 268  386.56
 269  407.4664
 270  350.6275
 271  254.47
 272  264.2371
 273  337.8873
 274  405.9333
 275  348.5338
 276  289.6437
 277  287.7258
 278  370.8984
 279  376.0187
 280  385.553
 281  484.4915
 282  340.9211
 283  309.177
 284  177.6346
 285  227.5661
 286  297.8716
 287  294.8519
 288  431.1639
 289  301.6232
 290  295.8669
 291  357.4988
 292  244.3549
 293  223.059
 294  278.4503
 295  335.8099
 296  255.7099
 297  407.3527
 298  487.9573
 299  300.7282
 300  395.1071
 301  461.3735
 302  398.3218
 303  357.2417
 304  304.2143
 305  350.4782
 306  273.7939
 307  301.5249
 308  367.4471
 309  340.446
 310  312.733
 311  348.1262
 312  313.2762
 313  384.3892
 314  367.0023
 315  270.1448
 316  369.0327
 317  370.2054
 318  322.2869
 319  305.1871
 320  257.9385
 321  308.7757
 322  239.551
 323  331.4461
 324  266.0177
 325  275.3082
 326  245.4089
 327  269.8406
 328  248.6676
 329  222.4809
 330  362.9225
 331  413.1141
 332  404.3483
 333  347.5618
 334  385.8306
 335  419.5582
 336  398.6267
 337  246.68
 338  226.6217
 339  248.9315
 340  401.0643
 341  441.5292
 342  421.1658
 343  555.5564
 344  327.5684
 345  142.526
 346  217.8065
 347  332.1875
 348  414.3234
 349  439.5952
 350  471.5811
 351  385.9415
 352  282.4483
 353  350.3162
 354  278.5685
 355  175.9797
 356  246.0754
 357  222.1273
 358  292.4979
 359  363.7124
 360  386.8029
 361  277.7471
 362  306.0762
 363  335.1775
 364  252.1922
 365  220.1428
 366  144.0791
 367  245.5108
 368  265.5455
 369  287.2351
 370  241.2022
 371  348.7477
 372  392.7549
 373  281.4316
 374  372.6967
 375  341.6237
 376  256.0451
 377  289.9713
 378  321.9264
 379  373.2332
 380  272.7492
 381  288.5107
 382  341.9184
 383  314.3539
 384  249.3798
 385  118.3792
 386  260.8408
 387  354.1417
 388  184.7949
 389  236.8244
 390  326.0471
 391  289.4064
 392  345.4066
 393  338.8595
 394  210.0362
 395  286.0213
 396  297.0447
 397  236.1397
 398  214.6767
 399  396.3316
 400  312.9614
 401  259.8758
 402  256.1079
 403  282.5071
 404  304.3629
 405  234.6675
 406  304.679
 407  206.2755
 408  235.0527
 409  327.9291
 410  221.2274
 411  147.8196
 412  332.2169
 413  303.9973
 414  343.1365
 415  355.4782
 416  190.8807
 417  230.0245
 418  305.1026
 419  340.1036
 420  304.1897
 421  237.9696
 422  353.7443
 423  349.7332
 424  307.7061
 425  392.1459
 426  382.169
 427  217.5869
 428  222.6412
 429  206.5333
 430  330.3274
 431  302.0875
 432  378.6871
 433  406.0079
 434  254.7684
 435  386.903
 436  351.0699
 437  304.6968
 438  381.7489
 439  490.0529
 440  394.9865
 441  276.5475
 442  292.6143
 443  292.6348
 444  259.7325
 445  399.7902
 446  412.3727
 447  399.0568
 448  393.8234
 449  387.5099
 450  432.9586
 451  268.9554
 452  193.8787
 453  325.4641
 454  253.2353
 455  225.8156
 456  375.1795
 457  412.8596
 458  306.6324
 459  380.6846
 460  321.0198
 461  228.8683
 462  194.5746
 463  404.8398
 464  381.6365
 465  368.6544
 466  398.3487
 467  346.9124
 468  250.2814
 469  330.5789
 470  389.1176
 471  365.0149
 472  319.7453
 473  316.4319
 474  203.8298
 475  421.3127
 476  505.6874
 477  420.7382
 478  371.4336
 479  399.17
 480  239.0536
 481  170.6407
 482  197.6623
 483  382.4636
 484  370.8874
 485  221.4662
 486  300.7677
 487  349.89
 488  373.8352
 489  431.154
 490  404.1658
 491  274.7188
 492  226.1834
 493  364.3202
 494  282.3543
 495  347.0192
 496  454.0417
 497  393.6345
 498  485.9918
 499  573.3997
 500  258.5628
 501  266.7001
 502  412.8548
 503  435.9114
 504  530.7504
 505  647.1017
 506  490.0034
 507  415.8969
 508  539.515
 509  842.4003
 510  916.7145
 511  907.8498
