# Input file       =  1188077051.109435-PSRB0329-2ms-sampling-dd.dat
# Candidate        =  PSR_0332+5434
# Telescope        =  AR
# Epoch_topo       =  57994.892015155499
# Epoch_bary       =  N/A
# T_sample         =  0.002
# Data Folded      =  7208960
# Data Avg         =  1.1064827902205e-10
# Data StdDev      =  9.25537982066917 
# Profile Bins     =  512
# Profile Avg      =  0.0109099678285495
# Profile StdDev   =  1098.23574117668 
# Reduced chi-sqr  =  1.051
# Prob(Noise)      <  0.204   (~0.8 sigma)
# P_topo (ms)      =  714.463353818498  +/- 0.000239
# P'_topo (s/s)    =  -0                +/- 1.28e-10
# P''_topo (s/s^2) =  0                 +/- 5.78e-14
# P_bary (ms)      =  N/A
# P'_bary (s/s)    =  N/A
# P''_bary (s/s^2) =  N/A
# P_orb (s)        =  N/A
# asin(i)/c (s)    =  N/A
# eccentricity     =  N/A
# w (rad)          =  N/A
# T_peri           =  N/A
######################################################
   0  656.3469
   1  2125.945
   2  2145.438
   3  1451.117
   4  966.416
   5  371.311
   6  77.33755
   7  417.4254
   8  1292.283
   9  1634.848
  10  1235.925
  11  215.8199
  12  -678.8777
  13  -774.6149
  14  -348.1917
  15  54.24811
  16  51.2028
  17  82.26235
  18  171.1042
  19  168.0692
  20  -426.1873
  21  -200.8555
  22  -557.2139
  23  -455.6942
  24  -255.1588
  25  -313.1619
  26  -233.5256
  27  -567.0444
  28  -839.6564
  29  -750.5624
  30  -99.1349
  31  463.0051
  32  466.2338
  33  312.6685
  34  185.1232
  35  246.8056
  36  388.5862
  37  801.067
  38  253.9397
  39  328.7605
  40  57.54346
  41  99.15291
  42  -1.35983
  43  -109.9222
  44  -361.2242
  45  -1.616064
  46  -21.74632
  47  -500.1879
  48  -482.0881
  49  -631.017
  50  -195.9667
  51  -442.2615
  52  -265.0137
  53  108.4214
  54  -296.0771
  55  -385.741
  56  -438.1023
  57  -375.505
  58  -194.862
  59  -370.8001
  60  -399.874
  61  -251.9426
  62  -661.657
  63  -36.10815
  64  14.58187
  65  119.4025
  66  141.5834
  67  -3.25482
  68  145.0387
  69  -204.727
  70  -486.0617
  71  -161.5979
  72  -29.59741
  73  -55.7478
  74  292.4865
  75  196.6519
  76  72.75218
  77  201.1818
  78  323.1676
  79  45.77275
  80  1.045983
  81  -173.7112
  82  89.50539
  83  211.834
  84  -145.2162
  85  -349.593
  86  -153.844
  87  174.2387
  88  73.59397
  89  -186.5103
  90  -117.8485
  91  217.4203
  92  348.2222
  93  125.3051
  94  -232.9841
  95  -185.6603
  96  -309.7741
  97  -391.0696
  98  -262.6703
  99  -491.7318
 100  -649.3823
 101  -458.8918
 102  -939.204
 103  -802.2352
 104  -978.9636
 105  -977.5102
 106  -742.1912
 107  -669.9346
 108  -243.4395
 109  -283.0699
 110  -291.9104
 111  -312.5913
 112  -767.68
 113  -541.066
 114  -316.2005
 115  -212.4105
 116  -10.70861
 117  -5.721469
 118  -29.91376
 119  -66.28894
 120  -661.8197
 121  -564.6622
 122  -336.5298
 123  -92.04519
 124  113.7746
 125  126.3496
 126  43.41718
 127  -162.1069
 128  -283.1773
 129  -577.8038
 130  -221.3102
 131  -94.80691
 132  -9.281487
 133  102.8269
 134  132.7865
 135  20.69528
 136  -21.31503
 137  -40.64198
 138  -235.3028
 139  168.114
 140  284.6885
 141  603.393
 142  784.4177
 143  498.9179
 144  369.0827
 145  170.4943
 146  387.083
 147  120.7161
 148  228.1447
 149  -287.6666
 150  -76.90228
 151  -282.3144
 152  -514.6901
 153  -227.2379
 154  157.746
 155  172.8391
 156  155.6322
 157  -123.4715
 158  -247.9644
 159  -8.380074
 160  452.5589
 161  308.8369
 162  -154.68
 163  -187.536
 164  463.295
 165  -5.053497
 166  3.975857
 167  -9.250901
 168  150.5793
 169  -83.00446
 170  -115.125
 171  129.05
 172  -335.875
 173  -733.5401
 174  -835.7293
 175  -271.9579
 176  -211.9418
 177  -221.429
 178  -478.4916
 179  -440.7594
 180  -475.5487
 181  -401.5256
 182  -149.316
 183  -30.06485
 184  151.2153
 185  44.29695
 186  260.2712
 187  53.79606
 188  133.6275
 189  167.0556
 190  296.1494
 191  256.3054
 192  80.55851
 193  -287.1186
 194  -147.0012
 195  143.8178
 196  207.5381
 197  -1.147407
 198  190.7621
 199  164.5255
 200  203.1611
 201  351.0229
 202  178.3364
 203  -237.4427
 204  -365.303
 205  -421.22
 206  -9.775056
 207  15.23947
 208  333.6596
 209  116.7167
 210  52.84713
 211  -209.2818
 212  -583.0638
 213  -901.7256
 214  -591.47
 215  34.88737
 216  108.0355
 217  81.07775
 218  103.227
 219  109.217
 220  -644.3973
 221  -280.8015
 222  -418.9868
 223  -353.6267
 224  -51.79451
 225  -154.4021
 226  -296.7703
 227  -228.1919
 228  -360.5152
 229  -131.2359
 230  -182.8647
 231  -525.2476
 232  -726.1434
 233  -703.2772
 234  -704.0123
 235  -673.7704
 236  -1077.688
 237  -411.8627
 238  -346.4692
 239  -558.557
 240  -332.4601
 241  -433.6482
 242  -296.7213
 243  -71.42661
 244  -296.1703
 245  -586.858
 246  -772.4328
 247  -496.5483
 248  406.3711
 249  -158.5455
 250  8.85474
 251  106.228
 252  -184.0551
 253  -632.4711
 254  -652.5703
 255  -459.4648
 256  -547.8391
 257  -420.0846
 258  282.1503
 259  229.0567
 260  -130.1515
 261  -254.4365
 262  -166.6334
 263  -108.1886
 264  200.7343
 265  -70.65546
 266  109.7311
 267  -18.56803
 268  54.38909
 269  -411.5415
 270  -861.0577
 271  -993.1332
 272  -617.0759
 273  -33.76159
 274  -2.195831
 275  -112.9484
 276  -478.7654
 277  -462.5005
 278  -840.8938
 279  -936.706
 280  -329.9063
 281  -420.8757
 282  5.187771
 283  5.969744
 284  -89.73517
 285  -247.151
 286  -377.7807
 287  -898.3185
 288  -399.4506
 289  -634.6125
 290  -107.3061
 291  -76.98441
 292  -47.30701
 293  72.01119
 294  -447.8879
 295  -709.1368
 296  -1019.736
 297  -670.9482
 298  -342.6569
 299  12.44891
 300  118.2177
 301  326.8435
 302  111.4042
 303  -735.5569
 304  -1127.453
 305  -989.1525
 306  -905.6522
 307  -252.1141
 308  21.25118
 309  -36.63627
 310  -221.6589
 311  -574.3775
 312  -599.4368
 313  -617.422
 314  -443.0233
 315  -457.8797
 316  -638.6859
 317  -612.0517
 318  -169.9623
 319  -107.6384
 320  -472.6912
 321  -481.3228
 322  -539.0662
 323  -559.5157
 324  -528.7934
 325  -921.2133
 326  -545.0085
 327  -418.2349
 328  -1062.459
 329  -692.5042
 330  -322.1113
 331  -408.1607
 332  -306.8277
 333  -371.9223
 334  -595.1084
 335  -636.019
 336  -705.3223
 337  -707.5764
 338  -686.6776
 339  -862.0567
 340  -1075.673
 341  -1182.119
 342  -836.1122
 343  -635.2861
 344  -231.2884
 345  -554.5335
 346  -1028.529
 347  -430.2156
 348  -295.8887
 349  -171.7773
 350  -89.21653
 351  619.8902
 352  572.2672
 353  -65.40032
 354  -72.98985
 355  256.9995
 356  480.2267
 357  861.7771
 358  732.3743
 359  259.4149
 360  -344.9344
 361  -751.6548
 362  -806.2872
 363  -188.9186
 364  178.8214
 365  560.2404
 366  1016.761
 367  552.8397
 368  -115.6938
 369  -670.9722
 370  -754.0778
 371  -734.3766
 372  -180.5015
 373  -152.1671
 374  -43.66588
 375  -191.0229
 376  -599.8242
 377  -687.0104
 378  -784.8395
 379  -660.1417
 380  -501.1042
 381  -246.0138
 382  -366.7838
 383  -433.693
 384  -717.5267
 385  -1097.133
 386  -273.7708
 387  -237.1761
 388  160.6548
 389  56.08584
 390  -38.73171
 391  -52.41783
 392  -668.9375
 393  -517.6649
 394  -573.7396
 395  -174.4629
 396  -216.8927
 397  -69.74537
 398  -171.5486
 399  -384.0524
 400  -654.5173
 401  -534.1859
 402  -414.1262
 403  -1094.118
 404  -1039.134
 405  -586.4001
 406  -357.7538
 407  -649.0677
 408  -679.4234
 409  -466.0089
 410  -801.9119
 411  -795.4501
 412  -1030.548
 413  -893.8641
 414  -388.7568
 415  -534.2819
 416  -744.7761
 417  -833.4402
 418  -875.8322
 419  -699.4713
 420  -726.8834
 421  -848.7673
 422  -496.6715
 423  -572.2203
 424  -565.3742
 425  -688.3615
 426  -774.5568
 427  -715.0634
 428  -697.7394
 429  -683.4538
 430  -424.7018
 431  -265.5077
 432  356.2085
 433  954.8984
 434  1436.663
 435  1228.551
 436  876.5486
 437  568.4819
 438  834.5276
 439  1185.753
 440  1910.592
 441  1800.908
 442  1542.01
 443  1623.526
 444  2264.399
 445  1378.457
 446  1156.33
 447  2638.43
 448  3996.834
 449  5050.699
 450  5022.689
 451  3964.603
 452  2359.955
 453  234.8029
 454  2687.218
 455  3335.461
 456  3584.847
 457  2867.21
 458  2143.225
 459  1575.429
 460  496.1766
 461  363.7809
 462  522.1268
 463  964.4724
 464  1014.018
 465  905.0603
 466  397.5645
 467  39.92764
 468  167.9502
 469  518.243
 470  1728.449
 471  1939.829
 472  1823.241
 473  1781.839
 474  1313.984
 475  948.8065
 476  1459.528
 477  1853.571
 478  1436.986
 479  1307.18
 480  943.7971
 481  337.7596
 482  -442.4079
 483  -84.9584
 484  236.9149
 485  -247.9017
 486  -143.4847
 487  -185.7587
 488  -307.7932
 489  -726.7997
 490  -199.0898
 491  91.41422
 492  -449.6453
 493  -757.4117
 494  -627.4974
 495  -506.2148
 496  -671.9177
 497  528.4034
 498  1227.756
 499  1420.976
 500  1859.923
 501  1780.017
 502  1608.143
 503  1380.423
 504  1922.124
 505  2162.196
 506  2385.742
 507  1174.862
 508  696.028
 509  142.099
 510  -620.9868
 511  68.49945
