# Input file       =  1188350229.11174_cleaned.dat
# Candidate        =  PSR_0332+5434
# Telescope        =  AR
# Epoch_topo       =  57998.053797589586
# Epoch_bary       =  N/A
# T_sample         =  0.002
# Data Folded      =  7340032
# Data Avg         =  0.0168056032499797
# Data StdDev      =  2.36147421363632 
# Profile Bins     =  256
# Profile Avg      =  481.913259778752 
# Profile StdDev   =  399.863903793506 
# Reduced chi-sqr  =  1.471
# Prob(Noise)      <  1.41e-06   (~4.7 sigma)
# P_topo (ms)      =  714.463536065875  +/- 0.000175
# P'_topo (s/s)    =  -0                +/- 9.25e-11
# P''_topo (s/s^2) =  0                 +/- 4.08e-14
# P_bary (ms)      =  N/A
# P'_bary (s/s)    =  N/A
# P''_bary (s/s^2) =  N/A
# P_orb (s)        =  N/A
# asin(i)/c (s)    =  N/A
# eccentricity     =  N/A
# w (rad)          =  N/A
# T_peri           =  N/A
######################################################
   0  670.1205
   1  48.22025
   2  709.2198
   3  299.9424
   4  693.9398
   5  48.74556
   6  570.4961
   7  820.4993
   8  81.9312
   9  519.8443
  10  222.8648
  11  355.7407
  12  -44.73148
  13  604.4285
  14  179.4124
  15  248.8272
  16  585.1154
  17  542.6835
  18  363.1317
  19  471.5436
  20  420.2635
  21  -318.647
  22  -96.12426
  23  463.5602
  24  772.5176
  25  202.4309
  26  671.5211
  27  124.2297
  28  27.95683
  29  351.596
  30  486.3884
  31  336.0924
  32  629.8127
  33  127.8893
  34  198.0649
  35  -116.87
  36  -255.5805
  37  563.608
  38  106.937
  39  359.9866
  40  279.0064
  41  -560.6658
  42  -9.460802
  43  274.0133
  44  -167.3128
  45  329.4738
  46  265.8479
  47  173.8945
  48  623.2607
  49  1000.223
  50  811.2437
  51  -438.2
  52  132.8816
  53  540.1783
  54  435.9135
  55  353.6053
  56  631.4692
  57  496.9975
  58  320.9259
  59  -37.54103
  60  537.1532
  61  786.4711
  62  533.3772
  63  501.3263
  64  1228.181
  65  597.5406
  66  858.1577
  67  952.2636
  68  904.1671
  69  741.511
  70  452.8781
  71  64.9533
  72  516.6249
  73  460.095
  74  508.2852
  75  685.7563
  76  465.9619
  77  358.6288
  78  969.0398
  79  602.6525
  80  853.1722
  81  733.835
  82  190.4955
  83  925.8641
  84  1023.743
  85  803.2732
  86  843.4195
  87  379.6208
  88  664.5751
  89  719.5037
  90  276.8669
  91  391.2245
  92  793.6296
  93  622.2781
  94  720.843
  95  743.9653
  96  409.1422
  97  459.4522
  98  733.3652
  99  547.5615
 100  478.2969
 101  1048.719
 102  269.4897
 103  553.6896
 104  451.1971
 105  1013.28
 106  618.6115
 107  601.6379
 108  137.1884
 109  308.0991
 110  768.8088
 111  900.389
 112  306.5871
 113  668.0869
 114  440.1956
 115  -89.71831
 116  697.6578
 117  687.0327
 118  827.5485
 119  593.2241
 120  553.041
 121  955.7292
 122  912.21
 123  513.0848
 124  179.637
 125  468.0848
 126  434.7291
 127  210.7381
 128  318.752
 129  596.8279
 130  493.4537
 131  349.0375
 132  243.2619
 133  546.6243
 134  -220.1507
 135  -25.17908
 136  928.8982
 137  1163.642
 138  704.3697
 139  458.0297
 140  715.6486
 141  672.3509
 142  128.1134
 143  -412.5237
 144  146.62
 145  812.2716
 146  614.2958
 147  527.9495
 148  179.0333
 149  98.58452
 150  166.5799
 151  456.2473
 152  975.1644
 153  160.8518
 154  152.4851
 155  154.082
 156  691.8698
 157  594.0582
 158  423.2244
 159  674.675
 160  2560.4
 161  2962.937
 162  2513.123
 163  703.5255
 164  371.1855
 165  500.3882
 166  467.3454
 167  460.7424
 168  877.6639
 169  461.7126
 170  299.377
 171  -17.52968
 172  681.0399
 173  163.7063
 174  202.8294
 175  -328.9391
 176  1008.425
 177  203.8976
 178  -402.299
 179  306.0997
 180  422.572
 181  503.2304
 182  725.7834
 183  526.8539
 184  117.2709
 185  448.9657
 186  970.6979
 187  527.6981
 188  -82.64333
 189  519.0945
 190  -45.28101
 191  -155.2963
 192  510.7101
 193  223.6376
 194  815.637
 195  348.6641
 196  53.30848
 197  -361.6612
 198  576.1497
 199  434.8504
 200  449.8783
 201  647.2672
 202  615.8071
 203  -667.7952
 204  624.6552
 205  103.1261
 206  792.209
 207  334.3327
 208  -498.4681
 209  390.4468
 210  442.4502
 211  116.3123
 212  -293.5139
 213  197.6202
 214  581.383
 215  820.2735
 216  705.6878
 217  460.2554
 218  544.9238
 219  291.6092
 220  398.9881
 221  492.4048
 222  357.096
 223  616.9487
 224  460.2669
 225  356.8345
 226  947.1786
 227  1248.071
 228  1278.074
 229  570.5746
 230  597.2278
 231  935.5179
 232  233.0456
 233  764.2565
 234  1029.195
 235  1009.943
 236  873.9208
 237  488.0639
 238  118.4434
 239  349.9584
 240  991.3867
 241  1025.964
 242  72.74855
 243  1019.382
 244  839.1723
 245  408.6762
 246  859.0661
 247  541.0255
 248  685.2943
 249  754.8872
 250  815.8954
 251  488.6251
 252  204.9889
 253  314.2565
 254  60.08601
 255  367.3528
