# Input file       =  1188106604.102703_cleaned.dat
# Candidate        =  PSR_0332+5434
# Telescope        =  AR
# Epoch_topo       =  57995.234063688695
# Epoch_bary       =  N/A
# T_sample         =  0.002
# Data Folded      =  7340032
# Data Avg         =  0.00752520081001176
# Data StdDev      =  1.00003396741376 
# Profile Bins     =  512
# Profile Avg      =  107.931488851102 
# Profile StdDev   =  119.737103398353 
# Reduced chi-sqr  =  1.516
# Prob(Noise)      <  3.75e-13   (~7.2 sigma)
# P_topo (ms)      =  714.463711367389  +/- 7.43e-05
# P'_topo (s/s)    =  -0                +/- 3.92e-11
# P''_topo (s/s^2) =  0                 +/- 1.73e-14
# P_bary (ms)      =  N/A
# P'_bary (s/s)    =  N/A
# P''_bary (s/s^2) =  N/A
# P_orb (s)        =  N/A
# asin(i)/c (s)    =  N/A
# eccentricity     =  N/A
# w (rad)          =  N/A
# T_peri           =  N/A
######################################################
   0  617.057
   1  553.7883
   2  455.52
   3  328.9637
   4  240.801
   5  134.7989
   6  70.89828
   7  189.7895
   8  146.4702
   9  23.91513
  10  52.56236
  11  -88.96643
  12  -37.68996
  13  89.5982
  14  -116.7121
  15  -35.86761
  16  -55.30962
  17  -36.25634
  18  -43.86488
  19  -40.56062
  20  -51.81767
  21  -39.6253
  22  106.7746
  23  17.62104
  24  -89.0839
  25  -111.5845
  26  59.99413
  27  96.34355
  28  191.6455
  29  88.06922
  30  224.1815
  31  113.526
  32  138.9223
  33  124.6735
  34  104.5773
  35  -3.997039
  36  51.07113
  37  115.8645
  38  28.46038
  39  10.36528
  40  85.62029
  41  -15.80904
  42  54.13115
  43  110.4578
  44  300.2486
  45  208.9396
  46  145.9857
  47  67.2336
  48  80.68437
  49  106.5984
  50  123.7377
  51  128.2238
  52  116.2381
  53  128.4082
  54  170.6366
  55  304.2118
  56  249.3818
  57  70.6981
  58  205.9438
  59  271.4449
  60  263.9553
  61  351.0116
  62  178.3105
  63  110.1564
  64  124.9484
  65  89.81957
  66  148.3019
  67  140.8058
  68  94.62458
  69  152.0663
  70  156.3843
  71  299.2644
  72  196.8141
  73  229.3513
  74  140.2277
  75  119.2766
  76  64.6097
  77  63.80029
  78  100.3109
  79  102.2719
  80  55.67187
  81  143.8189
  82  49.91473
  83  28.08075
  84  64.6311
  85  160.31
  86  102.1199
  87  34.73198
  88  -39.2301
  89  100.8182
  90  76.23339
  91  46.46466
  92  -76.87444
  93  43.56922
  94  98.23211
  95  49.25922
  96  73.91393
  97  134.1586
  98  55.38617
  99  28.38673
 100  101.6481
 101  102.4309
 102  133.7757
 103  158.7681
 104  -37.5355
 105  17.95638
 106  40.51752
 107  39.48835
 108  -0.7541154
 109  77.88606
 110  176.3538
 111  170.2951
 112  100.6369
 113  159.8221
 114  234.0289
 115  114.9774
 116  227.0084
 117  198.4677
 118  173.7624
 119  96.88911
 120  129.4675
 121  108.7895
 122  295.4251
 123  50.55779
 124  114.4125
 125  56.8508
 126  31.23577
 127  119.8509
 128  96.69395
 129  102.0645
 130  -27.06967
 131  -34.00566
 132  109.002
 133  105.8386
 134  126.6301
 135  16.88298
 136  165.1592
 137  292.1712
 138  148.8531
 139  85.70779
 140  156.5559
 141  271.1007
 142  289.0937
 143  186.83
 144  -52.58247
 145  114.1031
 146  176.5488
 147  195.971
 148  217.7012
 149  154.5697
 150  202.9498
 151  212.2651
 152  181.7672
 153  24.32056
 154  24.65898
 155  133.5975
 156  150.7039
 157  49.24103
 158  68.60187
 159  -14.09507
 160  -53.13789
 161  147.4493
 162  167.761
 163  34.87556
 164  -22.46151
 165  68.41093
 166  167.6419
 167  206.9991
 168  73.12852
 169  97.37006
 170  71.88963
 171  -42.06116
 172  -69.84074
 173  6.068731
 174  -61.23728
 175  -38.84628
 176  -1.765052
 177  13.56743
 178  85.60745
 179  114.7685
 180  54.21402
 181  112.0773
 182  113.4927
 183  124.1926
 184  206.1023
 185  283.586
 186  212.4568
 187  -13.27671
 188  39.11074
 189  83.58392
 190  140.0325
 191  74.8885
 192  11.54466
 193  -69.81458
 194  96.83032
 195  206.0834
 196  206.0355
 197  27.22054
 198  52.4421
 199  181.4809
 200  193.1704
 201  118.0264
 202  120.5339
 203  177.3091
 204  298.1923
 205  285.2571
 206  285.6601
 207  43.49735
 208  236.8782
 209  322.8991
 210  212.6893
 211  168.6772
 212  263.2503
 213  247.142
 214  240.0116
 215  259.9204
 216  193.0583
 217  127.2387
 218  187.329
 219  311.3936
 220  175.3895
 221  17.29012
 222  248.8431
 223  272.6794
 224  237.3886
 225  132.1525
 226  131.1324
 227  32.96845
 228  104.7616
 229  44.24701
 230  -13.43821
 231  83.98576
 232  -24.81543
 233  106.0056
 234  49.35374
 235  75.80946
 236  95.06667
 237  22.99114
 238  -28.64652
 239  92.65118
 240  -50.81705
 241  15.43536
 242  184.6664
 243  102.1094
 244  13.88283
 245  43.63348
 246  175.0685
 247  200.1353
 248  55.32165
 249  99.18861
 250  39.36901
 251  21.28559
 252  -44.5925
 253  -85.24402
 254  -26.72929
 255  194.0641
 256  175.7539
 257  186.5369
 258  127.3053
 259  101.2066
 260  84.37312
 261  52.1411
 262  168.6348
 263  114.8865
 264  25.11622
 265  121.4308
 266  86.63143
 267  44.86309
 268  16.04243
 269  9.907787
 270  141.2252
 271  229.7567
 272  33.58973
 273  139.2446
 274  112.1487
 275  109.9926
 276  206.2966
 277  276.8271
 278  352.1394
 279  293.4756
 280  432.2036
 281  274.4908
 282  240.1802
 283  121.7401
 284  176.9644
 285  174.7478
 286  286.0037
 287  139.9267
 288  31.18687
 289  173.4786
 290  385.874
 291  297.9008
 292  -5.07838
 293  -48.09581
 294  194.1024
 295  333.8602
 296  183.6088
 297  -36.6619
 298  -21.30861
 299  73.4277
 300  88.02418
 301  122.231
 302  155.0967
 303  24.57412
 304  -48.49028
 305  122.8957
 306  143.3648
 307  68.20026
 308  144.2055
 309  106.1485
 310  95.47841
 311  60.02188
 312  88.06329
 313  85.8833
 314  121.4935
 315  48.30118
 316  -67.43358
 317  -116.6634
 318  -135.9252
 319  33.18901
 320  91.62496
 321  -51.72653
 322  -21.04915
 323  32.41695
 324  61.00958
 325  69.79811
 326  68.43032
 327  60.96855
 328  176.0658
 329  264.6369
 330  212.704
 331  73.98112
 332  -33.96132
 333  226.0251
 334  88.55051
 335  142.6939
 336  159.429
 337  176.0016
 338  175.9022
 339  116.8306
 340  112.3051
 341  98.2543
 342  92.79543
 343  107.8048
 344  51.26314
 345  177.2873
 346  44.35813
 347  87.16194
 348  57.02158
 349  25.45247
 350  149.3724
 351  203.4611
 352  89.96993
 353  50.85849
 354  106.1946
 355  81.79267
 356  34.07665
 357  51.2525
 358  161.2609
 359  6.129283
 360  41.48095
 361  103.5517
 362  170.3533
 363  225.3905
 364  119.0165
 365  -12.93658
 366  13.4566
 367  74.91738
 368  127.7905
 369  78.98057
 370  38.04118
 371  -1.2291
 372  15.73314
 373  -54.05084
 374  -82.64437
 375  -6.838736
 376  76.03411
 377  51.63725
 378  87.89201
 379  24.71637
 380  66.32979
 381  7.454044
 382  102.1084
 383  119.8565
 384  127.1866
 385  98.97733
 386  130.108
 387  111.6858
 388  -1.354303
 389  -76.52573
 390  133.2428
 391  180.3648
 392  64.69909
 393  -58.03416
 394  -2.372308
 395  24.44035
 396  -61.4582
 397  -35.88648
 398  74.96455
 399  21.00505
 400  106.5253
 401  36.64528
 402  57.40935
 403  101.1901
 404  3.058384
 405  101.682
 406  158.0179
 407  149.0373
 408  77.8784
 409  58.27985
 410  15.35096
 411  58.60098
 412  135.4929
 413  44.30605
 414  82.20411
 415  38.96059
 416  -30.02386
 417  113.0668
 418  259.0532
 419  302.4448
 420  164.1227
 421  183.2298
 422  209.8916
 423  174.4887
 424  120.2773
 425  173.0449
 426  94.48537
 427  200.4381
 428  169.7239
 429  313.3918
 430  289.4091
 431  36.73071
 432  185.5671
 433  302.2251
 434  162.6336
 435  136.9931
 436  66.96095
 437  147.0255
 438  117.6692
 439  89.75317
 440  79.87858
 441  12.98294
 442  93.67766
 443  56.93093
 444  109.833
 445  57.13295
 446  -76.91489
 447  -44.64618
 448  106.347
 449  10.84585
 450  -41.13844
 451  141.2805
 452  116.7209
 453  79.79356
 454  70.90145
 455  35.05595
 456  106.0414
 457  153.6712
 458  -83.52116
 459  -190.2512
 460  -72.96799
 461  35.98483
 462  124.5515
 463  146.3942
 464  209.0409
 465  -39.70444
 466  -72.06547
 467  -38.43682
 468  42.12295
 469  -104.3248
 470  64.97266
 471  16.28519
 472  9.06091
 473  72.99196
 474  -41.92691
 475  -41.10569
 476  5.302462
 477  38.76193
 478  22.32591
 479  -101.7778
 480  75.15864
 481  202.3306
 482  166.1583
 483  184.4933
 484  86.08739
 485  165.6516
 486  202.8491
 487  142.6033
 488  125.2555
 489  140.5033
 490  118.9274
 491  229.1416
 492  163.4601
 493  109.0599
 494  151.9972
 495  220.7551
 496  184.3963
 497  217.83
 498  223.2215
 499  357.0179
 500  263.7413
 501  214.5123
 502  153.8723
 503  262.3369
 504  296.637
 505  374.8387
 506  278.0217
 507  249.9067
 508  258.4515
 509  235.2377
 510  417.18
 511  546.8281
