# Input file       =  1188938671.110717-PSRB0329-2ms-sampling-dd.dat
# Candidate        =  PSR_0332+5434
# Telescope        =  AR
# Epoch_topo       =  58004.864468874039
# Epoch_bary       =  N/A
# T_sample         =  0.002
# Data Folded      =  7208960
# Data Avg         =  5.30941305057315e-10
# Data StdDev      =  4.67791326920578 
# Profile Bins     =  512
# Profile Avg      =  -0.0159290814797953
# Profile StdDev   =  555.077332957578 
# Reduced chi-sqr  =  0.763
# Prob(Noise)      <  1   (~0.0 sigma)
# P_topo (ms)      =  714.464424303285  +/- 7.49e-05
# P'_topo (s/s)    =  -0                +/- 4.02e-11
# P''_topo (s/s^2) =  0                 +/- 1.81e-14
# P_bary (ms)      =  N/A
# P'_bary (s/s)    =  N/A
# P''_bary (s/s^2) =  N/A
# P_orb (s)        =  N/A
# asin(i)/c (s)    =  N/A
# eccentricity     =  N/A
# w (rad)          =  N/A
# T_peri           =  N/A
######################################################
   0  104.7177
   1  -19.44514
   2  88.35543
   3  -329.2234
   4  -279.5043
   5  -519.991
   6  -198.3762
   7  -127.9582
   8  -112.9559
   9  61.31787
  10  101.6065
  11  121.403
  12  -299.9872
  13  -226.0397
  14  -53.96456
  15  -227.849
  16  -146.7538
  17  13.00563
  18  190.1119
  19  135.1215
  20  121.4811
  21  3.517481
  22  -290.0221
  23  -278.2213
  24  -475.2531
  25  -511.9259
  26  -547.2504
  27  -691.581
  28  -559.5286
  29  -309.0761
  30  -445.2716
  31  -391.1618
  32  -359.3587
  33  -440.9223
  34  -318.0356
  35  43.51615
  36  -218.4825
  37  -434.0241
  38  67.92357
  39  56.73248
  40  56.75229
  41  -205.8284
  42  -56.36546
  43  52.67836
  44  271.5717
  45  630.1409
  46  693.0358
  47  420.8604
  48  322.716
  49  660.2354
  50  587.7508
  51  1169.517
  52  932.8409
  53  968.2125
  54  952.4062
  55  642.149
  56  927.4004
  57  1122.583
  58  1448.771
  59  1094.298
  60  1056.192
  61  956.0471
  62  197.8838
  63  -54.39161
  64  -37.69984
  65  12.39622
  66  159.2659
  67  154.0839
  68  100.8701
  69  239.0842
  70  445.0422
  71  79.30188
  72  -489.4308
  73  -323.9854
  74  168.9186
  75  518.9944
  76  558.0368
  77  450.2439
  78  -63.93669
  79  -306.8767
  80  -120.474
  81  267.025
  82  667.7762
  83  1232.701
  84  1283.734
  85  1164.38
  86  380.8599
  87  172.9571
  88  589.4945
  89  690.5003
  90  856.9454
  91  865.803
  92  845.7944
  93  460.0786
  94  217.592
  95  -224.5425
  96  -540.4617
  97  -238.1427
  98  -40.42212
  99  -319.1935
 100  -235.5897
 101  167.1945
 102  338.5866
 103  -207.2362
 104  -545.2676
 105  -524.8668
 106  -574.4609
 107  -51.67826
 108  40.65184
 109  430.3706
 110  258.9193
 111  61.3145
 112  -94.93094
 113  101.8155
 114  286.2507
 115  176.277
 116  303.2433
 117  430.4648
 118  413.3379
 119  138.3206
 120  379.945
 121  95.78487
 122  -21.32545
 123  -3.307287
 124  98.94151
 125  312.447
 126  64.83987
 127  169.3285
 128  -264.3831
 129  54.75726
 130  108.2728
 131  167.1316
 132  22.1987
 133  353.6227
 134  249.5269
 135  480.9829
 136  492.6399
 137  -198.3439
 138  -184.3994
 139  185.0962
 140  342.1326
 141  351.067
 142  318.3811
 143  18.86316
 144  -68.58284
 145  52.24416
 146  20.48118
 147  174.1849
 148  273.3051
 149  577.9908
 150  261.6657
 151  325.8954
 152  56.80473
 153  -371.2571
 154  -268.0969
 155  -148.2018
 156  165.2677
 157  207.9202
 158  333.8165
 159  406.5222
 160  171.6081
 161  -10.11216
 162  -323.9324
 163  -561.6978
 164  -629.3112
 165  -417.7279
 166  129.8521
 167  213.0836
 168  -122.7301
 169  -357.8887
 170  -703.3918
 171  -670.1415
 172  -617.1204
 173  -401.7302
 174  -94.86005
 175  83.74229
 176  -100.6032
 177  -324.9884
 178  -92.52584
 179  23.13329
 180  -330.4821
 181  -53.42081
 182  0.7937629
 183  390.3968
 184  325.595
 185  211.284
 186  344.8794
 187  -348.3771
 188  -153.8769
 189  210.6101
 190  180.1025
 191  313.0977
 192  156.7778
 193  521.5718
 194  99.60123
 195  -220.8064
 196  -232.9989
 197  -18.14282
 198  -12.44159
 199  42.13555
 200  -330.5224
 201  -389.329
 202  -306.6286
 203  -577.1733
 204  -404.922
 205  252.4123
 206  380.0814
 207  95.60349
 208  16.68824
 209  -47.94986
 210  69.68822
 211  114.9425
 212  272.9337
 213  84.65085
 214  281.4176
 215  261.8675
 216  345.9957
 217  478.357
 218  276.6866
 219  -164.1358
 220  18.79198
 221  218.5224
 222  237.1794
 223  122.0885
 224  455.162
 225  337.0383
 226  114.969
 227  -6.356903
 228  -77.9991
 229  63.69725
 230  30.74113
 231  30.07054
 232  229.3042
 233  330.5466
 234  -213.2236
 235  -327.3617
 236  -537.3997
 237  -415.0717
 238  -740.8812
 239  -567.7715
 240  -14.74239
 241  202.3456
 242  -195.5226
 243  -149.5701
 244  -259.5623
 245  -419.1029
 246  -629.504
 247  -546.5881
 248  -231.7156
 249  222.4366
 250  71.86897
 251  -165.0291
 252  -294.9514
 253  -363.1029
 254  -532.1339
 255  -291.0753
 256  -70.69091
 257  266.865
 258  267.0129
 259  -149.1239
 260  -281.5454
 261  -436.5169
 262  -207.0724
 263  -183.4508
 264  -121.5933
 265  158.7885
 266  336.7931
 267  40.65036
 268  -538.8181
 269  -863.7607
 270  -563.0992
 271  -492.9983
 272  -430.9942
 273  -459.931
 274  -673.1699
 275  -545.2904
 276  -254.5804
 277  -221.7034
 278  -448.7397
 279  -470.4513
 280  -436.825
 281  -351.3635
 282  102.4855
 283  -117.638
 284  -350.3439
 285  -115.3301
 286  19.34532
 287  -135.3571
 288  -87.12058
 289  22.74541
 290  -71.64809
 291  200.7989
 292  301.6107
 293  156.0327
 294  -97.13036
 295  -172.0101
 296  -239.5624
 297  -363.478
 298  -484.0258
 299  268.3134
 300  22.93399
 301  -467.2122
 302  -187.3848
 303  -250.3165
 304  -361.4778
 305  -432.0092
 306  -143.2222
 307  91.017
 308  87.70161
 309  -38.83795
 310  -286.0621
 311  -620.0098
 312  -414.2629
 313  -461.2764
 314  110.1386
 315  318.6633
 316  -59.41117
 317  -211.6966
 318  -289.1072
 319  -384.3836
 320  -333.304
 321  -152.0299
 322  70.43228
 323  37.96594
 324  -140.3524
 325  126.8554
 326  78.84129
 327  -378.2281
 328  -626.4486
 329  -388.2333
 330  62.57185
 331  12.70743
 332  -35.72085
 333  -181.6686
 334  -595.472
 335  -595.1995
 336  -324.3341
 337  -587.6067
 338  53.38929
 339  216.4141
 340  63.91022
 341  -137.2729
 342  64.33011
 343  -268.1273
 344  -579.8419
 345  222.7167
 346  371.7428
 347  500.7227
 348  578.8563
 349  301.7121
 350  -289.0993
 351  -404.5645
 352  -171.8666
 353  -431.5427
 354  -543.0931
 355  -32.32698
 356  -11.53619
 357  -476.5815
 358  -486.7105
 359  -309.0254
 360  -185.0097
 361  -148.5057
 362  -5.6978
 363  -256.9865
 364  -562.6597
 365  -486.824
 366  -182.8426
 367  28.67373
 368  -204.7662
 369  -155.1387
 370  -339.0234
 371  -299.5963
 372  -374.6152
 373  27.44823
 374  -29.14869
 375  -293.5228
 376  -127.0057
 377  -268.2484
 378  -365.6787
 379  -392.0897
 380  -35.12703
 381  -57.49672
 382  160.3651
 383  15.35297
 384  -276.0226
 385  -1.533613
 386  325.791
 387  255.6874
 388  292.8142
 389  301.9166
 390  273.6595
 391  234.786
 392  -139.0509
 393  -75.81617
 394  136.585
 395  0.7818111
 396  -8.000501
 397  244.0764
 398  250.9209
 399  175.5643
 400  65.65078
 401  -47.09368
 402  -118.9189
 403  111.9183
 404  -111.2909
 405  84.56676
 406  349.82
 407  368.5898
 408  92.54617
 409  63.41986
 410  40.22555
 411  -34.99262
 412  146.4315
 413  238.2275
 414  350.8246
 415  198.6455
 416  72.94894
 417  284.9864
 418  195.4624
 419  207.8497
 420  225.8992
 421  328.2933
 422  418.3803
 423  161.583
 424  -12.24164
 425  64.71999
 426  102.415
 427  237.7198
 428  238.5693
 429  73.31532
 430  133.4897
 431  141.0772
 432  251.175
 433  -109.4172
 434  -181.5237
 435  27.92614
 436  -41.15456
 437  144.7664
 438  -34.50426
 439  174.7388
 440  -185.7172
 441  -329.4666
 442  -426.6674
 443  -127.4354
 444  -258.0589
 445  -535.407
 446  125.9263
 447  391.2913
 448  212.1017
 449  -127.3785
 450  -493.2964
 451  -373.213
 452  14.50526
 453  165.815
 454  506.2264
 455  328.9146
 456  347.0454
 457  183.4815
 458  186.4561
 459  300.7211
 460  -125.708
 461  173.19
 462  253.7389
 463  -112.9412
 464  -185.216
 465  -112.8061
 466  189.4054
 467  443.1527
 468  375.4315
 469  206.4572
 470  242.7341
 471  3.674155
 472  -71.87764
 473  113.4339
 474  57.12711
 475  -330.4357
 476  -280.0393
 477  -399.226
 478  -272.4711
 479  -121.7149
 480  -18.84042
 481  -74.741
 482  -56.54596
 483  -100.4539
 484  -479.9482
 485  -594.9875
 486  -366.5734
 487  -118.1108
 488  148.6151
 489  148.188
 490  70.19439
 491  27.29409
 492  -108.12
 493  -147.832
 494  35.4926
 495  -240.8292
 496  -195.1009
 497  360.9828
 498  196.441
 499  401.9594
 500  -291.7243
 501  -242.3961
 502  -492.6695
 503  -118.0152
 504  -151.9058
 505  239.4458
 506  553.4767
 507  54.20387
 508  -65.03516
 509  136.4965
 510  341.5684
 511  254.2459
