# Input file       =  1188623559.105416_cleaned.dat
# Candidate        =  PSR_0332+5434
# Telescope        =  AR
# Epoch_topo       =  58001.217339183058
# Epoch_bary       =  N/A
# T_sample         =  0.002
# Data Folded      =  7340032
# Data Avg         =  0.0540209662036172
# Data StdDev      =  3.59897453727628 
# Profile Bins     =  256
# Profile Avg      =  1548.86003751037 
# Profile StdDev   =  609.407462431155 
# Reduced chi-sqr  =  1.509
# Prob(Noise)      <  2.59e-07   (~5.0 sigma)
# P_topo (ms)      =  714.464198423936  +/- 0.000306
# P'_topo (s/s)    =  -0                +/- 1.61e-10
# P''_topo (s/s^2) =  0                 +/- 7.12e-14
# P_bary (ms)      =  N/A
# P'_bary (s/s)    =  N/A
# P''_bary (s/s^2) =  N/A
# P_orb (s)        =  N/A
# asin(i)/c (s)    =  N/A
# eccentricity     =  N/A
# w (rad)          =  N/A
# T_peri           =  N/A
######################################################
   0  1295.83
   1  678.097
   2  1777.05
   3  1878.593
   4  1929.532
   5  2437.624
   6  1877.047
   7  1250.808
   8  960.0632
   9  1971.948
  10  1378.892
  11  1905.978
  12  1774.936
  13  906.2987
  14  960.4091
  15  1177.343
  16  882.8596
  17  749.799
  18  1486.149
  19  1187.912
  20  950.9434
  21  499.3955
  22  1291.67
  23  1068.31
  24  1896.144
  25  834.4054
  26  960.296
  27  625.921
  28  804.8441
  29  1451.492
  30  388.9264
  31  692.7236
  32  766.3108
  33  750.3757
  34  1535.245
  35  412.9095
  36  323.5192
  37  558.6273
  38  1326.731
  39  1210.531
  40  324.7497
  41  350.7448
  42  1773.54
  43  1344.421
  44  1907.396
  45  1072.171
  46  1334.209
  47  1917.831
  48  1828.725
  49  2470.172
  50  1825.634
  51  1479.159
  52  1673.111
  53  706.9574
  54  1005.591
  55  1747.443
  56  881.1398
  57  1064.187
  58  806.1494
  59  956.2363
  60  1002.278
  61  847.3788
  62  992.3691
  63  928.2633
  64  783.7731
  65  1529.604
  66  1137.227
  67  1118.945
  68  1573.016
  69  2491.349
  70  1390.032
  71  1025.061
  72  1673.785
  73  1873.983
  74  1756.7
  75  857.6747
  76  1829.918
  77  2367.126
  78  2462.871
  79  2461.209
  80  1756.31
  81  753.6956
  82  1657.242
  83  1419.023
  84  1312.316
  85  833.442
  86  1465.624
  87  1180.698
  88  477.808
  89  1062.355
  90  1869.595
  91  2104.292
  92  1767.914
  93  1777.186
  94  964.5246
  95  1495.435
  96  648.9275
  97  804.5519
  98  1510.458
  99  555.7805
 100  1552.563
 101  1212.176
 102  1923.474
 103  1858.265
 104  1425.556
 105  2358.944
 106  1810.611
 107  2051.377
 108  1747.339
 109  1635.608
 110  1756.622
 111  2441.229
 112  1716.658
 113  2642.164
 114  2285.426
 115  1928.976
 116  1667.308
 117  2352.095
 118  2359.343
 119  1431.643
 120  2540.858
 121  2557.718
 122  1014.399
 123  1267.573
 124  1954.592
 125  1499.086
 126  1795.334
 127  1591.499
 128  1871.092
 129  1698.89
 130  1276.358
 131  1616.725
 132  1548.33
 133  1715.955
 134  1806.381
 135  1784.366
 136  1702.275
 137  2251.42
 138  2028.079
 139  800.4304
 140  1909.179
 141  1476.386
 142  1218.986
 143  1862.956
 144  1001.867
 145  1635.364
 146  1961.227
 147  1773.653
 148  3148.204
 149  1339.022
 150  1678.272
 151  2018.202
 152  906.3994
 153  1673
 154  1473.584
 155  1845.592
 156  1364.741
 157  1478.794
 158  1969.589
 159  3556.247
 160  4354.666
 161  5580.394
 162  4561.653
 163  1657.811
 164  1054.086
 165  1614.793
 166  1015.469
 167  1358.317
 168  1273.599
 169  1332.799
 170  1915.506
 171  1293.918
 172  1114.205
 173  1845.459
 174  1285.114
 175  1732.099
 176  1015.948
 177  2270.997
 178  1339.701
 179  2155.278
 180  1929.728
 181  1710.677
 182  1723.584
 183  2045.77
 184  815.6988
 185  1091.229
 186  1059.916
 187  1770.301
 188  1251.033
 189  1108.701
 190  2345.882
 191  2516.647
 192  1490.864
 193  1519.079
 194  1826.106
 195  1579.991
 196  2349.432
 197  1447.71
 198  1357.187
 199  770.8851
 200  1416.599
 201  987.1891
 202  1579.07
 203  1716.013
 204  1753.685
 205  1453.637
 206  350.8635
 207  743.6523
 208  1397.138
 209  1129.986
 210  1869.39
 211  1870.316
 212  1565.993
 213  2107.664
 214  1758.156
 215  768.6198
 216  1972.057
 217  2203.933
 218  1244.489
 219  1958.626
 220  1001.45
 221  1365.337
 222  1971.214
 223  2385.732
 224  2307.528
 225  1309.435
 226  1453.423
 227  1877.555
 228  1911.179
 229  2110.193
 230  1164.866
 231  586.4451
 232  1607.311
 233  2156.087
 234  1914.219
 235  1412.413
 236  1464.262
 237  1115.238
 238  1061.361
 239  1153.552
 240  1727.129
 241  1380.595
 242  1526.157
 243  892.2623
 244  1682.215
 245  1696.314
 246  1561.605
 247  1666.435
 248  2161.823
 249  1872.959
 250  1610.733
 251  2972.671
 252  2130.796
 253  1726.442
 254  1372.095
 255  1294.031
