# Input file       =  1188852543.12519_cleaned.dat
# Candidate        =  PSR_0332+5434
# Telescope        =  AR
# Epoch_topo       =  58003.867617189702
# Epoch_bary       =  N/A
# T_sample         =  0.002
# Data Folded      =  7143424
# Data Avg         =  0.176110825769458
# Data StdDev      =  3.92631679147495 
# Profile Bins     =  512
# Profile Avg      =  2456.97946961326 
# Profile StdDev   =  463.770981636408 
# Reduced chi-sqr  =  0.559
# Prob(Noise)      <  1   (~0.0 sigma)
# P_topo (ms)      =  714.464246598287  +/- 4.71e-05
# P'_topo (s/s)    =  -0                +/- 2.55e-11
# P''_topo (s/s^2) =  0                 +/- 1.16e-14
# P_bary (ms)      =  N/A
# P'_bary (s/s)    =  N/A
# P''_bary (s/s^2) =  N/A
# P_orb (s)        =  N/A
# asin(i)/c (s)    =  N/A
# eccentricity     =  N/A
# w (rad)          =  N/A
# T_peri           =  N/A
######################################################
   0  2047.873
   1  2331.402
   2  2680.325
   3  2728.04
   4  2760.069
   5  2421.046
   6  2195.87
   7  2235.844
   8  2356.829
   9  2565.411
  10  2343.061
  11  2428.123
  12  2335.728
  13  2410.137
  14  2368.392
  15  2314.25
  16  2530.482
  17  2285.751
  18  2458.402
  19  2227.081
  20  2225.558
  21  2419.847
  22  2160.334
  23  2549.612
  24  2551.479
  25  2798.48
  26  2480.241
  27  2296.731
  28  2876.255
  29  2091.525
  30  2395.473
  31  2654.206
  32  2862.401
  33  2379.026
  34  2687.545
  35  2709.426
  36  2536.441
  37  2303.194
  38  2446.328
  39  2248.531
  40  2426.543
  41  2365.616
  42  2382.178
  43  2387.567
  44  2155.814
  45  2546.068
  46  2671.667
  47  2290.18
  48  2364.171
  49  2355.492
  50  2603.945
  51  2662.621
  52  2866.695
  53  2546.419
  54  2080.072
  55  2417.467
  56  2190.253
  57  2433.025
  58  2313.747
  59  2549.56
  60  2447.252
  61  2446.014
  62  2487.47
  63  2147.812
  64  2549.234
  65  2373.794
  66  2514.885
  67  2110.48
  68  2283.55
  69  2593.059
  70  2568.159
  71  2227.958
  72  2023.496
  73  2194.573
  74  2567.326
  75  2713.312
  76  2936.046
  77  3086.697
  78  2651.212
  79  2638.933
  80  2437.491
  81  2500.37
  82  2086.692
  83  2336.776
  84  2339.938
  85  2178.043
  86  2600.026
  87  2530.292
  88  2405.907
  89  1983.096
  90  2374.32
  91  2275.37
  92  2083.834
  93  2314.757
  94  2342.443
  95  2409.406
  96  2279.888
  97  2443.337
  98  2387.887
  99  2379.728
 100  2391.104
 101  2101.631
 102  2154.12
 103  2365.839
 104  2546.502
 105  2500.802
 106  2430.838
 107  2456.592
 108  2362.753
 109  2346.633
 110  2663.827
 111  2548.591
 112  2550.923
 113  2090.856
 114  2131.78
 115  2601.622
 116  2319.477
 117  2313.868
 118  2164.872
 119  2557.997
 120  2638.864
 121  2282.651
 122  2640.572
 123  2593.659
 124  2414.367
 125  2211.216
 126  2383.877
 127  2661.184
 128  2709.434
 129  2840.551
 130  2710.694
 131  2678.222
 132  2699.339
 133  2683.647
 134  2721.58
 135  2345.63
 136  2342.973
 137  2183.595
 138  2293.099
 139  2920.396
 140  2705.812
 141  2367.089
 142  2113.377
 143  2156.655
 144  2306.439
 145  2434.645
 146  2696.163
 147  2453.421
 148  2004.426
 149  1702.38
 150  2018.452
 151  2181.883
 152  2434.575
 153  2607.545
 154  2616.788
 155  2505.948
 156  2324.245
 157  2341.884
 158  2529.813
 159  2539.806
 160  2561.888
 161  2497.737
 162  2342.845
 163  2689.803
 164  2560.292
 165  2610.996
 166  2432.074
 167  2602.229
 168  2704.494
 169  2501.231
 170  2691.969
 171  2440.138
 172  2547.954
 173  2522.381
 174  2293.811
 175  2550.927
 176  2249.658
 177  2084.097
 178  2051.847
 179  2366.473
 180  2649.728
 181  2601.491
 182  2648.151
 183  2241.567
 184  2412.578
 185  2562.464
 186  2268.013
 187  2562.864
 188  2236.512
 189  2210.822
 190  1960.075
 191  2010.605
 192  2180.992
 193  2481.179
 194  2672.418
 195  2501.982
 196  2542.33
 197  2228.59
 198  2409.349
 199  2750.005
 200  2502.076
 201  2557.93
 202  2927.59
 203  3014.854
 204  2456.603
 205  2521.785
 206  2365.823
 207  2348.657
 208  2463.617
 209  2131.601
 210  2289.864
 211  2349.66
 212  2459.41
 213  2375.071
 214  2296.629
 215  2508.925
 216  2858.121
 217  2280.549
 218  2485.604
 219  2795.238
 220  2482.089
 221  2491.284
 222  2540.067
 223  2625.063
 224  2744.915
 225  2338.203
 226  2686.996
 227  2637.935
 228  2531.542
 229  2255.867
 230  2515.156
 231  2546.913
 232  2806.236
 233  2722.905
 234  2212.753
 235  2424.169
 236  2429.942
 237  2797.906
 238  2745.065
 239  2850.139
 240  2759.622
 241  2402.705
 242  2695.059
 243  2190.181
 244  2246.321
 245  2347.838
 246  2534.671
 247  2577.36
 248  2246.603
 249  2580.203
 250  2382.992
 251  2590.796
 252  2769.812
 253  2458.149
 254  2507.131
 255  2546.37
 256  2795.293
 257  2759.19
 258  2247.691
 259  2415.651
 260  2397.442
 261  2116.046
 262  2364.74
 263  2368.299
 264  2388.044
 265  2150.708
 266  2359.108
 267  2296.933
 268  2507.951
 269  2582.4
 270  2341.985
 271  2127.885
 272  2206.603
 273  2455.701
 274  2554.73
 275  2395.353
 276  2791.87
 277  3043.747
 278  2553.102
 279  2565.995
 280  2679.457
 281  2477.902
 282  1982.353
 283  2257.418
 284  2364.248
 285  2146.385
 286  2471.787
 287  2643.41
 288  2506.174
 289  2398.009
 290  2188.47
 291  2176.371
 292  2210.792
 293  2342.918
 294  2172.165
 295  2581.329
 296  2475.445
 297  2223.712
 298  2318.951
 299  2639.375
 300  2461.047
 301  2332.244
 302  2698.753
 303  2404.969
 304  2423.089
 305  2289.279
 306  2235.814
 307  2210.756
 308  2188.946
 309  2482.193
 310  2653.385
 311  2532.831
 312  2582.769
 313  2524.719
 314  2775.436
 315  2617.816
 316  2377.411
 317  2567.56
 318  2136.948
 319  3000.62
 320  3306.019
 321  3679.496
 322  4112.831
 323  3815.923
 324  3765.997
 325  2630.988
 326  2680.498
 327  2203.488
 328  2685.522
 329  3128.698
 330  2546.198
 331  2489.599
 332  2646.925
 333  2918.035
 334  2450.316
 335  2606.001
 336  2379.985
 337  2129.837
 338  2258.219
 339  2542.136
 340  2420.468
 341  2193.594
 342  2030.115
 343  2215.962
 344  2264.466
 345  2343.81
 346  2555.427
 347  2302.528
 348  2573.314
 349  2291.33
 350  2592.124
 351  2080.045
 352  1889.232
 353  2288.057
 354  2454.722
 355  2433.496
 356  2494.475
 357  2550.492
 358  2549.833
 359  2496.091
 360  2233.314
 361  1981.119
 362  2583.3
 363  2385.981
 364  2342.296
 365  2422.742
 366  2253.341
 367  2286.501
 368  2191.534
 369  2152.196
 370  2370.719
 371  2609.207
 372  2457.566
 373  2124.145
 374  2068.537
 375  2109.466
 376  2352.924
 377  2356.993
 378  2244.774
 379  2315.755
 380  2212.316
 381  2234.514
 382  1999.235
 383  2256.845
 384  2615.493
 385  2395.224
 386  2655.013
 387  2393.824
 388  2227.875
 389  2322.163
 390  2430.439
 391  2842.93
 392  2141.798
 393  2361.108
 394  2495.25
 395  2981.773
 396  3148.562
 397  2612.905
 398  2459.932
 399  2596.033
 400  2339.104
 401  2502.965
 402  2497.906
 403  2632.538
 404  2505.737
 405  2308.853
 406  2917.198
 407  2705.45
 408  2710.006
 409  2618.425
 410  2472.23
 411  2572.427
 412  2654.211
 413  2934.954
 414  2467.046
 415  2299.072
 416  1871.892
 417  2374.863
 418  2729.472
 419  2385.523
 420  2615.589
 421  2367.208
 422  2139.47
 423  2139.07
 424  2587.161
 425  2564.292
 426  2444.321
 427  2406.679
 428  2444.188
 429  2609.702
 430  2496.048
 431  2688.952
 432  2804.972
 433  2653.249
 434  2397.059
 435  2279.176
 436  2438.985
 437  2716.062
 438  2379.01
 439  2503
 440  2486.949
 441  2257.816
 442  2519.23
 443  2335.957
 444  2582.596
 445  2536.776
 446  2526.502
 447  2417.432
 448  2449.622
 449  2385.619
 450  2392.523
 451  2626.539
 452  2336.125
 453  2215.404
 454  2461.041
 455  2419.694
 456  2445.545
 457  2275.484
 458  2371.535
 459  2409.946
 460  2389.457
 461  3018.302
 462  2693.392
 463  2615.667
 464  2408.194
 465  2548.201
 466  2516.477
 467  2366.322
 468  2544.025
 469  2367.863
 470  2766.383
 471  2883.564
 472  2517.526
 473  2736.977
 474  2478.705
 475  2559.751
 476  2422.655
 477  2525.929
 478  2824.472
 479  2598.154
 480  2733.382
 481  2492.176
 482  2403.276
 483  2379.16
 484  2461.744
 485  2445.841
 486  2111.872
 487  2189.843
 488  2131.536
 489  2237.222
 490  2493.513
 491  2431.949
 492  2376.52
 493  2316.315
 494  2530.453
 495  2496.987
 496  2025.628
 497  2460.329
 498  2472.328
 499  2623.317
 500  2671.856
 501  2306.374
 502  2165.207
 503  2366.969
 504  2772.585
 505  2332.244
 506  2551.808
 507  2589.922
 508  2307.648
 509  1980.473
 510  2059.259
 511  2086.318
