# Input file       =  1188163236.117847_cleaned.dat
# Candidate        =  PSR_0332+5434
# Telescope        =  AR
# Epoch_topo       =  57995.889526826933
# Epoch_bary       =  N/A
# T_sample         =  0.002
# Data Folded      =  7143424
# Data Avg         =  0.0455161002507313
# Data StdDev      =  3.29087760019144 
# Profile Bins     =  1024
# Profile Avg      =  317.516087120453 
# Profile StdDev   =  274.862166634453 
# Reduced chi-sqr  =  0.776
# Prob(Noise)      <  1   (~0.0 sigma)
# P_topo (ms)      =  714.463389002654  +/- 5.37e-05
# P'_topo (s/s)    =  -0                +/- 2.91e-11
# P''_topo (s/s^2) =  0                 +/- 1.32e-14
# P_bary (ms)      =  N/A
# P'_bary (s/s)    =  N/A
# P''_bary (s/s^2) =  N/A
# P_orb (s)        =  N/A
# asin(i)/c (s)    =  N/A
# eccentricity     =  N/A
# w (rad)          =  N/A
# T_peri           =  N/A
######################################################
   0  467.9575
   1  559.9842
   2  541.3539
   3  348.2469
   4  250.1592
   5  206.3275
   6  218.6913
   7  313.7187
   8  445.0581
   9  541.9571
  10  425.3047
  11  383.4033
  12  292.3629
  13  302.2023
  14  349.5547
  15  396.3068
  16  319.0167
  17  267.9247
  18  291.7489
  19  371.3548
  20  315.846
  21  302.8506
  22  401.5309
  23  333.4655
  24  284.1125
  25  263.6292
  26  371.8956
  27  310.1711
  28  292.418
  29  333.3332
  30  410.8299
  31  342.649
  32  360.3479
  33  262.3208
  34  271.1306
  35  244.0217
  36  302.9029
  37  264.6323
  38  292.9288
  39  351.8997
  40  427.1733
  41  457.4673
  42  418.8507
  43  278.6036
  44  215.8101
  45  199.3674
  46  343.5568
  47  360.0424
  48  427.2102
  49  439.8215
  50  523.411
  51  405.5701
  52  434.0896
  53  319.5215
  54  300.1344
  55  166.6307
  56  125.6242
  57  114.7237
  58  87.44364
  59  215.5784
  60  261.5486
  61  330.6619
  62  364.7931
  63  424.6615
  64  381.2566
  65  335.9085
  66  420.0158
  67  478.6199
  68  430.7863
  69  429.9918
  70  413.6385
  71  421.7489
  72  335.9922
  73  339.2579
  74  207.2255
  75  139.471
  76  165.1416
  77  245.9426
  78  231.0009
  79  239.1662
  80  334.6049
  81  317.994
  82  353.398
  83  299.3768
  84  373.6037
  85  300.0366
  86  347.7031
  87  290.2393
  88  141.0944
  89  51.83678
  90  64.07718
  91  91.56103
  92  56.27356
  93  202.4876
  94  264.7434
  95  297.4377
  96  246.733
  97  394.1113
  98  394.7193
  99  465.9211
 100  501.5793
 101  437.4492
 102  333.5394
 103  227.1801
 104  249.2653
 105  106.3005
 106  70.01449
 107  135.9338
 108  111.3099
 109  34.5985
 110  25.17771
 111  211.4225
 112  329.2851
 113  409.4509
 114  435.3444
 115  442.1313
 116  292.1548
 117  307.8465
 118  235.5769
 119  244.046
 120  232.6892
 121  179.6507
 122  175.9007
 123  55.13655
 124  83.87133
 125  147.3777
 126  225.3911
 127  458.176
 128  494.436
 129  463.4103
 130  315.8426
 131  277.7867
 132  381.3055
 133  286.6544
 134  263.1428
 135  279.537
 136  226.548
 137  134.615
 138  69.96297
 139  152.5171
 140  156.9141
 141  124.6173
 142  116.4023
 143  175.1995
 144  118.7706
 145  88.49747
 146  38.27573
 147  201.6609
 148  381.3242
 149  543.95
 150  497.6182
 151  483.7652
 152  376.3337
 153  222.5172
 154  237.792
 155  286.8093
 156  376.6711
 157  285.111
 158  309.3682
 159  274.8047
 160  259.9922
 161  258.4226
 162  391.5144
 163  398.4457
 164  405.7729
 165  519.6305
 166  656.5817
 167  559.8205
 168  433.5439
 169  337.2607
 170  282.2172
 171  327.4271
 172  323.5712
 173  316.6342
 174  212.6458
 175  315.8146
 176  439.0487
 177  506.7069
 178  458.7823
 179  461.0498
 180  421.7359
 181  403.003
 182  314.5741
 183  284.9467
 184  179.0773
 185  151.9346
 186  129.1542
 187  142.7034
 188  141.5728
 189  266.1733
 190  378.1599
 191  331.9235
 192  388.9992
 193  383.8679
 194  386.2153
 195  292.4434
 196  309.5929
 197  361.1024
 198  253.5736
 199  224.9803
 200  395.31
 201  409.431
 202  387.5779
 203  297.977
 204  329.4796
 205  378.5418
 206  301.7894
 207  134.3848
 208  96.18552
 209  175.1017
 210  304.7339
 211  234.0409
 212  177.1749
 213  193.7971
 214  196.6137
 215  234.8749
 216  328.7518
 217  295.6478
 218  298.4872
 219  206.3611
 220  257.5505
 221  160.026
 222  63.25565
 223  72.58706
 224  200.8518
 225  277.2656
 226  393.7272
 227  545.7043
 228  598.558
 229  490.5416
 230  491.7619
 231  399.7789
 232  326.3103
 233  298.1594
 234  386.4929
 235  225.012
 236  101.9364
 237  180.5694
 238  201.9702
 239  102.7622
 240  102.4226
 241  257.3739
 242  193.316
 243  149.4532
 244  225.4706
 245  348.1234
 246  268.3547
 247  209.735
 248  217.4513
 249  201.6242
 250  95.2179
 251  69.57311
 252  25.82893
 253  49.47467
 254  140.7226
 255  225.5108
 256  205.6571
 257  153.9796
 258  240.3474
 259  205.599
 260  199.8493
 261  278.2099
 262  341.6641
 263  405.8837
 264  450.5307
 265  552.144
 266  417.7616
 267  358.6394
 268  280.8792
 269  285.7759
 270  242.573
 271  197.5775
 272  188.0426
 273  32.68093
 274  53.82736
 275  139.0879
 276  311.4865
 277  356.185
 278  349.7303
 279  328.6044
 280  318.5491
 281  373.8581
 282  296.131
 283  189.9536
 284  154.2637
 285  244.3331
 286  157.9997
 287  -7.636905
 288  126.1295
 289  361.1362
 290  384.3167
 291  277.3403
 292  151.263
 293  169.7971
 294  140.0305
 295  249.5848
 296  348.8406
 297  329.6716
 298  431.938
 299  534.3666
 300  483.9171
 301  326.946
 302  285.7523
 303  244.1442
 304  195.5229
 305  126.8084
 306  191.4831
 307  96.3935
 308  149.8547
 309  208.8011
 310  303.1833
 311  220.4559
 312  279.0505
 313  261.2589
 314  191.5121
 315  128.7869
 316  237.5702
 317  282.2634
 318  292.6885
 319  315.4872
 320  327.9113
 321  219.938
 322  248.6212
 323  272.9927
 324  283.0368
 325  152.5037
 326  228.7925
 327  260.9005
 328  302.2877
 329  326.5378
 330  394.7211
 331  429.4688
 332  398.0213
 333  460.4604
 334  370.1906
 335  373.8222
 336  298.36
 337  362.8496
 338  218.7058
 339  170.3853
 340  81.66261
 341  108.7099
 342  117.4632
 343  121.7604
 344  110.0759
 345  128.1528
 346  301.0241
 347  440.7789
 348  467.8704
 349  412.0082
 350  455.2513
 351  348.6599
 352  190.0639
 353  112.6904
 354  254.2931
 355  330.2821
 356  345.3911
 357  410.5801
 358  492.949
 359  529.7499
 360  463.9601
 361  504.3088
 362  495.0808
 363  489.8586
 364  432.5135
 365  364.9211
 366  288.3062
 367  397.5992
 368  395.547
 369  377.0122
 370  260.445
 371  369.6984
 372  357.7661
 373  267.5414
 374  211.6217
 375  293.0131
 376  459.5467
 377  541.3907
 378  348.9554
 379  143.3804
 380  95.8977
 381  151.2484
 382  244.9964
 383  188.0007
 384  294.057
 385  260.5664
 386  227.7558
 387  201.1199
 388  189.4859
 389  106.0545
 390  57.19015
 391  198.7318
 392  341.7293
 393  428.4029
 394  570.3157
 395  703.2537
 396  684.3043
 397  541.5842
 398  516.5405
 399  452.1281
 400  323.2769
 401  263.1012
 402  327.5465
 403  218.5368
 404  200.1423
 405  167.7421
 406  258.4898
 407  276.4234
 408  412.5219
 409  492.2663
 410  455.9743
 411  332.0405
 412  411.3405
 413  429.8046
 414  458.5361
 415  446.3191
 416  318.3898
 417  162.0438
 418  127.5734
 419  222.3795
 420  203.9115
 421  152.1695
 422  212.4698
 423  141.852
 424  40.75844
 425  83.4435
 426  281.7467
 427  358.2404
 428  364.2416
 429  453.3432
 430  399.2167
 431  347.8956
 432  349.8381
 433  476.4153
 434  409.649
 435  231.6595
 436  94.78959
 437  88.66687
 438  45.46363
 439  191.3862
 440  253.4055
 441  253.3307
 442  262.961
 443  315.4377
 444  346.9209
 445  288.2093
 446  257.0403
 447  218.3207
 448  190.2191
 449  286.3834
 450  386.8153
 451  316.9088
 452  287.2025
 453  260.9347
 454  266.3595
 455  219.5424
 456  254.653
 457  305.1778
 458  315.5575
 459  346.3764
 460  387.5285
 461  359.7026
 462  401.284
 463  462.2844
 464  510.2492
 465  305.6379
 466  190.6853
 467  162.1858
 468  129.5829
 469  174.0411
 470  254.9438
 471  284.394
 472  305.9017
 473  325.3255
 474  449.5509
 475  473.021
 476  464.0869
 477  426.8831
 478  381.2568
 479  299.0777
 480  356.1991
 481  215.9829
 482  246.8677
 483  189.4196
 484  206.2744
 485  95.71741
 486  125.6111
 487  273.036
 488  291.7667
 489  286.9242
 490  289.2156
 491  380.4663
 492  372.4864
 493  331.3781
 494  359.3132
 495  344.6244
 496  340.9239
 497  387.1909
 498  402.0536
 499  414.648
 500  402.2166
 501  373.5895
 502  258.8878
 503  299.1938
 504  449.274
 505  429.9588
 506  341.3909
 507  266.773
 508  274.7962
 509  247.4521
 510  266.1824
 511  352.0925
 512  412.731
 513  391.1765
 514  505.4554
 515  511.1095
 516  433.0255
 517  260.6283
 518  277.8906
 519  251.471
 520  279.753
 521  357.6419
 522  540.624
 523  501.7196
 524  491.9838
 525  380.9125
 526  276.7392
 527  212.2936
 528  413.1177
 529  494.0106
 530  380.3274
 531  243.5075
 532  213.2937
 533  248.8898
 534  249.9594
 535  321.0663
 536  324.8798
 537  291.2139
 538  375.7111
 539  554.9504
 540  586.7451
 541  524.955
 542  432.9727
 543  447.7457
 544  385.5625
 545  471.9313
 546  457.0734
 547  352.6829
 548  320.1838
 549  412.9929
 550  384.4601
 551  222.4693
 552  143.5059
 553  225.4168
 554  229.2545
 555  283.5473
 556  252.3515
 557  285.7262
 558  190.5745
 559  251.011
 560  332.901
 561  331.5768
 562  362.1401
 563  321.0757
 564  306.7557
 565  333.1347
 566  358.1375
 567  402.9164
 568  344.6652
 569  255.2803
 570  280.583
 571  302.8142
 572  356.1372
 573  282.2148
 574  140.0538
 575  132.9045
 576  186.7967
 577  233.8524
 578  314.8247
 579  230.4641
 580  273.9919
 581  251.318
 582  347.608
 583  415.4475
 584  283.7073
 585  273.7916
 586  243.2688
 587  319.3151
 588  257.2933
 589  202.3773
 590  299.1511
 591  313.8361
 592  394.426
 593  427.6336
 594  397.1124
 595  286.5889
 596  193.8337
 597  286.7605
 598  334.5158
 599  286.737
 600  381.8958
 601  411.1321
 602  454.9677
 603  306.2516
 604  235.3607
 605  281.375
 606  380.4833
 607  429.5416
 608  374.6974
 609  417.5242
 610  494.1762
 611  619.8346
 612  645.0126
 613  584.0881
 614  418.8464
 615  276.9085
 616  121.7693
 617  141.9215
 618  222.0623
 619  341.166
 620  399.3477
 621  366.0936
 622  384.9319
 623  369.9794
 624  385.3549
 625  292.3084
 626  291.6919
 627  446.998
 628  567.0452
 629  394.8241
 630  291.6729
 631  237.4042
 632  348.0468
 633  486.3179
 634  593.7436
 635  606.2033
 636  490.3982
 637  527.6143
 638  596.3768
 639  533.7217
 640  620.032
 641  788.173
 642  924.1225
 643  887.5161
 644  970.5413
 645  1024.207
 646  944.4263
 647  808.2375
 648  867.7067
 649  748.2119
 650  563.0787
 651  358.5341
 652  234.3328
 653  186.213
 654  182.9982
 655  347.1092
 656  409.8638
 657  290.6003
 658  370.3374
 659  461.8095
 660  518.2291
 661  499.7953
 662  476.11
 663  447.2667
 664  232.8453
 665  223.6033
 666  292.5249
 667  350.9069
 668  414.9641
 669  538.679
 670  585.3062
 671  510.2642
 672  472.1769
 673  339.4132
 674  311.6338
 675  287.8704
 676  399.9234
 677  289.1111
 678  268.8125
 679  266.6294
 680  354.6862
 681  317.3213
 682  267.4914
 683  230.0151
 684  247.0302
 685  393.8085
 686  503.2592
 687  455.0568
 688  402.8462
 689  449.2292
 690  435.1175
 691  374.6034
 692  346.5845
 693  468.7324
 694  419.2421
 695  409.2248
 696  442.9605
 697  441.6727
 698  419.6328
 699  438.4654
 700  431.8858
 701  275.3971
 702  159.183
 703  167.954
 704  266.2857
 705  289.0028
 706  393.7092
 707  401.571
 708  426.9783
 709  444.9528
 710  444.39
 711  359.8632
 712  273.1931
 713  307.0747
 714  257.0503
 715  237.7243
 716  237.6448
 717  217.8215
 718  168.0637
 719  146.7616
 720  354.6824
 721  465.8403
 722  408.9531
 723  291.7055
 724  302.0978
 725  282.4493
 726  360.4976
 727  448.8351
 728  402.5569
 729  267.1613
 730  243.6174
 731  329.7071
 732  281.6864
 733  236.2565
 734  285.0376
 735  324.5151
 736  347.2803
 737  395.171
 738  443.5053
 739  322.7474
 740  181.4162
 741  171.4707
 742  195.5993
 743  230.1044
 744  235.2177
 745  274.0145
 746  376.1845
 747  276.5427
 748  192.511
 749  107.0172
 750  147.4785
 751  293.4201
 752  271.332
 753  292.5214
 754  173.5591
 755  217.6583
 756  252.6679
 757  422.0958
 758  532.1749
 759  437.9398
 760  390.9291
 761  400.5381
 762  545.177
 763  395.0796
 764  331.139
 765  279.4249
 766  151.2182
 767  125.8147
 768  119.2858
 769  238.907
 770  370.2634
 771  437.4128
 772  532.3271
 773  425.9237
 774  407.5738
 775  349.6474
 776  380.4083
 777  344.0147
 778  381.312
 779  302.9157
 780  278.2656
 781  296.8449
 782  335.9211
 783  215.1548
 784  129.7843
 785  119.8054
 786  272.0103
 787  299.5908
 788  460.0461
 789  375.2205
 790  280.3067
 791  267.0293
 792  446.1114
 793  474.3684
 794  437.6485
 795  477.0728
 796  531.874
 797  397.0312
 798  281.3925
 799  275.6604
 800  260.1204
 801  254.3022
 802  347.1765
 803  386.2878
 804  387.6528
 805  440.1874
 806  486.5113
 807  535.8779
 808  445.6136
 809  464.462
 810  431.672
 811  385.8958
 812  456.6003
 813  381.8698
 814  189.4307
 815  27.50067
 816  123.8302
 817  251.8709
 818  258.8852
 819  363.3465
 820  397.2542
 821  335.7972
 822  355.744
 823  507.9499
 824  483.7288
 825  469.7683
 826  500.7815
 827  586.8132
 828  353.1225
 829  243.9703
 830  176.063
 831  215.0782
 832  279.5488
 833  434.8907
 834  494.9816
 835  497.9707
 836  461.5594
 837  559.3798
 838  562.6728
 839  447.6819
 840  437.2102
 841  373.0981
 842  435.8769
 843  369.4164
 844  367.4964
 845  294.6316
 846  308.1833
 847  335.1377
 848  237.333
 849  142.1544
 850  156.4868
 851  244.1812
 852  291.3083
 853  278.3625
 854  266.4926
 855  235.06
 856  298.8312
 857  436.9441
 858  563.2225
 859  618.1947
 860  658.3788
 861  622.5968
 862  470.4632
 863  251.1888
 864  188.6666
 865  238.5511
 866  281.0748
 867  278.4431
 868  193.8624
 869  192.5499
 870  264.1905
 871  329.9537
 872  278.6071
 873  221.2953
 874  377.7268
 875  476.9366
 876  468.0294
 877  498.6859
 878  439.8778
 879  369.5019
 880  170.3841
 881  145.8578
 882  214.2493
 883  322.8301
 884  421.9252
 885  498.1142
 886  434.198
 887  418.1275
 888  424.7789
 889  450.0402
 890  416.8773
 891  441.12
 892  432.4137
 893  373.0269
 894  324.2491
 895  520.9327
 896  532.9147
 897  439.8397
 898  382.8147
 899  333.6021
 900  357.2205
 901  468.8476
 902  428.1202
 903  289.2939
 904  121.2794
 905  228.4594
 906  267.493
 907  281.9401
 908  286.4579
 909  265.2965
 910  109.1326
 911  74.05761
 912  237.316
 913  239.5907
 914  191.8921
 915  83.181
 916  259.6805
 917  283.1329
 918  345.4117
 919  431.561
 920  455.4933
 921  350.7762
 922  288.2213
 923  239.5224
 924  210.4911
 925  290.6811
 926  490.6856
 927  553.171
 928  364.3463
 929  246.9469
 930  148.0524
 931  200.3872
 932  216.9169
 933  232.1385
 934  230.6424
 935  275.3872
 936  321.7151
 937  340.1198
 938  374.6497
 939  353.0683
 940  265.3023
 941  228.4039
 942  267.2281
 943  322.5531
 944  269.9558
 945  252.8173
 946  299.2437
 947  257.287
 948  250.636
 949  210.6753
 950  330.5861
 951  343.4083
 952  428.0613
 953  447.6804
 954  388.0254
 955  348.9269
 956  390.6425
 957  458.8361
 958  356.8784
 959  292.3284
 960  278.8146
 961  294.7479
 962  178.009
 963  177.767
 964  74.62444
 965  95.36044
 966  60.71016
 967  253.3866
 968  251.9548
 969  227.3691
 970  246.3746
 971  331.9178
 972  352.0719
 973  417.4605
 974  393.6285
 975  365.6543
 976  269.0441
 977  321.5754
 978  455.5973
 979  426.1485
 980  466.9861
 981  294.8285
 982  134.039
 983  6.105557
 984  59.90678
 985  182.5058
 986  153.4648
 987  243.706
 988  317.7312
 989  444.1253
 990  507.7996
 991  495.7964
 992  354.8246
 993  277.6725
 994  227.9892
 995  277.5427
 996  184.0514
 997  106.8312
 998  113.0121
 999  67.34366
1000  113.275
1001  22.40742
1002  50.20968
1003  76.05895
1004  224.916
1005  277.7813
1006  141.3433
1007  190.3907
1008  222.5407
1009  318.2173
1010  301.9154
1011  414.6707
1012  287.0673
1013  136.7452
1014  158.944
1015  416.9465
1016  452.6777
1017  313.6829
1018  227.7036
1019  159.3913
1020  121.711
1021  141.3395
1022  312.7476
1023  391.7585
