# Input file       =  1188852543.12519_cleaned.dat
# Candidate        =  PSR_0332+5434
# Telescope        =  AR
# Epoch_topo       =  58003.867617189702
# Epoch_bary       =  N/A
# T_sample         =  0.002
# Data Folded      =  7143424
# Data Avg         =  0.176110825769458
# Data StdDev      =  3.92631679147495 
# Profile Bins     =  512
# Profile Avg      =  2456.97946952661 
# Profile StdDev   =  463.770981636408 
# Reduced chi-sqr  =  0.560
# Prob(Noise)      <  1   (~0.0 sigma)
# P_topo (ms)      =  714.464246567699  +/- 4.75e-05
# P'_topo (s/s)    =  -0                +/- 2.58e-11
# P''_topo (s/s^2) =  0                 +/- 1.17e-14
# P_bary (ms)      =  N/A
# P'_bary (s/s)    =  N/A
# P''_bary (s/s^2) =  N/A
# P_orb (s)        =  N/A
# asin(i)/c (s)    =  N/A
# eccentricity     =  N/A
# w (rad)          =  N/A
# T_peri           =  N/A
######################################################
   0  2556.323
   1  2393.399
   2  2798.434
   3  3041.474
   4  2544.774
   5  2575.379
   6  2674.953
   7  2473.628
   8  1979.892
   9  2261.855
  10  2365.579
  11  2142.166
  12  2479.049
  13  2640.802
  14  2506.37
  15  2396.673
  16  2184.306
  17  2181.427
  18  2204.509
  19  2348.921
  20  2172.62
  21  2580.871
  22  2477.098
  23  2214.979
  24  2329.809
  25  2635.203
  26  2462.235
  27  2330.995
  28  2699.105
  29  2405.104
  30  2423.241
  31  2288.315
  32  2233.732
  33  2210.991
  34  2189.58
  35  2485.722
  36  2652.754
  37  2531.226
  38  2583.05
  39  2528.995
  40  2773.325
  41  2618.62
  42  2375.13
  43  2566.126
  44  2141.01
  45  3005.412
  46  3312.803
  47  3677.176
  48  4121.505
  49  3810.492
  50  3763.125
  51  2619.762
  52  2677.08
  53  2206.12
  54  2690.491
  55  3130.278
  56  2538.943
  57  2489.427
  58  2653.49
  59  2912.537
  60  2450.116
  61  2605.163
  62  2378.964
  63  2128.818
  64  2260.154
  65  2545.649
  66  2417.336
  67  2189.305
  68  2032.87
  69  2214.615
  70  2269.78
  71  2338.821
  72  2559.966
  73  2299.84
  74  2575.829
  75  2292.061
  76  2586.768
  77  2078.11
  78  1887.516
  79  2296.479
  80  2453.658
  81  2432.501
  82  2496.349
  83  2548.832
  84  2552.116
  85  2491.824
  86  2229.817
  87  1984.61
  88  2584.182
  89  2387.787
  90  2339.825
  91  2422.708
  92  2253.083
  93  2286.423
  94  2191.785
  95  2151.078
  96  2376.333
  97  2607.626
  98  2455.979
  99  2123.343
 100  2065.414
 101  2113.594
 102  2352.832
 103  2357.091
 104  2244.582
 105  2312.852
 106  2215.195
 107  2231.585
 108  1999.804
 109  2261.541
 110  2614.664
 111  2396.508
 112  2651.614
 113  2395.408
 114  2225.209
 115  2322.073
 116  2437.159
 117  2837.837
 118  2138.573
 119  2364.045
 120  2497.407
 121  2986.707
 122  3147.81
 123  2608.111
 124  2460.192
 125  2596.203
 126  2337.979
 127  2505.383
 128  2498.973
 129  2631.023
 130  2504.745
 131  2310.807
 132  2920.669
 133  2702.655
 134  2707.53
 135  2620.328
 136  2467.036
 137  2577.752
 138  2655.182
 139  2935.554
 140  2462.195
 141  2292.631
 142  1874.797
 143  2378.092
 144  2733.162
 145  2380.261
 146  2621.412
 147  2360.447
 148  2138.058
 149  2144.483
 150  2588.194
 151  2563.733
 152  2445.617
 153  2402.576
 154  2447.578
 155  2608.259
 156  2497.364
 157  2691.388
 158  2804.049
 159  2652.288
 160  2391.089
 161  2282.435
 162  2443.157
 163  2711.689
 164  2381.037
 165  2499.936
 166  2488.344
 167  2254.549
 168  2522.104
 169  2333.713
 170  2583.726
 171  2541.595
 172  2519.833
 173  2423.265
 174  2443.606
 175  2388.009
 176  2396.548
 177  2623.698
 178  2335.506
 179  2213.29
 180  2466.694
 181  2412.731
 182  2448.48
 183  2275.431
 184  2371.189
 185  2411.114
 186  2393.663
 187  3019.954
 188  2689.736
 189  2612.183
 190  2410.224
 191  2549.31
 192  2514.121
 193  2366.921
 194  2543.457
 195  2371.43
 196  2768.1
 197  2881.118
 198  2517.501
 199  2735.426
 200  2481.424
 201  2553
 202  2428.032
 203  2525.123
 204  2828.851
 205  2592.332
 206  2734.532
 207  2493.388
 208  2398.024
 209  2386.321
 210  2458.697
 211  2443.326
 212  2111.319
 213  2189.205
 214  2132.695
 215  2237.929
 216  2495.525
 217  2430.068
 218  2374.787
 219  2319.729
 220  2529.39
 221  2493.909
 222  2027.676
 223  2460.288
 224  2478.587
 225  2619.16
 226  2674.648
 227  2296.947
 228  2169.28
 229  2371.073
 230  2771.367
 231  2334.157
 232  2547.556
 233  2594.65
 234  2300.344
 235  1980.093
 236  2062.287
 237  2081.991
 238  2051.801
 239  2333.468
 240  2684.045
 241  2726.399
 242  2760.334
 243  2417.656
 244  2194.741
 245  2234.743
 246  2359.821
 247  2561.457
 248  2349.496
 249  2424.585
 250  2337.774
 251  2406.951
 252  2369.071
 253  2316.538
 254  2527.718
 255  2289.1
 256  2453.232
 257  2227.73
 258  2228.772
 259  2417.903
 260  2163.972
 261  2546.869
 262  2556.198
 263  2796.763
 264  2475.121
 265  2302.154
 266  2872.517
 267  2090.44
 268  2397.632
 269  2660.696
 270  2859.726
 271  2373.383
 272  2694.179
 273  2705.255
 274  2535.099
 275  2304.006
 276  2445.806
 277  2245.853
 278  2429.371
 279  2365.977
 280  2381.409
 281  2385.953
 282  2156.625
 283  2549.851
 284  2672.418
 285  2284.39
 286  2367.568
 287  2356.023
 288  2604.338
 289  2665.979
 290  2863.102
 291  2545.484
 292  2074.755
 293  2424.133
 294  2188.148
 295  2433.451
 296  2315.19
 297  2548.388
 298  2448.337
 299  2443.961
 300  2489.586
 301  2142.068
 302  2555.07
 303  2372.241
 304  2513.722
 305  2106.877
 306  2288.914
 307  2593.259
 308  2568.448
 309  2221.913
 310  2024.948
 311  2198.504
 312  2569.476
 313  2715.093
 314  2937.946
 315  3087.917
 316  2645.948
 317  2638.033
 318  2440.539
 319  2491.104
 320  2091.972
 321  2334.412
 322  2342.377
 323  2175.997
 324  2606.004
 325  2529.235
 326  2396.648
 327  1988.624
 328  2373.98
 329  2275.059
 330  2080.436
 331  2318.468
 332  2343.239
 333  2406.975
 334  2283.18
 335  2440.424
 336  2390.299
 337  2379.58
 338  2389.073
 339  2102.317
 340  2152.03
 341  2371.302
 342  2548.33
 343  2495.811
 344  2434.449
 345  2453.303
 346  2362.161
 347  2347.835
 348  2666.125
 349  2548.299
 350  2546.483
 351  2089.638
 352  2135.383
 353  2601.323
 354  2317.369
 355  2311.633
 356  2168.765
 357  2558.366
 358  2639.221
 359  2278.907
 360  2647.741
 361  2589.724
 362  2411.252
 363  2213.723
 364  2384.616
 365  2665.677
 366  2711.75
 367  2836.951
 368  2712.202
 369  2674.462
 370  2703.906
 371  2682.054
 372  2719.368
 373  2344.022
 374  2340.118
 375  2185.754
 376  2297.382
 377  2921.989
 378  2706.831
 379  2354.541
 380  2120.728
 381  2149.065
 382  2315.657
 383  2431.315
 384  2698.494
 385  2451.13
 386  1993.602
 387  1711.675
 388  2015.002
 389  2187.607
 390  2437.29
 391  2606.052
 392  2618.283
 393  2501.64
 394  2326.827
 395  2340.61
 396  2530.71
 397  2541.475
 398  2559.508
 399  2499.657
 400  2341.471
 401  2691.743
 402  2559.917
 403  2607.839
 404  2435.807
 405  2600.285
 406  2706.819
 407  2499.581
 408  2692.518
 409  2440.641
 410  2545.273
 411  2525.012
 412  2289.262
 413  2554.39
 414  2245.499
 415  2084.218
 416  2052.649
 417  2368.72
 418  2652.808
 419  2599.271
 420  2648.934
 421  2239.961
 422  2413.33
 423  2560.23
 424  2268.98
 425  2566.242
 426  2235.15
 427  2202.633
 428  1963.109
 429  2009.111
 430  2187.474
 431  2482.242
 432  2670.537
 433  2505.011
 434  2537.981
 435  2227.95
 436  2412.596
 437  2749.368
 438  2503.247
 439  2557.392
 440  2933.961
 441  3008.516
 442  2456.031
 443  2520.915
 444  2364.556
 445  2352.287
 446  2456.97
 447  2133.546
 448  2290.611
 449  2351.266
 450  2463.066
 451  2369.1
 452  2298.784
 453  2512.077
 454  2858.741
 455  2273.729
 456  2492.133
 457  2795.619
 458  2475.615
 459  2496.422
 460  2537.525
 461  2625.406
 462  2747.005
 463  2335.574
 464  2692.343
 465  2632.43
 466  2530.197
 467  2255.138
 468  2516.656
 469  2552.78
 470  2803.427
 471  2721.187
 472  2208.745
 473  2428.623
 474  2433.067
 475  2796.64
 476  2746.99
 477  2849.446
 478  2758.389
 479  2399.302
 480  2695.234
 481  2185.744
 482  2248.644
 483  2351.238
 484  2537.055
 485  2573.303
 486  2247.01
 487  2581.311
 488  2380.194
 489  2595.763
 490  2767.904
 491  2457.017
 492  2505.205
 493  2553.769
 494  2792.495
 495  2756.993
 496  2244.067
 497  2419.862
 498  2397.364
 499  2110.607
 500  2370.564
 501  2364.109
 502  2390.684
 503  2149.11
 504  2358.378
 505  2302.294
 506  2504.387
 507  2587.033
 508  2334.754
 509  2128.517
 510  2208.92
 511  2456.813
