# Input file       =  1188350229.11174_cleaned.dat
# Candidate        =  PSR_0332+5434
# Telescope        =  AR
# Epoch_topo       =  57998.053797589586
# Epoch_bary       =  N/A
# T_sample         =  0.002
# Data Folded      =  7340032
# Data Avg         =  0.00739831742203156
# Data StdDev      =  1.00001305292361 
# Profile Bins     =  512
# Profile Avg      =  106.07459608244  
# Profile StdDev   =  119.734599242944 
# Reduced chi-sqr  =  1.370
# Prob(Noise)      <  4.96e-08   (~5.3 sigma)
# P_topo (ms)      =  714.463534959738  +/- 0.000173
# P'_topo (s/s)    =  -0                +/- 9.15e-11
# P''_topo (s/s^2) =  0                 +/- 4.04e-14
# P_bary (ms)      =  N/A
# P'_bary (s/s)    =  N/A
# P''_bary (s/s^2) =  N/A
# P_orb (s)        =  N/A
# asin(i)/c (s)    =  N/A
# eccentricity     =  N/A
# w (rad)          =  N/A
# T_peri           =  N/A
######################################################
   0  676.2631
   1  747.4523
   2  482.3095
   3  177.7083
   4  150.0976
   5  95.68661
   6  66.97948
   7  114.8451
   8  113.0463
   9  84.36484
  10  125.8322
  11  113.5205
  12  106.8095
  13  148.5404
  14  200.8922
  15  163.7846
  16  72.27471
  17  24.59241
  18  47.60213
  19  65.33106
  20  -57.48808
  21  102.6926
  22  136.7039
  23  120.5053
  24  -40.17618
  25  109.007
  26  -32.58845
  27  -68.9541
  28  -91.9637
  29  167.5157
  30  231.1014
  31  63.86688
  32  58.70356
  33  -85.8315
  34  -57.57146
  35  19.86951
  36  101.6149
  37  99.17383
  38  115.9619
  39  63.16487
  40  132.2876
  41  146.0859
  42  160.8382
  43  174.045
  44  75.42965
  45  -27.04023
  46  35.29617
  47  114.6979
  48  59.12418
  49  177.5576
  50  227.3233
  51  149.13
  52  126.6621
  53  32.44755
  54  -41.74603
  55  -11.80416
  56  167.3758
  57  29.09892
  58  -23.40027
  59  -123.9911
  60  27.24209
  61  124.9885
  62  107.0945
  63  108.4946
  64  2.46878
  65  108.127
  66  220.7493
  67  132.8687
  68  51.3531
  69  -40.47459
  70  61.05393
  71  -31.83107
  72  -117.6762
  73  -54.19305
  74  217.3606
  75  141.0651
  76  59.91736
  77  49.80074
  78  102.7036
  79  133.468
  80  148.1748
  81  226.8716
  82  71.57577
  83  -115.158
  84  -150.2242
  85  -40.12002
  86  225.1331
  87  42.45351
  88  9.094245
  89  187.2239
  90  157.6535
  91  122.6455
  92  32.65316
  93  -97.57133
  94  -99.51661
  95  -77.75085
  96  181.7493
  97  141.3008
  98  93.45827
  99  63.58339
 100  44.83221
 101  45.76494
 102  -93.74705
 103  -28.08519
 104  97.64124
 105  173.5178
 106  86.95321
 107  61.42806
 108  242.084
 109  228.7675
 110  159.6297
 111  96.9714
 112  106.4699
 113  134.8362
 114  74.19968
 115  -6.259751
 116  97.60997
 117  129.5373
 118  45.44895
 119  71.93748
 120  122.0193
 121  146.8698
 122  21.36531
 123  71.23891
 124  170.8048
 125  211.4694
 126  34.04681
 127  32.7747
 128  92.70931
 129  152.2188
 130  210.5592
 131  293.1482
 132  268.0801
 133  327.7229
 134  270.7314
 135  187.6909
 136  90.10749
 137  114.0228
 138  128.4636
 139  137.2165
 140  236.0199
 141  204.7711
 142  -31.39584
 143  76.14754
 144  219.2115
 145  150.8008
 146  284.2486
 147  255.0191
 148  212.1632
 149  130.4426
 150  223.4285
 151  147.85
 152  117.6669
 153  41.4188
 154  49.05462
 155  34.35252
 156  67.83117
 157  221.2175
 158  211.1797
 159  249.8929
 160  233.6651
 161  -65.68567
 162  78.06171
 163  162.4885
 164  253.151
 165  234.8817
 166  163.9048
 167  19.81683
 168  175.6726
 169  141.4204
 170  231.5802
 171  129.7249
 172  113.0135
 173  155.4552
 174  137.1566
 175  147.1663
 176  206.5016
 177  285.8046
 178  94.58311
 179  126.9955
 180  107.8217
 181  11.13945
 182  88.92033
 183  69.15002
 184  65.395
 185  82.60222
 186  -5.707871
 187  -35.61913
 188  162.9595
 189  213.1959
 190  119.016
 191  17.52059
 192  10.78922
 193  140.8181
 194  172.9752
 195  102.2929
 196  22.14794
 197  102.1662
 198  116.0463
 199  194.5912
 200  -67.38646
 201  20.01078
 202  196.9213
 203  146.2271
 204  223.1012
 205  43.00663
 206  38.39221
 207  101.4794
 208  92.61456
 209  59.68735
 210  59.75135
 211  45.5678
 212  124.4037
 213  -89.88605
 214  57.96551
 215  78.61674
 216  159.0065
 217  122.0798
 218  3.042359
 219  102.3933
 220  21.45867
 221  90.67958
 222  188.6369
 223  146.7318
 224  105.2983
 225  114.5011
 226  65.74033
 227  66.09075
 228  111.4958
 229  82.68112
 230  101.8351
 231  -36.95741
 232  -84.62992
 233  35.92104
 234  -30.87435
 235  23.59633
 236  166.3298
 237  233.3853
 238  157.6337
 239  -41.20819
 240  119.0608
 241  135.4049
 242  150.9716
 243  55.30791
 244  15.12507
 245  54.04803
 246  -26.76817
 247  87.28713
 248  73.15024
 249  91.49743
 250  122.4609
 251  142.7437
 252  43.97462
 253  98.34711
 254  139.1127
 255  92.24807
 256  -1.771538
 257  58.48161
 258  20.94193
 259  -17.52906
 260  3.410902
 261  -74.60983
 262  -72.19507
 263  161.1647
 264  73.83524
 265  20.02718
 266  7.654209
 267  147.3388
 268  53.7999
 269  115.6216
 270  51.35245
 271  -125.7623
 272  -116.631
 273  26.46634
 274  13.10438
 275  23.30108
 276  97.2308
 277  -5.863802
 278  -47.61469
 279  115.1344
 280  77.58363
 281  87.97982
 282  49.64705
 283  19.76093
 284  60.61057
 285  141.7914
 286  121.9862
 287  223.2953
 288  181.2013
 289  215.6614
 290  146.6057
 291  -15.69929
 292  -127.9263
 293  -122.5965
 294  129.5285
 295  95.74317
 296  132.9565
 297  163.3724
 298  43.15499
 299  63.55259
 300  56.88419
 301  173.2183
 302  85.45698
 303  110.3674
 304  110.5275
 305  115.5072
 306  53.44866
 307  11.20806
 308  -37.60451
 309  76.60957
 310  137.4969
 311  141.7854
 312  205.8296
 313  232.2105
 314  65.52972
 315  -0.3460637
 316  174.5807
 317  301.6673
 318  259.6784
 319  111.1439
 320  116.8471
 321  189.8916
 322  177.0506
 323  167.1981
 324  212.7627
 325  198.5139
 326  198.3283
 327  111.7358
 328  214.0928
 329  103.3503
 330  113.8214
 331  11.72058
 332  -21.47414
 333  106.9263
 334  124.021
 335  153.0394
 336  40.1812
 337  134.7501
 338  52.22338
 339  86.69942
 340  143.5428
 341  85.68012
 342  99.78577
 343  99.33178
 344  61.72734
 345  139.074
 346  258.3263
 347  117.0944
 348  157.7863
 349  200.3669
 350  190.7041
 351  252.0819
 352  112.3909
 353  100.8252
 354  -8.727848
 355  72.28423
 356  254.8135
 357  211.2597
 358  217.6893
 359  144.1155
 360  221.6929
 361  270.1819
 362  168.7575
 363  19.68058
 364  175.8254
 365  99.60925
 366  156.5866
 367  214.7412
 368  147.5324
 369  158.7201
 370  32.18332
 371  4.924647
 372  110.7335
 373  152.6434
 374  163.9076
 375  150.4812
 376  90.60484
 377  128.5597
 378  156.7997
 379  230.594
 380  106.2377
 381  137.1764
 382  85.68772
 383  78.43795
 384  109.6106
 385  176.5307
 386  150.8939
 387  82.64024
 388  149.0766
 389  149.3439
 390  61.19371
 391  229.5218
 392  212.9192
 393  81.93407
 394  51.47712
 395  102.8986
 396  129.8076
 397  100.9624
 398  99.44492
 399  209.6615
 400  219.9641
 401  175.068
 402  127.0444
 403  73.79322
 404  204.9539
 405  58.33022
 406  10.47791
 407  2.909126
 408  55.83492
 409  202.5118
 410  162.4167
 411  205.3519
 412  220.7224
 413  94.79745
 414  70.20729
 415  85.72071
 416  190.8241
 417  69.53909
 418  96.72826
 419  9.192978
 420  -73.3477
 421  88.99475
 422  164.4534
 423  155.9657
 424  150.6971
 425  165.1674
 426  174.2111
 427  162.6452
 428  125.9073
 429  63.32877
 430  173.8119
 431  224.0809
 432  167.0431
 433  220.0398
 434  200.1755
 435  105.4138
 436  111.5424
 437  47.01796
 438  43.58544
 439  61.61366
 440  98.4687
 441  117.0696
 442  92.30891
 443  18.08804
 444  34.77332
 445  119.4778
 446  48.2365
 447  83.00425
 448  153.4811
 449  143.3322
 450  78.60331
 451  30.76194
 452  101.64
 453  4.050159
 454  63.36462
 455  129.5609
 456  95.8391
 457  43.94711
 458  -66.76292
 459  -65.52592
 460  49.21406
 461  143.1912
 462  231.4358
 463  299.5125
 464  219.2505
 465  140.3775
 466  142.1441
 467  136.8991
 468  46.77665
 469  71.3425
 470  196.0422
 471  213.2139
 472  134.2456
 473  49.44022
 474  44.54428
 475  -91.57978
 476  -114.0414
 477  -2.783532
 478  47.56847
 479  123.1679
 480  207.0698
 481  191.0658
 482  108.8453
 483  31.5703
 484  173.9894
 485  26.65625
 486  73.40931
 487  26.29626
 488  18.15429
 489  28.81898
 490  74.36427
 491  85.78055
 492  106.6034
 493  190.3106
 494  201.92
 495  122.1358
 496  -23.26137
 497  65.521
 498  35.08516
 499  65.35883
 500  4.084589
 501  92.13823
 502  193.3511
 503  207.2959
 504  123.4184
 505  26.10844
 506  162.276
 507  164.8289
 508  163.2038
 509  438.5229
 510  622.7582
 511  660.2696
