# Input file       =  1188192762.121225_cleaned.dat
# Candidate        =  PSR_0332+5434
# Telescope        =  AR
# Epoch_topo       =  57996.231262977140
# Epoch_bary       =  N/A
# T_sample         =  0.002
# Data Folded      =  7340032
# Data Avg         =  0.00873852364418682
# Data StdDev      =  1.00003130278015 
# Profile Bins     =  512
# Profile Avg      =  125.264896968868 
# Profile StdDev   =  119.73678435368  
# Reduced chi-sqr  =  1.308
# Prob(Noise)      <  3.11e-06   (~4.5 sigma)
# P_topo (ms)      =  714.463753095235  +/- 0.000206
# P'_topo (s/s)    =  -0                +/- 1.09e-10
# P''_topo (s/s^2) =  0                 +/- 4.8e-14
# P_bary (ms)      =  N/A
# P'_bary (s/s)    =  N/A
# P''_bary (s/s^2) =  N/A
# P_orb (s)        =  N/A
# asin(i)/c (s)    =  N/A
# eccentricity     =  N/A
# w (rad)          =  N/A
# T_peri           =  N/A
######################################################
   0  185.2649
   1  101.9788
   2  161.1996
   3  143.8674
   4  85.76816
   5  112.4389
   6  152.2017
   7  254.683
   8  158.5957
   9  80.49292
  10  251.7704
  11  224.829
  12  65.63466
  13  -79.95901
  14  6.539479
  15  176.6097
  16  219.3947
  17  96.21323
  18  -15.34706
  19  143.9435
  20  0.1786389
  21  -28.05137
  22  -86.53348
  23  89.31781
  24  28.38427
  25  81.79403
  26  122.7936
  27  106.1997
  28  72.98083
  29  53.67498
  30  84.94204
  31  -6.499606
  32  -92.50032
  33  81.90772
  34  61.34816
  35  70.62453
  36  128.1239
  37  37.84402
  38  34.46062
  39  127.896
  40  284.0065
  41  220.2078
  42  189.8064
  43  213.1774
  44  149.1924
  45  172.3088
  46  123.962
  47  169.5479
  48  205.572
  49  229.4974
  50  119.7174
  51  154.8812
  52  246.1211
  53  172.8776
  54  239.9282
  55  130.3294
  56  182.0604
  57  222.677
  58  289.1725
  59  300.9127
  60  222.0173
  61  230.836
  62  337.2219
  63  330.7778
  64  212.0447
  65  118.0868
  66  111.827
  67  108.5996
  68  201.8617
  69  227.5057
  70  148.8118
  71  217.2741
  72  203.4752
  73  301.0588
  74  184.9397
  75  127.4723
  76  112.4043
  77  66.21933
  78  126.301
  79  179.7038
  80  117.6365
  81  90.20493
  82  106.5695
  83  -45.35865
  84  60.11412
  85  146.2375
  86  55.5491
  87  155.5387
  88  186.9474
  89  104.3488
  90  92.62391
  91  167.4282
  92  168.0232
  93  110.628
  94  153.3153
  95  149.2447
  96  68.07771
  97  135.8904
  98  115.836
  99  74.94447
 100  156.6987
 101  199.2156
 102  147.961
 103  6.050956
 104  -7.819999
 105  12.90922
 106  134.0768
 107  139.1689
 108  137.5051
 109  204.6324
 110  -25.83411
 111  37.99097
 112  79.98908
 113  102.3771
 114  22.46646
 115  53.81477
 116  215.0877
 117  134.4186
 118  -64.45969
 119  158.0069
 120  253.2398
 121  251.6168
 122  115.4857
 123  210.039
 124  213.4456
 125  117.1268
 126  57.46796
 127  194.8264
 128  134.7173
 129  53.028
 130  56.74391
 131  124.596
 132  184.9516
 133  95.78274
 134  142.3388
 135  320.7802
 136  265.7066
 137  216.3854
 138  157.8668
 139  307.4708
 140  372.4411
 141  218.2307
 142  150.1106
 143  215.4501
 144  202.939
 145  134.0491
 146  226.499
 147  138.6576
 148  14.73161
 149  112.8419
 150  279.8536
 151  154.9842
 152  103.1858
 153  220.1758
 154  156.0378
 155  5.826825
 156  78.56545
 157  45.10128
 158  80.53718
 159  -114.5156
 160  -14.22719
 161  47.18417
 162  32.19818
 163  39.49497
 164  -56.39104
 165  -101.6111
 166  24.69191
 167  72.00985
 168  76.70694
 169  70.16627
 170  -2.83461
 171  -38.34579
 172  90.07545
 173  9.639893
 174  57.27508
 175  108.6365
 176  123.7942
 177  106.5716
 178  29.85584
 179  214.5678
 180  167.1414
 181  101.1423
 182  132.7887
 183  174.8853
 184  209.3745
 185  139.9494
 186  56.33794
 187  196.5877
 188  73.8849
 189  102.4631
 190  146.086
 191  79.69395
 192  20.77275
 193  30.52484
 194  87.28036
 195  87.96407
 196  3.043593
 197  56.32202
 198  38.30727
 199  59.68903
 200  155.5402
 201  73.89289
 202  189.4022
 203  250.162
 204  263.3405
 205  163.9803
 206  207.2614
 207  249.0931
 208  200.4021
 209  117.0885
 210  176.6788
 211  339.4303
 212  331.6608
 213  218.4919
 214  235.8929
 215  136.24
 216  190.5739
 217  233.432
 218  207.8925
 219  229.4814
 220  130.0876
 221  100.078
 222  68.90398
 223  189.7283
 224  228.2456
 225  193.5808
 226  27.17902
 227  127.5837
 228  -26.33065
 229  -75.13491
 230  9.543822
 231  18.03329
 232  63.93423
 233  63.6146
 234  33.52133
 235  -0.1932659
 236  -3.084692
 237  -75.48788
 238  34.39715
 239  -27.09461
 240  -56.5765
 241  28.99941
 242  -13.58351
 243  30.02692
 244  6.100678
 245  -56.06088
 246  -19.80425
 247  -39.1603
 248  53.27605
 249  157.357
 250  176.9232
 251  35.25387
 252  44.58858
 253  146.5808
 254  11.77921
 255  97.51667
 256  104.757
 257  36.90069
 258  -44.87471
 259  -34.85584
 260  127.5501
 261  47.27812
 262  50.97264
 263  60.82602
 264  140.6787
 265  184.884
 266  94.51105
 267  58.61405
 268  -27.01429
 269  1.250912
 270  -34.33754
 271  118.4305
 272  255.9683
 273  113.9347
 274  -15.75219
 275  127.9511
 276  147.6283
 277  103.1753
 278  160.9374
 279  163.5733
 280  167.3737
 281  281.9278
 282  220.8646
 283  226.2355
 284  237.6169
 285  170.9464
 286  89.22225
 287  180.4801
 288  247.6506
 289  274.0676
 290  203.4076
 291  238.1389
 292  239.478
 293  90.56433
 294  5.462643
 295  29.82495
 296  127.097
 297  182.5531
 298  220.0277
 299  191.9168
 300  117.1645
 301  158.0924
 302  41.7277
 303  -15.42876
 304  33.70117
 305  124.3933
 306  34.08767
 307  24.20744
 308  56.12858
 309  127.7233
 310  113.8733
 311  25.00585
 312  133.787
 313  190.2819
 314  14.7386
 315  163.7466
 316  207.1235
 317  132.2195
 318  72.96573
 319  -23.15314
 320  24.00652
 321  102.4955
 322  56.67567
 323  108.616
 324  47.09031
 325  41.48124
 326  93.65369
 327  -13.47663
 328  155.5148
 329  78.24239
 330  15.31957
 331  -117.672
 332  -64.26553
 333  82.46046
 334  134.2646
 335  82.7945
 336  -26.88367
 337  200.8724
 338  278.3094
 339  187.8502
 340  111.49
 341  -5.254539
 342  66.20055
 343  199.4952
 344  233.8922
 345  232.9819
 346  169.8787
 347  239.7146
 348  197.44
 349  5.540972
 350  125.6227
 351  35.19557
 352  28.22557
 353  149.5236
 354  174.6863
 355  304.1582
 356  11.38308
 357  61.45193
 358  138.0038
 359  239.7328
 360  168.7358
 361  61.99696
 362  109.0628
 363  77.42167
 364  91.84297
 365  96.35567
 366  62.94098
 367  188.915
 368  67.20523
 369  3.175738
 370  94.12368
 371  129.6908
 372  115.1094
 373  49.68711
 374  -67.35612
 375  41.03074
 376  119.2851
 377  107.4676
 378  105.5409
 379  25.08895
 380  -28.76156
 381  6.912237
 382  81.25549
 383  181.4505
 384  76.54859
 385  91.16088
 386  171.5946
 387  116.6931
 388  153.5305
 389  103.5604
 390  -62.2896
 391  13.26629
 392  29.70227
 393  42.23763
 394  -78.61527
 395  -75.77349
 396  82.47807
 397  98.66178
 398  117.6118
 399  28.92993
 400  -7.623929
 401  76.17451
 402  133.185
 403  64.42432
 404  114.3362
 405  103.7209
 406  133.6007
 407  144.1967
 408  163.8263
 409  128.9719
 410  122.738
 411  -36.9469
 412  192.3955
 413  274.003
 414  205.2976
 415  86.98933
 416  225.0739
 417  253.077
 418  146.2438
 419  123.7675
 420  144.5977
 421  156.7229
 422  239.9773
 423  93.90242
 424  157.9056
 425  231.1507
 426  58.32187
 427  153.8956
 428  265.5096
 429  240.747
 430  166.2936
 431  211.4698
 432  208.2843
 433  291.8539
 434  166.2915
 435  104.1185
 436  156.2458
 437  300.5661
 438  209.1832
 439  191.0005
 440  204.7237
 441  112.2891
 442  60.11818
 443  112.2795
 444  50.50137
 445  18.06784
 446  211.0432
 447  298.1613
 448  294.7371
 449  133.4513
 450  186.3525
 451  201.0405
 452  114.3808
 453  92.6414
 454  90.96741
 455  166.4075
 456  235.0942
 457  162.786
 458  202.5433
 459  140.1661
 460  216.3188
 461  316.9883
 462  531.7247
 463  561.0841
 464  471.1655
 465  531.5213
 466  361.8154
 467  189.2908
 468  27.99738
 469  -73.57071
 470  12.72741
 471  45.45631
 472  174.269
 473  210.0201
 474  59.79045
 475  -48.8934
 476  73.97034
 477  75.54096
 478  68.81197
 479  105.2576
 480  210.9194
 481  171.1239
 482  101.0085
 483  114.4913
 484  153.5955
 485  106.7282
 486  100.4247
 487  193.994
 488  210.6473
 489  122.5984
 490  133.5481
 491  268.2383
 492  207.7952
 493  52.33762
 494  159.6935
 495  294.1965
 496  243.6348
 497  103.7444
 498  213.8248
 499  213.9542
 500  118.8043
 501  81.93463
 502  209.3441
 503  270.9755
 504  355.6889
 505  455.6757
 506  296.2083
 507  272.8452
 508  198.2268
 509  164.7728
 510  189.2568
 511  151.7157
