# Input file       =  1188005499.110864_cleaned.dat
# Candidate        =  PSR_0332+5434
# Telescope        =  AR
# Epoch_topo       =  57994.063867023891
# Epoch_bary       =  N/A
# T_sample         =  0.002
# Data Folded      =  7340032
# Data Avg         =  0.0241325941876442
# Data StdDev      =  2.31531500295789 
# Profile Bins     =  512
# Profile Avg      =  346.090780928605 
# Profile StdDev   =  277.21969547283  
# Reduced chi-sqr  =  1.321
# Prob(Noise)      <  1.38e-06   (~4.7 sigma)
# P_topo (ms)      =  714.463349956269  +/- 0.000361
# P'_topo (s/s)    =  -0                +/- 1.9e-10
# P''_topo (s/s^2) =  0                 +/- 8.41e-14
# P_bary (ms)      =  N/A
# P'_bary (s/s)    =  N/A
# P''_bary (s/s^2) =  N/A
# P_orb (s)        =  N/A
# asin(i)/c (s)    =  N/A
# eccentricity     =  N/A
# w (rad)          =  N/A
# T_peri           =  N/A
######################################################
   0  591.4958
   1  359.9833
   2  346.9679
   3  291.084
   4  382.6947
   5  325.4028
   6  414.7297
   7  810.1373
   8  561.449
   9  504.2974
  10  306.5634
  11  317.5449
  12  327.0965
  13  382.6395
  14  782.4282
  15  487.7876
  16  101.3735
  17  343.2796
  18  454.8285
  19  538.2147
  20  605.7214
  21  819.5698
  22  641.819
  23  408.9545
  24  440.2745
  25  357.1813
  26  457.2776
  27  278.9762
  28  451.3401
  29  529.1537
  30  525.4554
  31  735.332
  32  491.5667
  33  193.2778
  34  167.7823
  35  89.28759
  36  456.0055
  37  306.4724
  38  299.9521
  39  435.8246
  40  377.3143
  41  423.8462
  42  323.4365
  43  326.8473
  44  306.7129
  45  513.0725
  46  372.0267
  47  357.2546
  48  -22.37811
  49  1.232291
  50  171.6523
  51  522.5934
  52  523.0337
  53  159.5655
  54  242.1949
  55  10.26977
  56  -76.5695
  57  176.3392
  58  284.9464
  59  455.6148
  60  334.1736
  61  409.9278
  62  536.5474
  63  389.937
  64  372.4705
  65  516.0065
  66  467.3117
  67  464.7055
  68  606.9734
  69  769.4365
  70  521.3522
  71  550.691
  72  -63.72713
  73  372.0768
  74  586.6522
  75  427.779
  76  154.8861
  77  -29.39921
  78  29.59248
  79  88.18059
  80  444.7144
  81  474.5944
  82  506.3909
  83  339.2309
  84  76.19628
  85  470.3516
  86  576.2658
  87  364.5024
  88  202.3874
  89  -98.8015
  90  246.3461
  91  463.4034
  92  374.5201
  93  146.44
  94  -124.9521
  95  17.58092
  96  522.8536
  97  705.3475
  98  356.7097
  99  7.480027
 100  137.7427
 101  666.6299
 102  304.6234
 103  105.9025
 104  48.92472
 105  276.7362
 106  391.8323
 107  272.2031
 108  276.5493
 109  349.7624
 110  187.1569
 111  132.2069
 112  312.8932
 113  429.5845
 114  124.7319
 115  362.6334
 116  340.8343
 117  157.6022
 118  193.1478
 119  482.0323
 120  425.7764
 121  196.0442
 122  184.6837
 123  243.0618
 124  352.4442
 125  169.5123
 126  161.6558
 127  76.44059
 128  334.045
 129  344.3414
 130  288.9794
 131  145.5389
 132  214.2562
 133  315.2305
 134  -142.2101
 135  -20.56478
 136  255.2057
 137  222.6021
 138  385.6263
 139  399.1595
 140  121.8564
 141  -17.4168
 142  21.90462
 143  232.6371
 144  -1.018815
 145  88.72387
 146  -174.5085
 147  -74.36613
 148  104.5484
 149  -203.5901
 150  41.29287
 151  230.2068
 152  518.0637
 153  430.2792
 154  188.7171
 155  381.4768
 156  327.9996
 157  187.1584
 158  290.7265
 159  315.4955
 160  344.1091
 161  418.3265
 162  492.9224
 163  360.7413
 164  432.0305
 165  310.5567
 166  6.663224
 167  308.6698
 168  576.2306
 169  534.662
 170  301.2913
 171  40.20512
 172  348.9652
 173  473.5662
 174  461.5993
 175  521.9756
 176  529.3494
 177  537.4357
 178  495.8352
 179  273.6324
 180  420.0721
 181  632.736
 182  182.976
 183  114.8675
 184  271.6485
 185  -23.27982
 186  180.4344
 187  473.0324
 188  447.8935
 189  135.9083
 190  -89.98019
 191  94.22475
 192  178.3036
 193  203.4176
 194  567.2225
 195  724.3478
 196  440.0595
 197  406.0324
 198  365.3897
 199  65.65176
 200  -13.91161
 201  173.3354
 202  345.2503
 203  171.9884
 204  91.14999
 205  481.9326
 206  195.3242
 207  248.656
 208  284.4649
 209  588.6599
 210  545.382
 211  788.1793
 212  677.2156
 213  288.0719
 214  234.0593
 215  312.0959
 216  255.1762
 217  144.9297
 218  364.2063
 219  692.8411
 220  617.793
 221  295.9144
 222  90.47398
 223  160.9614
 224  349.9402
 225  71.18843
 226  23.75739
 227  112.3539
 228  227.7155
 229  245.5752
 230  307.8484
 231  233.4984
 232  558.6387
 233  397.3888
 234  214.6536
 235  344.4655
 236  -1.900206
 237  369.197
 238  203.2884
 239  211.1563
 240  662.0663
 241  323.587
 242  466.5035
 243  260.6076
 244  185.7294
 245  443.2293
 246  599.1815
 247  604.914
 248  106.661
 249  331.9706
 250  389.1631
 251  275.3442
 252  366.6313
 253  419.2274
 254  385.4901
 255  680.4706
 256  417.051
 257  272.4512
 258  105.2869
 259  283.04
 260  196.7696
 261  253.8757
 262  -14.95137
 263  80.60328
 264  257.2794
 265  -18.50347
 266  46.65855
 267  403.3015
 268  293.7916
 269  434.3842
 270  593.0093
 271  118.3486
 272  275.3444
 273  264.1222
 274  395.8461
 275  284.6846
 276  332.3327
 277  435.692
 278  521.4677
 279  139.0643
 280  154.2338
 281  362.7443
 282  399.8787
 283  377.2993
 284  260.0106
 285  -61.748
 286  281.5588
 287  272.6279
 288  497.3127
 289  453.3898
 290  219.3098
 291  478.896
 292  626.4741
 293  350.5678
 294  136.1592
 295  52.17247
 296  333.0865
 297  193.4596
 298  354.8036
 299  495.5953
 300  534.9666
 301  214.1727
 302  420.5041
 303  317.3718
 304  43.35391
 305  52.58381
 306  496.6057
 307  659.8083
 308  260.3827
 309  -42.18391
 310  425.1027
 311  541.5587
 312  397.6745
 313  220.0627
 314  386.3968
 315  431.0148
 316  614.9547
 317  495.9012
 318  298.6209
 319  404.692
 320  416.0178
 321  584.8678
 322  560.5505
 323  145.7706
 324  267.7772
 325  607.2372
 326  67.80666
 327  17.24815
 328  276.0549
 329  120.3775
 330  208.0526
 331  127.3134
 332  293.5617
 333  128.3671
 334  -6.987585
 335  493.9282
 336  590.6149
 337  368.0973
 338  214.085
 339  242.8105
 340  305.8355
 341  241.9947
 342  441.7183
 343  245.0184
 344  729.1368
 345  503.0187
 346  330.5809
 347  251.9364
 348  422.0821
 349  679.5212
 350  346.7768
 351  478.7919
 352  474.4798
 353  168.9869
 354  154.5698
 355  148.5161
 356  287.994
 357  291.3367
 358  300.4093
 359  140.494
 360  160.8297
 361  281.0404
 362  486.7264
 363  636.8922
 364  558.6404
 365  375.6912
 366  251.1566
 367  215.2901
 368  322.5999
 369  269.4973
 370  198.1665
 371  368.5212
 372  180.6822
 373  250.0461
 374  60.49213
 375  343.088
 376  561.8737
 377  381.2241
 378  490.9891
 379  206.3511
 380  182.7993
 381  225.6646
 382  526.8513
 383  441.721
 384  304.6732
 385  381.5452
 386  411.7101
 387  678.6967
 388  755.2515
 389  451.8355
 390  622.6653
 391  290.9705
 392  193.7114
 393  264.6358
 394  377.3571
 395  393.8052
 396  322.4685
 397  712.3542
 398  626.3604
 399  378.5958
 400  314.963
 401  487.6434
 402  441.8506
 403  259.0439
 404  -137.5309
 405  64.91721
 406  320.5997
 407  382.6073
 408  132.6629
 409  295.1445
 410  420.4374
 411  646.5457
 412  745.5825
 413  601.8275
 414  870.0121
 415  909.1644
 416  1030.115
 417  1125.791
 418  1262.066
 419  1555.208
 420  1859.051
 421  1607.636
 422  1198.454
 423  748.8574
 424  608.4008
 425  520.765
 426  307.5354
 427  330.9858
 428  54.86778
 429  253.6306
 430  466.2083
 431  504.7459
 432  564.6234
 433  337.517
 434  325.7823
 435  562.4543
 436  158.4252
 437  -258.5203
 438  236.9347
 439  679.0549
 440  359.4688
 441  471.2625
 442  300.4741
 443  130.4322
 444  389.8632
 445  365.5993
 446  234.3493
 447  281.3582
 448  354.7024
 449  270.9867
 450  562.0177
 451  502.8526
 452  722.5499
 453  402.8322
 454  246.4357
 455  404.9258
 456  440.8203
 457  704.6794
 458  468.0635
 459  442.1094
 460  246.8858
 461  462.1526
 462  492.8099
 463  403.6351
 464  443.8109
 465  119.0995
 466  158.6886
 467  278.1521
 468  485.8622
 469  467.8791
 470  147.1051
 471  491.52
 472  448.8191
 473  314.8509
 474  168.5486
 475  470.5903
 476  228.9481
 477  269.2909
 478  339.9755
 479  210.5904
 480  45.67607
 481  448.3524
 482  409.6381
 483  436.5603
 484  762.645
 485  316.7927
 486  -43.06742
 487  174.7376
 488  461.5655
 489  493.38
 490  215.5331
 491  191.0974
 492  484.5872
 493  305.9964
 494  208.5123
 495  319.7437
 496  219.4174
 497  371.7594
 498  151.8465
 499  -126.175
 500  294.1503
 501  366.0875
 502  304.7171
 503  426.1613
 504  654.833
 505  697.1199
 506  301.4609
 507  -15.42526
 508  207.2813
 509  624.4015
 510  393.0529
 511  575.9058
