# Input file       =  1188350229.11174_cleaned.dat
# Candidate        =  PSR_0332+5434
# Telescope        =  AR
# Epoch_topo       =  57998.053797589586
# Epoch_bary       =  N/A
# T_sample         =  0.002
# Data Folded      =  7340032
# Data Avg         =  0.0168056032499797
# Data StdDev      =  2.36147421363632 
# Profile Bins     =  512
# Profile Avg      =  240.956629730999 
# Profile StdDev   =  282.746477924113 
# Reduced chi-sqr  =  1.296
# Prob(Noise)      <  6.8e-06   (~4.4 sigma)
# P_topo (ms)      =  714.463536026837  +/- 0.000156
# P'_topo (s/s)    =  -0                +/- 8.21e-11
# P''_topo (s/s^2) =  0                 +/- 3.63e-14
# P_bary (ms)      =  N/A
# P'_bary (s/s)    =  N/A
# P''_bary (s/s^2) =  N/A
# P_orb (s)        =  N/A
# asin(i)/c (s)    =  N/A
# eccentricity     =  N/A
# w (rad)          =  N/A
# T_peri           =  N/A
######################################################
   0  257.7246
   1  467.314
   2  434.0712
   3  335.8735
   4  35.46643
   5  407.7298
   6  77.05837
   7  112.0136
   8  104.759
   9  32.08138
  10  42.92221
  11  92.12557
  12  165.3904
  13  234.8714
  14  442.3553
  15  473.364
  16  404.4418
  17  -62.45042
  18  92.53408
  19  2.230865
  20  159.0389
  21  2.165989
  22  209.265
  23  382.0915
  24  456.385
  25  246.2045
  26  49.00731
  27  254.3853
  28  375.2953
  29  267.3123
  30  874.98
  31  1399.091
  32  1433.864
  33  1436.853
  34  1656.284
  35  1201.182
  36  492.9365
  37  352.4158
  38  242.9231
  39  150.1487
  40  243.7978
  41  289.6239
  42  138.0785
  43  282.4629
  44  243.0354
  45  218.5432
  46  336.1868
  47  483.3344
  48  394.5978
  49  166.2966
  50  96.64961
  51  129.7778
  52  230.1147
  53  -130.8161
  54  174.3919
  55  359.2476
  56  345.0834
  57  -87.57668
  58  265.7259
  59  32.96839
  60  -146.7858
  61  -247.5049
  62  284.4861
  63  597.0838
  64  220.3353
  65  154.319
  66  -145.6654
  67  -250.821
  68  -7.850263
  69  204.0918
  70  218.3245
  71  206.9315
  72  153.9636
  73  283.0852
  74  370.2213
  75  374.8735
  76  383.4384
  77  216.2218
  78  -13.6687
  79  57.28677
  80  310.7266
  81  157.1504
  82  374.0085
  83  534.0663
  84  372.6588
  85  268.9946
  86  103.0833
  87  -57.99606
  88  -39.37599
  89  393.0103
  90  110.3091
  91  -4.551079
  92  -277.0057
  93  -6.421859
  94  253.5696
  95  240.513
  96  285.5791
  97  62.07643
  98  116.6587
  99  534.6779
 100  329.8132
 101  199.1431
 102  -162.8181
 103  127.7704
 104  3.065622
 105  -227.2932
 106  -179.9706
 107  463.8582
 108  426.8571
 109  138.4266
 110  176.5501
 111  206.8106
 112  313.7883
 113  265.0102
 114  525.1401
 115  292.9877
 116  -200.6837
 117  -368.1218
 118  -120.9207
 119  494.6879
 120  194.0237
 121  -35.39301
 122  366.1563
 123  427.0625
 124  295.8232
 125  163.6502
 126  -181.4709
 127  -240.8986
 128  -240.4024
 129  340.169
 130  361.1538
 131  213.0763
 132  149.773
 133  -1.788733
 134  51.09406
 135  -237.0733
 136  -127.9094
 137  144.6609
 138  336.8451
 139  299.1194
 140  126.6497
 141  543.5728
 142  517.1613
 143  343.348
 144  140.2713
 145  249.7962
 146  327.5613
 147  306.255
 148  47.86102
 149  159.8501
 150  297.9215
 151  143.5076
 152  173.0048
 153  227.993
 154  370.884
 155  92.27499
 156  131.8527
 157  339.4316
 158  505.4544
 159  140.7116
 160  53.44152
 161  209.3977
 162  340.0439
 163  467.6785
 164  706.5987
 165  563.1161
 166  694.1054
 167  634.0297
 168  461.5855
 169  228.9932
 170  222.9202
 171  357.8972
 172  277.7743
 173  507.2779
 174  519.795
 175  -43.30246
 176  88.4015
 177  528.739
 178  338.0257
 179  596.2726
 180  581.7214
 181  515.4859
 182  325.7608
 183  493.0341
 184  357.6432
 185  284.0132
 186  60.11599
 187  35.81571
 188  80.05745
 189  162.5282
 190  502.7985
 191  506.3977
 192  494.9589
 193  615.5563
 194  -86.54555
 195  108.69
 196  359.2353
 197  562.3157
 198  543.1724
 199  447.3633
 200  -17.28291
 201  317.2364
 202  318.7797
 203  521.3007
 204  340.2163
 205  229.8946
 206  376.9557
 207  319.0128
 208  337.4223
 209  349.7436
 210  666.9147
 211  318.4695
 212  250.2379
 213  281.4297
 214  7.397615
 215  128.7201
 216  185.7944
 217  116.2228
 218  194.9886
 219  -18.16695
 220  -161.3703
 221  260.4217
 222  573.431
 223  295.3502
 224  54.99153
 225  -17.47344
 226  264.4528
 227  379.7032
 228  240.77
 229  48.84553
 230  296.0591
 231  318.6475
 232  483.2651
 233  -120.6883
 234  -83.45938
 235  427.8208
 236  277.9041
 237  495.6537
 238  148.1286
 239  28.10216
 240  218.897
 241  312.2954
 242  99.24488
 243  204.0848
 244  6.239821
 245  347.3106
 246  -218.3655
 247  74.20132
 248  181.1172
 249  318.7205
 250  333.361
 251  -12.08462
 252  191.4953
 253  113.2191
 254  56.99046
 255  407.7917
 256  295.8651
 257  301.9733
 258  195.8844
 259  182.7464
 260  147.1254
 261  263.218
 262  195.0611
 263  246.1358
 264  -16.38653
 265  -228.039
 266  5.262314
 267  -67.51717
 268  -42.52833
 269  303.1763
 270  522.4361
 271  410.364
 272  -88.93478
 273  186.5541
 274  295.3476
 275  336.3038
 276  198.0334
 277  22.17843
 278  122.0429
 279  -67.72328
 280  150.3783
 281  147.4044
 282  195.457
 283  244.2008
 284  298.1322
 285  144.0298
 286  182.7305
 287  346.0274
 288  217.4077
 289  8.831333
 290  73.50323
 291  112.3974
 292  -38.43657
 293  -61.83818
 294  -91.19771
 295  -256.4586
 296  365.1746
 297  255.6589
 298  88.07253
 299  -8.994126
 300  284.1917
 301  100.4032
 302  221.574
 303  117.253
 304  -194.16
 305  -360.2582
 306  13.9129
 307  -42.03432
 308  -14.67979
 309  204.1944
 310  48.79842
 311  -175.1175
 312  216.8103
 313  91.08479
 314  140.18
 315  158.7182
 316  41.73284
 317  89.82088
 318  286.1351
 319  265.4195
 320  506.8717
 321  480.078
 322  525.6249
 323  412.7111
 324  17.01222
 325  -260.3167
 326  -377.9959
 327  212.6154
 328  290.4689
 329  234.9082
 330  385.2229
 331  162.0646
 332  156.1616
 333  114.6125
 334  387.0767
 335  306.9835
 336  213.0226
 337  254.4085
 338  262.1789
 339  131.1638
 340  43.3571
 341  -75.68313
 342  125.4122
 343  285.2163
 344  305.9731
 345  409.2114
 346  546.6848
 347  195.5252
 348  -30.55276
 349  306.7699
 350  659.2848
 351  652.8524
 352  310.8762
 353  308.4012
 354  391.4422
 355  462.6345
 356  371.9711
 357  495.6573
 358  489.2464
 359  479.3647
 360  254.753
 361  501.4112
 362  243.4538
 363  255.1984
 364  118.595
 365  -30.74049
 366  235.7198
 367  230.3855
 368  322.2229
 369  135.0776
 370  366.6375
 371  187.8929
 372  236.1874
 373  368.8419
 374  304.3169
 375  236.9104
 376  205.7561
 377  193.4073
 378  236.4761
 379  651.374
 380  288.7484
 381  337.8333
 382  403.3111
 383  381.9264
 384  532.8932
 385  268.3888
 386  250.7691
 387  21.42306
 388  159.3803
 389  586.143
 390  505.3759
 391  531.1409
 392  365.6175
 393  384.708
 394  596.5811
 395  436.196
 396  4.540305
 397  297.1566
 398  234.3284
 399  338.3077
 400  503.7545
 401  309.5786
 402  321.2874
 403  92.54387
 404  -26.42535
 405  244.4084
 406  361.8981
 407  388.0172
 408  422.4324
 409  237.0746
 410  365.3166
 411  301.1023
 412  580.8644
 413  295.2396
 414  282.7443
 415  160.2768
 416  171.933
 417  209.9272
 418  400.1565
 419  380.9484
 420  212.8767
 421  288.9686
 422  355.5378
 423  130.7446
 424  495.488
 425  563.6443
 426  231.5254
 427  121.2867
 428  201.3562
 429  278.262
 430  209.5148
 431  183.8188
 432  512.6036
 433  506.6118
 434  421.0008
 435  290.9767
 436  94.49271
 437  391.0653
 438  234.6075
 439  17.3218
 440  73.54742
 441  130.5048
 442  481.6723
 443  359.4667
 444  388.6235
 445  515.3616
 446  235.9285
 447  127.5744
 448  135.6421
 449  425.2819
 450  249.9282
 451  239.5606
 452  105.2914
 453  -142.2251
 454  177.5404
 455  426.6778
 456  374.661
 457  358.2775
 458  344.3088
 459  425.7155
 460  399.8868
 461  343.0787
 462  78.46037
 463  336.6149
 464  457.7222
 465  443.649
 466  504.2101
 467  468.3887
 468  304.3023
 469  227.0378
 470  138.6291
 471  65.39408
 472  170.5622
 473  244.66
 474  301.4619
 475  208.1003
 476  105.3339
 477  75.12918
 478  268.1691
 479  117.1146
 480  152.5563
 481  349.6109
 482  353.2317
 483  257.6522
 484  32.57156
 485  267.1187
 486  26.15943
 487  120.6389
 488  338.9006
 489  245.0534
 490  144.1565
 491  -204.8469
 492  -168.6111
 493  2.873184
 494  292.0649
 495  454.5128
 496  729.2538
 497  554.9473
 498  382.9153
 499  341.4365
 500  372.6003
 501  196.9458
 502  121.5274
 503  434.3084
 504  512.5541
 505  312.9975
 506  39.7921
 507  98.68971
 508  -125.0917
 509  -274.7549
 510  -29.35886
 511  99.42183
