# Input file       =  1188436404.113469_cleaned.dat
# Candidate        =  PSR_0332+5434
# Telescope        =  AR
# Epoch_topo       =  57999.051193442931
# Epoch_bary       =  N/A
# T_sample         =  0.002
# Data Folded      =  7340032
# Data Avg         =  0.0195276022745279
# Data StdDev      =  2.35439591838612 
# Profile Bins     =  512
# Profile Avg      =  279.912380548853 
# Profile StdDev   =  281.898972141434 
# Reduced chi-sqr  =  1.153
# Prob(Noise)      <  0.00928   (~2.4 sigma)
# P_topo (ms)      =  714.463622780084  +/- 0.000161
# P'_topo (s/s)    =  -0                +/- 8.51e-11
# P''_topo (s/s^2) =  0                 +/- 3.76e-14
# P_bary (ms)      =  N/A
# P'_bary (s/s)    =  N/A
# P''_bary (s/s^2) =  N/A
# P_orb (s)        =  N/A
# asin(i)/c (s)    =  N/A
# eccentricity     =  N/A
# w (rad)          =  N/A
# T_peri           =  N/A
######################################################
   0  480.2843
   1  397.3257
   2  478.7526
   3  657.6067
   4  330.0191
   5  -34.79163
   6  324.2514
   7  530.2792
   8  331.5458
   9  241.2379
  10  403.2664
  11  181.589
  12  146.121
  13  419.8484
  14  622.8378
  15  453.4765
  16  293.774
  17  105.5907
  18  231.9879
  19  341.8894
  20  145.5363
  21  72.96687
  22  212.3367
  23  299.5062
  24  226.1799
  25  148.6839
  26  16.86382
  27  136.7682
  28  -23.74938
  29  202.6747
  30  122.8852
  31  21.64089
  32  29.02555
  33  359.2916
  34  249.192
  35  553.9215
  36  611.8381
  37  218.7452
  38  -128.6039
  39  466.8366
  40  728.9426
  41  384.895
  42  224.5349
  43  397.5542
  44  205.4451
  45  334.9392
  46  147.2151
  47  284.212
  48  502.4358
  49  494.7101
  50  471.4222
  51  136.461
  52  69.80441
  53  271.7143
  54  293.8484
  55  118.1914
  56  441.1585
  57  542.6366
  58  335.3611
  59  208.0512
  60  286.3546
  61  -35.15826
  62  21.63292
  63  244.9814
  64  112.5619
  65  206.9669
  66  166.4074
  67  186.961
  68  255.0099
  69  317.8534
  70  290.0443
  71  -37.10006
  72  15.49012
  73  216.325
  74  377.1131
  75  592.8098
  76  224.4716
  77  103.9423
  78  210.0924
  79  339.3752
  80  372.6227
  81  280.6701
  82  160.4727
  83  144.056
  84  122.7884
  85  138.3312
  86  66.39541
  87  161.2933
  88  57.92138
  89  -52.31211
  90  234.0882
  91  316.4919
  92  590.1369
  93  217.2123
  94  105.0763
  95  -31.26189
  96  309.7036
  97  47.87002
  98  21.4224
  99  78.2688
 100  270.2868
 101  108.5001
 102  127.8866
 103  354.1829
 104  387.3972
 105  190.1481
 106  -213.4425
 107  -95.95678
 108  307.148
 109  284.8052
 110  209.4436
 111  333.6607
 112  426.664
 113  304.7675
 114  155.9907
 115  167.9551
 116  242.7235
 117  204.6708
 118  457.2947
 119  359.2631
 120  208.0995
 121  52.57106
 122  -74.50068
 123  368.5081
 124  452.3983
 125  86.65489
 126  175.5714
 127  90.32993
 128  48.96007
 129  4.838134
 130  568.887
 131  501.1185
 132  353.4607
 133  524.8874
 134  369.6305
 135  437.4821
 136  -3.078648
 137  220.7007
 138  57.58764
 139  130.6549
 140  296.5763
 141  386.6634
 142  114.608
 143  157.6327
 144  288.4426
 145  7.918261
 146  59.7928
 147  88.41825
 148  481.6666
 149  193.2607
 150  -118.3707
 151  -19.61228
 152  126.9305
 153  153.0522
 154  200.9631
 155  373.1208
 156  424.924
 157  404.7282
 158  226.3028
 159  150.477
 160  244.3227
 161  132.8911
 162  36.23631
 163  184.1899
 164  553.3408
 165  402.8496
 166  273.3201
 167  299.7568
 168  355.4371
 169  348.5261
 170  254.3008
 171  492.3544
 172  472.2127
 173  296.3465
 174  204.7061
 175  243.6859
 176  158.7293
 177  161.8777
 178  259.428
 179  332.479
 180  410.9701
 181  566.9062
 182  401.0302
 183  350.5386
 184  432.7568
 185  687.5484
 186  254.5997
 187  42.91212
 188  37.15785
 189  496.4161
 190  508.8355
 191  373.8162
 192  13.96124
 193  396.959
 194  604.2109
 195  489.4685
 196  601.0293
 197  512.5963
 198  471.2202
 199  57.74125
 200  217.1354
 201  336.1444
 202  392.3504
 203  391.4456
 204  525.4424
 205  309.1928
 206  660.347
 207  813.2794
 208  556.7186
 209  515.4429
 210  498.9094
 211  520.4148
 212  351.8307
 213  120.3616
 214  217.5566
 215  433.5222
 216  285.5655
 217  440.5538
 218  411.563
 219  -54.62698
 220  220.9468
 221  320.8249
 222  293.7319
 223  636.7968
 224  554.6036
 225  240.3484
 226  48.62741
 227  350.7581
 228  338.486
 229  132.8492
 230  257.5109
 231  99.00656
 232  -86.26144
 233  336.1648
 234  402.7742
 235  229.1974
 236  -19.60571
 237  197.7351
 238  264.4531
 239  109.6653
 240  79.30832
 241  336.5998
 242  317.6521
 243  105.477
 244  53.28352
 245  359.0517
 246  382.056
 247  288.2398
 248  378.171
 249  383.1318
 250  314.8897
 251  149.6514
 252  258.1435
 253  448.3305
 254  302.9519
 255  309.8284
 256  451.2538
 257  3.300126
 258  305.5303
 259  155.9278
 260  22.1341
 261  184.5901
 262  475.9079
 263  861.1712
 264  612.3141
 265  271.6332
 266  287.1985
 267  123.1733
 268  234.4963
 269  54.03247
 270  152.7595
 271  381.1303
 272  349.1212
 273  152.5422
 274  121.1821
 275  162.8075
 276  341.2887
 277  392.2899
 278  137.5775
 279  114.8415
 280  440.7083
 281  215.9305
 282  251.2495
 283  355.7185
 284  9.872361
 285  62.40571
 286  68.10378
 287  397.9701
 288  427.2135
 289  183.7026
 290  296.3224
 291  -54.14453
 292  -184.6261
 293  130.0839
 294  183.3783
 295  310.1014
 296  329.8886
 297  319.0554
 298  164.4605
 299  -37.26128
 300  49.28608
 301  -67.62183
 302  191.8736
 303  333.788
 304  330.2509
 305  -71.67359
 306  83.63
 307  545.2578
 308  357.4954
 309  360.6974
 310  63.09824
 311  236.3543
 312  284.9031
 313  286.8215
 314  56.59763
 315  -190.5874
 316  281.2089
 317  605.8403
 318  691.2692
 319  784.9782
 320  929.8994
 321  1016.163
 322  1452.919
 323  1567.185
 324  1375.398
 325  712.3002
 326  483.6831
 327  433.7654
 328  311.2121
 329  313.6401
 330  0.7558038
 331  100.0542
 332  205.3076
 333  3.689281
 334  202.3326
 335  466.686
 336  568.524
 337  527.4631
 338  409.8539
 339  245.3559
 340  435.7263
 341  386.8838
 342  555.3076
 343  605.4593
 344  378.0876
 345  355.2493
 346  374.6119
 347  244.1793
 348  595.8456
 349  471.1535
 350  172.0647
 351  142.8405
 352  -106.3499
 353  -6.75521
 354  88.7206
 355  319.7772
 356  634.1198
 357  112.4076
 358  80.89838
 359  154.1905
 360  313.8062
 361  418.1096
 362  606.9845
 363  345.4851
 364  285.1404
 365  418.444
 366  544.3438
 367  299.4531
 368  161.0747
 369  79.21218
 370  155.6515
 371  541.691
 372  932.5372
 373  759.1404
 374  498.8055
 375  318.1785
 376  104.4328
 377  262.4923
 378  394.3516
 379  475.1611
 380  588.3632
 381  407.1798
 382  449.8477
 383  667.0935
 384  836.8699
 385  858.1327
 386  379.6784
 387  158.8016
 388  6.340216
 389  266.4385
 390  280.3769
 391  418.7317
 392  360.5099
 393  121.7966
 394  309.9395
 395  155.8289
 396  48.68202
 397  319.8918
 398  445.8038
 399  36.15985
 400  220.4633
 401  313.5237
 402  42.89665
 403  346.3307
 404  105.6506
 405  175.3029
 406  566.3501
 407  439.5498
 408  48.12514
 409  -73.43455
 410  162.167
 411  69.88754
 412  267.9703
 413  123.5243
 414  238.6803
 415  291.1395
 416  124.516
 417  -120.1721
 418  35.6161
 419  373.002
 420  266.9641
 421  -183.5174
 422  -52.97699
 423  146.2153
 424  239.7695
 425  183.8395
 426  233.289
 427  541.2474
 428  189.5524
 429  193.2421
 430  160.4473
 431  176.8309
 432  407.7805
 433  375.3058
 434  172.8814
 435  -63.31578
 436  37.75923
 437  342.2148
 438  136.179
 439  143.5556
 440  454.5861
 441  356.2875
 442  82.07417
 443  -26.35928
 444  300.2523
 445  489.0022
 446  489.4825
 447  347.4843
 448  285.0585
 449  189.5461
 450  179.312
 451  376.2609
 452  68.52158
 453  -49.03226
 454  339.6429
 455  429.9947
 456  271.6039
 457  545.9478
 458  696.6487
 459  451.1569
 460  323.3222
 461  209.9331
 462  346.107
 463  393.3773
 464  176.6228
 465  247.8777
 466  -195.7343
 467  -45.05173
 468  73.91484
 469  -66.90412
 470  -105.1287
 471  179.4084
 472  238.3539
 473  358.2646
 474  256.8441
 475  318.722
 476  87.8382
 477  132.5348
 478  320.4673
 479  525.0607
 480  694.4355
 481  380.1093
 482  229.1777
 483  266.8546
 484  461.9712
 485  619.4565
 486  521.0049
 487  450.9522
 488  401.3737
 489  -83.35586
 490  66.5796
 491  207.1768
 492  37.37701
 493  -119.9279
 494  264.8636
 495  314.0341
 496  180.8719
 497  191.0279
 498  596.2064
 499  509.4418
 500  136.0036
 501  165.06
 502  359.399
 503  459.7447
 504  203.2255
 505  -46.3817
 506  109.2173
 507  259.5594
 508  451.045
 509  593.9624
 510  195.1169
 511  182.3399
