# Input file       =  1188680202.123785_cleaned.dat
# Candidate        =  PSR_0332+5434
# Telescope        =  AR
# Epoch_topo       =  58001.872929673438
# Epoch_bary       =  N/A
# T_sample         =  0.002
# Data Folded      =  7208960
# Data Avg         =  0.00327467744560646
# Data StdDev      =  1.00017584411032 
# Profile Bins     =  512
# Profile Avg      =  46.1144826446678 
# Profile StdDev   =  118.680041310729 
# Reduced chi-sqr  =  1.414
# Prob(Noise)      <  1.88e-09   (~5.9 sigma)
# P_topo (ms)      =  714.46393870983   +/- 0.000216
# P'_topo (s/s)    =  -0                +/- 1.16e-10
# P''_topo (s/s^2) =  0                 +/- 5.22e-14
# P_bary (ms)      =  N/A
# P'_bary (s/s)    =  N/A
# P''_bary (s/s^2) =  N/A
# P_orb (s)        =  N/A
# asin(i)/c (s)    =  N/A
# eccentricity     =  N/A
# w (rad)          =  N/A
# T_peri           =  N/A
######################################################
   0  27.31138
   1  89.41414
   2  113.6172
   3  -12.92291
   4  23.52157
   5  -71.99166
   6  -78.85795
   7  177.565
   8  214.5865
   9  80.44408
  10  120.5169
  11  157.2072
  12  29.90804
  13  -81.32223
  14  49.77845
  15  95.06934
  16  -80.71534
  17  13.5943
  18  7.284334
  19  -116.7584
  20  39.57808
  21  107.3828
  22  182.4988
  23  234.5635
  24  -17.51999
  25  46.20582
  26  136.3241
  27  30.621
  28  17.93964
  29  83.26183
  30  205.1479
  31  71.45918
  32  102.5062
  33  3.11995
  34  -58.82435
  35  -69.62058
  36  17.95964
  37  -106.7395
  38  -42.47619
  39  -37.8077
  40  -102.3586
  41  -52.63208
  42  21.28889
  43  27.8883
  44  19.75433
  45  -67.43302
  46  -16.55114
  47  27.76582
  48  99.41701
  49  57.01906
  50  -7.641995
  51  40.54261
  52  -115.4859
  53  -1.063059
  54  184.5056
  55  66.28687
  56  -57.93709
  57  -10.87999
  58  110.7676
  59  -34.52099
  60  -136.4875
  61  34.80573
  62  -69.78799
  63  -58.4826
  64  -54.30428
  65  79.82433
  66  117.5583
  67  67.22306
  68  -92.41608
  69  -65.61126
  70  48.75169
  71  60.25272
  72  83.58617
  73  168.0423
  74  260.601
  75  312.3852
  76  534.7384
  77  663.5938
  78  638.5067
  79  636.9691
  80  597.756
  81  226.5138
  82  91.37593
  83  62.28227
  84  243.7857
  85  122.1219
  86  6.856231
  87  12.34023
  88  34.43813
  89  126.2791
  90  2.998725
  91  11.33071
  92  51.4785
  93  8.989601
  94  34.34954
  95  -4.111674
  96  19.28458
  97  27.09351
  98  -38.38605
  99  -76.92883
 100  68.2282
 101  156.5132
 102  178.963
 103  240.0235
 104  59.47374
 105  56.6435
 106  137.6805
 107  -66.24931
 108  34.57777
 109  49.4585
 110  -25.7888
 111  94.85242
 112  126.216
 113  86.71024
 114  210.5608
 115  212.6093
 116  105.1872
 117  -60.12257
 118  -74.16106
 119  9.595742
 120  116.2662
 121  -181.6352
 122  -180.065
 123  -107.5229
 124  119.2435
 125  181.7719
 126  56.82467
 127  48.0624
 128  21.25771
 129  0.9182439
 130  37.70298
 131  58.55119
 132  77.09769
 133  217.1627
 134  83.76719
 135  10.71419
 136  149.8406
 137  60.14106
 138  -38.99998
 139  101.1302
 140  66.492
 141  -3.918354
 142  99.9397
 143  153.3546
 144  25.06824
 145  46.23253
 146  40.65255
 147  5.508275
 148  22.22953
 149  107.1488
 150  46.57591
 151  128.7558
 152  118.2181
 153  26.22582
 154  -172.1104
 155  -13.5465
 156  86.23692
 157  -30.33401
 158  19.92595
 159  36.66785
 160  42.86974
 161  -66.54622
 162  -95.44843
 163  13.54135
 164  30.76693
 165  213.2566
 166  160.7835
 167  -28.87462
 168  -60.16174
 169  -10.80962
 170  -56.55693
 171  -70.36365
 172  80.40459
 173  78.01691
 174  -57.56106
 175  -35.17605
 176  36.52258
 177  101.2405
 178  9.933409
 179  -27.67134
 180  -40.92353
 181  90.14543
 182  53.85761
 183  -40.53854
 184  -29.74155
 185  -82.67961
 186  -136.875
 187  -38.9729
 188  156.6688
 189  222.5702
 190  326.9545
 191  268.1106
 192  181.8723
 193  65.58342
 194  62.71007
 195  98.66076
 196  24.56454
 197  8.585117
 198  -1.520858
 199  19.6186
 200  4.566144
 201  44.70253
 202  183.4945
 203  55.37595
 204  82.29718
 205  133.8575
 206  122.4053
 207  -123.6518
 208  -6.104496
 209  23.31495
 210  105.3143
 211  81.36525
 212  71.09902
 213  19.63523
 214  -13.28942
 215  -101.4621
 216  -39.00319
 217  -77.01696
 218  -128.0337
 219  67.69359
 220  163.4395
 221  117.9001
 222  -191.673
 223  -92.72039
 224  -112.9382
 225  -98.25952
 226  -22.23617
 227  -8.568005
 228  62.82863
 229  -41.35722
 230  -27.44707
 231  65.67394
 232  -16.6614
 233  -105.16
 234  9.901216
 235  -61.10028
 236  -38.23293
 237  6.867433
 238  -11.14188
 239  3.47744
 240  -76.91457
 241  -61.22017
 242  -46.16948
 243  -32.70088
 244  119.1594
 245  66.39194
 246  7.513061
 247  36.44733
 248  41.15413
 249  -36.67298
 250  95.4183
 251  30.02986
 252  47.80214
 253  105.3627
 254  198.0121
 255  212.7987
 256  112.7436
 257  115.296
 258  182.8077
 259  13.83758
 260  27.74098
 261  47.47479
 262  19.25299
 263  107.924
 264  56.00744
 265  -92.09235
 266  25.05323
 267  64.3392
 268  130.9333
 269  179.9699
 270  258.7365
 271  206.5564
 272  121.1716
 273  136.2641
 274  70.03091
 275  -41.55024
 276  -19.22907
 277  23.16446
 278  119.3264
 279  127.5536
 280  -66.51734
 281  -29.34718
 282  -54.81305
 283  88.44038
 284  27.07266
 285  1.442513
 286  80.64761
 287  1.879204
 288  56.31741
 289  -7.615099
 290  3.801587
 291  -3.260988
 292  158.0913
 293  254.2864
 294  149.3895
 295  168.1212
 296  101.0479
 297  128.9449
 298  158.5121
 299  151.9758
 300  171.0723
 301  -19.43228
 302  -98.77973
 303  153.4181
 304  56.34504
 305  -43.07387
 306  -78.26665
 307  -19.81439
 308  86.97111
 309  102.4375
 310  78.07147
 311  77.70631
 312  72.83153
 313  0.009118332
 314  31.09223
 315  110.5518
 316  82.73141
 317  -17.59509
 318  -3.995305
 319  18.35648
 320  -65.85352
 321  -1.783091
 322  22.03331
 323  109.1328
 324  96.02845
 325  62.16309
 326  54.09163
 327  29.42127
 328  145.0528
 329  185.4247
 330  125.3678
 331  80.28452
 332  14.49983
 333  -23.70782
 334  -76.67323
 335  -17.99679
 336  99.91457
 337  171.2235
 338  95.61601
 339  93.46737
 340  103.6452
 341  87.13231
 342  60.13182
 343  33.16056
 344  -43.0563
 345  72.21537
 346  110.577
 347  4.453871
 348  29.46869
 349  82.4631
 350  86.16099
 351  24.77528
 352  35.79177
 353  -29.91937
 354  -22.00438
 355  -28.59228
 356  -96.41637
 357  -75.86101
 358  146.5653
 359  55.99173
 360  -50.76054
 361  105.1433
 362  70.43008
 363  63.53773
 364  33.68364
 365  -32.01468
 366  -4.195825
 367  15.70813
 368  88.92328
 369  114.4566
 370  72.22881
 371  124.2757
 372  147.768
 373  163.1869
 374  105.2086
 375  -67.29622
 376  90.15631
 377  45.8388
 378  71.08072
 379  176.2374
 380  75.23524
 381  -26.88596
 382  -81.7355
 383  -29.76737
 384  -93.35435
 385  -8.761268
 386  27.44416
 387  81.04167
 388  -24.00299
 389  140.4107
 390  31.41206
 391  32.00782
 392  76.35706
 393  62.33906
 394  24.66595
 395  152.3124
 396  150.6413
 397  30.94492
 398  -100.7809
 399  -41.77469
 400  9.809608
 401  -11.35647
 402  34.12523
 403  114.5012
 404  206.2724
 405  120.0479
 406  66.2868
 407  126.2094
 408  84.46189
 409  82.97601
 410  26.66794
 411  115.34
 412  -21.06296
 413  45.63164
 414  96.16893
 415  99.96767
 416  79.35388
 417  63.04119
 418  235.0479
 419  152.6819
 420  17.95029
 421  -65.5957
 422  -32.09861
 423  55.44075
 424  65.69676
 425  -13.75449
 426  -1.608262
 427  -23.52759
 428  -92.95832
 429  -41.42562
 430  110.1338
 431  -20.27085
 432  -68.98606
 433  -95.71398
 434  -20.86215
 435  -107.7074
 436  -121.181
 437  191.5078
 438  57.67616
 439  76.07596
 440  44.12122
 441  104.6003
 442  15.46797
 443  -8.496412
 444  62.08053
 445  12.97017
 446  11.82922
 447  20.804
 448  15.93019
 449  -35.74159
 450  -33.23755
 451  -36.36594
 452  65.73199
 453  42.8773
 454  106.6549
 455  173.3462
 456  0.348047
 457  -78.54815
 458  -61.85685
 459  89.33987
 460  48.14635
 461  39.91883
 462  36.17822
 463  -10.59114
 464  1.20844
 465  -58.53119
 466  36.82437
 467  -22.06625
 468  71.01815
 469  165.4013
 470  146.5962
 471  164.3869
 472  61.07082
 473  98.20924
 474  151.768
 475  26.08508
 476  -34.26697
 477  49.66264
 478  63.05613
 479  161.8467
 480  122.8645
 481  125.5635
 482  39.61497
 483  27.5681
 484  -15.60401
 485  24.12264
 486  25.16848
 487  -2.961168
 488  -23.06404
 489  -98.33923
 490  -129.772
 491  -108.0391
 492  -11.89848
 493  3.148278
 494  -26.43168
 495  49.1537
 496  124.1017
 497  31.21557
 498  -112.3729
 499  -44.70227
 500  27.68015
 501  149.1422
 502  115.2942
 503  -7.047385
 504  14.34107
 505  54.68683
 506  41.03868
 507  10.41158
 508  121.8418
 509  -45.67921
 510  -123.3802
 511  -23.95861
