# Input file       =  1188177843.110233_cleaned.dat
# Candidate        =  PSR_0332+5434
# Telescope        =  AR
# Epoch_topo       =  57996.058589238812
# Epoch_bary       =  N/A
# T_sample         =  0.002
# Data Folded      =  7340032
# Data Avg         =  0.0100000787483655
# Data StdDev      =  1.00001758920506 
# Profile Bins     =  512
# Profile Avg      =  143.386260611785 
# Profile StdDev   =  119.735142385695 
# Reduced chi-sqr  =  3.177
# Prob(Noise)      <  6.05e-116   (~22.9 sigma)
# P_topo (ms)      =  714.46340908561   +/- 0.000261
# P'_topo (s/s)    =  -0                +/- 1.38e-10
# P''_topo (s/s^2) =  0                 +/- 6.08e-14
# P_bary (ms)      =  N/A
# P'_bary (s/s)    =  N/A
# P''_bary (s/s^2) =  N/A
# P_orb (s)        =  N/A
# asin(i)/c (s)    =  N/A
# eccentricity     =  N/A
# w (rad)          =  N/A
# T_peri           =  N/A
######################################################
   0  789.9512
   1  835.2064
   2  474.7135
   3  322.7863
   4  249.9621
   5  282.5442
   6  248.4888
   7  179.1204
   8  196.0946
   9  307.7308
  10  281.3387
  11  212.2053
  12  243.0403
  13  408.5313
  14  404.97
  15  272.488
  16  317.1915
  17  411.9362
  18  269.9187
  19  309.8887
  20  178.7309
  21  279.8834
  22  167.5278
  23  104.4135
  24  230.6137
  25  60.15012
  26  136.4445
  27  59.90707
  28  80.37905
  29  302.0273
  30  324.5231
  31  204.5061
  32  263.5536
  33  194.3466
  34  282.0979
  35  405.659
  36  235.5756
  37  249.9609
  38  260.3353
  39  349.171
  40  154.0786
  41  193.4624
  42  172.8754
  43  364.0748
  44  417.1984
  45  369.6837
  46  382.9768
  47  218.2171
  48  230.2016
  49  255.9201
  50  183.2709
  51  269.5371
  52  335.688
  53  369.8307
  54  516.6575
  55  358.377
  56  305.0977
  57  312.8077
  58  174.8952
  59  294.0924
  60  461.339
  61  335.3007
  62  261.7756
  63  323.2352
  64  373.4297
  65  349.9608
  66  367.955
  67  424.5204
  68  478.1746
  69  419.9886
  70  284.2974
  71  311.2853
  72  386.273
  73  293.7157
  74  81.46734
  75  143.9187
  76  387.571
  77  332.0028
  78  277.6961
  79  198.0815
  80  240.8946
  81  333.8958
  82  378.3105
  83  282.4749
  84  269.6936
  85  227.4914
  86  308.9581
  87  400.0598
  88  301.1289
  89  404.7233
  90  392.0482
  91  502.0652
  92  392.5891
  93  250.7936
  94  301.5369
  95  555.3553
  96  395.0187
  97  283.8325
  98  235.363
  99  358.0995
 100  341.7597
 101  398.9066
 102  289.3702
 103  283.4695
 104  365.1206
 105  402.9199
 106  370.8304
 107  437.4515
 108  251.6115
 109  245.6159
 110  300.7645
 111  331.396
 112  281.4561
 113  71.13912
 114  188.2801
 115  218.5656
 116  299.2656
 117  362.7923
 118  273.5037
 119  270.7392
 120  279.7854
 121  243.6656
 122  262.1152
 123  340.6107
 124  159.5173
 125  245.702
 126  278.1982
 127  139.6425
 128  205.7214
 129  153.126
 130  100.2125
 131  122.157
 132  190.1077
 133  195.848
 134  254.072
 135  181.2637
 136  279.0731
 137  224.928
 138  62.49444
 139  255.7851
 140  284.2504
 141  162.7628
 142  188.3102
 143  226.094
 144  323.5545
 145  175.0015
 146  149.5591
 147  159.658
 148  129.9905
 149  261.0825
 150  458.2526
 151  328.5732
 152  209.0396
 153  257.7152
 154  257.0516
 155  229.2087
 156  83.33321
 157  126.8494
 158  172.7067
 159  137.1604
 160  117.4746
 161  178.3773
 162  181.59
 163  128.1453
 164  181.4438
 165  344.6097
 166  176.9449
 167  184.8861
 168  286.9657
 169  225.7748
 170  256.1141
 171  128.5284
 172  15.84893
 173  84.53478
 174  -143.9111
 175  -92.16322
 176  -126.8801
 177  -36.93651
 178  216.3607
 179  236.8253
 180  198.4477
 181  143.7193
 182  158.1334
 183  159.5472
 184  258.6238
 185  99.65924
 186  142.5957
 187  131.2531
 188  91.39579
 189  177.6156
 190  136.3895
 191  110.5402
 192  138.4721
 193  179.4108
 194  104.2702
 195  -104.9856
 196  -8.908324
 197  192.2333
 198  56.83609
 199  -98.92218
 200  30.50662
 201  20.93711
 202  20.9015
 203  137.9808
 204  60.30656
 205  92.71727
 206  221.5696
 207  75.25346
 208  1.71007
 209  -145.674
 210  -70.15839
 211  -42.39153
 212  60.57779
 213  33.46562
 214  33.59251
 215  26.32828
 216  32.36295
 217  76.79932
 218  49.96318
 219  -202.4714
 220  -127.4193
 221  16.09491
 222  144.7794
 223  9.758782
 224  -98.71401
 225  4.603818
 226  167.4854
 227  55.67108
 228  -54.04226
 229  -89.86941
 230  -101.937
 231  90.63284
 232  79.92872
 233  50.58253
 234  30.48654
 235  93.52151
 236  161.9269
 237  19.61943
 238  -151.9937
 239  25.14738
 240  83.77431
 241  27.99076
 242  103.6548
 243  -13.1315
 244  -107.872
 245  -83.89797
 246  -34.87195
 247  3.256199
 248  38.89577
 249  -22.68359
 250  -32.95834
 251  -105.1773
 252  -57.65186
 253  -85.55359
 254  -20.75956
 255  -71.97002
 256  -67.80656
 257  16.78738
 258  8.012518
 259  56.02136
 260  55.35136
 261  22.21818
 262  -37.79456
 263  -104.8728
 264  -7.636512
 265  -37.32409
 266  15.0033
 267  -30.03188
 268  -96.55859
 269  -78.31783
 270  -28.51355
 271  -8.009678
 272  90.95036
 273  -11.86477
 274  -146.2675
 275  -77.44853
 276  -136.0028
 277  -30.74413
 278  27.56721
 279  101.9991
 280  48.59602
 281  84.2037
 282  14.61007
 283  101.122
 284  188.2738
 285  127.2206
 286  72.30401
 287  72.81667
 288  33.06677
 289  35.13607
 290  61.11963
 291  79.44613
 292  232.8928
 293  232.0577
 294  144.3184
 295  69.15351
 296  112.8292
 297  179.5651
 298  49.77913
 299  -40.60962
 300  58.04136
 301  227.2993
 302  269.8596
 303  291.416
 304  220.8519
 305  166.642
 306  252.5516
 307  179.7903
 308  170.7774
 309  194.6258
 310  235.2981
 311  194.2547
 312  146.2764
 313  44.24679
 314  232.0499
 315  233.3553
 316  240.5393
 317  231.4245
 318  223.4612
 319  237.1034
 320  247.566
 321  170.0104
 322  16.4048
 323  73.84352
 324  283.6601
 325  325.2844
 326  178.0456
 327  224.3839
 328  272.6615
 329  103.7912
 330  191.1013
 331  206.6308
 332  371.3795
 333  199.6914
 334  110.9202
 335  279.756
 336  206.7614
 337  122.9193
 338  132.6921
 339  239.3322
 340  204.3164
 341  89.75009
 342  159.9817
 343  137.1308
 344  151.4692
 345  127.3911
 346  217.1583
 347  277.5082
 348  259.3712
 349  292.2147
 350  209.0023
 351  207.7555
 352  109.9904
 353  103.456
 354  177.8542
 355  215.4931
 356  111.4097
 357  137.3318
 358  161.6094
 359  61.95236
 360  164.2216
 361  138.1153
 362  115.0309
 363  241.7601
 364  316.4365
 365  161.1978
 366  129.8611
 367  104.2139
 368  252.522
 369  158.7093
 370  103.6911
 371  329.1518
 372  382.4827
 373  64.9585
 374  -20.92244
 375  68.35752
 376  38.76647
 377  59.79599
 378  104.9793
 379  140.8924
 380  75.34425
 381  -16.87628
 382  95.35414
 383  107.1724
 384  71.95031
 385  166.7043
 386  160.9724
 387  62.86586
 388  30.27631
 389  73.25392
 390  130.2438
 391  202.0978
 392  162.7613
 393  114.2139
 394  -15.48863
 395  -11.37944
 396  75.61879
 397  51.70392
 398  45.48465
 399  10.40967
 400  -23.0508
 401  12.02655
 402  105.3245
 403  178.766
 404  49.31255
 405  -56.75515
 406  70.94765
 407  45.22022
 408  122.5229
 409  85.04372
 410  112.715
 411  85.13103
 412  56.09081
 413  -52.14294
 414  -86.43115
 415  -154.4721
 416  -23.94563
 417  19.59662
 418  -20.11325
 419  -86.44753
 420  27.86253
 421  -23.65742
 422  23.55922
 423  16.1324
 424  38.97208
 425  76.96519
 426  65.49138
 427  40.84942
 428  -59.14212
 429  -98.29441
 430  -168.046
 431  11.87839
 432  90.10424
 433  99.84401
 434  97.72977
 435  67.35677
 436  83.25919
 437  152.5692
 438  121.4797
 439  -58.92371
 440  -109.1352
 441  48.71788
 442  -104.9492
 443  -67.28213
 444  0.4267215
 445  -83.26077
 446  -236.385
 447  -51.53405
 448  28.76911
 449  13.73635
 450  114.4837
 451  105.6433
 452  3.530753
 453  40.05026
 454  -128.1687
 455  -51.71692
 456  91.93094
 457  -30.17945
 458  90.80071
 459  145.8098
 460  65.01167
 461  -56.35333
 462  -59.0233
 463  -0.6441468
 464  60.4475
 465  110.3507
 466  131.0772
 467  46.18135
 468  -167.7136
 469  -109.8069
 470  -94.46494
 471  -72.92496
 472  101.2279
 473  -31.50153
 474  -112.0548
 475  -199.3265
 476  -128.0035
 477  -67.04021
 478  -69.54401
 479  5.875914
 480  29.12405
 481  -25.44469
 482  -177.4847
 483  -8.590345
 484  -83.43831
 485  -13.97025
 486  102.3589
 487  0.2650424
 488  -137.1843
 489  62.09899
 490  331.2907
 491  141.1628
 492  8.106312
 493  43.2708
 494  128.8162
 495  134.8052
 496  116.0082
 497  71.06012
 498  223.1294
 499  305.8128
 500  179.9296
 501  210.2952
 502  170.5307
 503  254.0401
 504  212.9987
 505  387.4088
 506  470.3639
 507  328.5173
 508  239.2889
 509  506.3023
 510  561.1796
 511  640.1938
