# Input file       =  1188264049.1201_cleaned.dat
# Candidate        =  PSR_0332+5434
# Telescope        =  AR
# Epoch_topo       =  57997.056343982636
# Epoch_bary       =  N/A
# T_sample         =  0.002
# Data Folded      =  7340032
# Data Avg         =  0.00704742080760123
# Data StdDev      =  1.00002511538854 
# Profile Bins     =  512
# Profile Avg      =  101.027653393769 
# Profile StdDev   =  119.736043518496 
# Reduced chi-sqr  =  1.507
# Prob(Noise)      <  8.29e-13   (~7.1 sigma)
# P_topo (ms)      =  714.463464021893  +/- 0.00014
# P'_topo (s/s)    =  -0                +/- 7.37e-11
# P''_topo (s/s^2) =  0                 +/- 3.25e-14
# P_bary (ms)      =  N/A
# P'_bary (s/s)    =  N/A
# P''_bary (s/s^2) =  N/A
# P_orb (s)        =  N/A
# asin(i)/c (s)    =  N/A
# eccentricity     =  N/A
# w (rad)          =  N/A
# T_peri           =  N/A
######################################################
   0  834.0157
   1  765.1776
   2  580.0277
   3  320.2204
   4  132.735
   5  150.2585
   6  232.8806
   7  153.0938
   8  -78.34261
   9  66.43339
  10  180.8696
  11  258.2953
  12  247.9284
  13  126.8607
  14  156.3963
  15  269.4839
  16  230.6915
  17  225.4504
  18  190.9053
  19  266.6357
  20  208.2813
  21  67.7177
  22  23.49496
  23  172.8169
  24  126.5599
  25  170.7193
  26  141.6253
  27  86.59198
  28  74.24626
  29  -15.36941
  30  112.436
  31  141.8263
  32  99.22032
  33  -70.62012
  34  -48.70557
  35  76.61759
  36  18.91643
  37  -60.25293
  38  75.97111
  39  188.4475
  40  149.5068
  41  209.5325
  42  134.5996
  43  121.8028
  44  -18.59521
  45  -40.52497
  46  80.96281
  47  106.4702
  48  144.308
  49  68.31001
  50  150.6028
  51  123.8174
  52  185.4898
  53  157.1983
  54  248.9074
  55  93.46608
  56  -20.29811
  57  223.6333
  58  154.2729
  59  64.44903
  60  165.6568
  61  258.3186
  62  116.7871
  63  -64.89891
  64  50.20594
  65  73.24284
  66  6.368711
  67  133.6668
  68  83.07025
  69  80.95921
  70  100.197
  71  188.7946
  72  38.79674
  73  64.36909
  74  191.3343
  75  121.6783
  76  21.29953
  77  31.27449
  78  147.3386
  79  202.0522
  80  268.1916
  81  264.0185
  82  178.4593
  83  144.6928
  84  85.70739
  85  107.5695
  86  86.57069
  87  7.915145
  88  48.17805
  89  93.86154
  90  98.53116
  91  208.2767
  92  93.22825
  93  2.341453
  94  -6.649591
  95  -2.494986
  96  96.36394
  97  324.0453
  98  113.5881
  99  0.2386385
 100  11.10183
 101  -63.2419
 102  -17.24816
 103  95.67798
 104  222.9263
 105  148.0843
 106  -107.501
 107  -133.59
 108  -112.1098
 109  72.59102
 110  198.3457
 111  181.3812
 112  99.40421
 113  7.887461
 114  69.59232
 115  118.7912
 116  -9.790973
 117  52.734
 118  91.62938
 119  198.8844
 120  78.76425
 121  -120.7903
 122  -32.70728
 123  26.75823
 124  25.70918
 125  140.8894
 126  -34.43887
 127  41.60413
 128  48.18579
 129  91.2007
 130  109.4839
 131  116.831
 132  173.6515
 133  38.31826
 134  -24.25258
 135  -45.46449
 136  66.84433
 137  90.99574
 138  204.8364
 139  83.9228
 140  105.1675
 141  212.1555
 142  68.37636
 143  -2.425748
 144  174.4921
 145  149.7299
 146  111.5844
 147  148.1286
 148  104.8614
 149  138.6662
 150  80.1176
 151  143.5672
 152  247.173
 153  97.27891
 154  176.4775
 155  137.8539
 156  64.13702
 157  150.8764
 158  127.3331
 159  149.3476
 160  70.83562
 161  -18.83142
 162  47.78651
 163  203.9944
 164  42.80379
 165  35.32176
 166  32.84241
 167  78.2843
 168  152.5796
 169  193.5437
 170  21.84526
 171  35.0563
 172  115.2102
 173  192.6576
 174  63.21869
 175  -45.63282
 176  -65.8522
 177  81.1236
 178  48.6423
 179  15.77905
 180  96.80054
 181  229.9078
 182  191.441
 183  -27.64699
 184  -63.08707
 185  -33.50204
 186  15.14425
 187  166.6763
 188  135.1621
 189  -54.04086
 190  24.92706
 191  129.2495
 192  87.51265
 193  -18.50412
 194  -74.90638
 195  118.407
 196  55.91084
 197  -15.84542
 198  22.77345
 199  123.0681
 200  175.8114
 201  92.83936
 202  -74.85854
 203  -121.3073
 204  5.383341
 205  181.636
 206  231.6488
 207  64.24735
 208  139.9077
 209  118.9998
 210  81.78379
 211  134.2645
 212  106.4683
 213  35.01648
 214  -29.59367
 215  -52.37974
 216  19.2511
 217  -16.92833
 218  58.56011
 219  129.0236
 220  69.34566
 221  209.6366
 222  210.951
 223  113.25
 224  104.628
 225  2.809736
 226  48.55125
 227  176.9609
 228  127.3962
 229  263.4115
 230  251.5953
 231  128.7009
 232  220.7569
 233  46.40113
 234  86.97049
 235  9.230704
 236  173.7553
 237  111.8728
 238  60.38666
 239  99.81965
 240  178.7856
 241  49.56552
 242  28.77362
 243  175.9825
 244  53.67204
 245  53.48784
 246  127.9947
 247  62.41838
 248  51.33909
 249  -47.36433
 250  0.8375509
 251  108.8099
 252  84.30629
 253  18.22795
 254  57.4392
 255  22.87214
 256  153.1545
 257  213.2315
 258  107.6888
 259  88.05068
 260  80.36336
 261  132.8395
 262  141.0119
 263  110.0934
 264  5.161674
 265  70.76093
 266  119.9821
 267  66.59038
 268  150.943
 269  -4.758956
 270  15.42803
 271  183.6124
 272  206.9365
 273  29.012
 274  7.278842
 275  43.59008
 276  -126.0013
 277  -117.7088
 278  -62.17884
 279  13.14521
 280  274.2039
 281  223.1868
 282  63.5021
 283  41.67322
 284  -4.483456
 285  -8.499938
 286  -9.483945
 287  85.03265
 288  -62.88652
 289  -1.059882
 290  138.9867
 291  67.82763
 292  86.63039
 293  86.23816
 294  168.3914
 295  149.9156
 296  10.12941
 297  70.12499
 298  -85.80759
 299  -27.73194
 300  62.0225
 301  87.60969
 302  159.6462
 303  202.8313
 304  90.95781
 305  60.43097
 306  106.1216
 307  223.3384
 308  179.9932
 309  56.05368
 310  -25.19417
 311  -0.9542512
 312  66.48793
 313  60.06217
 314  132.5768
 315  115.0466
 316  228.1642
 317  192.4998
 318  134.5853
 319  95.6946
 320  77.60852
 321  -178.0181
 322  19.48091
 323  154.7502
 324  129.766
 325  120.7519
 326  80.26657
 327  76.39514
 328  78.45254
 329  207.7494
 330  213.3605
 331  122.8016
 332  195.9809
 333  191.8617
 334  56.28527
 335  -112.4481
 336  51.17065
 337  22.78396
 338  192.9354
 339  -2.568773
 340  83.28832
 341  201.056
 342  75.11264
 343  94.85549
 344  238.6648
 345  57.96005
 346  75.1986
 347  76.68024
 348  44.78542
 349  128.8717
 350  140.7921
 351  74.00446
 352  -6.996802
 353  -20.49577
 354  -84.0593
 355  54.27259
 356  164.4414
 357  96.70911
 358  43.45133
 359  100.812
 360  100.8488
 361  160.5939
 362  236.3644
 363  212.05
 364  165.4929
 365  42.01944
 366  136.739
 367  187.6952
 368  193.9564
 369  160.4627
 370  83.20285
 371  -10.92492
 372  -77.34937
 373  123.1389
 374  196.956
 375  60.73522
 376  129.4231
 377  41.39135
 378  32.94781
 379  59.88941
 380  121.1683
 381  185.8401
 382  186.6969
 383  251.2455
 384  117.2574
 385  169.0245
 386  265.7564
 387  178.8041
 388  133.5972
 389  35.04233
 390  33.06595
 391  -12.13848
 392  162.2956
 393  288.6696
 394  137.5806
 395  146.4767
 396  185.716
 397  167.2615
 398  53.41914
 399  -168.1907
 400  16.93449
 401  101.3465
 402  53.06569
 403  204.1746
 404  151.6926
 405  135.2048
 406  39.50227
 407  83.03611
 408  213.6469
 409  169.8803
 410  -10.74604
 411  4.237789
 412  76.9368
 413  197.1382
 414  125.2286
 415  113.5164
 416  135.7207
 417  -86.13692
 418  -100.6736
 419  109.5967
 420  116.451
 421  20.29828
 422  62.44182
 423  23.75985
 424  37.06769
 425  111.7045
 426  47.86176
 427  11.31569
 428  -5.293378
 429  -4.194486
 430  161.55
 431  202.155
 432  212.344
 433  283.286
 434  178.6237
 435  220.2834
 436  102.9959
 437  59.58428
 438  176.8269
 439  268.3667
 440  219.3234
 441  83.82195
 442  6.276162
 443  -2.018844
 444  98.34855
 445  163.4579
 446  115.2722
 447  97.39497
 448  131.2223
 449  164.242
 450  162.6326
 451  66.68953
 452  137.236
 453  185.8573
 454  162.7639
 455  181.7771
 456  118.7767
 457  15.47237
 458  -21.91714
 459  41.34219
 460  141.3859
 461  137.2459
 462  67.35961
 463  22.42467
 464  80.10963
 465  103.445
 466  169.7638
 467  76.78242
 468  147.5286
 469  184.5234
 470  113.8251
 471  35.07416
 472  96.74662
 473  110.4247
 474  114.4131
 475  97.83852
 476  125.3244
 477  140.0238
 478  -23.40852
 479  231.3522
 480  92.3032
 481  -41.34105
 482  113.6268
 483  75.87391
 484  -2.144801
 485  -60.52838
 486  60.56289
 487  255.3127
 488  283.9839
 489  29.528
 490  72.33904
 491  246.4803
 492  195.78
 493  190.4347
 494  64.55874
 495  146.9851
 496  71.3983
 497  69.68195
 498  145.9063
 499  66.32833
 500  91.55374
 501  98.15004
 502  43.11071
 503  25.75308
 504  160.6602
 505  163.8242
 506  38.45369
 507  9.328466
 508  186.8698
 509  383.5637
 510  482.7033
 511  822.7349
