# Input file       =  1188163236.117847_cleaned.dat
# Candidate        =  PSR_0332+5434
# Telescope        =  AR
# Epoch_topo       =  57995.889526826933
# Epoch_bary       =  N/A
# T_sample         =  0.002
# Data Folded      =  7143424
# Data Avg         =  0.0455161002507313
# Data StdDev      =  3.29087760019144 
# Profile Bins     =  256
# Profile Avg      =  1270.06434878659 
# Profile StdDev   =  549.724333268906 
# Reduced chi-sqr  =  0.950
# Prob(Noise)      <  0.709   (~0.0 sigma)
# P_topo (ms)      =  714.463389011239  +/- 5.84e-05
# P'_topo (s/s)    =  -0                +/- 3.17e-11
# P''_topo (s/s^2) =  0                 +/- 1.44e-14
# P_bary (ms)      =  N/A
# P'_bary (s/s)    =  N/A
# P''_bary (s/s^2) =  N/A
# P_orb (s)        =  N/A
# asin(i)/c (s)    =  N/A
# eccentricity     =  N/A
# w (rad)          =  N/A
# T_peri           =  N/A
######################################################
   0  1972.289
   1  963.7867
   2  1794.258
   3  1324.945
   4  1266.455
   5  1380.775
   6  1229.739
   7  1362.346
   8  1153.392
   9  1172.311
  10  1669.95
  11  1035.854
  12  1770.502
  13  1356.908
  14  512.1362
  15  1271.621
  16  1586.695
  17  1725.326
  18  1170.788
  19  822.1756
  20  1289.257
  21  1317.621
  22  445.1692
  23  722.1147
  24  1400.701
  25  1636.557
  26  579.291
  27  332.4828
  28  1539.32
  29  1187.63
  30  733.3976
  31  690.108
  32  1623.076
  33  1244.589
  34  630.4856
  35  576.17
  36  391.6165
  37  1805.541
  38  1206.893
  39  1267.692
  40  1242.459
  41  2077.628
  42  1499.634
  43  1141.682
  44  1801.625
  45  1524.589
  46  659.0793
  47  1054.215
  48  1447.595
  49  1170.542
  50  1465.439
  51  1246.443
  52  735.001
  53  809.3358
  54  1159.398
  55  619.3232
  56  1150.791
  57  2093.116
  58  1321.51
  59  656.7708
  60  657.726
  61  1026.753
  62  634.8566
  63  336.4747
  64  852.0095
  65  1148.208
  66  1801.361
  67  1068.427
  68  409.1462
  69  1288.875
  70  1258.476
  71  635.6406
  72  1011.749
  73  690.4383
  74  1503.208
  75  1504.112
  76  708.7228
  77  781.117
  78  917.7458
  79  1028.395
  80  1097.396
  81  934.3818
  82  1367.059
  83  1623.849
  84  1184.558
  85  422.7767
  86  836.0185
  87  1734.579
  88  860.9951
  89  1688.36
  90  1986.999
  91  1532.55
  92  1411.536
  93  1145.742
  94  1615.323
  95  614.9193
  96  992.8979
  97  531.8292
  98  1822.27
  99  2340.521
 100  1226.984
 101  867.1948
 102  1674.693
 103  1681.987
 104  924.9863
 105  775.2053
 106  654.5026
 107  1568.419
 108  1530.782
 109  426.4219
 110  1021.863
 111  1172.276
 112  1137.258
 113  1086.777
 114  1133.508
 115  1554.904
 116  1314.904
 117  793.7224
 118  1451.292
 119  1661.134
 120  1056.215
 121  648.3116
 122  1209.597
 123  1438.388
 124  1510.414
 125  1364.686
 126  1532.13
 127  1085.344
 128  1746.778
 129  1340.239
 130  1555.766
 131  1519.201
 132  1505.599
 133  967.6932
 134  1443.428
 135  2073.026
 136  1711.729
 137  1423.243
 138  823.4879
 139  986.7761
 140  1333.192
 141  1374.302
 142  1217.648
 143  988.5757
 144  900.8051
 145  1221.048
 146  1143.265
 147  1091.825
 148  1523.838
 149  1097.918
 150  1571.443
 151  1256.025
 152  1798.035
 153  2108.832
 154  785.3051
 155  1514.384
 156  1343.158
 157  1611.015
 158  1877.92
 159  2166.154
 160  3042.795
 161  3763.85
 162  2771.136
 163  931.481
 164  1515.37
 165  1960.277
 166  1142.615
 167  1961.335
 168  1517.12
 169  1209.956
 170  1219.477
 171  1490.822
 172  1711.17
 173  1603.125
 174  1719.314
 175  1152.109
 176  1270.543
 177  1704.879
 178  1125.604
 179  784.728
 180  1484.799
 181  1298.77
 182  1329.049
 183  1109.901
 184  1528.127
 185  824.5511
 186  1150.12
 187  689.072
 188  999.5164
 189  1534.91
 190  1783.347
 191  1020.453
 192  972.0881
 193  1773.83
 194  1435.824
 195  1206.391
 196  751.2627
 197  1390.195
 198  1725.053
 199  1602.748
 200  1180.142
 201  1765.157
 202  1811.483
 203  1226.279
 204  839.4243
 205  1511.219
 206  2039.798
 207  1133.105
 208  1598.876
 209  2040.832
 210  1666.459
 211  1322.895
 212  788.2861
 213  1086.524
 214  1729.011
 215  2224.983
 216  948.7357
 217  921.3344
 218  1309.987
 219  1854.679
 220  845.9703
 221  1727.014
 222  1694.617
 223  1618.453
 224  1811.138
 225  1588.373
 226  852.3857
 227  846.042
 228  769.6512
 229  1127.584
 230  1461.128
 231  1374.738
 232  1122.299
 233  905.2941
 234  1370.564
 235  1105.018
 236  1118.836
 237  1088.895
 238  1605.668
 239  1523.542
 240  988.9683
 241  429.5482
 242  1032.92
 243  1517.599
 244  1425.586
 245  1116.392
 246  513.4019
 247  1654.351
 248  1245.664
 249  561.871
 250  267.4993
 251  764.3313
 252  1173.159
 253  956.2779
 254  1312.475
 255  840.6052
