# Input file       =  1188005499.110864_cleaned.dat
# Candidate        =  PSR_0332+5434
# Telescope        =  AR
# Epoch_topo       =  57994.063867023891
# Epoch_bary       =  N/A
# T_sample         =  0.002
# Data Folded      =  7340032
# Data Avg         =  0.0106793320711224
# Data StdDev      =  1.00001962246095 
# Profile Bins     =  512
# Profile Avg      =  153.145113300014 
# Profile StdDev   =  119.735385833597 
# Reduced chi-sqr  =  1.365
# Prob(Noise)      <  6.98e-08   (~5.3 sigma)
# P_topo (ms)      =  714.463349140759  +/- 0.000336
# P'_topo (s/s)    =  -0                +/- 1.77e-10
# P''_topo (s/s^2) =  0                 +/- 7.82e-14
# P_bary (ms)      =  N/A
# P'_bary (s/s)    =  N/A
# P''_bary (s/s^2) =  N/A
# P_orb (s)        =  N/A
# asin(i)/c (s)    =  N/A
# eccentricity     =  N/A
# w (rad)          =  N/A
# T_peri           =  N/A
######################################################
   0  831.1584
   1  739.946
   2  542.7367
   3  334.4558
   4  279.5839
   5  238.0001
   6  131.6755
   7  142.2493
   8  38.26577
   9  103.2127
  10  187.3114
  11  223.3838
  12  258.7914
  13  150.1634
  14  130.8944
  15  237.9865
  16  74.40697
  17  -97.25734
  18  104.0899
  19  274.9564
  20  154.4788
  21  203.7704
  22  129.5908
  23  59.33741
  24  153.9914
  25  150.8368
  26  104.5325
  27  131.5831
  28  159.3427
  29  120.5218
  30  227.2636
  31  207.331
  32  309.5571
  33  191.6738
  34  111.8857
  35  181.7923
  36  190.0349
  37  301.488
  38  194.4762
  39  176.7541
  40  89.37672
  41  191.054
  42  211.4561
  43  195.2846
  44  206.4464
  45  34.6992
  46  62.31445
  47  125.4826
  48  237.6261
  49  229.1482
  50  76.12426
  51  203.9408
  52  190.7139
  53  145.4735
  54  79.17866
  55  203.9104
  56  100.0209
  57  116.8011
  58  137.78
  59  103.3619
  60  28.25548
  61  173.8788
  62  175.8249
  63  196.9988
  64  354.0044
  65  164.1312
  66  -5.387483
  67  77.81777
  68  211.9931
  69  227.3881
  70  86.26365
  71  89.1634
  72  227.854
  73  148.6217
  74  89.88144
  75  160.1747
  76  86.36642
  77  169.0724
  78  97.29111
  79  -52.31781
  80  134.4142
  81  174.1272
  82  134.6363
  83  194.171
  84  282.7286
  85  327.2245
  86  152.4575
  87  -1.411108
  88  95.25663
  89  259.0924
  90  168.4474
  91  247.9935
  92  251.9009
  93  149.5793
  94  146.0059
  95  126.2734
  96  169.0912
  97  156.8226
  98  178.1455
  99  336.7727
 100  245.577
 101  221.2647
 102  134.1995
 103  137.7945
 104  144.4619
 105  153.9463
 106  327.499
 107  215.7025
 108  61.51911
 109  166.8768
 110  183.0633
 111  223.5048
 112  266.4785
 113  355.2585
 114  286.9764
 115  164.4543
 116  177.3553
 117  147.1429
 118  219.1312
 119  123.5619
 120  191.6871
 121  225.2865
 122  197.7024
 123  299.3451
 124  216.2523
 125  93.95667
 126  71.35165
 127  40.46112
 128  177.9201
 129  122.6871
 130  133.6352
 131  194.97
 132  165.191
 133  183.8623
 134  140.5318
 135  149.0989
 136  137.0689
 137  245.8859
 138  174.5981
 139  166.1806
 140  6.405934
 141  30.639
 142  101.612
 143  211.2831
 144  219.9001
 145  80.99076
 146  124.8865
 147  8.051156
 148  -47.16271
 149  57.68673
 150  109.3463
 151  178.9529
 152  152.331
 153  195.5056
 154  237.5583
 155  178.4331
 156  169.4352
 157  226.722
 158  195.0521
 159  163.723
 160  244.6553
 161  331.1477
 162  208.7416
 163  218.6362
 164  -44.52287
 165  143.3233
 166  255.6167
 167  175.0739
 168  75.72025
 169  -14.29469
 170  4.743412
 171  25.00195
 172  202.9536
 173  218.787
 174  233.6164
 175  147.3221
 176  24.61243
 177  194.1153
 178  250.6596
 179  148.3571
 180  68.26859
 181  -40.06439
 182  122.2214
 183  198.0356
 184  156.8188
 185  61.39304
 186  -54.62052
 187  11.58591
 188  199.8023
 189  295.8814
 190  168.6644
 191  18.35627
 192  59.80387
 193  275.5929
 194  113.5986
 195  50.81782
 196  7.817206
 197  97.28458
 198  140.7243
 199  101.1712
 200  126.0113
 201  157.9022
 202  76.34218
 203  58.76084
 204  136.4663
 205  181.7905
 206  37.24168
 207  140.9585
 208  146.0936
 209  73.725
 210  58.57019
 211  199.4051
 212  187.1578
 213  75.5353
 214  77.73849
 215  116.3763
 216  150.196
 217  60.21117
 218  57.69484
 219  14.77506
 220  123.345
 221  124.8226
 222  114.2334
 223  70.56119
 224  81.47889
 225  121.9446
 226  -60.56257
 227  -7.189814
 228  109.4773
 229  96.00639
 230  146.7458
 231  175.521
 232  64.8279
 233  -7.167272
 234  1.858696
 235  103.2991
 236  7.689734
 237  48.34184
 238  -57.72366
 239  -27.72927
 240  35.44236
 241  -95.52029
 242  33.53634
 243  98.91694
 244  226.6694
 245  193.1909
 246  72.21502
 247  156.4909
 248  152.9198
 249  85.53149
 250  140.6505
 251  142.3532
 252  173.4547
 253  202.3924
 254  220.15
 255  174.7067
 256  194.3235
 257  134.3871
 258  -4.417658
 259  119.0711
 260  235.604
 261  218.9265
 262  135.1152
 263  7.536494
 264  121.4121
 265  191.4334
 266  182.9474
 267  234.0148
 268  246.4319
 269  239.6892
 270  227.0232
 271  124.3595
 272  177.2467
 273  256.8734
 274  69.8078
 275  46.6376
 276  106.5089
 277  7.076968
 278  64.30125
 279  177.333
 280  182.5683
 281  72.34975
 282  -49.50959
 283  41.94877
 284  87.51053
 285  94.20303
 286  236.5683
 287  292.1301
 288  163.3293
 289  172.7853
 290  168.6434
 291  44.53041
 292  19.30627
 293  85.8297
 294  145.3562
 295  58.51529
 296  34.12798
 297  211.299
 298  104.5641
 299  105.0429
 300  120.3282
 301  250.5817
 302  227.7255
 303  328.026
 304  296.6874
 305  122.2776
 306  103.8402
 307  147.6531
 308  118.0674
 309  55.5609
 310  150.5152
 311  309.1854
 312  265.5801
 313  127.8986
 314  26.56832
 315  66.92448
 316  154.4802
 317  50.00583
 318  8.506446
 319  46.51509
 320  90.62295
 321  116.8946
 322  133.5112
 323  100.7743
 324  246.1001
 325  187.7058
 326  103.7987
 327  154.8868
 328  8.972229
 329  156.4426
 330  92.47029
 331  87.47321
 332  288.4982
 333  163.821
 334  209.4307
 335  103.3519
 336  69.90248
 337  179.5236
 338  241.4913
 339  260.2029
 340  46.90866
 341  151.2866
 342  178.0436
 343  113.5128
 344  150.9219
 345  186.5667
 346  192.0936
 347  302.3415
 348  175.3811
 349  131.3616
 350  65.88585
 351  144.5127
 352  83.43877
 353  113.4724
 354  -16.53545
 355  14.01981
 356  105.439
 357  -0.7427223
 358  25.1566
 359  177.8674
 360  125.842
 361  177.5953
 362  247.7628
 363  69.01025
 364  132.9438
 365  115.9638
 366  178.1979
 367  121.9749
 368  154.071
 369  193.6713
 370  229.4041
 371  86.22662
 372  76.07108
 373  155.3722
 374  162.1663
 375  164.0693
 376  112.4306
 377  -37.29906
 378  130.271
 379  139.8438
 380  227.3058
 381  214.2735
 382  109.4437
 383  191.3391
 384  276.9141
 385  172.5228
 386  77.36105
 387  32.3329
 388  154.6922
 389  89.29671
 390  153.1896
 391  230.3315
 392  251.2478
 393  136.6267
 394  196.9439
 395  161.4975
 396  48.30645
 397  43.32578
 398  237.4443
 399  293.9822
 400  123.9611
 401  -5.666566
 402  179.7152
 403  230.5327
 404  171.0407
 405  92.29118
 406  176.4137
 407  199.3119
 408  265.1679
 409  216.3097
 410  139.8045
 411  167.7307
 412  179.133
 413  269.1669
 414  272.3211
 415  75.03474
 416  137.1263
 417  271.313
 418  36.50331
 419  13.06297
 420  131.4762
 421  68.27985
 422  101.6342
 423  80.68817
 424  144.2853
 425  46.51728
 426  -11.33045
 427  209.2743
 428  257.153
 429  171.9368
 430  105.7386
 431  137.1342
 432  151.6565
 433  95.08637
 434  189.848
 435  113.8614
 436  322.2447
 437  241.0018
 438  161.4012
 439  119.6977
 440  200.4721
 441  300.1543
 442  151.5885
 443  205.7937
 444  234.3093
 445  99.65752
 446  77.25533
 447  90.51592
 448  150.8193
 449  147.0809
 450  120.3032
 451  98.6991
 452  92.08028
 453  150.0105
 454  239.117
 455  282.7724
 456  248.5952
 457  203.414
 458  141.1254
 459  114.7767
 460  175.4532
 461  150.2183
 462  87.93086
 463  167.8643
 464  87.25443
 465  124.4355
 466  50.97451
 467  161.9212
 468  254.7131
 469  177.2198
 470  211.6704
 471  85.39939
 472  81.49977
 473  98.88246
 474  238.3445
 475  182.1901
 476  130.2414
 477  174.2058
 478  200.4754
 479  309.9184
 480  343.7386
 481  221.6078
 482  285.3644
 483  124.0808
 484  73.91422
 485  121.0151
 486  180.0477
 487  180.1423
 488  141.3188
 489  306.0944
 490  258.4545
 491  164.6699
 492  134.7349
 493  192.8764
 494  171.8783
 495  102.3002
 496  -55.80741
 497  34.59775
 498  156.6971
 499  164.6122
 500  67.75034
 501  141.8519
 502  198.6921
 503  294.312
 504  352.1942
 505  264.0677
 506  378.6254
 507  407.4966
 508  459.8679
 509  501.065
 510  579.0876
 511  707.7929
