# Input file       =  1188278963.107433_cleaned.dat
# Candidate        =  PSR_0332+5434
# Telescope        =  AR
# Epoch_topo       =  57997.228959576772
# Epoch_bary       =  N/A
# T_sample         =  0.002
# Data Folded      =  7340032
# Data Avg         =  0.0358072539498347
# Data StdDev      =  3.26188128797679 
# Profile Bins     =  512
# Profile Avg      =  513.419314484954 
# Profile StdDev   =  390.554950910017 
# Reduced chi-sqr  =  1.277
# Prob(Noise)      <  2.09e-05   (~4.1 sigma)
# P_topo (ms)      =  714.463811175653  +/- 0.000122
# P'_topo (s/s)    =  -0                +/- 6.43e-11
# P''_topo (s/s^2) =  0                 +/- 2.84e-14
# P_bary (ms)      =  N/A
# P'_bary (s/s)    =  N/A
# P''_bary (s/s^2) =  N/A
# P_orb (s)        =  N/A
# asin(i)/c (s)    =  N/A
# eccentricity     =  N/A
# w (rad)          =  N/A
# T_peri           =  N/A
######################################################
   0  872.2885
   1  505.6287
   2  325.9792
   3  517.9536
   4  742.78
   5  574.4424
   6  -89.29899
   7  -69.93036
   8  422.2577
   9  380.059
  10  357.8748
  11  304.7297
  12  383.425
  13  296.8419
  14  179.3653
  15  182.6123
  16  638.9043
  17  308.7065
  18  223.9919
  19  412.6161
  20  391.7131
  21  99.8405
  22  17.90462
  23  -545.5623
  24  -29.59053
  25  186.52
  26  737.6544
  27  571.1172
  28  60.51368
  29  67.5624
  30  196.2962
  31  440.5248
  32  747.1951
  33  732.1183
  34  286.9504
  35  318.8509
  36  420.6084
  37  411.191
  38  210.4787
  39  233.0204
  40  553.733
  41  775.2764
  42  1165.442
  43  661.5858
  44  332.2495
  45  83.59021
  46  112.1532
  47  179.8974
  48  487.1382
  49  282.1487
  50  112.3832
  51  346.7448
  52  272.4407
  53  107.4701
  54  386.7937
  55  109.039
  56  119.9951
  57  318.6799
  58  313.5632
  59  503.1791
  60  625.8909
  61  1007.464
  62  637.4693
  63  84.63907
  64  654.4584
  65  942.6798
  66  694.2059
  67  306.2128
  68  714.9469
  69  875.5898
  70  827.2895
  71  429.4684
  72  261.0133
  73  360.0905
  74  678.6354
  75  761.8516
  76  747.3471
  77  486.1478
  78  50.89632
  79  97.72921
  80  583.3419
  81  947.0544
  82  836.9044
  83  693.4311
  84  830.4971
  85  783.2645
  86  486.3561
  87  370.0882
  88  426.6805
  89  523.7038
  90  547.7656
  91  575.926
  92  267.3106
  93  301.612
  94  482.2067
  95  684.1572
  96  150.8615
  97  59.75365
  98  332.8384
  99  297.9376
 100  158.2557
 101  83.99269
 102  526.5026
 103  532.4656
 104  966.9366
 105  210.4857
 106  -244.0338
 107  85.30523
 108  524.6439
 109  529.9785
 110  221.3293
 111  249.9043
 112  234.5992
 113  159.89
 114  499.9533
 115  567.6756
 116  243.5527
 117  275.0261
 118  287.7633
 119  19.13846
 120  65.65823
 121  513.9597
 122  403.6678
 123  680.3934
 124  408.0543
 125  385.2148
 126  149.2134
 127  221.3631
 128  592.4504
 129  641.3271
 130  392.3506
 131  426.6343
 132  261.6624
 133  273.6583
 134  258.377
 135  582.8652
 136  1237.577
 137  1044.674
 138  778.7209
 139  821.9762
 140  760.2031
 141  693.4593
 142  300.7159
 143  863.7183
 144  503.6419
 145  458.1549
 146  568.0767
 147  636.9089
 148  536.3636
 149  657.6212
 150  1123.463
 151  1131.414
 152  726.9576
 153  521.3824
 154  605.9278
 155  611.2379
 156  296.624
 157  501.337
 158  572.7328
 159  639.2631
 160  1067.897
 161  413.5482
 162  283.5492
 163  319.3015
 164  732.9949
 165  699.7958
 166  894.847
 167  709.6092
 168  483.1231
 169  292.485
 170  508.7633
 171  359.1714
 172  669.6295
 173  813.6824
 174  743.3812
 175  496.0866
 176  396.8267
 177  956.1232
 178  596.8561
 179  -34.58202
 180  104.7321
 181  233.0622
 182  995.4211
 183  1044.79
 184  827.0896
 185  1249.323
 186  1039.427
 187  449.7845
 188  454.3969
 189  590.2213
 190  636.9106
 191  318.859
 192  635.7028
 193  412.4907
 194  501.3632
 195  897.5449
 196  591.1741
 197  634.1355
 198  928.2604
 199  844.3774
 200  1220.561
 201  1274.848
 202  854.5027
 203  573.9047
 204  1033.19
 205  772.0676
 206  550.5508
 207  830.578
 208  326.3193
 209  515.2463
 210  997.2
 211  882.3642
 212  445.5964
 213  791.3228
 214  955.2717
 215  468.6549
 216  390.7009
 217  245.0388
 218  901.4547
 219  996.3381
 220  682.7341
 221  753.4401
 222  448.3876
 223  395.7588
 224  357.5268
 225  739.1099
 226  680.1909
 227  798.636
 228  885.2429
 229  515.8335
 230  507.5499
 231  817.5643
 232  816.5839
 233  504.0345
 234  588.7458
 235  215.5425
 236  321.602
 237  227.5207
 238  699.1617
 239  997.8401
 240  537.3755
 241  197.8311
 242  509.3839
 243  455.2993
 244  614.4252
 245  593.8329
 246  359.9196
 247  609.973
 248  473.0432
 249  594.8484
 250  743.2026
 251  769.4928
 252  779.1711
 253  621.8562
 254  553.7997
 255  628.2841
 256  652.1833
 257  421.8074
 258  -43.65976
 259  551.2393
 260  1438.651
 261  1095.818
 262  493.6957
 263  572.5037
 264  486.3125
 265  415.5431
 266  655.6064
 267  816.1882
 268  826.0573
 269  472.1984
 270  760.5325
 271  569.0344
 272  875.4028
 273  690.1693
 274  474.2615
 275  356.3264
 276  482.9775
 277  837.1335
 278  520.3168
 279  -93.16921
 280  116.6815
 281  739.3828
 282  589.598
 283  546.5305
 284  1263.845
 285  1261.263
 286  669.9403
 287  573.6684
 288  714.3378
 289  684.5016
 290  850.3838
 291  886.5288
 292  917.9077
 293  1023.196
 294  509.5462
 295  590.1381
 296  535.2135
 297  642.6184
 298  749.4741
 299  1043.855
 300  1047.202
 301  725.9578
 302  1061.478
 303  1185.476
 304  344.3799
 305  38.67071
 306  263.5765
 307  581.9551
 308  535.7158
 309  487.4579
 310  319.231
 311  559.7128
 312  586.0599
 313  803.4735
 314  839.3476
 315  681.2775
 316  686.712
 317  378.2523
 318  340.5944
 319  482.5856
 320  1100.974
 321  1780.334
 322  1693.761
 323  1836.334
 324  1841.984
 325  1219.354
 326  830.0677
 327  424.5797
 328  67.2363
 329  297.8912
 330  545.3945
 331  492.3619
 332  871.5133
 333  742.6255
 334  666.6607
 335  652.618
 336  940.8398
 337  473.2587
 338  803.6708
 339  729.8352
 340  280.6051
 341  618.7343
 342  859.0858
 343  777.9963
 344  511.5778
 345  350.6082
 346  355.6227
 347  77.72609
 348  461.0085
 349  570.8412
 350  326.803
 351  -12.83973
 352  322.569
 353  621.0059
 354  429.1548
 355  509.8004
 356  683.8972
 357  617.5852
 358  999.0942
 359  468.7982
 360  464.3365
 361  714.3162
 362  812.9156
 363  1096.419
 364  714.8814
 365  612.832
 366  451.2596
 367  813.5042
 368  619.4004
 369  468.0106
 370  524.5521
 371  185.7316
 372  508.8566
 373  959.3625
 374  999.5995
 375  564.9525
 376  161.0998
 377  535.4765
 378  133.4062
 379  174.9915
 380  238.1221
 381  322.8221
 382  300.8708
 383  -84.7473
 384  -38.87856
 385  -17.3063
 386  230.0548
 387  135.3061
 388  -149.1732
 389  58.55679
 390  280.3161
 391  -57.78794
 392  -150.1105
 393  446.5296
 394  672.1604
 395  296.3493
 396  784.3613
 397  667.173
 398  437.5957
 399  193.9931
 400  349.2838
 401  488.3174
 402  267.2685
 403  510.6518
 404  326.1261
 405  100.1999
 406  331.9982
 407  -193.7569
 408  151.41
 409  96.6562
 410  416.8414
 411  183.7089
 412  254.9285
 413  593.119
 414  462.1202
 415  660.171
 416  862.23
 417  644.8147
 418  737.0575
 419  219.9775
 420  189.2865
 421  695.8702
 422  500.7897
 423  520.0977
 424  282.4778
 425  -65.44535
 426  265.8279
 427  501.9622
 428  668.0905
 429  751.0629
 430  333.8216
 431  493.362
 432  713.5873
 433  70.53738
 434  427.6031
 435  799.4821
 436  780.5071
 437  618.0425
 438  937.2061
 439  1080.196
 440  921.7907
 441  737.9575
 442  61.2951
 443  545.4454
 444  982.2322
 445  583.7062
 446  861.4956
 447  993.8544
 448  897.1389
 449  637.9844
 450  558.6758
 451  587.7615
 452  361.7014
 453  -64.2281
 454  201.0273
 455  311.038
 456  338.5684
 457  189.0142
 458  -149.202
 459  182.8701
 460  438.5183
 461  154.9177
 462  267.6092
 463  309.0435
 464  92.01308
 465  124.5435
 466  145.0558
 467  285.7534
 468  628.2225
 469  708.4572
 470  302.101
 471  375.8042
 472  360.1277
 473  510.4606
 474  283.8792
 475  177.4858
 476  620.6489
 477  679.5847
 478  382.882
 479  397.174
 480  307.3789
 481  -97.46976
 482  155.6037
 483  205.3552
 484  252.1268
 485  217.2558
 486  -29.92527
 487  -162.2543
 488  83.07848
 489  328.6558
 490  616.2252
 491  370.2005
 492  377.3272
 493  402.21
 494  -10.71637
 495  340.9058
 496  318.0421
 497  277.7155
 498  554.647
 499  607.6829
 500  270.9485
 501  541.2271
 502  1203.509
 503  829.8431
 504  542.5161
 505  261.4225
 506  378.9569
 507  -168.028
 508  403.837
 509  648.6458
 510  539.6999
 511  713.8997
