# Input file       =  1188421806.120907_cleaned.dat
# Candidate        =  PSR_0332+5434
# Telescope        =  AR
# Epoch_topo       =  57998.882235195684
# Epoch_bary       =  N/A
# T_sample         =  0.002
# Data Folded      =  7143424
# Data Avg         =  0.0132440030759907
# Data StdDev      =  1.00007613929866 
# Profile Bins     =  512
# Profile Avg      =  184.843075242599 
# Profile StdDev   =  118.127577948048 
# Reduced chi-sqr  =  1.340
# Prob(Noise)      <  3.96e-07   (~4.9 sigma)
# P_topo (ms)      =  714.463591635801  +/- 0.000166
# P'_topo (s/s)    =  -0                +/- 8.99e-11
# P''_topo (s/s^2) =  0                 +/- 4.08e-14
# P_bary (ms)      =  N/A
# P'_bary (s/s)    =  N/A
# P''_bary (s/s^2) =  N/A
# P_orb (s)        =  N/A
# asin(i)/c (s)    =  N/A
# eccentricity     =  N/A
# w (rad)          =  N/A
# T_peri           =  N/A
######################################################
   0  271.1499
   1  195.4112
   2  173.6413
   3  256.3553
   4  344.3057
   5  301.408
   6  179.063
   7  181.9466
   8  127.296
   9  172.3053
  10  182.4578
  11  226.3685
  12  75.31761
  13  91.52863
  14  51.47299
  15  212.1523
  16  232.6851
  17  303.16
  18  216.665
  19  150.021
  20  253.2688
  21  137.6909
  22  138.8919
  23  110.9579
  24  70.62315
  25  118.237
  26  208.6598
  27  242.1171
  28  238.3799
  29  87.98299
  30  198.1539
  31  307.517
  32  199.3796
  33  156.046
  34  122.0581
  35  116.6074
  36  178.4305
  37  167.7127
  38  310.7791
  39  227.4393
  40  158.3764
  41  179.1651
  42  200.799
  43  77.56019
  44  254.3471
  45  257.5554
  46  182.4045
  47  178.3361
  48  149.705
  49  225.2694
  50  212.7147
  51  83.15347
  52  142.6207
  53  85.52272
  54  70.76317
  55  195.7107
  56  189.2427
  57  191.8829
  58  229.7772
  59  248.3651
  60  269.4317
  61  282.9501
  62  240.8522
  63  98.98373
  64  232.6761
  65  223.4542
  66  139.3406
  67  -16.18363
  68  20.03171
  69  169.8272
  70  139.9153
  71  226.1587
  72  198.9763
  73  233.7334
  74  181.5838
  75  80.30046
  76  167.7069
  77  105.4672
  78  117.5992
  79  213.8824
  80  137.4341
  81  150.7223
  82  187.9252
  83  270.0226
  84  129.3445
  85  142.1657
  86  285.3661
  87  302.8218
  88  234.2581
  89  270.1281
  90  315.5483
  91  193.974
  92  229.002
  93  199.7389
  94  164.3142
  95  101.4725
  96  131.482
  97  231.6086
  98  381.3589
  99  190.2712
 100  178.1911
 101  274.4789
 102  239.6681
 103  222.5374
 104  239.0613
 105  214.4586
 106  145.9883
 107  207.1895
 108  234.4697
 109  288.0109
 110  143.4937
 111  157.6214
 112  96.6889
 113  101.5008
 114  102.547
 115  180.5849
 116  213.4159
 117  104.4774
 118  213.2736
 119  260.3046
 120  190.2561
 121  229.7244
 122  254.0619
 123  245.156
 124  438.4249
 125  436.1704
 126  678.2195
 127  758.295
 128  744.2219
 129  631.0851
 130  611.7859
 131  377.5441
 132  217.1276
 133  140.0327
 134  110.7289
 135  22.24472
 136  20.82181
 137  168.3369
 138  290.4753
 139  315.485
 140  346.0539
 141  372.8337
 142  367.7371
 143  371.1574
 144  374.6306
 145  295.3111
 146  173.5468
 147  142.9642
 148  161.5657
 149  127.4566
 150  122.9674
 151  196.627
 152  185.869
 153  194.0417
 154  162.3563
 155  168.1678
 156  172.0733
 157  53.4355
 158  64.22188
 159  204.7961
 160  202.1497
 161  88.44672
 162  200.2934
 163  296.5295
 164  317.8752
 165  408.6743
 166  301.8091
 167  187.866
 168  338.7138
 169  236.7214
 170  205.3038
 171  163.7715
 172  69.60053
 173  196.0943
 174  123.4571
 175  190.7946
 176  115.1911
 177  117.2219
 178  241.9622
 179  317.4592
 180  317.3011
 181  184.9087
 182  193.1581
 183  165.3233
 184  119.8463
 185  213.5068
 186  236.5362
 187  229.9958
 188  165.3593
 189  321.315
 190  248.9728
 191  247.5645
 192  349.6551
 193  359.8117
 194  202.052
 195  36.65659
 196  157.9995
 197  79.35091
 198  164.9183
 199  320.4339
 200  227.0325
 201  88.22357
 202  305.3118
 203  313.4977
 204  347.8145
 205  252.1161
 206  296.6164
 207  231.3741
 208  97.81753
 209  164.55
 210  245.6483
 211  331.1892
 212  225.5061
 213  90.61852
 214  168.6103
 215  234.9069
 216  362.1481
 217  309.3331
 218  117.0146
 219  86.8271
 220  95.16669
 221  167.986
 222  151.8567
 223  89.06399
 224  96.4377
 225  157.0485
 226  297.116
 227  397.8894
 228  113.3543
 229  113.7823
 230  112.5214
 231  159.466
 232  158.7851
 233  168.6475
 234  56.80779
 235  92.3001
 236  238.1018
 237  278.2256
 238  192.5284
 239  123.5436
 240  165.7993
 241  184.5579
 242  128.6477
 243  146.588
 244  109.6771
 245  170.1986
 246  186.1759
 247  268.8378
 248  243.7854
 249  100.4441
 250  150.5792
 251  140.8038
 252  126.0958
 253  188.3068
 254  141.802
 255  24.04248
 256  129.7589
 257  294.5497
 258  154.8319
 259  153.7239
 260  169.0755
 261  209.5128
 262  212.2828
 263  255.5184
 264  183.5042
 265  54.51108
 266  126.1686
 267  149.3659
 268  128.9876
 269  69.25371
 270  81.91154
 271  132.1229
 272  262.3242
 273  297.0147
 274  195.7781
 275  -5.482047
 276  56.08667
 277  -137.5735
 278  36.75383
 279  134.5603
 280  231.8239
 281  197.6831
 282  206.3667
 283  107.735
 284  189.0991
 285  259.9692
 286  140.4222
 287  109.2152
 288  79.87039
 289  146.7551
 290  77.13026
 291  -88.08366
 292  81.5665
 293  170.1518
 294  1.861414
 295  54.21214
 296  123.0573
 297  268.1595
 298  260.8104
 299  226.5295
 300  153.4609
 301  -28.10339
 302  125.4811
 303  276.3317
 304  321.8533
 305  157.0822
 306  193.4193
 307  226.9278
 308  71.4147
 309  -44.73172
 310  45.96837
 311  218.9185
 312  240.9217
 313  210.2936
 314  119.1438
 315  2.938574
 316  118.5763
 317  282.0516
 318  308.1987
 319  73.18626
 320  120.2559
 321  308.4977
 322  198.1629
 323  102.2592
 324  120.9832
 325  105.6077
 326  161.8683
 327  266.194
 328  274.0059
 329  228.9976
 330  241.5546
 331  155.4379
 332  113.904
 333  92.76393
 334  68.81602
 335  187.2662
 336  255.8919
 337  110.9058
 338  259.0887
 339  261.0773
 340  156.8113
 341  67.89821
 342  38.61617
 343  177.1526
 344  200.8165
 345  79.51327
 346  8.453028
 347  148.3592
 348  251.2556
 349  208.2153
 350  157.3919
 351  234.5619
 352  335.8329
 353  158.0258
 354  212.5072
 355  226.8946
 356  176.0188
 357  149.7704
 358  30.01118
 359  109.0373
 360  202.8176
 361  219.948
 362  332.4924
 363  307.9983
 364  238.616
 365  116.3295
 366  34.55136
 367  150.9458
 368  47.80756
 369  79.62503
 370  171.6039
 371  271.1276
 372  218.4906
 373  43.1447
 374  124.0244
 375  98.60043
 376  39.36058
 377  45.50024
 378  130.3486
 379  266.8515
 380  240.6485
 381  236.2505
 382  126.8138
 383  140.3329
 384  145.0385
 385  304.6507
 386  343.1099
 387  237.2266
 388  324.8318
 389  262.2316
 390  187.5663
 391  205.7325
 392  178.5344
 393  120.2083
 394  250.4814
 395  310.6569
 396  216.1119
 397  227.5261
 398  288.0505
 399  263.3793
 400  148.7153
 401  128.6945
 402  153.999
 403  227.7933
 404  241.4371
 405  315.6152
 406  293.7173
 407  311.7581
 408  187.0541
 409  50.7187
 410  116.5721
 411  185.4831
 412  221.0897
 413  323.1941
 414  227.707
 415  98.30756
 416  173.9928
 417  218.7056
 418  192.106
 419  211.2782
 420  154.1103
 421  207.8393
 422  69.15234
 423  232.8945
 424  63.94412
 425  58.87746
 426  134.2131
 427  200.7694
 428  144.7921
 429  142.1752
 430  299.9243
 431  168.9986
 432  212.7309
 433  276.0063
 434  185.241
 435  210.7105
 436  283.1599
 437  302.5186
 438  195.7823
 439  184.1621
 440  16.92519
 441  130.8825
 442  136.3001
 443  193.0702
 444  206.6161
 445  137.7796
 446  99.48509
 447  146.999
 448  82.35152
 449  126.424
 450  242.8704
 451  171.2316
 452  187.3069
 453  221.3566
 454  223.2762
 455  240.2585
 456  193.5551
 457  43.13883
 458  107.2968
 459  116.1093
 460  168.7627
 461  263.6247
 462  209.0536
 463  205.9416
 464  150.5802
 465  210.9807
 466  133.8596
 467  -11.8537
 468  79.15902
 469  206.8084
 470  120.4643
 471  95.465
 472  73.04728
 473  163.9416
 474  140.0709
 475  7.24641
 476  41.48032
 477  -21.67523
 478  95.01206
 479  109.0623
 480  215.6504
 481  249.2112
 482  76.58315
 483  64.16938
 484  145.5956
 485  162.7234
 486  125.266
 487  199.3653
 488  195.7558
 489  116.8643
 490  150.9269
 491  154.2588
 492  249.3801
 493  70.59261
 494  97.63103
 495  185.8391
 496  252.2742
 497  164.1035
 498  191.9533
 499  203.3148
 500  157.8819
 501  154.651
 502  114.0555
 503  45.66372
 504  151.6188
 505  350.4893
 506  343.1477
 507  110.6152
 508  46.17888
 509  184.8643
 510  127.5219
 511  140.5774
