# Input file       =  1188953313.119366_cleaned.dat
# Candidate        =  PSR_0332+5434
# Telescope        =  AR
# Epoch_topo       =  58005.033936566739
# Epoch_bary       =  N/A
# T_sample         =  0.002
# Data Folded      =  7340032
# Data Avg         =  0.0330505404459212
# Data StdDev      =  2.52427035511585 
# Profile Bins     =  512
# Profile Avg      =  473.949525379184 
# Profile StdDev   =  302.238554253879 
# Reduced chi-sqr  =  1.120
# Prob(Noise)      <  0.0312   (~1.9 sigma)
# P_topo (ms)      =  714.464468657043  +/- 9.3e-05
# P'_topo (s/s)    =  -0                +/- 4.9e-11
# P''_topo (s/s^2) =  0                 +/- 2.17e-14
# P_bary (ms)      =  N/A
# P'_bary (s/s)    =  N/A
# P''_bary (s/s^2) =  N/A
# P_orb (s)        =  N/A
# asin(i)/c (s)    =  N/A
# eccentricity     =  N/A
# w (rad)          =  N/A
# T_peri           =  N/A
######################################################
   0  672.2326
   1  498.0836
   2  561.2394
   3  696.8321
   4  654.4366
   5  684.8679
   6  733.6848
   7  835.4661
   8  961.7585
   9  628.482
  10  627.3722
  11  690.1486
  12  584.6318
  13  415.2323
  14  582.5317
  15  273.6807
  16  395.7477
  17  121.9406
  18  79.93357
  19  286.1203
  20  754.1956
  21  448.2178
  22  436.1011
  23  323.7532
  24  364.634
  25  654.5432
  26  438.7292
  27  660.0599
  28  331.4133
  29  344.7232
  30  303.9525
  31  361.588
  32  327.4753
  33  729.9758
  34  588.0368
  35  394.1689
  36  348.0396
  37  410.0235
  38  487.5359
  39  525.5317
  40  265.759
  41  634.205
  42  657.6811
  43  199.8173
  44  304.8331
  45  630.6965
  46  639.0576
  47  954.6085
  48  1056.079
  49  662.9681
  50  472.0811
  51  102.8171
  52  397.3779
  53  402.4184
  54  414.9134
  55  402.6727
  56  518.4864
  57  383.184
  58  560.7384
  59  525.3884
  60  194.6909
  61  504.7682
  62  714.3179
  63  586.3884
  64  84.45552
  65  262.0219
  66  677.2736
  67  660.3624
  68  259.0353
  69  504.2312
  70  548.4331
  71  597.273
  72  786.729
  73  585.5324
  74  458.3917
  75  711.498
  76  376.44
  77  185.5081
  78  335.1093
  79  438.2025
  80  280.1264
  81  494.7682
  82  503.1348
  83  369.666
  84  171.0192
  85  161.7089
  86  240.1051
  87  434.256
  88  315.5425
  89  487.8293
  90  653.4099
  91  957.9094
  92  930.3786
  93  -56.72678
  94  106.4987
  95  652.3757
  96  542.2046
  97  81.32938
  98  372.8865
  99  483.1036
 100  111.6284
 101  124.0954
 102  338.7576
 103  513.3499
 104  663.6964
 105  552.4966
 106  572.1115
 107  467.5406
 108  469.6246
 109  56.18998
 110  666.1818
 111  737.0773
 112  564.5454
 113  428.2616
 114  555.4076
 115  795.4816
 116  746.444
 117  354.0859
 118  438.9469
 119  718.3149
 120  316.8274
 121  436.0739
 122  380.4057
 123  620.0236
 124  500.0008
 125  624.1984
 126  606.5479
 127  298.9305
 128  349.532
 129  730.4213
 130  854.1564
 131  595.1602
 132  588.9178
 133  571.7385
 134  514.3223
 135  523.2337
 136  625.9877
 137  459.5095
 138  25.02657
 139  308.1315
 140  511.4782
 141  573.3127
 142  517.8346
 143  652.7013
 144  731.007
 145  285.4225
 146  436.7276
 147  467.004
 148  339.4606
 149  375.0583
 150  26.46739
 151  273.615
 152  169.5137
 153  492.5316
 154  760.4299
 155  466.6496
 156  405.0122
 157  190.4705
 158  288.0727
 159  602.0266
 160  715.0065
 161  685.4005
 162  1147.65
 163  666.9604
 164  224.5182
 165  276.8991
 166  454.6143
 167  694.3773
 168  682.9413
 169  573.5109
 170  493.2612
 171  652.6661
 172  390.2581
 173  290.8337
 174  419.5643
 175  110.6701
 176  124.3475
 177  128.1551
 178  273.0031
 179  419.1264
 180  191.3066
 181  354.9513
 182  362.586
 183  421.9902
 184  398.2493
 185  416.6717
 186  634.0285
 187  586.3303
 188  511.7071
 189  1101.875
 190  712.4659
 191  499.1386
 192  567.9248
 193  488.3812
 194  273.3812
 195  93.397
 196  429.8102
 197  766.6307
 198  590.0243
 199  322.249
 200  420.7714
 201  581.8889
 202  598.1148
 203  498.7055
 204  494.6625
 205  239.0845
 206  181.7412
 207  -337.1471
 208  -69.15324
 209  484.9157
 210  605.1234
 211  564.4243
 212  660.202
 213  566.2062
 214  471.8043
 215  168.342
 216  462.9129
 217  483.0806
 218  375.6692
 219  673.6246
 220  625.5588
 221  416.3503
 222  326.8809
 223  332.4825
 224  662.9649
 225  586.5992
 226  397.806
 227  564.9095
 228  349.8972
 229  769.0723
 230  588.7937
 231  376.2265
 232  357.2756
 233  755.1156
 234  398.1079
 235  309.6459
 236  496.2443
 237  463.7414
 238  363.7923
 239  604.6336
 240  1001.511
 241  545.072
 242  561.3446
 243  561.7739
 244  574.2192
 245  756.043
 246  568.4011
 247  387.7942
 248  240.9834
 249  841.6541
 250  745.8007
 251  401.4869
 252  327.2917
 253  567.5318
 254  529.7411
 255  761.4079
 256  636.2633
 257  421.3209
 258  393.6366
 259  467.1544
 260  721.9368
 261  534.9471
 262  205.5102
 263  2.792688
 264  285.2081
 265  326.4225
 266  352.755
 267  469.5895
 268  678.926
 269  614.1222
 270  774.9368
 271  594.488
 272  238.2115
 273  504.1628
 274  494.0393
 275  522.1447
 276  562.3145
 277  457.9565
 278  484.7836
 279  371.9466
 280  561.624
 281  627.0394
 282  501.1656
 283  514.6633
 284  263.649
 285  224.1836
 286  416.3
 287  282.4713
 288  257.7745
 289  573.9743
 290  484.1618
 291  120.2216
 292  293.4924
 293  877.5012
 294  628.7837
 295  305.0215
 296  106.1086
 297  332.1696
 298  835.5373
 299  1073.649
 300  389.3493
 301  275.8582
 302  433.0755
 303  668.1292
 304  905.3529
 305  621.7103
 306  665.6604
 307  504.3943
 308  384.9899
 309  544.12
 310  827.7824
 311  644.9966
 312  300.7503
 313  357.8031
 314  921.9686
 315  785.8682
 316  650.7646
 317  775.5699
 318  712.5072
 319  1004.074
 320  1032.254
 321  1638.445
 322  1948.035
 323  1625.847
 324  814.0179
 325  581.9844
 326  114.5398
 327  538.7844
 328  787.3819
 329  626.6913
 330  502.8698
 331  289.7161
 332  394.6317
 333  -69.24583
 334  273.1707
 335  513.136
 336  732.3376
 337  706.6951
 338  588.9377
 339  673.2675
 340  431.2219
 341  177.069
 342  360.2587
 343  423.0554
 344  379.8426
 345  525.3253
 346  83.86864
 347  159.7567
 348  197.0994
 349  534.2053
 350  124.4653
 351  526.5934
 352  655.0792
 353  409.7067
 354  442.5968
 355  559.8034
 356  286.6438
 357  594.5643
 358  574.1907
 359  640.1151
 360  429.3369
 361  306.658
 362  286.9849
 363  384.822
 364  820.3378
 365  796.5453
 366  591.3019
 367  474.5895
 368  467.061
 369  153.9301
 370  426.4972
 371  574.9504
 372  675.1273
 373  712.1268
 374  264.7616
 375  103.5166
 376  395.1941
 377  390.9175
 378  377.7656
 379  376.7487
 380  566.2876
 381  492.0522
 382  145.4557
 383  191.1561
 384  568.2443
 385  668.8241
 386  590.0217
 387  238.1653
 388  88.07175
 389  358.8773
 390  446.7585
 391  366.3863
 392  634.5276
 393  738.4308
 394  749.1036
 395  529.2937
 396  511.9175
 397  535.857
 398  191.5215
 399  466.0649
 400  577.3704
 401  322.1693
 402  1036.339
 403  705.4581
 404  338.8463
 405  610.3889
 406  776.8451
 407  680.8166
 408  486.8163
 409  445.3107
 410  412.5574
 411  438.2699
 412  593.9241
 413  309.6105
 414  354.1525
 415  616.8364
 416  382.7957
 417  480.802
 418  904.9822
 419  691.8791
 420  317.1087
 421  257.1422
 422  609.8126
 423  369.4576
 424  330.9546
 425  459.3635
 426  627.8617
 427  502.7045
 428  756.2511
 429  727.5231
 430  206.8045
 431  -92.24784
 432  -123.6496
 433  362.6445
 434  474.5095
 435  605.7447
 436  573.9512
 437  506.4969
 438  -32.28387
 439  197.359
 440  383.3478
 441  422.9501
 442  440.8913
 443  309.8439
 444  322.3503
 445  261.6608
 446  371.6454
 447  523.6844
 448  421.7615
 449  474.8919
 450  442.4452
 451  384.1233
 452  334.8367
 453  329.9494
 454  35.51768
 455  515.7089
 456  509.8836
 457  225.8322
 458  61.61839
 459  429.2904
 460  670.694
 461  327.2353
 462  506.9478
 463  462.0668
 464  430.7495
 465  26.49249
 466  108.0494
 467  302.5523
 468  384.9352
 469  455.6325
 470  426.7538
 471  497.0378
 472  535.3451
 473  240.1579
 474  173.6901
 475  262.1598
 476  150.6075
 477  394.1059
 478  428.75
 479  560.0797
 480  485.5953
 481  485.7681
 482  622.6439
 483  524.0861
 484  437.5578
 485  169.4705
 486  353.5843
 487  195.1857
 488  346.7776
 489  602.3426
 490  712.343
 491  625.2286
 492  491.3274
 493  645.988
 494  390.1919
 495  220.3566
 496  172.1283
 497  330.6561
 498  242.3253
 499  240.223
 500  342.9081
 501  323.8735
 502  294.8096
 503  372.6475
 504  392.12
 505  367.979
 506  493.0031
 507  454.8225
 508  372.2767
 509  381.6556
 510  467.6973
 511  686.4283
