# Input file       =  1188421806.120907_cleaned.dat
# Candidate        =  PSR_0332+5434
# Telescope        =  AR
# Epoch_topo       =  57998.882235195684
# Epoch_bary       =  N/A
# T_sample         =  0.002
# Data Folded      =  7143424
# Data Avg         =  0.0533276673421315
# Data StdDev      =  3.32997218865785 
# Profile Bins     =  1024
# Profile Avg      =  372.075235088568 
# Profile StdDev   =  278.127442525885 
# Reduced chi-sqr  =  0.716
# Prob(Noise)      <  1   (~0.0 sigma)
# P_topo (ms)      =  714.463591635801  +/- 4.64e-05
# P'_topo (s/s)    =  -0                +/- 2.52e-11
# P''_topo (s/s^2) =  0                 +/- 1.14e-14
# P_bary (ms)      =  N/A
# P'_bary (s/s)    =  N/A
# P''_bary (s/s^2) =  N/A
# P_orb (s)        =  N/A
# asin(i)/c (s)    =  N/A
# eccentricity     =  N/A
# w (rad)          =  N/A
# T_peri           =  N/A
######################################################
   0  501.5311
   1  525.3327
   2  502.6665
   3  374.328
   4  154.8805
   5  140.452
   6  251.8024
   7  413.9005
   8  509.1834
   9  511.2329
  10  433.2721
  11  300.6642
  12  316.344
  13  374.8467
  14  326.4049
  15  283.5947
  16  253.6228
  17  325.0833
  18  290.8584
  19  341.6175
  20  383.7869
  21  494.2462
  22  445.3144
  23  518.7036
  24  486.5969
  25  454.5608
  26  388.1227
  27  391.5132
  28  339.0952
  29  294.2519
  30  317.7227
  31  287.339
  32  231.691
  33  213.5632
  34  281.7769
  35  267.4858
  36  366.6658
  37  496.442
  38  630.3927
  39  401.0497
  40  355.1885
  41  371.6186
  42  585.1874
  43  541.5573
  44  450.7782
  45  374.4705
  46  307.2966
  47  208.4986
  48  236.1216
  49  161.0848
  50  141.528
  51  170.3871
  52  386.3806
  53  498.4765
  54  449.0972
  55  396.8186
  56  322.3401
  57  218.1063
  58  193.2919
  59  217.2377
  60  335.4294
  61  435.2178
  62  489.0606
  63  486.1343
  64  415.1249
  65  349.037
  66  344.5516
  67  385.7408
  68  442.6048
  69  529.673
  70  579.0084
  71  511.7424
  72  309.396
  73  262.6592
  74  370.715
  75  509.5186
  76  393.6603
  77  317.2166
  78  319.7
  79  443.9045
  80  254.9538
  81  246.503
  82  187.1736
  83  245.0422
  84  201.9356
  85  224.7838
  86  347.8896
  87  302.318
  88  368.1816
  89  521.9133
  90  607.7205
  91  489.9785
  92  515.1413
  93  533.0752
  94  489.0008
  95  371.1812
  96  311.4146
  97  174.809
  98  135.7416
  99  280.3352
 100  334.5444
 101  193.1681
 102  67.53227
 103  199.1115
 104  257.8337
 105  316.0459
 106  435.6302
 107  540.2641
 108  551.1062
 109  480.8323
 110  478.7186
 111  336.7661
 112  211.2841
 113  143.6662
 114  264.9117
 115  236.5225
 116  169.1601
 117  153.1741
 118  190.1959
 119  271.3179
 120  256.6629
 121  247.8819
 122  302.6552
 123  424.4894
 124  572.0059
 125  577.2244
 126  596.8477
 127  549.032
 128  511.8909
 129  425.8318
 130  288.8261
 131  267.9195
 132  331.7762
 133  301.2147
 134  341.9442
 135  318.1863
 136  532.2755
 137  603.5157
 138  548.9999
 139  514.2549
 140  522.23
 141  560.7464
 142  596.456
 143  546.0688
 144  499.7235
 145  260.6081
 146  349.4278
 147  431.6163
 148  448.2419
 149  379.4228
 150  363.6687
 151  353.8809
 152  215.9574
 153  235.372
 154  470.6413
 155  441.2058
 156  492.4976
 157  422.0827
 158  451.5585
 159  359.3458
 160  395.6931
 161  550.7348
 162  584.9417
 163  502.6418
 164  524.9338
 165  511.1832
 166  324.2791
 167  246.6745
 168  341.1088
 169  371.8224
 170  306.8111
 171  289.8084
 172  438.4315
 173  424.6454
 174  402.1132
 175  558.1879
 176  516.7711
 177  502.3884
 178  353.2134
 179  516.5982
 180  440.0923
 181  398.6892
 182  224.5011
 183  294.1281
 184  180.9763
 185  288.0427
 186  299.0107
 187  432.0944
 188  366.6524
 189  380.5177
 190  382.3797
 191  528.8908
 192  511.6461
 193  549.5005
 194  527.8181
 195  391.3938
 196  241.1796
 197  204.8342
 198  327.5224
 199  385.4921
 200  351.2784
 201  420.6128
 202  458.6722
 203  364.8927
 204  371.8388
 205  361.6006
 206  318.7073
 207  322.9029
 208  398.7581
 209  427.2224
 210  261.923
 211  243.5466
 212  473.8255
 213  386.7115
 214  238.2828
 215  129.7675
 216  266.0969
 217  221.5205
 218  203.6094
 219  331.0378
 220  370.4534
 221  277.6312
 222  253.5277
 223  280.8168
 224  341.3049
 225  431.0453
 226  494.4388
 227  542.6862
 228  328.6076
 229  389.7072
 230  468.2153
 231  586.6287
 232  453.6237
 233  340.656
 234  277.354
 235  301.1303
 236  317.0116
 237  471.8612
 238  481.5298
 239  548.6575
 240  501.9272
 241  419.8781
 242  440.5137
 243  435.7114
 244  435.3521
 245  284.7065
 246  143.1066
 247  194.9048
 248  251.1847
 249  299.8297
 250  258.0018
 251  291.2291
 252  389.714
 253  442.6753
 254  440.9371
 255  367.2683
 256  403.0317
 257  384.875
 258  377.3708
 259  369.7588
 260  380.8514
 261  333.9698
 262  136.8904
 263  152.4496
 264  273.7791
 265  355.1347
 266  431.4238
 267  479.8664
 268  342.9831
 269  280.6679
 270  364.9962
 271  528.2534
 272  477.3008
 273  437.7143
 274  453.1505
 275  388.2305
 276  284.6473
 277  389.7556
 278  402.3004
 279  274.7361
 280  214.5217
 281  301.4629
 282  341.2046
 283  227.7365
 284  249.0382
 285  367.0801
 286  332.3669
 287  497.6324
 288  578.1011
 289  510.531
 290  412.6547
 291  397.3686
 292  501.8174
 293  368.4956
 294  331.5531
 295  439.681
 296  488.4
 297  438.4329
 298  376.9021
 299  250.7128
 300  132.1207
 301  65.66039
 302  253.4198
 303  347.8076
 304  400.8976
 305  317.464
 306  352.2166
 307  313.1617
 308  308.0396
 309  254.1309
 310  310.8733
 311  304.8245
 312  444.7187
 313  380.1004
 314  343.5398
 315  118.3205
 316  136.0543
 317  161.2867
 318  281.4658
 319  221.5245
 320  100.8524
 321  132.7923
 322  279.6347
 323  312.6974
 324  312.6029
 325  329.7259
 326  485.5684
 327  485.3353
 328  465.3472
 329  334.6335
 330  220.3431
 331  231.5066
 332  265.4498
 333  264.0795
 334  299.7794
 335  336.0958
 336  335.8093
 337  268.9711
 338  292.8997
 339  424.5077
 340  458.1378
 341  487.0751
 342  478.2061
 343  410.0603
 344  232.1402
 345  227.113
 346  283.6881
 347  416.4915
 348  242.3409
 349  375.0434
 350  366.8876
 351  371.6209
 352  98.42093
 353  188.7811
 354  290.3897
 355  376.7319
 356  340.9609
 357  500.52
 358  463.6362
 359  412.5022
 360  370.2224
 361  374.4816
 362  388.5787
 363  481.4974
 364  400.2258
 365  342.0557
 366  255.088
 367  292.775
 368  362.8925
 369  307.6797
 370  320.949
 371  246.9856
 372  258.2572
 373  317.8529
 374  307.7016
 375  397.4209
 376  474.5869
 377  523.0119
 378  483.2401
 379  354.2422
 380  245.3645
 381  146.9064
 382  172.7032
 383  319.9348
 384  399.2549
 385  438.71
 386  297.9519
 387  324.772
 388  271.3082
 389  385.7072
 390  523.2332
 391  506.0435
 392  432.9438
 393  349.6754
 394  392.3674
 395  320.3369
 396  348.4694
 397  503.7159
 398  617.4026
 399  640.2859
 400  586.1552
 401  539.4521
 402  323.2497
 403  289.2734
 404  361.9014
 405  392.2641
 406  288.0808
 407  316.1627
 408  403.7865
 409  325.8694
 410  247.9208
 411  408.3342
 412  403.6037
 413  263.805
 414  231.4402
 415  349.487
 416  276.0966
 417  117.6778
 418  146.3838
 419  262.8969
 420  396.0652
 421  383.3629
 422  452.3113
 423  478.9358
 424  472.0647
 425  428.21
 426  386.0628
 427  335.2425
 428  310.1219
 429  395.3635
 430  483.2508
 431  427.5124
 432  334.5492
 433  296.3313
 434  332.6438
 435  292.9018
 436  290.4306
 437  252.0761
 438  246.636
 439  191.9036
 440  158.8995
 441  350.3471
 442  417.0768
 443  367.8517
 444  389.752
 445  431.9815
 446  402.3375
 447  248.9658
 448  215.7337
 449  304.4517
 450  408.7178
 451  568.0982
 452  589.0673
 453  463.6444
 454  351.45
 455  369.9039
 456  375.6606
 457  342.4995
 458  288.675
 459  290.6361
 460  291.0871
 461  279.8673
 462  359.4952
 463  328.1233
 464  321.0722
 465  490.7889
 466  624.4071
 467  550.7578
 468  423.858
 469  380.2305
 470  353.9477
 471  248.5731
 472  301.7313
 473  355.1793
 474  345.6658
 475  220.5383
 476  219.598
 477  318.0113
 478  486.3165
 479  540.5558
 480  541.9799
 481  391.5858
 482  336.0654
 483  321.7269
 484  382.7722
 485  295.9507
 486  293.9182
 487  310.3752
 488  407.7058
 489  435.3699
 490  469.3951
 491  268.4379
 492  200.768
 493  235.8001
 494  292.9404
 495  346.0542
 496  276.063
 497  322.8866
 498  278.2679
 499  342.8197
 500  403.3419
 501  461.691
 502  460.4375
 503  437.7681
 504  330.4246
 505  371.1839
 506  450.7648
 507  564.1367
 508  459.4139
 509  466.531
 510  480.5128
 511  511.0699
 512  432.7146
 513  503.976
 514  451.1704
 515  223.5737
 516  218.5533
 517  448.9066
 518  448.4259
 519  380.3518
 520  368.7187
 521  477.1196
 522  328.8364
 523  232.0396
 524  178.147
 525  146.2415
 526  162.1015
 527  283.157
 528  405.1797
 529  267.5254
 530  286.1148
 531  406.1329
 532  399.4973
 533  328.6047
 534  311.9867
 535  459.9283
 536  383.7538
 537  326.3465
 538  403.6114
 539  293.4234
 540  187.525
 541  173.2622
 542  351.1473
 543  368.7514
 544  210.2303
 545  208.6508
 546  326.3788
 547  416.0327
 548  385.0801
 549  380.5749
 550  362.1476
 551  377.1703
 552  356.7663
 553  439.0434
 554  482.0853
 555  548.1257
 556  478.4386
 557  456.7069
 558  281.1252
 559  242.0191
 560  333.6561
 561  488.2239
 562  486.1868
 563  464.8532
 564  421.6484
 565  526.7169
 566  352.2886
 567  443.1467
 568  432.3781
 569  529.67
 570  511.5456
 571  466.7848
 572  375.3609
 573  252.7147
 574  389.1044
 575  470.812
 576  457.3886
 577  321.1992
 578  317.8169
 579  299.7426
 580  296.9305
 581  243.5816
 582  305.1427
 583  272.2843
 584  335.4438
 585  435.1001
 586  586.6554
 587  475.5415
 588  373.0768
 589  360.0269
 590  431.0356
 591  427.6687
 592  497.9098
 593  496.8657
 594  474.501
 595  371.3517
 596  450.0291
 597  498.4404
 598  475.6815
 599  457.5626
 600  406.4977
 601  358.6071
 602  267.5103
 603  343.6248
 604  389.1893
 605  449.6318
 606  361.319
 607  480.9352
 608  495.5402
 609  440.531
 610  341.7249
 611  253.5012
 612  343.3488
 613  294.9557
 614  258.6996
 615  259.4872
 616  281.4576
 617  226.0094
 618  278.7834
 619  433.3965
 620  504.6753
 621  501.9663
 622  488.2842
 623  417.0472
 624  305.3795
 625  271.817
 626  412.6607
 627  478.1306
 628  446.0591
 629  461.4496
 630  382.468
 631  360.8317
 632  382.3131
 633  563.402
 634  558.489
 635  468.8281
 636  437.1925
 637  447.1819
 638  596.7145
 639  569.3059
 640  658.8995
 641  754.8956
 642  964.2495
 643  962.2506
 644  1007.499
 645  1025.705
 646  1062.486
 647  963.162
 648  930.1158
 649  889.058
 650  864.8045
 651  819.1473
 652  572.1249
 653  393.0779
 654  343.9817
 655  405.6077
 656  357.7686
 657  270.9642
 658  355.7061
 659  329.9884
 660  162.1745
 661  174.5251
 662  188.1294
 663  267.5274
 664  268.9996
 665  452.7501
 666  518.6931
 667  531.907
 668  456.0841
 669  590.6605
 670  605.6332
 671  649.0186
 672  637.1869
 673  657.7741
 674  559.6245
 675  474.1738
 676  516.3914
 677  565.9193
 678  634.085
 679  524.2565
 680  492.0661
 681  429.4194
 682  375.8595
 683  274.2744
 684  356.1847
 685  434.6915
 686  388.3725
 687  300.6438
 688  292.7664
 689  281.1309
 690  184.0491
 691  299.2455
 692  428.0268
 693  455.0344
 694  383.5722
 695  330.1378
 696  409.679
 697  341.9239
 698  356.7662
 699  438.9141
 700  387.6956
 701  385.812
 702  323.7554
 703  308.0035
 704  220.1743
 705  160.8286
 706  243.0395
 707  255.008
 708  345.138
 709  387.5059
 710  389.4309
 711  223.6729
 712  212.1861
 713  347.8467
 714  445.2091
 715  500.3871
 716  523.0836
 717  613.5631
 718  491.5134
 719  462.8291
 720  560.2185
 721  611.2828
 722  440.4549
 723  320.3491
 724  344.7517
 725  477.5268
 726  504.362
 727  488.1557
 728  422.9126
 729  415.5181
 730  397.4958
 731  417.0997
 732  361.4319
 733  216.4086
 734  189.4912
 735  292.222
 736  431.3404
 737  357.6328
 738  279.2897
 739  308.7113
 740  249.4817
 741  244.7285
 742  202.5329
 743  248.3658
 744  277.6374
 745  378.1426
 746  472.8438
 747  472.6088
 748  412.0932
 749  448.2621
 750  518.7214
 751  481.8082
 752  384.0181
 753  484.4666
 754  469.9453
 755  373.5184
 756  359.8264
 757  355.4914
 758  276.7577
 759  240.6902
 760  388.7143
 761  411.7924
 762  292.0918
 763  358.8484
 764  340.8481
 765  291.6515
 766  267.3277
 767  551.1846
 768  658.8368
 769  515.5638
 770  436.5514
 771  477.6281
 772  487.7694
 773  475.0137
 774  535.8969
 775  638.6503
 776  455.2697
 777  424.8559
 778  361.833
 779  196.8791
 780  113.7615
 781  175.3716
 782  397.9278
 783  374.1144
 784  268.8786
 785  389.1925
 786  431.8411
 787  558.6104
 788  606.8293
 789  615.752
 790  483.5588
 791  152.9292
 792  220.0806
 793  321.8336
 794  440.2635
 795  352.9143
 796  446.1373
 797  521.5439
 798  580.1985
 799  476.2947
 800  478.0125
 801  500.9135
 802  526.2008
 803  575.4951
 804  501.0381
 805  369.7101
 806  242.6248
 807  269.9046
 808  385.4612
 809  351.7432
 810  425.0779
 811  537.0986
 812  616.3499
 813  419.0163
 814  327.7843
 815  287.7795
 816  233.8884
 817  300.3367
 818  399.7716
 819  523.687
 820  373.118
 821  402.4569
 822  503.449
 823  617.8041
 824  511.3578
 825  407.8784
 826  296.5116
 827  270.1565
 828  233.7498
 829  372.8688
 830  261.353
 831  279.5963
 832  277.7939
 833  417.3697
 834  287.9637
 835  187.7797
 836  187.4727
 837  218.5663
 838  269.0843
 839  378.0146
 840  404.6067
 841  386.5845
 842  477.7118
 843  638.9839
 844  722.6431
 845  468.7787
 846  273.5221
 847  203.7894
 848  365.6777
 849  345.0146
 850  399.0627
 851  377.5182
 852  382.9545
 853  324.5406
 854  241.845
 855  375.6286
 856  359.0811
 857  273.9215
 858  201.8835
 859  206.2131
 860  326.3175
 861  348.459
 862  532.2056
 863  573.7634
 864  579.5983
 865  471.6277
 866  407.8839
 867  295.0481
 868  236.6422
 869  302.6727
 870  341.8014
 871  428.0669
 872  294.2296
 873  343.0711
 874  270.8072
 875  243.2451
 876  342.626
 877  374.5994
 878  301.9624
 879  296.9355
 880  298.1904
 881  339.8909
 882  240.6065
 883  400.9939
 884  541.1667
 885  562.4247
 886  471.8219
 887  437.0607
 888  307.4963
 889  275.6932
 890  284.2971
 891  417.6858
 892  311.05
 893  206.3092
 894  259.11
 895  300.1847
 896  319.3973
 897  264.3057
 898  391.9417
 899  294.7358
 900  252.9389
 901  241.181
 902  411.4738
 903  507.9499
 904  555.5175
 905  441.4001
 906  328.7447
 907  257.977
 908  271.3603
 909  246.9013
 910  226.9339
 911  203.1267
 912  275.722
 913  353.7333
 914  425.0994
 915  488.0634
 916  549.5779
 917  556.9993
 918  432.8024
 919  276.0343
 920  241.2435
 921  265.6166
 922  336.0122
 923  329.3136
 924  369.3651
 925  292.7446
 926  165.823
 927  205.36
 928  218.2189
 929  249.9416
 930  271.9235
 931  365.9138
 932  308.4362
 933  351.7361
 934  424.0439
 935  559.7018
 936  452.7623
 937  469.1395
 938  370.665
 939  198.3553
 940  70.32256
 941  167.8864
 942  225.4361
 943  66.48154
 944  -45.89155
 945  62.62636
 946  262.1803
 947  220.9759
 948  295.5186
 949  474.5841
 950  462.2176
 951  395.7811
 952  445.5062
 953  518.4545
 954  466.8778
 955  342.1056
 956  296.497
 957  268.7818
 958  300.0773
 959  412.7509
 960  444.9162
 961  318.9769
 962  300.3388
 963  303.5207
 964  356.0994
 965  300.6456
 966  262.1703
 967  315.0272
 968  371.2361
 969  347.7697
 970  293.9008
 971  84.31293
 972  54.04264
 973  110.0777
 974  229.2899
 975  364.7883
 976  338.6492
 977  301.7678
 978  113.0526
 979  178.1038
 980  228.0641
 981  318.9792
 982  331.5019
 983  415.9367
 984  456.3182
 985  454.0733
 986  438.3631
 987  422.0249
 988  527.9084
 989  502.0582
 990  373.54
 991  115.3721
 992  25.4566
 993  196.3923
 994  320.9077
 995  394.0511
 996  473.7404
 997  647.9616
 998  521.771
 999  401.1536
1000  315.2405
1001  355.21
1002  380.4612
1003  414.9448
1004  396.6744
1005  309.6359
1006  204.9912
1007  145.2096
1008  104.5418
1009  103.8472
1010  243.9689
1011  445.3666
1012  477.6821
1013  362.0414
1014  390.326
1015  360.6212
1016  378.7574
1017  313.7612
1018  389.7356
1019  217.9563
1020  137.2682
1021  149.9944
1022  321.8838
1023  402.064
