# Input file       =  1188680202.123785_cleaned.dat
# Candidate        =  PSR_0332+5434
# Telescope        =  AR
# Epoch_topo       =  58001.872929673438
# Epoch_bary       =  N/A
# T_sample         =  0.002
# Data Folded      =  7208960
# Data Avg         =  -0.0152596294424836
# Data StdDev      =  3.06199336362672 
# Profile Bins     =  512
# Profile Avg      =  -214.840872116939
# Profile StdDev   =  363.333608813207 
# Reduced chi-sqr  =  0.895
# Prob(Noise)      <  0.957   (~0.0 sigma)
# P_topo (ms)      =  714.46393870983   +/- 6.54e-05
# P'_topo (s/s)    =  -0                +/- 3.51e-11
# P''_topo (s/s^2) =  0                 +/- 1.58e-14
# P_bary (ms)      =  N/A
# P'_bary (s/s)    =  N/A
# P''_bary (s/s^2) =  N/A
# P_orb (s)        =  N/A
# asin(i)/c (s)    =  N/A
# eccentricity     =  N/A
# w (rad)          =  N/A
# T_peri           =  N/A
######################################################
   0  -150.9036
   1  -158.6414
   2  -83.86671
   3  -309.9025
   4  -285.3098
   5  -554.0138
   6  -576.8092
   7  211.5187
   8  205.2268
   9  -138.1572
  10  -57.16801
  11  -26.45426
  12  -415.0565
  13  -536.0668
  14  -158.5443
  15  -163.0052
  16  -457.3321
  17  -376.0202
  18  -347.8506
  19  -636.2995
  20  -306.5244
  21  -85.3597
  22  99.41443
  23  166.1704
  24  -368.3903
  25  -119.3071
  26  -1.077084
  27  -275.631
  28  -257.2186
  29  -208.9017
  30  -46.79761
  31  -204.1063
  32  -16.64712
  33  -151.3586
  34  -278.0034
  35  -387.097
  36  -212.3126
  37  -622.3157
  38  -470.868
  39  -528.537
  40  -473.2285
  41  -252.6588
  42  -315.9086
  43  -248.4262
  44  -266.5001
  45  -580.2169
  46  -488.7722
  47  -223.8353
  48  -111.5986
  49  -268.5037
  50  -327.1478
  51  -245.3044
  52  -575.9666
  53  -314.4713
  54  225.6389
  55  85.50408
  56  -454.9374
  57  -338.2527
  58  -56.67535
  59  -468.3548
  60  -663.7567
  61  -279.5926
  62  -403.2185
  63  -332.2774
  64  -392.0493
  65  -31.90868
  66  75.83259
  67  -130.5674
  68  -586.3504
  69  -604.4664
  70  -286.488
  71  -293.592
  72  -203.5633
  73  130.6295
  74  335.0488
  75  241.7064
  76  921.313
  77  1236.361
  78  1048.436
  79  1125.683
  80  1078.001
  81  342.984
  82  44.11552
  83  -58.38401
  84  276.3246
  85  1.011878
  86  -234.52
  87  -194.7095
  88  -225.9098
  89  46.29012
  90  -275.0479
  91  -239.3597
  92  -214.9801
  93  -517.1711
  94  -325.5481
  95  -320.7392
  96  -116.05
  97  -201.3958
  98  -311.2777
  99  -496.4106
 100  -210.6328
 101  -0.2798152
 102  74.5366
 103  220.6373
 104  -238.7558
 105  -181.3867
 106  8.366431
 107  -466.7104
 108  -309.5691
 109  -202.9684
 110  -308.348
 111  -156.347
 112  -192.2961
 113  -173.0316
 114  190.4484
 115  212.9101
 116  69.95873
 117  -369.5052
 118  -443.1645
 119  -331.9553
 120  -143.5614
 121  -776.7801
 122  -806.7429
 123  -638.4734
 124  17.66113
 125  136.6281
 126  -201.9049
 127  -204.722
 128  -212.8862
 129  -185.3183
 130  -195.0048
 131  -116.8869
 132  -13.85227
 133  109.654
 134  -315.4735
 135  -436.6318
 136  112.7188
 137  -105.0339
 138  -394.3311
 139  7.749209
 140  -74.68809
 141  -390.5481
 142  -134.0388
 143  75.36227
 144  -330.8542
 145  -306.8197
 146  -235.3158
 147  -154.2775
 148  -167.4375
 149  54.00927
 150  -72.3112
 151  -67.2457
 152  -186.8836
 153  -282.871
 154  -618.0826
 155  -392.5522
 156  -251.5624
 157  -435.0253
 158  -226.4246
 159  -375.6852
 160  -316.5628
 161  -341.91
 162  -472.6841
 163  -284.1722
 164  -235.0291
 165  250.7237
 166  -17.02943
 167  -508.7322
 168  -532.6366
 169  -295.5057
 170  -518.2043
 171  -537.6956
 172  -156.9066
 173  -143.7208
 174  -481.7688
 175  -566.3307
 176  -203.3976
 177  -95.12424
 178  -339.1746
 179  -295.3968
 180  -281.5827
 181  -73.18723
 182  -186.7977
 183  -368.5833
 184  -365.7666
 185  -470.6712
 186  -590.6853
 187  -349.3423
 188  -58.88693
 189  137.9949
 190  412.0479
 191  214.5901
 192  -3.071352
 193  -303.6947
 194  -136.0587
 195  -87.62292
 196  -346.1925
 197  -216.5376
 198  -212.8244
 199  -304.6106
 200  -388.3005
 201  -254.7458
 202  77.01964
 203  -174.5452
 204  -165.8567
 205  30.38963
 206  73.34477
 207  -644.0347
 208  -422.798
 209  -223.9731
 210  -128.0096
 211  -199.0764
 212  -115.5285
 213  -133.9235
 214  -186.2627
 215  -477.3842
 216  -272.4218
 217  -457.0801
 218  -612.7013
 219  -215.7294
 220  18.65824
 221  8.2724
 222  -747.2698
 223  -508.0717
 224  -528.4526
 225  -569.696
 226  -425.1778
 227  -239.5548
 228  -133.0125
 229  -522.3894
 230  -505.3419
 231  -220.5822
 232  -287.9946
 233  -599.9909
 234  -359.5003
 235  -491.4553
 236  -388.4767
 237  -255.1022
 238  -331.9946
 239  -409.4884
 240  -742.8344
 241  -612.6316
 242  -507.3482
 243  -316.3195
 244  -73.64916
 245  -137.8987
 246  -262.4677
 247  -193.8559
 248  -177.4892
 249  -330.8697
 250  -113.2695
 251  -375.5805
 252  -197.342
 253  -39.04941
 254  198.2694
 255  145.7336
 256  8.348661
 257  56.79449
 258  13.32585
 259  -281.0671
 260  -300.36
 261  -221.941
 262  -365.8715
 263  -18.66448
 264  -32.31607
 265  -524.4882
 266  -356.627
 267  -325.2103
 268  -96.26364
 269  42.52345
 270  130.3464
 271  152.7166
 272  51.51299
 273  -184.9165
 274  -420.511
 275  -539.2179
 276  -344.3279
 277  -269.4977
 278  8.425292
 279  121.4115
 280  -417.7636
 281  -408.2946
 282  -478.3413
 283  -15.14241
 284  -312.1493
 285  -337.0766
 286  -134.5965
 287  -223.6724
 288  -204.2566
 289  -413.7043
 290  -226.8863
 291  -338.6199
 292  -8.265421
 293  84.07904
 294  -119.5541
 295  -15.03106
 296  -192.3286
 297  67.28469
 298  218.8142
 299  10.17212
 300  -4.532585
 301  -342.0497
 302  -575.3883
 303  -28.47038
 304  -109.2957
 305  -245.4088
 306  -413.1535
 307  -398.9108
 308  -213.5832
 309  -216.4663
 310  -271.2902
 311  -268.5357
 312  -161.919
 313  -209.4233
 314  -205.8604
 315  -153.5258
 316  -171.8237
 317  -408.8034
 318  -410.2736
 319  -303.4969
 320  -536.1049
 321  -359.8543
 322  -299.0255
 323  -112.5858
 324  -85.40604
 325  -320.374
 326  -276.2118
 327  -235.1056
 328  -86.28416
 329  14.68322
 330  5.968295
 331  -6.127834
 332  -190.6985
 333  -400.0825
 334  -429.7422
 335  -330.6716
 336  -82.011
 337  79.18642
 338  -30.52387
 339  -109.3794
 340  -90.51859
 341  -133.0883
 342  -160.3378
 343  -208.7477
 344  -466.2199
 345  -22.29641
 346  96.30093
 347  -351.6927
 348  -265.0548
 349  -269.8298
 350  -237.6
 351  -358.2782
 352  -132.1389
 353  -171.5901
 354  -315.2834
 355  -459.8245
 356  -539.5699
 357  -511.4453
 358  -124.1274
 359  -293.4367
 360  -266.8285
 361  -12.48588
 362  -265.5847
 363  -193.4052
 364  -129.8581
 365  -491.7911
 366  -520.0801
 367  -375.9893
 368  -91.42971
 369  49.91166
 370  -72.03625
 371  52.83241
 372  148.9787
 373  3.259638
 374  -45.02425
 375  -361.041
 376  -161.9465
 377  -244.0285
 378  -158.5175
 379  181.785
 380  -137.2845
 381  -489.1485
 382  -635.6786
 383  -541.447
 384  -645.9645
 385  -306.2414
 386  -89.58585
 387  -90.95859
 388  -406.7439
 389  -75.87873
 390  -317.0719
 391  -397.9321
 392  -230.0486
 393  -153.7303
 394  -211.8234
 395  97.48238
 396  133.7928
 397  -146.2662
 398  -509.4253
 399  -411.56
 400  -260.1176
 401  -261.57
 402  -244.0536
 403  46.19408
 404  285.5252
 405  104.193
 406  -172.5245
 407  -112.907
 408  16.30107
 409  -81.17191
 410  -246.6957
 411  59.42457
 412  -128.519
 413  -154.1877
 414  -140.5563
 415  -62.86298
 416  -160.0712
 417  -210.2642
 418  131.1494
 419  -2.777409
 420  -406.4152
 421  -555.8386
 422  -350.3059
 423  -109.0494
 424  -291.6261
 425  -485.4752
 426  -291.4892
 427  -192.4569
 428  -451.929
 429  -351.2275
 430  -17.21587
 431  -445.2405
 432  -372.7109
 433  -525.722
 434  -420.3985
 435  -602.7819
 436  -674.0325
 437  175.4228
 438  -135.1928
 439  -132.1083
 440  -256.3174
 441  -60.98645
 442  -352.9203
 443  -373.766
 444  -151.604
 445  -165.5975
 446  -190.5647
 447  -318.9828
 448  -313.9217
 449  -359.1807
 450  -502.5583
 451  -472.0333
 452  -22.23673
 453  -76.73895
 454  74.58632
 455  66.60606
 456  -369.9562
 457  -649.6425
 458  -563.9414
 459  -167.7867
 460  -200.3625
 461  -146.4674
 462  -177.1187
 463  -363.0525
 464  -389.1724
 465  -650.866
 466  -314.4136
 467  -269.5576
 468  -71.55647
 469  38.42136
 470  41.4741
 471  135.4193
 472  -150.2882
 473  -243.0693
 474  40.28974
 475  -250.7417
 476  -476.3843
 477  -146.6473
 478  -5.248762
 479  131.0216
 480  -121.5055
 481  -94.77179
 482  -176.7808
 483  -309.6703
 484  -545.8961
 485  -221.167
 486  -260.5383
 487  -424.2474
 488  -408.6657
 489  -672.9013
 490  -606.3479
 491  -481.1212
 492  -220.8724
 493  -184.9254
 494  -394.379
 495  -248.5622
 496  -18.60319
 497  -264.6709
 498  -685.4332
 499  -450.0371
 500  -244.6203
 501  102.427
 502  -112.6219
 503  -359.7839
 504  -199.1542
 505  -286.062
 506  -362.1833
 507  -426.0278
 508  5.469118
 509  -387.6115
 510  -590.4919
 511  -245.4206
