# Input file       =  1188781022.106776_cleaned.dat
# Candidate        =  PSR_0332+5434
# Telescope        =  AR
# Epoch_topo       =  58003.039827624722
# Epoch_bary       =  N/A
# T_sample         =  0.002
# Data Folded      =  7340032
# Data Avg         =  -0.00887078518904413
# Data StdDev      =  2.47047494239123 
# Profile Bins     =  1024
# Profile Avg      =  -63.5480710490162
# Profile StdDev   =  209.160394169082 
# Reduced chi-sqr  =  1.257
# Prob(Noise)      <  3.45e-08   (~5.4 sigma)
# P_topo (ms)      =  714.464125175468  +/- 0.000381
# P'_topo (s/s)    =  -0                +/- 2.01e-10
# P''_topo (s/s^2) =  0                 +/- 8.88e-14
# P_bary (ms)      =  N/A
# P'_bary (s/s)    =  N/A
# P''_bary (s/s^2) =  N/A
# P_orb (s)        =  N/A
# asin(i)/c (s)    =  N/A
# eccentricity     =  N/A
# w (rad)          =  N/A
# T_peri           =  N/A
######################################################
   0  -202.5896
   1  -117.7447
   2  -185.7361
   3  -281.6573
   4  -271.1275
   5  -162.8593
   6  -170.9865
   7  -222.5385
   8  -208.3696
   9  -116.2376
  10  -9.339492
  11  -40.42962
  12  -80.35895
  13  -106.9463
  14  -183.0581
  15  -167.7391
  16  -163.8779
  17  -163.1838
  18  -140.061
  19  -96.04244
  20  -112.5474
  21  -187.1236
  22  -211.2481
  23  -128.585
  24  -145.3148
  25  -52.62915
  26  -122.7953
  27  -106.4595
  28  -174.8024
  29  -110.9966
  30  -91.10444
  31  -156.5844
  32  -147.8716
  33  -129.1579
  34  -185.4225
  35  -299.9518
  36  -296.8363
  37  -242.8167
  38  -145.0949
  39  -183.2163
  40  -100.8661
  41  -113.9777
  42  -139.4751
  43  -102.8117
  44  -71.47678
  45  -38.11084
  46  -46.00151
  47  -11.45692
  48  -98.40186
  49  -132.8042
  50  -124.4898
  51  -47.77473
  52  -93.05063
  53  -188.677
  54  -226.4152
  55  -258.7373
  56  -314.0713
  57  -393.7743
  58  -295.5436
  59  -160.181
  60  -66.61828
  61  -83.42638
  62  -72.7196
  63  -26.79408
  64  22.56142
  65  102.128
  66  28.52958
  67  -83.13238
  68  -157.3014
  69  -108.2904
  70  -33.08529
  71  -75.08527
  72  -192.3248
  73  -277.2516
  74  -164.4002
  75  -87.91476
  76  -56.64075
  77  -26.63077
  78  52.02592
  79  103.537
  80  57.70016
  81  -46.79116
  82  -104.709
  83  -90.68978
  84  3.975581
  85  -27.63039
  86  -150.1248
  87  -206.9451
  88  -233.7869
  89  -109.0726
  90  -80.24136
  91  -12.21189
  92  -122.6054
  93  -30.3398
  94  -67.3991
  95  -110.8162
  96  -230.875
  97  -172.7074
  98  -130.8285
  99  -245.6954
 100  -311.7579
 101  -212.5993
 102  -16.61161
 103  103.6099
 104  23.11859
 105  -7.850314
 106  -53.83347
 107  -8.667445
 108  -20.98445
 109  -38.8186
 110  -82.3035
 111  -137.4367
 112  -127.0005
 113  -94.49664
 114  -46.8488
 115  2.803843
 116  51.31798
 117  29.01701
 118  -42.77752
 119  -78.60428
 120  -9.165441
 121  10.4077
 122  -129.8603
 123  -195.1984
 124  -133.4035
 125  -16.79905
 126  -28.93483
 127  -88.69279
 128  -125.4172
 129  -191.2516
 130  -175.9833
 131  -133.8974
 132  -93.97872
 133  -128.6956
 134  -139.7067
 135  -54.87396
 136  -53.15319
 137  -47.7466
 138  -169.823
 139  -231.1306
 140  -267.0205
 141  -196.2414
 142  -153.6603
 143  -95.31928
 144  -95.22454
 145  -53.95103
 146  0.5887306
 147  46.63257
 148  136.2726
 149  74.48723
 150  59.38609
 151  -110.8637
 152  -218.4681
 153  -360.9146
 154  -343.0529
 155  -227.9106
 156  -109.6322
 157  -12.39832
 158  -62.17912
 159  -98.33417
 160  -189.6265
 161  -140.5194
 162  -152.3663
 163  -175.3223
 164  -146.3783
 165  -67.87679
 166  0.03865647
 167  -94.30175
 168  -171.9277
 169  -174.4939
 170  -100.9594
 171  -114.8328
 172  -100.2922
 173  -86.90489
 174  -52.23546
 175  -127.068
 176  -183.2213
 177  -158.3535
 178  -65.60487
 179  -91.75023
 180  -82.91229
 181  -65.8446
 182  -77.2757
 183  -227.454
 184  -319.5747
 185  -311.9692
 186  -193.2869
 187  -83.61317
 188  -96.44395
 189  -72.36839
 190  -93.56094
 191  -8.041319
 192  -45.81277
 193  -124.1335
 194  -122.7496
 195  -144.1519
 196  -64.9805
 197  -61.17146
 198  7.542098
 199  -44.31327
 200  -1.32816
 201  24.56225
 202  16.22857
 203  51.78376
 204  28.8797
 205  30.97073
 206  -109.2946
 207  -171.393
 208  -141.5203
 209  -74.29611
 210  -75.66068
 211  -80.41278
 212  -10.92846
 213  73.10374
 214  154.8853
 215  35.45822
 216  -7.313886
 217  -58.20289
 218  102.5369
 219  73.93616
 220  14.96473
 221  -77.43565
 222  1.728729
 223  -23.31203
 224  -76.37592
 225  -178.0974
 226  -113.0594
 227  -122.9804
 228  -79.44675
 229  -192.0032
 230  -150.1227
 231  -206.0913
 232  -229.8794
 233  -182.4574
 234  -85.51319
 235  -41.43121
 236  -84.02109
 237  -14.99396
 238  76.31377
 239  108.2362
 240  5.883192
 241  45.65448
 242  44.12733
 243  18.1046
 244  -159.3267
 245  -325.6338
 246  -391.644
 247  -318.9975
 248  -166.13
 249  -33.88636
 250  -73.43642
 251  -109.9867
 252  -189.393
 253  -201.7479
 254  -279.6797
 255  -188.533
 256  -22.79045
 257  62.21504
 258  38.15533
 259  -29.62872
 260  1.662123
 261  -60.5504
 262  -136.3321
 263  -118.6854
 264  -69.67257
 265  3.769716
 266  -37.54673
 267  32.68356
 268  -37.26826
 269  -44.41007
 270  -39.2688
 271  13.51276
 272  41.02332
 273  22.47042
 274  41.64982
 275  157.4644
 276  227.457
 277  220.526
 278  124.6086
 279  40.62957
 280  -57.03664
 281  -49.01834
 282  -14.81577
 283  -39.70772
 284  -78.40447
 285  -37.50731
 286  4.080418
 287  -29.24473
 288  -60.70347
 289  -73.28136
 290  -92.75634
 291  -136.8299
 292  -53.63912
 293  -51.77736
 294  -37.72876
 295  -40.90699
 296  17.76973
 297  50.04475
 298  24.51476
 299  -34.43627
 300  -46.11689
 301  -31.43088
 302  32.16879
 303  1.567362
 304  -52.85445
 305  -135.2644
 306  -59.09209
 307  101.3306
 308  153.263
 309  -8.863732
 310  -170.685
 311  -137.6248
 312  -7.401005
 313  47.76737
 314  26.134
 315  -132.163
 316  -143.2046
 317  -162.8656
 318  -51.75866
 319  -76.50829
 320  -114.7755
 321  -176.3787
 322  -112.2753
 323  -40.41183
 324  91.54053
 325  6.731438
 326  -33.21282
 327  -156.0061
 328  -128.687
 329  -223.4222
 330  -207.6877
 331  -98.63593
 332  84.15578
 333  187.1013
 334  161.0733
 335  119.3823
 336  60.84888
 337  82.6479
 338  110.6545
 339  182.1598
 340  86.26112
 341  -103.9833
 342  -220.9511
 343  -193.1993
 344  -99.92083
 345  -28.56842
 346  -40.24727
 347  -64.44879
 348  -56.06086
 349  -110.2808
 350  -35.28383
 351  -62.69147
 352  99.99431
 353  110.2471
 354  209.3949
 355  132.2651
 356  -50.30862
 357  -107.194
 358  -157.8152
 359  -102.4663
 360  -176.5877
 361  -234.8819
 362  -291.403
 363  -300.0548
 364  -184.7036
 365  -20.20335
 366  -5.4735
 367  -11.99802
 368  -68.75507
 369  -10.90577
 370  -22.32434
 371  12.55165
 372  -12.88998
 373  -22.77717
 374  -175.8577
 375  -172.2791
 376  -63.941
 377  44.15023
 378  -33.81085
 379  -176.7198
 380  -253.1288
 381  -255.3926
 382  -129.4833
 383  79.03404
 384  164.1904
 385  72.44843
 386  31.93481
 387  -82.72266
 388  -152.6871
 389  -154.8338
 390  -78.98406
 391  -16.87716
 392  -131.834
 393  -58.49809
 394  -64.25568
 395  -1.261751
 396  -81.81008
 397  -3.432143
 398  -80.8519
 399  -72.44334
 400  -119.8305
 401  -51.7447
 402  -79.41299
 403  -65.07947
 404  -62.83447
 405  -40.90616
 406  -45.63356
 407  -34.4536
 408  -18.61308
 409  -91.07881
 410  -150.6213
 411  -77.15936
 412  -0.7395727
 413  123.8276
 414  134.6543
 415  133.8049
 416  42.85633
 417  33.12927
 418  19.18797
 419  67.04688
 420  39.56195
 421  143.2417
 422  215.7087
 423  109.5536
 424  -35.02681
 425  -133.5375
 426  -40.65536
 427  35.09376
 428  90.31255
 429  11.96372
 430  17.01893
 431  -22.39161
 432  -21.00463
 433  -147.4415
 434  -187.5539
 435  -201.0367
 436  -75.07177
 437  -10.06472
 438  14.06057
 439  -148.5107
 440  -95.61042
 441  -68.16527
 442  -23.0449
 443  -38.37798
 444  -31.32748
 445  61.7157
 446  14.64431
 447  -65.24369
 448  -141.6614
 449  -217.7967
 450  -216.2684
 451  -292.408
 452  -314.9758
 453  -98.27397
 454  13.56627
 455  75.21803
 456  -101.3968
 457  -65.75179
 458  -75.68035
 459  -77.64005
 460  -161.5059
 461  -76.34441
 462  -25.47178
 463  -75.96066
 464  -233.6427
 465  -309.8542
 466  -190.5422
 467  -108.3917
 468  -172.7375
 469  -244.2043
 470  -226.7846
 471  -64.48999
 472  35.34121
 473  150.8259
 474  -1.81999
 475  -85.96426
 476  -157.4744
 477  -132.2742
 478  -161.0218
 479  -165.2677
 480  -114.286
 481  -61.19845
 482  -69.51785
 483  -97.83604
 484  -136.9684
 485  -132.327
 486  -48.65559
 487  61.42953
 488  91.88068
 489  0.9831622
 490  -126.5525
 491  -91.67921
 492  -28.11077
 493  -2.934941
 494  -48.97134
 495  -77.93489
 496  -127.8162
 497  -133.7043
 498  -123.5656
 499  -35.62354
 500  -58.48811
 501  -74.5583
 502  -170.4516
 503  -104.2492
 504  -101.9591
 505  -84.75327
 506  -47.46376
 507  7.75034
 508  -12.96437
 509  -93.12298
 510  -191.9883
 511  -158.8756
 512  -84.36812
 513  -45.86071
 514  -24.98336
 515  -32.0447
 516  -12.55102
 517  -43.33789
 518  -14.81799
 519  1.186283
 520  -53.62629
 521  -229.3212
 522  -316.1321
 523  -237.7393
 524  -92.86002
 525  -97.92444
 526  -283.9562
 527  -345.6326
 528  -337.9164
 529  -270.238
 530  -307.1057
 531  -259.0948
 532  -238.7978
 533  -285.5278
 534  -263.9249
 535  -213.2169
 536  -62.93886
 537  56.77298
 538  52.462
 539  -113.1885
 540  -236.9149
 541  -208.6053
 542  -132.346
 543  -139.0344
 544  -78.14424
 545  -69.89458
 546  -94.86521
 547  -190.9864
 548  -191.0792
 549  -168.3322
 550  -158.8695
 551  -148.3947
 552  -226.6056
 553  -351.0638
 554  -342.4454
 555  -177.9996
 556  65.81818
 557  -24.75908
 558  -155.6091
 559  -162.1419
 560  -7.638775
 561  97.19994
 562  2.301262
 563  -108.3247
 564  -156.1857
 565  -67.32465
 566  -12.876
 567  2.214326
 568  -75.74886
 569  -147.4784
 570  -170.1085
 571  -221.0423
 572  -207.3947
 573  -271.4828
 574  -232.8206
 575  -158.9843
 576  -211.831
 577  -284.144
 578  -321.2906
 579  -232.7246
 580  -185.9986
 581  -53.58958
 582  -56.61829
 583  6.891273
 584  -34.11807
 585  20.09322
 586  -112.7206
 587  -122.1021
 588  -130.5073
 589  -113.833
 590  -163.6379
 591  -115.8524
 592  -51.03931
 593  -28.40537
 594  2.639103
 595  64.32426
 596  150.3688
 597  187.4363
 598  70.18953
 599  -94.55508
 600  -207.0846
 601  -103.832
 602  -8.973231
 603  1.693168
 604  -62.29922
 605  -85.77776
 606  -38.3406
 607  -15.72501
 608  -41.79369
 609  -78.96494
 610  -109.6746
 611  -137.2197
 612  -14.08634
 613  101.2492
 614  168.6004
 615  131.9186
 616  55.85364
 617  -45.83517
 618  -150.9913
 619  -150.2267
 620  -89.27892
 621  -35.23697
 622  73.82095
 623  144.7151
 624  128.5206
 625  -51.90133
 626  -90.64716
 627  -50.89301
 628  24.77644
 629  95.83962
 630  203.6384
 631  261.3466
 632  248.0934
 633  123.9996
 634  59.18999
 635  104.9256
 636  172.6497
 637  314.0035
 638  386.314
 639  501.5637
 640  500.2404
 641  591.5662
 642  652.3798
 643  620.9132
 644  659.936
 645  723.8533
 646  756.0834
 647  630.605
 648  453.491
 649  370.6683
 650  246.6546
 651  161.7653
 652  120.2597
 653  64.79155
 654  31.79796
 655  -20.36949
 656  31.10945
 657  14.87074
 658  -32.14777
 659  17.79666
 660  23.45467
 661  -17.14493
 662  -40.85448
 663  18.30611
 664  105.1762
 665  55.15811
 666  61.37356
 667  42.4095
 668  -11.76902
 669  -67.91685
 670  16.56364
 671  132.0139
 672  84.68451
 673  53.78744
 674  -26.17679
 675  -88.84068
 676  -209.3322
 677  -136.7631
 678  -103.333
 679  -41.06245
 680  -151.2515
 681  -128.5814
 682  -187.1334
 683  -150.0621
 684  -168.019
 685  -53.95145
 686  -5.092877
 687  76.63754
 688  71.25239
 689  -25.0233
 690  -165.975
 691  -233.1372
 692  -182.0811
 693  -91.96975
 694  -41.54487
 695  -5.679885
 696  -34.13649
 697  -8.440958
 698  37.01441
 699  39.18369
 700  -27.05852
 701  -59.20809
 702  -80.80309
 703  -65.99223
 704  -113.4259
 705  56.4861
 706  159.0839
 707  152.9425
 708  -52.38925
 709  -85.78201
 710  -59.54159
 711  48.95603
 712  -22.36144
 713  -71.63488
 714  -79.98926
 715  -24.08587
 716  45.28687
 717  98.62322
 718  160.0045
 719  182.2927
 720  82.8135
 721  -34.8082
 722  -183.3728
 723  -30.60431
 724  145.4094
 725  232.2415
 726  195.4144
 727  43.18404
 728  -124.4071
 729  -225.8072
 730  -144.1978
 731  -105.8611
 732  -88.09286
 733  -7.224283
 734  0.7862493
 735  -99.81169
 736  -187.0162
 737  -105.3891
 738  -54.19855
 739  -22.87616
 740  -56.24992
 741  20.89262
 742  -60.68926
 743  -51.16739
 744  -161.1078
 745  -79.38639
 746  3.447279
 747  50.73432
 748  68.99231
 749  46.38595
 750  75.52286
 751  -51.70293
 752  -106.1732
 753  -77.7315
 754  -5.871041
 755  32.66426
 756  28.00972
 757  -15.36832
 758  -36.61926
 759  -106.1903
 760  -3.950798
 761  -59.61791
 762  -172.9532
 763  -377.3594
 764  -214.9235
 765  -89.16965
 766  -39.09793
 767  -3.355259
 768  88.37861
 769  111.0335
 770  -93.97577
 771  -194.8638
 772  -301.8606
 773  -282.0734
 774  -187.5238
 775  -38.32367
 776  61.08648
 777  62.90147
 778  92.56427
 779  35.49697
 780  30.07157
 781  -55.38254
 782  -147.0558
 783  -255.5532
 784  -230.4294
 785  -51.96149
 786  -2.397824
 787  -69.70849
 788  -198.9814
 789  -97.06341
 790  -8.667185
 791  -127.5043
 792  -253.1324
 793  -189.723
 794  -157.9608
 795  -127.5182
 796  -217.6264
 797  -109.8261
 798  -83.02541
 799  -109.8822
 800  -160.6219
 801  -254.1991
 802  -148.2791
 803  -63.99845
 804  70.09871
 805  115.1438
 806  16.16062
 807  -136.0194
 808  -182.6404
 809  -207.8176
 810  -99.96091
 811  -72.33846
 812  18.27757
 813  -20.97968
 814  -13.23173
 815  -17.51086
 816  130.2124
 817  132.0817
 818  11.80916
 819  -128.6597
 820  -8.185369
 821  113.7146
 822  15.33019
 823  -142.3891
 824  -159.7623
 825  42.95686
 826  166.8512
 827  210.0309
 828  75.80108
 829  -9.520196
 830  -100.326
 831  -201.047
 832  -276.1359
 833  -266.3004
 834  -187.6247
 835  -132.8715
 836  -63.83356
 837  -3.778147
 838  -43.66255
 839  -172.0279
 840  -188.5157
 841  -100.815
 842  -110.0658
 843  -90.12859
 844  -125.3002
 845  -72.22747
 846  -112.1051
 847  -160.8236
 848  -169.4146
 849  -116.5465
 850  -93.44144
 851  -154.5475
 852  -228.3615
 853  -79.99756
 854  68.26956
 855  18.33285
 856  -106.3135
 857  -115.947
 858  -124.3778
 859  -230.2826
 860  -272.1403
 861  -234.9814
 862  -84.23935
 863  -113.3215
 864  23.00101
 865  -8.27592
 866  33.89754
 867  -6.621867
 868  86.64597
 869  85.88735
 870  -30.65626
 871  -92.94176
 872  -104.0915
 873  -50.26022
 874  -56.05752
 875  -111.9563
 876  -103.4781
 877  -150.9011
 878  -49.89746
 879  -101.0533
 880  -104.008
 881  -170.2126
 882  -77.54729
 883  -133.9248
 884  -121.3294
 885  -212.4975
 886  -166.3752
 887  -184.0317
 888  -100.7476
 889  -1.554655
 890  -87.31444
 891  -280.4287
 892  -396.8142
 893  -247.1638
 894  26.59176
 895  90.32511
 896  21.04435
 897  -153.1105
 898  -134.8739
 899  -109.957
 900  21.8967
 901  89.46387
 902  124.7776
 903  -36.0318
 904  -114.1609
 905  -157.9334
 906  -10.71133
 907  -54.22833
 908  55.96781
 909  -89.11024
 910  -108.5405
 911  -192.7681
 912  -65.37507
 913  -14.29304
 914  68.22533
 915  34.53764
 916  2.843392
 917  -7.700297
 918  59.84807
 919  -39.39839
 920  -97.23259
 921  -106.577
 922  -38.95116
 923  33.94796
 924  36.3341
 925  -19.49239
 926  -208.3659
 927  -230.5204
 928  -214.1289
 929  -152.4486
 930  -182.4922
 931  -175.8588
 932  -145.6104
 933  -97.17429
 934  -32.41838
 935  -43.77061
 936  -90.05573
 937  -117.0616
 938  -108.1019
 939  -125.4598
 940  -199.8054
 941  -200.0763
 942  -159.6447
 943  -114.8429
 944  -34.257
 945  -35.87938
 946  -64.63552
 947  -166.032
 948  -169.139
 949  -100.9753
 950  -137.5679
 951  -173.9136
 952  -226.9803
 953  -68.35093
 954  47.39872
 955  27.74127
 956  -22.51311
 957  43.46425
 958  79.02921
 959  84.90586
 960  66.78284
 961  82.35398
 962  -88.23566
 963  -190.0453
 964  -151.0983
 965  -42.91154
 966  -41.94443
 967  -104.6081
 968  -131.1644
 969  -71.81887
 970  -104.1064
 971  -137.7371
 972  -115.6055
 973  -12.99662
 974  69.62857
 975  13.75161
 976  -37.69952
 977  -77.7199
 978  -188.7471
 979  -196.2836
 980  -98.1943
 981  -48.32202
 982  -11.33974
 983  -101.1255
 984  -35.18637
 985  6.894012
 986  84.21557
 987  32.49182
 988  46.81686
 989  -0.8024629
 990  0.7500352
 991  -26.4931
 992  -97.81035
 993  -173.5927
 994  -316.6906
 995  -220.9805
 996  -131.6039
 997  -91.07182
 998  -166.9332
 999  -162.2689
1000  -15.38506
1001  102.5049
1002  132.5652
1003  48.69635
1004  85.38437
1005  27.74844
1006  -10.68282
1007  -216.0521
1008  -148.344
1009  -91.02356
1010  36.23738
1011  15.45482
1012  -23.89871
1013  -68.18858
1014  -53.69913
1015  -30.23126
1016  -62.03174
1017  -146.6013
1018  -266.264
1019  -218.3205
1020  -41.63885
1021  61.4804
1022  -63.44097
1023  -215.7263
