# Input file       =  1188091689.11132_cleaned.dat
# Candidate        =  PSR_0332+5434
# Telescope        =  AR
# Epoch_topo       =  57995.061436473610
# Epoch_bary       =  N/A
# T_sample         =  0.002
# Data Folded      =  7340032
# Data Avg         =  0.00287981701933955
# Data StdDev      =  1.00009959221852 
# Profile Bins     =  512
# Profile Avg      =  41.3968881074057 
# Profile StdDev   =  119.744960855489 
# Reduced chi-sqr  =  1.597
# Prob(Noise)      <  2.15e-16   (~8.1 sigma)
# P_topo (ms)      =  714.463372076286  +/- 0.000152
# P'_topo (s/s)    =  -0                +/- 8.01e-11
# P''_topo (s/s^2) =  0                 +/- 3.54e-14
# P_bary (ms)      =  N/A
# P'_bary (s/s)    =  N/A
# P''_bary (s/s^2) =  N/A
# P_orb (s)        =  N/A
# asin(i)/c (s)    =  N/A
# eccentricity     =  N/A
# w (rad)          =  N/A
# T_peri           =  N/A
######################################################
   0  -50.18699
   1  6.02514
   2  39.55278
   3  -25.77181
   4  -30.70122
   5  -36.34018
   6  66.39723
   7  28.06953
   8  -94.9699
   9  -85.66374
  10  -29.94121
  11  -53.49606
  12  -12.0042
  13  -182.1528
  14  -233.7107
  15  -96.19523
  16  5.706995
  17  -53.34121
  18  54.70436
  19  146.0806
  20  83.11042
  21  67.42503
  22  40.50742
  23  110.1254
  24  85.8353
  25  30.11952
  26  49.04596
  27  26.47761
  28  46.62551
  29  13.67507
  30  39.41608
  31  63.82807
  32  136.5252
  33  -9.485281
  34  -152.4595
  35  47.5409
  36  119.2589
  37  -23.44439
  38  64.34
  39  289.097
  40  26.01443
  41  -59.80889
  42  -15.69697
  43  61.81216
  44  102.7394
  45  99.07236
  46  -9.857009
  47  -88.47884
  48  -53.08445
  49  24.88422
  50  117.8682
  51  188.5202
  52  146.4191
  53  -34.09677
  54  -28.92897
  55  -42.79055
  56  28.84641
  57  92.61672
  58  68.58183
  59  53.3329
  60  115.9959
  61  180.9544
  62  47.89252
  63  -16.2902
  64  -74.80694
  65  -55.94645
  66  -77.5638
  67  18.66273
  68  -15.98421
  69  -9.951709
  70  -3.473116
  71  -29.80735
  72  -13.44661
  73  -148.7942
  74  -124.6313
  75  -218.3871
  76  -119.0747
  77  -59.91269
  78  -83.73209
  79  -213.6237
  80  -61.1829
  81  -5.398816
  82  -37.14155
  83  7.575137
  84  -4.033762
  85  43.10663
  86  128.3745
  87  -22.5234
  88  -116.1694
  89  -91.68215
  90  -50.11398
  91  -88.3476
  92  -101.1934
  93  -91.71993
  94  99.7287
  95  -64.10627
  96  -104.7909
  97  -73.83105
  98  -55.42157
  99  -46.31851
 100  -93.09086
 101  -10.55517
 102  -31.59791
 103  -91.41377
 104  -38.93456
 105  12.25184
 106  57.37325
 107  -85.10703
 108  17.01867
 109  -55.71594
 110  -80.11864
 111  -129.9725
 112  -3.500806
 113  -70.46802
 114  -181.9844
 115  -51.84541
 116  -6.266845
 117  -156.2899
 118  -99.88087
 119  -24.50167
 120  89.31517
 121  38.17265
 122  32.42598
 123  55.75121
 124  59.0449
 125  106.4844
 126  -26.88954
 127  67.89619
 128  34.97645
 129  -25.46326
 130  -78.54923
 131  -14.24941
 132  21.38361
 133  29.08405
 134  -46.17958
 135  72.21001
 136  53.90936
 137  -23.71527
 138  -99.6341
 139  -76.94238
 140  17.4007
 141  -11.7221
 142  90.33974
 143  11.41745
 144  -53.37352
 145  -129.5753
 146  53.67353
 147  130.4141
 148  85.94012
 149  34.68895
 150  30.95292
 151  109.2241
 152  -46.28696
 153  -68.61456
 154  -41.57447
 155  -47.62173
 156  -100.3133
 157  -149.6808
 158  57.33827
 159  -1.787434
 160  -29.0869
 161  -111.885
 162  -46.93502
 163  -3.875294
 164  -13.27739
 165  188.8353
 166  74.2599
 167  28.30253
 168  -13.6294
 169  -9.53573
 170  -20.08773
 171  -77.78354
 172  -104.5805
 173  -69.17944
 174  1.567725
 175  -37.25834
 176  -41.65396
 177  63.44515
 178  20.94064
 179  -62.43382
 180  9.458138
 181  114.3925
 182  75.87811
 183  41.41275
 184  70.40516
 185  2.487298
 186  74.99434
 187  171.282
 188  207.2044
 189  210.3873
 190  84.59384
 191  78.08834
 192  109.0402
 193  108.9138
 194  120.0918
 195  -64.87206
 196  -93.38779
 197  -14.89183
 198  133.5459
 199  76.57054
 200  107.8196
 201  69.21844
 202  -27.6762
 203  59.32673
 204  -65.35759
 205  -44.60092
 206  94.71348
 207  113.5463
 208  103.6275
 209  54.23912
 210  102.6213
 211  105.3084
 212  96.13995
 213  192.2829
 214  289.5524
 215  50.72369
 216  -30.5539
 217  91.13544
 218  177.5381
 219  181.2968
 220  113.3269
 221  155.2883
 222  119.0427
 223  167.5458
 224  267.8312
 225  203.59
 226  141.9313
 227  116.9875
 228  54.49864
 229  -83.91753
 230  -86.76976
 231  71.33851
 232  15.57967
 233  -53.12522
 234  -29.62641
 235  234.6401
 236  383.3338
 237  243.803
 238  90.76307
 239  78.18519
 240  61.47559
 241  -40.87142
 242  169.3976
 243  184.2136
 244  229.9186
 245  179.8169
 246  31.69004
 247  176.414
 248  261.9151
 249  196.7771
 250  119.8801
 251  101.7067
 252  117.3157
 253  47.17028
 254  43.24516
 255  99.0312
 256  207.0214
 257  172.089
 258  250.1239
 259  134.0634
 260  84.37975
 261  43.27648
 262  137.9538
 263  237.479
 264  146.5079
 265  86.80119
 266  21.78901
 267  142.6194
 268  138.8825
 269  48.40722
 270  -26.29747
 271  96.67628
 272  183.9355
 273  134.5027
 274  50.35284
 275  24.36172
 276  37.62437
 277  96.05477
 278  5.714601
 279  109.1169
 280  83.45004
 281  94.57368
 282  16.51237
 283  112.4233
 284  170.455
 285  132.2402
 286  90.1369
 287  -44.11188
 288  -28.63366
 289  21.13966
 290  58.2534
 291  81.70374
 292  38.43488
 293  6.059672
 294  29.30992
 295  166.979
 296  244.6602
 297  104.9014
 298  -114.4595
 299  -106.7262
 300  71.38141
 301  22.41576
 302  -61.35213
 303  -97.7802
 304  -43.05032
 305  13.54602
 306  13.58024
 307  144.9921
 308  -25.40265
 309  -18.01208
 310  -69.17152
 311  -89.14997
 312  -37.4891
 313  -86.23696
 314  27.37446
 315  90.37382
 316  82.34227
 317  120.1536
 318  -0.488752
 319  148.1257
 320  68.35438
 321  18.02402
 322  44.44182
 323  33.28796
 324  53.7571
 325  108.1718
 326  82.07999
 327  137.8762
 328  197.5257
 329  114.5884
 330  -13.55715
 331  -73.09032
 332  60.57579
 333  140.2459
 334  100.3439
 335  33.71032
 336  32.54006
 337  -33.61536
 338  -117.7744
 339  -109.2978
 340  -72.76247
 341  32.08761
 342  -11.1815
 343  -137.9745
 344  -77.26496
 345  -67.58911
 346  -109.2705
 347  -103.8382
 348  98.49499
 349  150.505
 350  -68.86043
 351  -72.44746
 352  -95.04345
 353  -77.68468
 354  -103.8248
 355  52.24693
 356  54.67605
 357  -62.57714
 358  18.05556
 359  -49.05102
 360  -109.3238
 361  -48.21582
 362  59.48838
 363  198.6348
 364  190.0252
 365  -24.09844
 366  -115.786
 367  -194.4398
 368  -3.852306
 369  -45.94818
 370  -29.78227
 371  7.575743
 372  41.58969
 373  56.18876
 374  71.36848
 375  -31.79998
 376  -76.77584
 377  -51.77222
 378  44.46021
 379  -26.58942
 380  106.9872
 381  133.9011
 382  76.21964
 383  23.76662
 384  97.47973
 385  239.1668
 386  124.5457
 387  132.2381
 388  55.83116
 389  113.9443
 390  33.36687
 391  -67.26054
 392  40.77977
 393  -79.41816
 394  -110.0869
 395  -16.98427
 396  -112.0289
 397  -8.05044
 398  -27.3579
 399  -14.33323
 400  83.3406
 401  -27.03535
 402  -113.7097
 403  -124.7015
 404  26.7535
 405  8.294484
 406  63.4611
 407  185.1887
 408  228.3479
 409  119.6613
 410  -87.17999
 411  -15.10872
 412  -119.5953
 413  17.57254
 414  134.9467
 415  58.91757
 416  -7.793634
 417  -21.53376
 418  94.22183
 419  138.0432
 420  140.3544
 421  143.0827
 422  119.4615
 423  53.11924
 424  95.5615
 425  223.6899
 426  215.9576
 427  193.0121
 428  68.39944
 429  39.32912
 430  59.48968
 431  -77.63519
 432  57.2476
 433  101.7205
 434  183.2797
 435  117.6298
 436  101.4046
 437  90.91538
 438  79.58926
 439  33.80989
 440  90.84344
 441  152.1776
 442  152.6525
 443  205.7157
 444  285.2052
 445  374.2166
 446  604.9856
 447  589.8214
 448  718.8907
 449  483.2197
 450  296.7369
 451  152.8221
 452  186.0675
 453  193.472
 454  18.65604
 455  25.90391
 456  23.73624
 457  49.57598
 458  150.5023
 459  260.8154
 460  227.338
 461  88.38686
 462  17.97935
 463  24.18464
 464  -2.351282
 465  98.8669
 466  33.4231
 467  -58.40425
 468  -112.2343
 469  -18.92068
 470  -2.035441
 471  9.09541
 472  127.4281
 473  62.20522
 474  64.11854
 475  -45.13969
 476  -4.27941
 477  262.7798
 478  146.5495
 479  80.0267
 480  49.10574
 481  72.9254
 482  166.4285
 483  24.06718
 484  -28.04386
 485  13.28099
 486  94.01874
 487  19.22667
 488  34.34621
 489  196.3468
 490  103.1009
 491  128.5121
 492  66.08389
 493  137.2559
 494  229.2073
 495  137.8252
 496  -37.58146
 497  2.750735
 498  24.00636
 499  40.8029
 500  78.95135
 501  73.44095
 502  -8.07172
 503  -67.26382
 504  27.37418
 505  86.58913
 506  145.8179
 507  67.29929
 508  40.61647
 509  -20.00867
 510  73.31583
 511  -30.23119
