# Input file       =  1188192762.121225_cleaned.dat
# Candidate        =  PSR_0332+5434
# Telescope        =  AR
# Epoch_topo       =  57996.231262977140
# Epoch_bary       =  N/A
# T_sample         =  0.002
# Data Folded      =  7340032
# Data Avg         =  0.0304068874122874
# Data StdDev      =  3.20258841008043 
# Profile Bins     =  512
# Profile Avg      =  435.893337305749 
# Profile StdDev   =  383.45563460397  
# Reduced chi-sqr  =  1.407
# Prob(Noise)      <  3.22e-09   (~5.8 sigma)
# P_topo (ms)      =  714.463752994536  +/- 0.000184
# P'_topo (s/s)    =  -0                +/- 9.69e-11
# P''_topo (s/s^2) =  0                 +/- 4.28e-14
# P_bary (ms)      =  N/A
# P'_bary (s/s)    =  N/A
# P''_bary (s/s^2) =  N/A
# P_orb (s)        =  N/A
# asin(i)/c (s)    =  N/A
# eccentricity     =  N/A
# w (rad)          =  N/A
# T_peri           =  N/A
######################################################
   0  1182.472
   1  712.8315
   2  558.5228
   3  957.5975
   4  557.2759
   5  705.9478
   6  691.3419
   7  402.8932
   8  146.7706
   9  775.0397
  10  887.088
  11  411.4037
  12  483.0268
  13  734.999
  14  252.7037
  15  110.8852
  16  250.6745
  17  126.3547
  18  -78.31792
  19  -284.9915
  20  78.83906
  21  285.6931
  22  69.47256
  23  -18.36527
  24  -254.1243
  25  -79.81851
  26  202.8629
  27  190.6347
  28  246.1192
  29  88.14519
  30  -91.54058
  31  87.78524
  32  279.3722
  33  58.76803
  34  354.3407
  35  341.628
  36  514.0534
  37  80.51213
  38  307.961
  39  724.4676
  40  479.7179
  41  352.9374
  42  523.7286
  43  612.8054
  44  574.0276
  45  222.333
  46  348.7075
  47  550.8525
  48  109.214
  49  370.692
  50  499.4053
  51  167.4991
  52  1.142615
  53  101.6576
  54  217.734
  55  304.137
  56  50.1376
  57  349.2223
  58  180.7977
  59  397.7661
  60  495.1518
  61  239.0375
  62  700.967
  63  937.4701
  64  874.5548
  65  560.3805
  66  757.2085
  67  957.6773
  68  576.1868
  69  572.5907
  70  749.1616
  71  1314.513
  72  963.5558
  73  788.662
  74  773.2655
  75  563.3929
  76  763.1244
  77  861.834
  78  704.9316
  79  691.8409
  80  422.7086
  81  339.0247
  82  407.3374
  83  760.1282
  84  714.4395
  85  285.7655
  86  102.7918
  87  281.2587
  88  -277.1326
  89  13.94926
  90  77.61183
  91  195.3297
  92  241.2021
  93  172.828
  94  -41.40769
  95  -59.30996
  96  -132.1741
  97  -122.5358
  98  30.10856
  99  -223.831
 100  -136.3278
 101  37.25692
 102  -121.4272
 103  206.0476
 104  -99.50751
 105  24.25219
 106  -93.08418
 107  5.865362
 108  156.6227
 109  544.4954
 110  348.7614
 111  45.48465
 112  154.4763
 113  253.7959
 114  39.30619
 115  344.9262
 116  324.8376
 117  -182.6794
 118  -137.6732
 119  -15.88861
 120  480.8244
 121  -50.44868
 122  317.4411
 123  338.3618
 124  593.8488
 125  321.857
 126  348.1775
 127  106.2012
 128  -56.87384
 129  -69.08797
 130  -16.34221
 131  722.4343
 132  731.5035
 133  205.1869
 134  121.5623
 135  525.1218
 136  317.2161
 137  366.8695
 138  635.1806
 139  653.9842
 140  733.7989
 141  927.1373
 142  591.1267
 143  892.2258
 144  770.4272
 145  504.7299
 146  440.5081
 147  775.9424
 148  913.0066
 149  722.9102
 150  657.7553
 151  681.2114
 152  525.0289
 153  202.5307
 154  -6.217328
 155  304.9262
 156  480.8958
 157  734.7285
 158  734.1154
 159  472.2915
 160  247.7562
 161  365.0993
 162  27.28105
 163  -0.002534174
 164  175.3556
 165  424.7838
 166  2.543431
 167  220.0923
 168  271.2666
 169  396.7687
 170  117.981
 171  177.7213
 172  563.9628
 173  377.364
 174  108.2013
 175  698.687
 176  511.8403
 177  381.9017
 178  123.78
 179  14.20597
 180  170.8149
 181  332.4538
 182  151.727
 183  314.2023
 184  66.18392
 185  202.0943
 186  91.56465
 187  81.51136
 188  581.9044
 189  116.3026
 190  10.87756
 191  -326.8006
 192  74.70203
 193  286.1435
 194  429.8424
 195  81.68786
 196  124.6618
 197  929.2867
 198  838.4579
 199  633.941
 200  217.1755
 201  91.62055
 202  312.5319
 203  684.3744
 204  805.5445
 205  660.178
 206  686.9109
 207  726.3415
 208  422.389
 209  115.8953
 210  442.2126
 211  43.63776
 212  351.3745
 213  585.6031
 214  948.4932
 215  687.8746
 216  123.0306
 217  396.6852
 218  572.4641
 219  861.2209
 220  406.3243
 221  266.8837
 222  310.9073
 223  295.7314
 224  411.0246
 225  326.8281
 226  336.8186
 227  501.6115
 228  -42.29811
 229  156.8049
 230  429.2616
 231  374.22
 232  358.7625
 233  35.01739
 234  -145.7333
 235  314.6359
 236  259.9989
 237  311.5882
 238  259.8317
 239  -56.16499
 240  -72.31593
 241  192.9953
 242  387.3672
 243  576.8115
 244  -13.31593
 245  462.1688
 246  381.2952
 247  380.3304
 248  450.9541
 249  -5.22398
 250  -312.6928
 251  179.7336
 252  139.8349
 253  43.3142
 254  -329.2606
 255  -59.86472
 256  159.9381
 257  417.5038
 258  184.9123
 259  107.8409
 260  5.425574
 261  308.8784
 262  323.7661
 263  162.8976
 264  429.7235
 265  244.5831
 266  506.3991
 267  585.4429
 268  414.2665
 269  456.5355
 270  3.824351
 271  -93.66148
 272  801.7371
 273  798.4631
 274  482.9004
 275  436.3521
 276  970.3508
 277  685.3671
 278  403.4409
 279  477.8511
 280  551.8531
 281  675.915
 282  697.5755
 283  301.2396
 284  803.3973
 285  587.2369
 286  338.4398
 287  600.7521
 288  994.4636
 289  682.3141
 290  701.6336
 291  756.2888
 292  853.1932
 293  832.4785
 294  466.1596
 295  422.3797
 296  878.694
 297  1023.517
 298  727.2758
 299  739.699
 300  635.0889
 301  219.1518
 302  467.9545
 303  378.2705
 304  109.4218
 305  307.5208
 306  1009.56
 307  1109.146
 308  778.4219
 309  316.7229
 310  708.6287
 311  542.6405
 312  346.964
 313  304.3484
 314  406.4843
 315  680.4141
 316  661.4448
 317  675.0992
 318  517.5718
 319  412.3103
 320  692.8408
 321  1212.223
 322  1719.057
 323  1558.553
 324  1547.058
 325  1515.399
 326  794.6544
 327  325.3346
 328  -107.9103
 329  -55.31733
 330  122.9715
 331  242.8946
 332  697.4606
 333  563.7074
 334  22.84465
 335  -47.54875
 336  224.2604
 337  241.6905
 338  171.5094
 339  589.8402
 340  776.9617
 341  646.1705
 342  310.1319
 343  473.1222
 344  433.3813
 345  402.864
 346  447.3481
 347  778.4567
 348  633.9467
 349  376.1625
 350  628.3558
 351  851.8069
 352  512.6285
 353  240.2262
 354  838.2297
 355  997.3504
 356  683.9413
 357  471.7296
 358  915.0148
 359  665.1968
 360  427.6553
 361  409.3246
 362  847.5793
 363  1108.204
 364  1576.593
 365  1325.071
 366  930.7584
 367  883.4874
 368  661.8611
 369  616.1014
 370  596.8862
 371  759.9782
 372  615.9545
 373  488.5732
 374  615.1267
 375  482.6952
 376  319.3784
 377  448.9966
 378  668.9383
 379  831.0574
 380  363.8859
 381  464.5323
 382  937.142
 383  621.9265
 384  61.88903
 385  -53.56021
 386  258.512
 387  689.8286
 388  653.3013
 389  239.3492
 390  168.8066
 391  410.4902
 392  -56.39123
 393  -178.5831
 394  -140.7475
 395  306.4034
 396  194.403
 397  553.9944
 398  469.3413
 399  489.9341
 400  221.852
 401  273.8746
 402  238.7016
 403  -214.4745
 404  63.46692
 405  347.6227
 406  327.2738
 407  370.4075
 408  479.4812
 409  -31.54928
 410  273.7188
 411  599.9241
 412  994.8151
 413  643.9221
 414  740.2416
 415  649.0217
 416  621.6705
 417  575.9206
 418  477.3958
 419  721.8235
 420  833.8852
 421  757.928
 422  422.769
 423  745.6562
 424  731.9936
 425  798.8154
 426  731.5392
 427  472.1175
 428  636.038
 429  845.6317
 430  999.98
 431  1052.93
 432  839.931
 433  993.0799
 434  1125.338
 435  892.7041
 436  671.764
 437  541.3828
 438  557.9301
 439  482.5844
 440  967.2839
 441  644.0974
 442  599.7837
 443  688.616
 444  773.7601
 445  1002.149
 446  497.0381
 447  645.3457
 448  337.796
 449  396.6015
 450  552.7463
 451  535.8958
 452  371.5049
 453  371.2892
 454  359.1892
 455  -15.57665
 456  445.7718
 457  420.916
 458  320.2776
 459  574.7525
 460  505.6327
 461  269.9432
 462  472.1489
 463  584.7589
 464  449.008
 465  481.2923
 466  455.5172
 467  494.0909
 468  244.3595
 469  528.4538
 470  385.9718
 471  455.0364
 472  617.3345
 473  631.9415
 474  379.32
 475  78.16277
 476  -27.05446
 477  244.7198
 478  575.3717
 479  455.9308
 480  630.9967
 481  491.9337
 482  -72.60227
 483  275.0015
 484  216.0924
 485  240.1182
 486  -18.18436
 487  397.7574
 488  761.2551
 489  180.3604
 490  40.23085
 491  812.7629
 492  858.3157
 493  649.5038
 494  360.5526
 495  764.4392
 496  609.3837
 497  331.2527
 498  402.3697
 499  735.2001
 500  300.4403
 501  338.1291
 502  265.236
 503  622.3589
 504  514.1049
 505  398.4568
 506  836.5148
 507  1074.734
 508  918.9183
 509  707.928
 510  827.5922
 511  1247.34
