# Input file       =  1188537430.114192-PSRB0329-2ms-sampling-dd.dat
# Candidate        =  PSR_0332+5434
# Telescope        =  AR
# Epoch_topo       =  58000.220475858703
# Epoch_bary       =  N/A
# T_sample         =  0.002
# Data Folded      =  7340032
# Data Avg         =  -9.78855870087874e-10
# Data StdDev      =  5.89569359403974 
# Profile Bins     =  512
# Profile Avg      =  -0.116933787499732
# Profile StdDev   =  705.909295561427 
# Reduced chi-sqr  =  0.498
# Prob(Noise)      <  1   (~0.0 sigma)
# P_topo (ms)      =  714.464078574556  +/- 0.0174
# P'_topo (s/s)    =  -0                +/- 1.85e-08
# P''_topo (s/s^2) =  0                 +/- 8.1e-12
# P_bary (ms)      =  N/A
# P'_bary (s/s)    =  N/A
# P''_bary (s/s^2) =  N/A
# P_orb (s)        =  N/A
# asin(i)/c (s)    =  N/A
# eccentricity     =  N/A
# w (rad)          =  N/A
# T_peri           =  N/A
######################################################
   0  -393.7867
   1  -719.3621
   2  -753.3612
   3  -673.643
   4  -297.6158
   5  -146.8479
   6  -366.7502
   7  -473.086
   8  -593.1214
   9  -870.8675
  10  -509.1113
  11  -327.1919
  12  -152.9022
  13  717.0217
  14  1435.193
  15  1177.176
  16  656.7788
  17  664.7454
  18  792.282
  19  396.7467
  20  -76.84756
  21  193.2971
  22  -157.6786
  23  -433.1678
  24  -315.2449
  25  99.68568
  26  -137.7025
  27  -53.97851
  28  26.21222
  29  58.45343
  30  -260.2868
  31  -292.4509
  32  -257.2781
  33  -62.80996
  34  -318.6507
  35  -325.9106
  36  -427.5704
  37  60.78236
  38  64.28831
  39  -92.74474
  40  -224.3259
  41  -100.8907
  42  -511.8893
  43  -400.2222
  44  -60.73985
  45  -109.6839
  46  56.19345
  47  183.0448
  48  73.46745
  49  64.64342
  50  -35.3502
  51  159.2498
  52  458.0201
  53  460.934
  54  250.1939
  55  357.0125
  56  125.6268
  57  -260.7685
  58  297.4297
  59  215.2098
  60  73.53715
  61  363.4854
  62  186.8201
  63  182.4747
  64  -112.2523
  65  -160.1427
  66  148.4053
  67  -26.43058
  68  338.0536
  69  408.1651
  70  163.7225
  71  543.1012
  72  31.03721
  73  37.29816
  74  -4.33675
  75  18.19756
  76  354.2804
  77  -284.9492
  78  -499.8849
  79  -590.0034
  80  -301.8749
  81  -379.6943
  82  -285.5945
  83  -21.09343
  84  -482.011
  85  -425.1054
  86  302.0618
  87  692.7756
  88  -12.46815
  89  -165.1997
  90  341.0162
  91  -32.86655
  92  -430.3189
  93  -420.9778
  94  -306.237
  95  -317.4857
  96  -22.66916
  97  -2.91837
  98  -600.6299
  99  -539.5226
 100  -240.8961
 101  -883.3662
 102  -771.7519
 103  -544.414
 104  -248.8334
 105  -133.8137
 106  -336.4106
 107  -124.6504
 108  -53.6189
 109  86.66007
 110  -206.4114
 111  -336.2304
 112  -335.8478
 113  -798.3643
 114  -549.647
 115  58.17284
 116  27.97603
 117  -151.7582
 118  -567.8295
 119  -790.2014
 120  75.97333
 121  483.9326
 122  389.7287
 123  407.8193
 124  421.1765
 125  170.1634
 126  -323.8428
 127  -244.8187
 128  123.4377
 129  -119.6525
 130  52.66301
 131  5.861948
 132  -109.3898
 133  -5.1367
 134  183.2838
 135  287.5899
 136  -124.2237
 137  -141.9573
 138  -475.3233
 139  -258.7055
 140  -505.0769
 141  -301.4189
 142  455.9968
 143  133.0518
 144  -292.4338
 145  -239.2432
 146  18.84909
 147  -486.2107
 148  -478.8459
 149  -19.93444
 150  88.94566
 151  -287.3579
 152  252.8848
 153  98.77872
 154  -132.182
 155  307.3414
 156  252.4364
 157  147.4739
 158  -15.03984
 159  34.37214
 160  -238.4192
 161  -484.5025
 162  -448.8481
 163  -187.3107
 164  -554.7341
 165  -150.671
 166  -163.476
 167  -159.6051
 168  169.1126
 169  372.9866
 170  -365.2556
 171  -863.9042
 172  -344.6181
 173  98.60773
 174  734.4114
 175  633.8994
 176  356.8753
 177  -198.2053
 178  -1118.581
 179  -575.989
 180  244.0563
 181  718.3145
 182  676.0909
 183  649.6041
 184  -69.41434
 185  -533.6312
 186  -250.6805
 187  -90.68932
 188  -137.1828
 189  98.4408
 190  297.3415
 191  356.1666
 192  31.26941
 193  -244.3897
 194  -179.6633
 195  119.1368
 196  -73.01225
 197  -34.02164
 198  -195.9613
 199  -167.189
 200  -367.1418
 201  -90.59292
 202  -150.4742
 203  -267.7998
 204  53.22063
 205  -307.0345
 206  -674.7968
 207  -532.622
 208  -229.1873
 209  427.521
 210  -5.775126
 211  -410.1278
 212  257.9375
 213  356.5951
 214  202.0946
 215  210.0383
 216  401.544
 217  198.9149
 218  -254.4161
 219  248.7699
 220  457.9427
 221  428.1969
 222  113.6107
 223  401.7305
 224  188.8595
 225  -273.8723
 226  -164.9502
 227  -436.5515
 228  -23.03991
 229  31.66307
 230  -120.197
 231  -334.8611
 232  -180.8454
 233  -531.0052
 234  -660.8079
 235  -328.7562
 236  -205.1036
 237  -92.28861
 238  47.01475
 239  568.137
 240  234.0006
 241  -204.6281
 242  -420.4548
 243  -357.334
 244  134.8629
 245  371.9978
 246  697.2056
 247  178.9398
 248  59.27723
 249  115.1336
 250  -493.2573
 251  -486.2726
 252  -52.08789
 253  -119.0655
 254  -90.42755
 255  -107.9254
 256  213.9217
 257  527.9393
 258  783.3438
 259  89.99043
 260  -23.09396
 261  -193.2122
 262  22.78518
 263  -114.347
 264  -0.5477052
 265  258.9778
 266  -17.53785
 267  -163.5859
 268  -289.903
 269  -180.0067
 270  354.8593
 271  547.7764
 272  505.0901
 273  -178.247
 274  -95.3458
 275  -168.6931
 276  -535.3293
 277  -647.6008
 278  -150.8279
 279  317.5591
 280  212.9432
 281  -75.90839
 282  69.12528
 283  172.9577
 284  -230.7698
 285  -223.566
 286  -275.1109
 287  128.8092
 288  357.076
 289  -377.3668
 290  169.3344
 291  445.7441
 292  -111.6581
 293  143.3931
 294  106.0929
 295  484.319
 296  -82.1016
 297  234.2628
 298  -256.9344
 299  22.68098
 300  552.7496
 301  365.3029
 302  534.0329
 303  471.8247
 304  543.8863
 305  153.7268
 306  270.7765
 307  506.7016
 308  -91.27531
 309  14.00158
 310  -37.82829
 311  563.5604
 312  224.1291
 313  358.1118
 314  -47.36726
 315  151.2916
 316  -321.6873
 317  -296.9462
 318  -531.4061
 319  -206.9717
 320  -6.987276
 321  213.9463
 322  -32.25801
 323  -485.6012
 324  -354.965
 325  -364.1041
 326  89.05497
 327  55.33936
 328  -377.4732
 329  408.0386
 330  416.9104
 331  115.0975
 332  188.1694
 333  -216.3161
 334  79.71268
 335  -169.6412
 336  -586.0802
 337  -385.5453
 338  -304.9833
 339  293.1042
 340  636.2847
 341  59.77105
 342  -215.659
 343  -177.4157
 344  -298.967
 345  -533.8799
 346  -34.65187
 347  307.2697
 348  416.0759
 349  287.0564
 350  34.14649
 351  -742.4625
 352  -502.2809
 353  16.39346
 354  409.0605
 355  523.505
 356  702.2175
 357  139.1713
 358  15.23178
 359  395.8052
 360  747.1693
 361  997.0361
 362  27.06949
 363  -314.1869
 364  325.5697
 365  -33.22861
 366  -0.32863
 367  9.214829
 368  389.6648
 369  179.38
 370  -27.28163
 371  107.6856
 372  -193.9284
 373  663.1805
 374  56.4473
 375  275.5591
 376  -141.6556
 377  37.06913
 378  152.8912
 379  72.3416
 380  -48.1943
 381  358.0668
 382  642.3746
 383  772.7047
 384  511.0543
 385  110.5473
 386  96.33472
 387  0.2833053
 388  104.5104
 389  -114.4033
 390  -400.7092
 391  -449.1886
 392  -331.8433
 393  333.1009
 394  21.91812
 395  263.9663
 396  294.6115
 397  279.5661
 398  -22.75557
 399  -64.94609
 400  180.3293
 401  265.3289
 402  215.2105
 403  303.7039
 404  346.9959
 405  132.26
 406  146.9281
 407  336.1613
 408  436.5652
 409  514.9086
 410  353.8186
 411  156.4052
 412  -483.7368
 413  -178.1184
 414  -198.1319
 415  508.0268
 416  315.8783
 417  -17.21761
 418  -286.4435
 419  -605.7695
 420  -359.7396
 421  231.1004
 422  550.9528
 423  336.768
 424  181.1161
 425  -414.484
 426  -238.4823
 427  202.9215
 428  205.3328
 429  129.6462
 430  300.9039
 431  358.5714
 432  65.75444
 433  42.58455
 434  86.73418
 435  -435.213
 436  -436.2427
 437  46.49914
 438  8.77813
 439  -83.65288
 440  -400.1065
 441  -553.7322
 442  324.139
 443  513.6289
 444  381.6175
 445  -66.02158
 446  -433.7926
 447  -653.2607
 448  -305.5824
 449  -345.1653
 450  -406.8439
 451  26.67119
 452  556.6849
 453  430.5975
 454  -20.16813
 455  -187.2331
 456  -154.386
 457  -325.0354
 458  -593.0265
 459  279.8287
 460  67.81968
 461  -358.9546
 462  -1007.927
 463  -337.2747
 464  140.0331
 465  -370.4006
 466  58.54991
 467  669.3865
 468  612.0972
 469  687.3435
 470  126.8365
 471  426.0582
 472  563.5854
 473  461.0257
 474  556.2616
 475  534.023
 476  177.9755
 477  -423.1818
 478  -264.6611
 479  -191.455
 480  0.1433733
 481  520.889
 482  297.4232
 483  18.31826
 484  50.1467
 485  97.85033
 486  91.25849
 487  -290.8781
 488  294.5115
 489  741.2266
 490  235.2834
 491  -337.1917
 492  176.2321
 493  305.4294
 494  -153.9104
 495  -502.7827
 496  81.34756
 497  106.4625
 498  -358.3759
 499  84.9484
 500  530.5489
 501  298.2746
 502  -61.02948
 503  -179.261
 504  -428.3763
 505  -580.3344
 506  -41.63923
 507  -258.0342
 508  318.9428
 509  793.6183
 510  256.7322
 511  83.5782
