# Input file       =  1188163236.117847_cleaned.dat
# Candidate        =  PSR_0332+5434
# Telescope        =  AR
# Epoch_topo       =  57995.889526826933
# Epoch_bary       =  N/A
# T_sample         =  0.002
# Data Folded      =  7143424
# Data Avg         =  0.0128770844485113
# Data StdDev      =  1.00005762226688 
# Profile Bins     =  512
# Profile Avg      =  179.656859908332 
# Profile StdDev   =  118.125390742465 
# Reduced chi-sqr  =  1.277
# Prob(Noise)      <  2.15e-05   (~4.1 sigma)
# P_topo (ms)      =  714.463389002654  +/- 0.000101
# P'_topo (s/s)    =  -0                +/- 5.5e-11
# P''_topo (s/s^2) =  0                 +/- 2.49e-14
# P_bary (ms)      =  N/A
# P'_bary (s/s)    =  N/A
# P''_bary (s/s^2) =  N/A
# P_orb (s)        =  N/A
# asin(i)/c (s)    =  N/A
# eccentricity     =  N/A
# w (rad)          =  N/A
# T_peri           =  N/A
######################################################
   0  239.4354
   1  234.6273
   2  212.2725
   3  129.0715
   4  307.1744
   5  191.3705
   6  222.0759
   7  457.969
   8  434.8477
   9  453.7282
  10  462.5857
  11  658.0319
  12  721.2402
  13  766.0884
  14  683.7551
  15  484.8994
  16  205.6711
  17  146.509
  18  250.631
  19  212.6425
  20  288.2845
  21  241.8651
  22  114.1366
  23  109.3544
  24  233.8976
  25  364.6057
  26  279.9054
  27  174.6129
  28  187.8111
  29  125.5788
  30  143.638
  31  142.953
  32  143.7378
  33  321.1907
  34  272.3644
  35  235.6228
  36  182.4989
  37  172.9191
  38  247.9493
  39  211.481
  40  274.1145
  41  150.4534
  42  101.8212
  43  182.2709
  44  213.8698
  45  271.6021
  46  191.4674
  47  159.4149
  48  189.5853
  49  119.1624
  50  104.3035
  51  154.9583
  52  83.92484
  53  133.7172
  54  195.1301
  55  124.129
  56  140.0583
  57  165.2735
  58  173.803
  59  251.8558
  60  141.3904
  61  149.8972
  62  128.3722
  63  173.9193
  64  80.81166
  65  62.73967
  66  163.4522
  67  108.7435
  68  143.3021
  69  286.3451
  70  216.7442
  71  262.0977
  72  213.9024
  73  179.5259
  74  72.18764
  75  218.3716
  76  339.1123
  77  222.4496
  78  182.9741
  79  183.4652
  80  187.3588
  81  226.6474
  82  96.36467
  83  100.9427
  84  214.4198
  85  132.886
  86  187.7903
  87  265.2536
  88  321.551
  89  220.9734
  90  183.9757
  91  252.4059
  92  298.3848
  93  274.0286
  94  339.8495
  95  278.0548
  96  254.3024
  97  130.6601
  98  87.76016
  99  191.5651
 100  262.0762
 101  173.4923
 102  234.8839
 103  287.0795
 104  258.4198
 105  85.21125
 106  145.487
 107  337.0169
 108  336.2209
 109  375.6827
 110  263.3598
 111  221.4094
 112  196.5403
 113  225.2783
 114  206.5489
 115  122.5753
 116  145.2984
 117  71.82388
 118  136.7696
 119  344.4971
 120  377.599
 121  262.2237
 122  101.8577
 123  166.6086
 124  95.25181
 125  136.2995
 126  181.3663
 127  199.3482
 128  338.1569
 129  272.7516
 130  139.0555
 131  116.6431
 132  249.0809
 133  250.6521
 134  216.0793
 135  285.4687
 136  228.5224
 137  204.6636
 138  333.2339
 139  187.9025
 140  214.184
 141  247.6381
 142  8.904734
 143  117.0296
 144  183.3016
 145  119.0719
 146  111.2012
 147  100.7063
 148  77.06889
 149  213.3203
 150  274.2857
 151  163.0959
 152  74.12139
 153  221.9943
 154  233.8614
 155  78.46977
 156  159.3772
 157  206.3625
 158  223.7656
 159  235.9137
 160  158.5277
 161  96.60127
 162  163.4928
 163  253.294
 164  260.3414
 165  167.7883
 166  208.3707
 167  220.732
 168  159.168
 169  158.0638
 170  186.6456
 171  185.4062
 172  49.76865
 173  65.3264
 174  151.9496
 175  145.3287
 176  220.1343
 177  268.8368
 178  165.0064
 179  251.277
 180  330.374
 181  138.773
 182  40.42289
 183  104.6401
 184  180.8596
 185  333.7677
 186  227.2363
 187  58.41744
 188  101.8894
 189  53.83394
 190  -6.381586
 191  -62.11943
 192  94.7025
 193  121.2857
 194  113.0532
 195  186.3078
 196  244.4944
 197  201.2133
 198  306.7449
 199  107.9911
 200  48.13196
 201  157.0281
 202  283.6324
 203  338.8383
 204  123.2326
 205  76.55601
 206  240.518
 207  262.5067
 208  155.8756
 209  232.3383
 210  213.5217
 211  162.1505
 212  209.5569
 213  236.1846
 214  153.7737
 215  221.4616
 216  171.5795
 217  261.9119
 218  226.2377
 219  134.3138
 220  99.58331
 221  142.0361
 222  262.6442
 223  274.3937
 224  146.7207
 225  217.8162
 226  288.1542
 227  302.4734
 228  262.563
 229  201.8483
 230  27.63604
 231  15.73433
 232  113.626
 233  252.5829
 234  239.8432
 235  204.0862
 236  196.6908
 237  220.4022
 238  255.6
 239  186.4807
 240  122.6043
 241  176.2242
 242  167.6287
 243  172.3142
 244  156.9351
 245  238.5982
 246  146.0432
 247  56.57731
 248  32.51732
 249  104.9337
 250  132.505
 251  216.8151
 252  332.7927
 253  268.6075
 254  169.6246
 255  144.5218
 256  90.7491
 257  -37.44551
 258  129.4295
 259  225.537
 260  206.6597
 261  189.1625
 262  221.9581
 263  160.2833
 264  59.9653
 265  111.3686
 266  323.9259
 267  224.5193
 268  193.2087
 269  165.865
 270  99.22477
 271  30.42388
 272  66.71065
 273  85.2888
 274  95.96947
 275  73.14169
 276  260.2424
 277  320.1732
 278  225.4456
 279  131.3632
 280  238.4422
 281  204.763
 282  121.1328
 283  144.4945
 284  229.3404
 285  323.0709
 286  223.1126
 287  134.5355
 288  234.4738
 289  160.322
 290  234.2721
 291  285.7512
 292  224.2106
 293  199.6083
 294  135.0188
 295  55.12582
 296  93.44455
 297  200.8609
 298  186.4296
 299  185.8359
 300  99.50195
 301  67.90807
 302  135.0809
 303  239.2542
 304  194.9566
 305  186.9
 306  25.86894
 307  137.9475
 308  107.4786
 309  82.26384
 310  149.3734
 311  152.9499
 312  95.18112
 313  48.52787
 314  84.08068
 315  228.6925
 316  262.8239
 317  231.0054
 318  122.2715
 319  119.977
 320  29.70448
 321  149.6024
 322  99.448
 323  130.1087
 324  95.20724
 325  142.9049
 326  68.34661
 327  40.36956
 328  1.927635
 329  66.05225
 330  99.81767
 331  104.4452
 332  79.99008
 333  166.4531
 334  248.6002
 335  215.7709
 336  155.0625
 337  105.9314
 338  75.49914
 339  20.50302
 340  142.234
 341  235.6316
 342  176.7728
 343  111.7117
 344  75.34257
 345  74.40966
 346  35.62644
 347  251.4125
 348  106.6831
 349  69.97832
 350  149.8091
 351  207.4899
 352  265.3047
 353  193.6465
 354  102.9664
 355  64.0954
 356  1.599714
 357  113.8645
 358  155.1375
 359  49.01166
 360  33.49049
 361  129.474
 362  184.5395
 363  172.3785
 364  109.4082
 365  52.96415
 366  100.3702
 367  91.41489
 368  219.6838
 369  187.3397
 370  136.4595
 371  158.3496
 372  -12.96974
 373  22.00221
 374  50.17425
 375  152.9993
 376  260.3091
 377  223.0256
 378  124.3374
 379  104.0068
 380  165.4398
 381  208.3898
 382  298.1773
 383  248.1601
 384  180.084
 385  129.5913
 386  257.1508
 387  211.3759
 388  200.6926
 389  94.86593
 390  244.2848
 391  224.8514
 392  33.78153
 393  59.02263
 394  109.91
 395  158.5217
 396  143.4785
 397  44.10159
 398  164.4376
 399  315.7705
 400  394.1585
 401  250.8325
 402  172.4421
 403  161.9571
 404  100.3331
 405  141.5283
 406  221.0565
 407  247.2645
 408  193.9716
 409  269.6243
 410  218.2158
 411  116.1166
 412  105.2574
 413  86.74409
 414  20.08035
 415  108.3422
 416  229.3112
 417  217.7785
 418  179.8389
 419  234.0527
 420  10.58433
 421  31.86228
 422  155.2893
 423  196.0032
 424  244.506
 425  170.0157
 426  98.91062
 427  190.5802
 428  180.6726
 429  129.7523
 430  89.72946
 431  118.4749
 432  192.3813
 433  222.274
 434  264.4743
 435  96.24986
 436  11.73572
 437  49.66262
 438  153.9496
 439  222.98
 440  286.26
 441  233.5235
 442  180.9548
 443  110.393
 444  54.30595
 445  22.55379
 446  129.9478
 447  130.2643
 448  212.1994
 449  180.5488
 450  174.3946
 451  192.4386
 452  227.3209
 453  120.8197
 454  254.0146
 455  272.7456
 456  145.4238
 457  86.79526
 458  185.6681
 459  299.8175
 460  307.9749
 461  192.3738
 462  178.7152
 463  242.8426
 464  247.1669
 465  60.80513
 466  101.0827
 467  187.3483
 468  75.7392
 469  148.2089
 470  172.7791
 471  161.2538
 472  341.9919
 473  204.6587
 474  187.4015
 475  235.9826
 476  226.5637
 477  280.045
 478  114.368
 479  101.5627
 480  103.5912
 481  67.85892
 482  78.81437
 483  133.7318
 484  117.9367
 485  180.587
 486  177.4533
 487  198.5148
 488  266.2612
 489  120.2041
 490  99.05106
 491  138.0251
 492  105.0484
 493  175.1854
 494  208.3215
 495  200.7868
 496  148.1311
 497  128.2244
 498  231.4882
 499  157.3996
 500  14.74751
 501  121.8273
 502  251.1837
 503  272.0074
 504  49.43612
 505  203.7172
 506  262.1953
 507  359.1518
 508  463.0258
 509  343.1673
 510  95.50192
 511  99.59657
