# Input file       =  1188350229.11174_cleaned.dat
# Candidate        =  PSR_0332+5434
# Telescope        =  AR
# Epoch_topo       =  57998.053797589586
# Epoch_bary       =  N/A
# T_sample         =  0.002
# Data Folded      =  7340032
# Data Avg         =  0.00739831742203156
# Data StdDev      =  1.00001305292361 
# Profile Bins     =  512
# Profile Avg      =  106.074567434482 
# Profile StdDev   =  119.734599242944 
# Reduced chi-sqr  =  1.370
# Prob(Noise)      <  4.8e-08   (~5.3 sigma)
# P_topo (ms)      =  714.463536026837  +/- 0.000172
# P'_topo (s/s)    =  -0                +/- 9.09e-11
# P''_topo (s/s^2) =  0                 +/- 4.01e-14
# P_bary (ms)      =  N/A
# P'_bary (s/s)    =  N/A
# P''_bary (s/s^2) =  N/A
# P_orb (s)        =  N/A
# asin(i)/c (s)    =  N/A
# eccentricity     =  N/A
# w (rad)          =  N/A
# T_peri           =  N/A
######################################################
   0  111.9783
   1  203.6671
   2  192.4151
   3  142.7352
   4  9.072332
   5  171.7563
   6  36.65843
   7  65.66576
   8  47.20903
   9  11.79302
  10  27.76876
  11  60.50072
  12  88.10557
  13  104.9584
  14  183.9738
  15  193.571
  16  158.9785
  17  -26.01259
  18  59.25864
  19  27.8774
  20  72.88076
  21  -3.686934
  22  89.57475
  23  176.5093
  24  220.3425
  25  128.4342
  26  35.82146
  27  126.7007
  28  185.5163
  29  141.2902
  30  388.6581
  31  611.937
  32  653.0455
  33  663.9296
  34  751.278
  35  545.0353
  36  209.5601
  37  154.5919
  38  106.1701
  39  61.91496
  40  106.0443
  41  123.759
  42  78.58378
  43  128.0172
  44  107.8199
  45  111.2956
  46  139.6917
  47  199.637
  48  167.9172
  49  88.41802
  50  29.57244
  51  29.20701
  52  88.52454
  53  -60.1491
  54  78.78603
  55  134.0621
  56  147.0437
  57  -43.81337
  58  97.7138
  59  -6.650617
  60  -65.59982
  61  -108.3633
  62  124.3059
  63  244.2821
  64  85.30994
  65  68.07825
  66  -56.96127
  67  -82.5169
  68  5.007315
  69  94.75972
  70  103.4668
  71  110.3037
  72  63.43545
  73  119.9895
  74  157.9045
  75  155.6571
  76  175.3504
  77  87.45789
  78  -17.33973
  79  11.85871
  80  128.4016
  81  54.5886
  82  156.6803
  83  227.3344
  84  167.1868
  85  130.4786
  86  54.80689
  87  -31.1839
  88  -40.68462
  89  160.2986
  90  42.29761
  91  -8.963943
  92  -116.7263
  93  -0.440312
  94  108.4114
  95  115.2201
  96  114.5601
  97  21.4076
  98  69.16838
  99  229.045
 100  132.0892
 101  84.02452
 102  -46.78261
 103  58.92842
 104  -16.38056
 105  -110.7199
 106  -86.85362
 107  186.9473
 108  173.643
 109  54.99978
 110  63.1067
 111  79.49451
 112  143.4248
 113  124.8832
 114  233.8074
 115  110.7258
 116  -94.10889
 117  -151.3578
 118  -78.42361
 119  195.5908
 120  83.53298
 121  -8.406
 122  170.6067
 123  178.5169
 124  113.4595
 125  61.83298
 126  -81.4916
 127  -96.68523
 128  -102.7291
 129  133.8948
 130  170.4366
 131  97.06902
 132  76.58522
 133  33.92653
 134  58.29431
 135  -77.29
 136  -46.00665
 137  80.95811
 138  158.1588
 139  113.5529
 140  44.61475
 141  225.9559
 142  236.1799
 143  178.3431
 144  89.91653
 145  108.0693
 146  130.2756
 147  101.229
 148  -17.49375
 149  78.67667
 150  137.1205
 151  56.4537
 152  68.88877
 153  100.1495
 154  164.1148
 155  30.22993
 156  58.68658
 157  147.6702
 158  223.2681
 159  66.87376
 160  28.01976
 161  79.12181
 162  146.387
 163  189.3308
 164  291.5681
 165  260.1863
 166  331.6458
 167  283.2701
 168  198.1667
 169  103.995
 170  100.0849
 171  141.1322
 172  126.1334
 173  216.0469
 174  238.5483
 175  -11.83288
 176  44.43196
 177  220.1908
 178  139.9925
 179  272.6549
 180  261.5626
 181  222.1255
 182  130.2002
 183  212.9421
 184  163.975
 185  134.6848
 186  49.41212
 187  29.41321
 188  44.00098
 189  51.7887
 190  207.9804
 191  225.3278
 192  216.6196
 193  275.8079
 194  -45.40152
 195  48.41406
 196  151.4032
 197  241.6954
 198  239.3653
 199  192.2343
 200  20.77711
 201  156.9222
 202  138.646
 203  225.8474
 204  155.1909
 205  98.19511
 206  157.8982
 207  135.8757
 208  154.2422
 209  182.6348
 210  293.5392
 211  127.5017
 212  106.4869
 213  131.0443
 214  14.0922
 215  73.00783
 216  81.75743
 217  52.87969
 218  84.45111
 219  9.963726
 220  -45.70069
 221  124.6057
 222  237.1279
 223  132.7399
 224  26.43119
 225  3.853778
 226  120.1778
 227  173.7849
 228  124.6865
 229  7.906164
 230  96.25629
 231  104.9121
 232  203.2654
 233  -24.58345
 234  -24.55133
 235  196.2809
 236  141.6606
 237  217.6641
 238  78.87724
 239  28.90422
 240  84.66901
 241  114.6648
 242  41.85902
 243  90.0037
 244  16.10284
 245  145.8157
 246  -86.84237
 247  37.14656
 248  82.00447
 249  138.9583
 250  150.4826
 251  5.369412
 252  89.41549
 253  44.85151
 254  52.71882
 255  199.8661
 256  137.6307
 257  130.9382
 258  94.55293
 259  90.84756
 260  50.2778
 261  105.5411
 262  81.87915
 263  109.1743
 264  -7.014763
 265  -93.83817
 266  16.78321
 267  -6.973355
 268  4.164139
 269  143.1595
 270  226.6917
 271  187.8194
 272  -26.22242
 273  88.73085
 274  137.4153
 275  146.1413
 276  71.21191
 277  16.90414
 278  60.64704
 279  -28.91455
 280  72.73729
 281  74.72534
 282  93.76451
 283  106.711
 284  158.6018
 285  63.35439
 286  68.32521
 287  140.8449
 288  95.89748
 289  16.30684
 290  43.84839
 291  32.81618
 292  -9.863752
 293  -3.387201
 294  -44.1125
 295  -114.6604
 296  145.3273
 297  99.87068
 298  30.77082
 299  -7.345769
 300  134.1188
 301  62.62167
 302  111.9323
 303  65.00732
 304  -84.10153
 305  -150.7783
 306  22.72432
 307  9.373037
 308  16.999
 309  87.93456
 310  29.20142
 311  -67.08786
 312  106.3331
 313  73.42186
 314  81.94675
 315  66.12639
 316  19.17587
 317  53.34604
 318  137.0416
 319  114.7021
 320  208.3048
 321  191.0888
 322  200.8304
 323  182.8784
 324  9.727839
 325  -111.8602
 326  -147.1804
 327  94.27261
 328  115.1625
 329  109.5414
 330  173.9142
 331  53.26087
 332  57.70444
 333  54.95069
 334  154.7506
 335  114.7153
 336  95.36316
 337  116.8308
 338  115.8232
 339  69.28641
 340  20.27907
 341  -42.44163
 342  58.37019
 343  122.8289
 344  149.791
 345  189.4885
 346  244.2746
 347  93.09713
 348  -13.03139
 349  140.9077
 350  281.2914
 351  291.3803
 352  127.4629
 353  109.5226
 354  173.0358
 355  196.277
 356  153.6756
 357  205.4462
 358  200.9943
 359  205.2523
 360  117.4988
 361  211.3578
 362  118.1557
 363  115.7786
 364  33.83731
 365  -35.0441
 366  93.93774
 367  118.2905
 368  156.9001
 369  50.43353
 370  132.2953
 371  60.05978
 372  73.28153
 373  132.473
 374  105.6354
 375  94.50462
 376  94.50725
 377  75.75103
 378  106.6334
 379  267.2003
 380  132.9438
 381  152.5339
 382  190.8758
 383  183.3994
 384  249.7142
 385  132.1973
 386  106.4261
 387  1.788555
 388  46.51919
 389  241.7781
 390  213.5745
 391  222.2392
 392  150.8904
 393  192.8415
 394  280.5861
 395  199.3582
 396  20.78028
 397  158.79
 398  115.8349
 399  131.7714
 400  222.595
 401  147.8933
 402  165.4735
 403  61.92816
 404  -13.19127
 405  90.84953
 406  155.0878
 407  157.2369
 408  170.1312
 409  81.49146
 410  138.7569
 411  129.3264
 412  242.5788
 413  121.9078
 414  128.5759
 415  99.36279
 416  79.187
 417  92.91209
 418  172.4178
 419  163.6629
 420  90.92963
 421  133.3421
 422  159.6893
 423  56.2753
 424  202.232
 425  238.8789
 426  100.5938
 427  51.80151
 428  88.12796
 429  124.0374
 430  113.4621
 431  84.9191
 432  205.6673
 433  221.5018
 434  182.3342
 435  132.7684
 436  71.95051
 437  179.8449
 438  100.3733
 439  -0.2025682
 440  15.80589
 441  27.0891
 442  197.9071
 443  169.2418
 444  194.6217
 445  236.339
 446  106.5156
 447  63.91361
 448  71.33846
 449  191.6424
 450  89.40893
 451  85.09477
 452  36.72782
 453  -81.58233
 454  51.71244
 455  176.1606
 456  156.0344
 457  160.3672
 458  152.418
 459  174.9451
 460  162.7129
 461  152.7107
 462  48.87665
 463  161.3776
 464  211.816
 465  174.9683
 466  210.8575
 467  210.5966
 468  126.5244
 469  98.6554
 470  66.04298
 471  29.46629
 472  68.2241
 473  89.92924
 474  127.5559
 475  93.5886
 476  30.49535
 477  17.75025
 478  112.5971
 479  63.93562
 480  67.27599
 481  146.6293
 482  147.0137
 483  95.21452
 484  17.16732
 485  109.5996
 486  21.36145
 487  33.91925
 488  132.6493
 489  93.98067
 490  64.87586
 491  -56.44575
 492  -66.90652
 493  24.30754
 494  138.4896
 495  203.7369
 496  313.3414
 497  226.3546
 498  157.6694
 499  124.9757
 500  148.5236
 501  63.578
 502  50.97608
 503  182.6085
 504  211.4516
 505  158.6073
 506  52.30257
 507  55.77456
 508  -63.55719
 509  -137.9136
 510  -9.134871
 511  28.3109
