# Input file       =  1188608650.106318-PSRB0329-2ms-sampling-dd.dat
# Candidate        =  PSR_0332+5434
# Telescope        =  AR
# Epoch_topo       =  58001.044781323122
# Epoch_bary       =  N/A
# T_sample         =  0.002
# Data Folded      =  7340032
# Data Avg         =  -4.02493016702119e-10
# Data StdDev      =  3.09947297395143 
# Profile Bins     =  512
# Profile Avg      =  0.309759659349053
# Profile StdDev   =  371.10931033893  
# Reduced chi-sqr  =  1.097
# Prob(Noise)      <  0.0647   (~1.5 sigma)
# P_topo (ms)      =  714.463841861104  +/- 0.000227
# P'_topo (s/s)    =  -0                +/- 1.2e-10
# P''_topo (s/s^2) =  0                 +/- 5.29e-14
# P_bary (ms)      =  N/A
# P'_bary (s/s)    =  N/A
# P''_bary (s/s^2) =  N/A
# P_orb (s)        =  N/A
# asin(i)/c (s)    =  N/A
# eccentricity     =  N/A
# w (rad)          =  N/A
# T_peri           =  N/A
######################################################
   0  -217.3096
   1  -447.1623
   2  -384.0816
   3  93.9465
   4  -155.0991
   5  354.5855
   6  38.82705
   7  25.7645
   8  -120.0995
   9  -155.3529
  10  -179.3991
  11  48.61563
  12  186.9519
  13  -35.36003
  14  46.54135
  15  301.1082
  16  89.15755
  17  -422.624
  18  -470.2778
  19  -251.5249
  20  -74.14536
  21  194.9471
  22  10.40879
  23  -459.4861
  24  -616.3103
  25  -538.6751
  26  -385.8819
  27  -411.1758
  28  -396.0768
  29  189.6272
  30  375.2692
  31  -57.60109
  32  120.096
  33  -20.04723
  34  48.63624
  35  -143.9984
  36  232.7623
  37  382.3773
  38  511.8029
  39  414.1386
  40  451.7922
  41  -117.8132
  42  66.60189
  43  146.8079
  44  302.2375
  45  118.5621
  46  40.42379
  47  312.826
  48  68.28408
  49  -116.8751
  50  -258.0504
  51  -161.8848
  52  -323.1697
  53  -186.8215
  54  180.4875
  55  71.67676
  56  51.6844
  57  -248.2993
  58  -281.9562
  59  -16.58784
  60  122.6692
  61  145.7435
  62  -218.6984
  63  -125.4543
  64  -43.31285
  65  -138.963
  66  461.6614
  67  362.428
  68  -294.2222
  69  -256.674
  70  -392.5581
  71  -215.9608
  72  -67.95947
  73  97.48853
  74  192.3577
  75  -124.0116
  76  -367.8823
  77  -284.4317
  78  -356.0157
  79  -31.74643
  80  7.869771
  81  258.142
  82  68.62044
  83  -270.9528
  84  -156.9043
  85  71.65225
  86  347.2537
  87  107.8158
  88  138.284
  89  -21.57294
  90  -336.3069
  91  -394.459
  92  -421.3527
  93  -247.6743
  94  -193.4744
  95  -484.181
  96  -101.3006
  97  69.80652
  98  -303.6348
  99  -366.3892
 100  -145.1097
 101  44.94439
 102  180.2508
 103  425.0357
 104  13.1341
 105  130.234
 106  32.60787
 107  -14.94027
 108  -160.5157
 109  5.207194
 110  51.95395
 111  -111.0314
 112  -28.29857
 113  137.8983
 114  348.63
 115  -43.1114
 116  -291.4217
 117  -289.5366
 118  -164.4194
 119  362.8889
 120  101.3752
 121  120.2301
 122  160.5768
 123  33.61959
 124  148.444
 125  195.2572
 126  189.3298
 127  -236.4995
 128  -246.6592
 129  -156.8062
 130  57.66446
 131  -419.848
 132  -481.6749
 133  -195.7562
 134  -656.4066
 135  -434.6347
 136  -308.7664
 137  -521.3777
 138  -407.9932
 139  13.81188
 140  51.08325
 141  -276.6252
 142  -206.3723
 143  -440.1666
 144  -285.6441
 145  -25.81217
 146  -5.591238
 147  -8.95159
 148  -265.4631
 149  -245.388
 150  85.36851
 151  -53.50704
 152  -58.17056
 153  -3.923831
 154  -547.1699
 155  -340.4509
 156  -296.9514
 157  -105.2319
 158  -58.59897
 159  -162.685
 160  68.60768
 161  171.9735
 162  256.4495
 163  425.1454
 164  16.77215
 165  30.01513
 166  185.2018
 167  152.8335
 168  -100.0456
 169  -193.945
 170  388.6564
 171  558.5428
 172  263.5424
 173  -170.3935
 174  -167.7057
 175  -325.4124
 176  -71.11678
 177  472.7299
 178  265.5194
 179  -47.13387
 180  101.8671
 181  349.7133
 182  74.13713
 183  -13.50649
 184  -93.50303
 185  10.39356
 186  167.22
 187  -114.3824
 188  -136.3923
 189  -217.5192
 190  -224.2155
 191  -209.4651
 192  404.5432
 193  435.6288
 194  -36.11611
 195  -255.0914
 196  -11.33523
 197  197.9899
 198  142.9303
 199  -189.9416
 200  153.3055
 201  92.24624
 202  -165.8123
 203  -245.0423
 204  -28.08546
 205  89.65743
 206  -153.0618
 207  -220.9721
 208  55.52918
 209  242.8251
 210  533.699
 211  197.719
 212  2.590058
 213  162.066
 214  251.1451
 215  250.8816
 216  363.7575
 217  -116.0126
 218  72.71545
 219  336.0645
 220  206.5573
 221  200.2605
 222  15.21103
 223  -206.9619
 224  -77.84924
 225  -149.469
 226  -61.94754
 227  -140.2815
 228  7.733987
 229  -199.905
 230  -279.5192
 231  -508.3275
 232  -464.9612
 233  -442.2338
 234  252.1769
 235  269.8528
 236  -324.8823
 237  -79.35548
 238  15.22997
 239  -459.9449
 240  -176.0821
 241  226.8143
 242  220.3116
 243  333.482
 244  31.98354
 245  -102.6391
 246  -8.799212
 247  -62.50941
 248  170.3936
 249  -92.57495
 250  -498.4652
 251  -352.1004
 252  -279.174
 253  140.5561
 254  30.03227
 255  -30.22896
 256  -135.4208
 257  -186.9704
 258  -108.3617
 259  -134.9645
 260  295.2675
 261  172.453
 262  -266.6826
 263  -237.413
 264  -198.6887
 265  19.27345
 266  -15.18426
 267  144.3912
 268  154.2338
 269  -93.62561
 270  138.7731
 271  -143.8404
 272  -421.1903
 273  -202.7799
 274  -281.7563
 275  19.02354
 276  -2.262681
 277  -29.70244
 278  88.71932
 279  75.56921
 280  -64.25443
 281  -116.0967
 282  -293.1763
 283  -121.6042
 284  -90.58556
 285  -174.2023
 286  -143.0434
 287  -70.70007
 288  145.1019
 289  64.20679
 290  282.2785
 291  211.7155
 292  170.887
 293  -213.7285
 294  105.5236
 295  28.44785
 296  121.2648
 297  179.3164
 298  -92.05629
 299  97.94651
 300  79.84447
 301  -164.5386
 302  -440.1071
 303  -164.1313
 304  -163.3269
 305  42.90144
 306  -118.5165
 307  -56.66246
 308  -52.48914
 309  -38.45527
 310  58.5237
 311  -328.5169
 312  -199.9319
 313  255.2066
 314  354.4025
 315  -40.39883
 316  98.66189
 317  161.3051
 318  -63.25335
 319  -175.208
 320  26.27089
 321  -107.985
 322  70.30493
 323  115.1854
 324  2.536962
 325  87.02409
 326  287.7509
 327  275.1694
 328  60.88844
 329  308.8249
 330  22.07057
 331  -210.805
 332  -9.590593
 333  35.23925
 334  -96.00201
 335  44.87519
 336  -19.79791
 337  122.6269
 338  215.2652
 339  63.07448
 340  -163.355
 341  -6.138938
 342  -121.4304
 343  -259.9012
 344  -197.6727
 345  -365.5367
 346  -465.9527
 347  -202.1853
 348  86.09755
 349  24.24352
 350  -63.07331
 351  -103.1585
 352  43.1143
 353  -46.12147
 354  27.4791
 355  -169.9762
 356  -82.27354
 357  138.4228
 358  63.36811
 359  76.79191
 360  -151.4836
 361  -203.3401
 362  -161.8211
 363  16.67999
 364  -148.0813
 365  -157.3655
 366  -202.9719
 367  13.15663
 368  159.1878
 369  -53.21744
 370  -89.48327
 371  -402.7609
 372  -591.1188
 373  -482.2083
 374  -4.07667
 375  -296.2666
 376  -190.6043
 377  23.17252
 378  -275.1492
 379  45.94031
 380  198.4409
 381  3.047216
 382  -44.5122
 383  203.0378
 384  -27.77109
 385  -229.273
 386  108.194
 387  -30.43734
 388  -98.0387
 389  -30.34732
 390  145.5517
 391  -16.37707
 392  38.1024
 393  -152.2711
 394  -310.1785
 395  -59.37705
 396  -155.9536
 397  -167.8424
 398  -252.3824
 399  -129.991
 400  119.9695
 401  -163.593
 402  65.14029
 403  91.26929
 404  -34.37791
 405  -1.366346
 406  192.9776
 407  11.43979
 408  -177.8637
 409  -96.83536
 410  -110.8715
 411  -335.8128
 412  -62.62283
 413  -130.2542
 414  -117.9528
 415  83.43151
 416  166.352
 417  -42.38572
 418  -251.0584
 419  -218.1658
 420  -106.173
 421  145.3656
 422  465.8223
 423  599.7097
 424  285.0367
 425  69.98619
 426  123.027
 427  199.6115
 428  183.0082
 429  257.7751
 430  312.437
 431  -49.16372
 432  -283.6408
 433  -207.3463
 434  207.3015
 435  17.95389
 436  -154.1394
 437  11.2832
 438  -159.6532
 439  -259.4796
 440  -500.1485
 441  -204.8433
 442  170.0966
 443  -49.49413
 444  -24.25407
 445  -213.6652
 446  -214.7567
 447  -550.0114
 448  -331.8046
 449  168.0065
 450  164.671
 451  -118.8807
 452  -432.5443
 453  34.38936
 454  -69.80116
 455  -362.7852
 456  -272.0133
 457  671.4611
 458  719.9962
 459  557.8195
 460  533.0241
 461  -195.9495
 462  582.6451
 463  992.2914
 464  501.827
 465  841.1511
 466  703.4484
 467  473.2739
 468  -65.88508
 469  -24.2944
 470  182.9978
 471  -65.98358
 472  -143.1351
 473  40.83747
 474  492.3376
 475  662.2014
 476  371.1336
 477  419.5663
 478  431.0689
 479  648.3326
 480  1002.491
 481  1250.431
 482  1422.576
 483  1493.686
 484  1227.379
 485  897.2225
 486  509.1003
 487  105.6978
 488  -168.1879
 489  -25.19505
 490  482.2888
 491  531.5421
 492  380.6455
 493  98.06176
 494  315.8926
 495  -205.0592
 496  56.32629
 497  23.37311
 498  -228.3968
 499  -127.4147
 500  237.3205
 501  104.0592
 502  -205.8371
 503  295.7358
 504  499.7436
 505  101.3822
 506  -277.4526
 507  -41.31387
 508  44.44017
 509  321.8858
 510  58.1338
 511  -65.64442
