# Input file       =  1188781022.106776_cleaned.dat
# Candidate        =  PSR_0332+5434
# Telescope        =  AR
# Epoch_topo       =  58003.039827624722
# Epoch_bary       =  N/A
# T_sample         =  0.002
# Data Folded      =  7340032
# Data Avg         =  -0.00887078518904413
# Data StdDev      =  2.47047494239123 
# Profile Bins     =  512
# Profile Avg      =  -127.096142098032
# Profile StdDev   =  295.797466145218 
# Reduced chi-sqr  =  1.336
# Prob(Noise)      <  5.3e-07   (~4.9 sigma)
# P_topo (ms)      =  714.464125175468  +/- 0.000386
# P'_topo (s/s)    =  -0                +/- 2.04e-10
# P''_topo (s/s^2) =  0                 +/- 9e-14
# P_bary (ms)      =  N/A
# P'_bary (s/s)    =  N/A
# P''_bary (s/s^2) =  N/A
# P_orb (s)        =  N/A
# asin(i)/c (s)    =  N/A
# eccentricity     =  N/A
# w (rad)          =  N/A
# T_peri           =  N/A
######################################################
   0  -150.0868
   1  -143.0598
   2  -421.4983
   3  -592.0178
   4  -215.9352
   5  -185.3527
   6  -56.45163
   7  -215.3978
   8  -248.7028
   9  -107.4997
  10  -15.25817
  11  22.09992
  12  69.65692
  13  17.4526
  14  -308.4944
  15  -171.5841
  16  -168.4304
  17  133.2606
  18  134.0702
  19  -30.45789
  20  164.086
  21  -96.83363
  22  -26.44415
  23  -295.814
  24  -200.7043
  25  -288.3767
  26  -390.6398
  27  -385.2892
  28  -102.5624
  29  -39.44916
  30  170.003
  31  65.0659
  32  -2.309383
  33  -600.1741
  34  -643.7591
  35  -142.1546
  36  -230.1397
  37  -424.277
  38  -386.5345
  39  92.90862
  40  -15.04178
  41  -107.2367
  42  -239.0896
  43  -58.02435
  44  3.385002
  45  -88.58414
  46  11.31674
  47  45.49236
  48  268.9462
  49  421.0801
  50  96.6265
  51  -93.57212
  52  -65.60938
  53  -82.79665
  54  -59.46447
  55  -134.0965
  56  -237.0189
  57  -107.8559
  58  -41.20708
  59  95.82778
  60  -48.49166
  61  -49.6952
  62  8.199711
  63  -234.2724
  64  155.8805
  65  12.33393
  66  -257.3598
  67  75.42936
  68  -180.4535
  69  -248.3461
  70  -161.7213
  71  -324.7028
  72  -56.26857
  73  55.63749
  74  -221.9297
  75  -387.1879
  76  -222.9084
  77  335.7008
  78  246.5591
  79  126.2317
  80  330.4516
  81  -163.1324
  82  -359.3906
  83  -100.1211
  84  -111.1161
  85  -191.3109
  86  -48.67923
  87  269.4012
  88  270.3522
  89  -209.9597
  90  -259.2404
  91  -467.8912
  92  -565.7787
  93  -122.6138
  94  -52.49036
  95  -62.45107
  96  0.3568335
  97  -76.83811
  98  -330.1974
  99  20.87071
 100  -291.0807
 101  -496.9587
 102  74.10333
 103  168.5657
 104  -113.6512
 105  -287.4389
 106  -83.68291
 107  -185.5363
 108  -51.19162
 109  -91.2701
 110  -179.7546
 111  -152.011
 112  -141.4207
 113  -107.0676
 114  -58.90953
 115  -156.6074
 116  -206.8384
 117  176.8195
 118  261.0252
 119  70.43126
 120  73.62866
 121  263.2834
 122  257.0438
 123  -211.4691
 124  64.4955
 125  64.49321
 126  -1.553648
 127  -240.6491
 128  -358.509
 129  -39.91521
 130  -179.1852
 131  -130.4076
 132  -72.32783
 133  65.66685
 134  -117.4464
 135  -374.0756
 136  -557.3029
 137  -307.4126
 138  61.2449
 139  -141.8497
 140  -188.9451
 141  -196.839
 142  -161.555
 143  -565.6231
 144  -249.491
 145  -466.2638
 146  -190.0945
 147  184.0634
 148  -157.858
 149  -299.6219
 150  -325.7155
 151  -143.9831
 152  -175.9089
 153  -259.5365
 154  86.54102
 155  6.456146
 156  -203.3899
 157  -18.85574
 158  -157.4823
 159  -271.2683
 160  -119.8952
 161  -158.9478
 162  -261.0582
 163  -194.9354
 164  -5.933396
 165  -172.2977
 166  -329.8958
 167  -95.85004
 168  -37.63277
 169  -61.10013
 170  -14.06006
 171  -410.4323
 172  -477.1483
 173  -218.406
 174  -670.824
 175  -596.7642
 176  -551.7732
 177  -527.8287
 178  -419.7515
 179  66.32677
 180  -184.8675
 181  -413.8438
 182  -238.3423
 183  -136.664
 184  -338.4165
 185  -353.9239
 186  -314.1752
 187  -648.3868
 188  -372.851
 189  -16.98939
 190  -282.0039
 191  119.9818
 192  -171.3988
 193  -161.1609
 194  -46.64207
 195  -254.618
 196  -394.6096
 197  -514.6246
 198  -374.2083
 199  -544.6645
 200  -497.1262
 201  -194.2723
 202  -23.09655
 203  -43.44193
 204  -260.4357
 205  -245.126
 206  -243.842
 207  -59.98962
 208  114.6241
 209  326.6492
 210  -136.8829
 211  -250.8597
 212  -7.734931
 213  -138.6827
 214  -52.11081
 215  -160.5008
 216  -213.6185
 217  159.111
 218  255.3947
 219  -63.24091
 220  -301.1752
 221  -61.92218
 222  267.5276
 223  -25.40756
 224  -109.7894
 225  212.2651
 226  492.2768
 227  299.0609
 228  185.5788
 229  578.1553
 230  922.312
 231  1151.627
 232  1285.417
 233  1429.478
 234  1295.374
 235  733.733
 236  350.1173
 237  142.8483
 238  2.518698
 239  45.89605
 240  -1.878633
 241  -22.07262
 242  21.86712
 243  148.5721
 244  86.50183
 245  -99.1791
 246  215.4821
 247  70.12075
 248  -178.2184
 249  -320.2398
 250  -121.9436
 251  -298.739
 252  -337.774
 253  -169.3488
 254  117.9663
 255  -43.98093
 256  -436.4865
 257  -212.4385
 258  -36.7392
 259  -3.230121
 260  61.80206
 261  -115.2494
 262  -177.4506
 263  53.87279
 264  249.0783
 265  -168.4107
 266  24.26744
 267  -136.8991
 268  -51.6144
 269  189.2587
 270  330.9845
 271  -76.67697
 272  -102.527
 273  435.2481
 274  109.3621
 275  -406.8527
 276  -204.2623
 277  -61.4238
 278  -179.8131
 279  -231.0233
 280  -81.20405
 281  -31.43484
 282  -135.7284
 283  -200.2784
 284  94.50761
 285  128.6096
 286  -39.83211
 287  -168.5188
 288  31.75994
 289  17.34734
 290  -148.3759
 291  -108.1665
 292  -619.7833
 293  -234.8862
 294  17.83341
 295  178.8759
 296  -391.1184
 297  -559.4164
 298  -137.4399
 299  169.1917
 300  110.2601
 301  -96.01752
 302  -458.5685
 303  -174.8663
 304  -150.5253
 305  -232.236
 306  -218.2268
 307  -419.2589
 308  -297.9423
 309  -283.6106
 310  -220.1087
 311  -417.8347
 312  -129.5707
 313  185.9138
 314  -206.979
 315  -372.2427
 316  -122.6678
 317  -26.58248
 318  27.99596
 319  262.3542
 320  -174.6652
 321  150.1538
 322  -213.8091
 323  14.47951
 324  352.2701
 325  -11.1893
 326  -365.2605
 327  -532.1116
 328  -274.8063
 329  -29.84372
 330  -277.762
 331  -247.0158
 332  -218.6223
 333  -174.6104
 334  -310.4824
 335  -249.5531
 336  -309.0164
 337  -198.912
 338  23.68817
 339  -224.3765
 340  -418.957
 341  -449.4224
 342  -149.1019
 343  29.55765
 344  30.49529
 345  149.2559
 346  -160.7133
 347  -135.2199
 348  -189.8347
 349  -244.0568
 350  -142.7383
 351  -268.4684
 352  -222.6043
 353  -357.4479
 354  -344.299
 355  -67.20338
 356  -495.5502
 357  -504.3931
 358  146.9104
 359  -205.0011
 360  -205.2115
 361  173.8552
 362  -6.692895
 363  -238.9438
 364  -36.57337
 365  -73.25378
 366  -305.2411
 367  -45.18416
 368  81.98515
 369  13.84991
 370  -33.79276
 371  -182.2587
 372  26.94656
 373  -68.26006
 374  -452.7211
 375  -338.6862
 376  -355.9602
 377  -193.1107
 378  -85.38796
 379  -234.0404
 380  -262.6236
 381  -388.7174
 382  -233.6355
 383  -53.29612
 384  -284.2596
 385  -249.6626
 386  -365.8672
 387  -188.4973
 388  64.54472
 389  59.97275
 390  146.7108
 391  120.9906
 392  -343.599
 393  -137.869
 394  -180.7426
 395  -186.6648
 396  -259.914
 397  -45.53642
 398  23.75078
 399  -175.525
 400  -367.846
 401  -78.67713
 402  -142.7983
 403  35.99959
 404  90.70548
 405  50.1749
 406  -68.47977
 407  -363.6302
 408  -490.5976
 409  -203.0301
 410  -300.998
 411  167.335
 412  166.3017
 413  72.90195
 414  -289.278
 415  -187.5395
 416  53.11838
 417  -99.59953
 418  -73.61994
 419  -311.7401
 420  -405.8109
 421  55.63031
 422  -367.0687
 423  -286.545
 424  -510.2513
 425  -398.1793
 426  -409.3261
 427  -259.3753
 428  -74.06902
 429  -223.8013
 430  -352.6242
 431  -315.449
 432  -203.131
 433  -339.5869
 434  -319.3405
 435  -196.6444
 436  -248.9132
 437  -272.7635
 438  -262.3811
 439  -274.4628
 440  -540.2079
 441  -472.6393
 442  -318.2148
 443  -223.8997
 444  -220.4362
 445  -96.09519
 446  -68.44927
 447  -266.0653
 448  -117.7963
 449  -352.8359
 450  -518.0216
 451  -722.5284
 452  -341.9522
 453  -174.4171
 454  -71.88872
 455  140.4292
 456  -126.7533
 457  -222.1603
 458  -149.46
 459  -492.3672
 460  -202.1427
 461  -46.08654
 462  180.789
 463  -63.52044
 464  -154.4562
 465  -66.39307
 466  -417.924
 467  -263.8256
 468  -112.3114
 469  -131.9687
 470  -240.6717
 471  -355.7025
 472  -474.2109
 473  -410.3772
 474  132.4733
 475  -34.11362
 476  -28.82479
 477  -92.25784
 478  -249.6984
 479  -190.9656
 480  -1.609068
 481  60.60778
 482  -119.9303
 483  -36.86707
 484  -350.1583
 485  -92.39861
 486  -127.3278
 487  -352.5083
 488  -286.5318
 489  -251.8234
 490  -145.9637
 491  -149.6328
 492  -454.7148
 493  -418.3358
 494  -233.1954
 495  -129.2052
 496  124.9246
 497  190.0423
 498  -143.3559
 499  -643.15
 500  -486.1571
 501  -90.53976
 502  -205.8628
 503  -314.2837
 504  -355.6631
 505  -139.0175
 506  -139.2098
 507  -353.9955
 508  -215.9535
 509  -157.6848
 510  -215.023
 511  -305.9868
