# Input file       =  1188795939.110369_cleaned.dat
# Candidate        =  PSR_0332+5434
# Telescope        =  AR
# Epoch_topo       =  58003.212478129273
# Epoch_bary       =  N/A
# T_sample         =  0.002
# Data Folded      =  7340032
# Data Avg         =  0.0299091423377312
# Data StdDev      =  3.04543619093366 
# Profile Bins     =  256
# Profile Avg      =  857.569688810428 
# Profile StdDev   =  515.677874875282 
# Reduced chi-sqr  =  1.330
# Prob(Noise)      <  0.000324   (~3.4 sigma)
# P_topo (ms)      =  714.464487488006  +/- 0.000219
# P'_topo (s/s)    =  -0                +/- 1.16e-10
# P''_topo (s/s^2) =  0                 +/- 5.11e-14
# P_bary (ms)      =  N/A
# P'_bary (s/s)    =  N/A
# P''_bary (s/s^2) =  N/A
# P_orb (s)        =  N/A
# asin(i)/c (s)    =  N/A
# eccentricity     =  N/A
# w (rad)          =  N/A
# T_peri           =  N/A
######################################################
   0  84.2861
   1  148.0477
   2  602.8719
   3  195.1642
   4  450.7175
   5  159.2982
   6  737.0552
   7  200.0048
   8  792.6124
   9  1182.337
  10  1328.505
  11  1147.133
  12  334.6204
  13  209.1112
  14  1104.13
  15  1092.465
  16  169.6144
  17  631.5023
  18  281.878
  19  936.8902
  20  1604.49
  21  1400.679
  22  805.9594
  23  1255.886
  24  1113.916
  25  988.5234
  26  -740.9838
  27  111.2985
  28  671.9462
  29  1253.673
  30  1011.055
  31  -131.6451
  32  783.6904
  33  241.6728
  34  525.2017
  35  698.0026
  36  271.0433
  37  712.8983
  38  926.6541
  39  1211.282
  40  372.5699
  41  514.6448
  42  644.883
  43  974.4912
  44  635.0613
  45  820.2866
  46  817.4144
  47  595.6245
  48  238.4951
  49  215.2497
  50  1134.531
  51  596.42
  52  762.0803
  53  1145.525
  54  221.3817
  55  739.2533
  56  1553.754
  57  1784.54
  58  737.3217
  59  1112.324
  60  866.3088
  61  846.5557
  62  437.527
  63  245.0244
  64  1307.595
  65  958.7308
  66  331.1703
  67  236.1304
  68  518.4178
  69  961.0162
  70  279.3242
  71  1287.9
  72  873.3387
  73  753.8912
  74  940.4222
  75  990.7566
  76  1132.853
  77  373.9229
  78  439.7433
  79  936.6168
  80  1076.984
  81  945.5094
  82  1571.845
  83  490.255
  84  874.3303
  85  844.142
  86  1084.48
  87  750.7064
  88  469.7026
  89  1443.253
  90  232.2406
  91  868.4297
  92  883.905
  93  310.0014
  94  796.1389
  95  703.3033
  96  540.7534
  97  617.1593
  98  1798.406
  99  787.3183
 100  1099.621
 101  965.438
 102  1060.45
 103  631.3263
 104  1231.23
 105  1431.804
 106  1209.649
 107  92.6753
 108  286.4502
 109  1564.495
 110  816.9646
 111  582.8378
 112  1137.467
 113  914.7151
 114  682.9543
 115  1496.076
 116  311.3271
 117  1146.687
 118  1230.083
 119  717.0085
 120  814.6109
 121  1152.668
 122  1615.379
 123  1211.629
 124  666.3986
 125  1182.85
 126  2033.449
 127  1446.259
 128  626.3643
 129  1274.879
 130  986.5406
 131  916.0685
 132  924.6602
 133  1321.914
 134  1447.536
 135  636.6567
 136  316.25
 137  1239.134
 138  1096.133
 139  1162.249
 140  1055.346
 141  952.6506
 142  1318.375
 143  1335.672
 144  595.5315
 145  368.0861
 146  3.302728
 147  615.1001
 148  597.6455
 149  955.5823
 150  996.6184
 151  1489.262
 152  931.8828
 153  688.5823
 154  1032.752
 155  694.7632
 156  503.242
 157  502.273
 158  1505.896
 159  1801.876
 160  3437.086
 161  3336.745
 162  2320.747
 163  1589.135
 164  1156.399
 165  1284.032
 166  1339.271
 167  1374.456
 168  1330.266
 169  1633.129
 170  1067.396
 171  1244.3
 172  1276.638
 173  1993.038
 174  1053.99
 175  235.767
 176  1317.59
 177  660.4766
 178  663.8369
 179  1554.443
 180  1144.471
 181  643.7603
 182  851.6057
 183  1029.582
 184  1015.54
 185  -72.47379
 186  1180.47
 187  634.8655
 188  798.2956
 189  841.2917
 190  720.9893
 191  670.8266
 192  663.0766
 193  -32.74974
 194  483.7589
 195  85.3559
 196  148.2122
 197  222.9962
 198  574.3403
 199  1148.217
 200  1205.828
 201  1477.384
 202  856.1588
 203  730.3627
 204  1202.337
 205  322.1507
 206  977.521
 207  1669.99
 208  1673.772
 209  1285.455
 210  535.7385
 211  461.9709
 212  1033.902
 213  1427.628
 214  615.2389
 215  1573.451
 216  1210.264
 217  759.4222
 218  1035.391
 219  628.4591
 220  975.3821
 221  668.9734
 222  566.9825
 223  206.9506
 224  -291.7218
 225  15.05959
 226  657.3171
 227  244.999
 228  770.2364
 229  976.5114
 230  182.1538
 231  -107.8391
 232  43.65229
 233  789.5833
 234  759.4346
 235  688.7145
 236  1130.478
 237  1382
 238  1244.765
 239  1126.851
 240  889.8995
 241  530.6157
 242  934.757
 243  874.9336
 244  880.4112
 245  1437.339
 246  1061.21
 247  697.2411
 248  1093.993
 249  -249.2184
 250  561.7136
 251  -255.7791
 252  600.8574
 253  987.7749
 254  809.4318
 255  797.807
