# Input file       =  1189815021.115329_cleaned.dat
# Candidate        =  PSR_0332+5434
# Telescope        =  AR
# Epoch_topo       =  58015.007408742233
# Epoch_bary       =  N/A
# T_sample         =  0.002
# Data Folded      =  7340032
# Data Avg         =  0.00593708035957892
# Data StdDev      =  1.00002876679974 
# Profile Bins     =  512
# Profile Avg      =  84.9087549077804 
# Profile StdDev   =  119.736480713046 
# Reduced chi-sqr  =  1.533
# Prob(Noise)      <  8.27e-14   (~7.4 sigma)
# P_topo (ms)      =  714.467165661963  +/- 0.000292
# P'_topo (s/s)    =  -0                +/- 1.54e-10
# P''_topo (s/s^2) =  0                 +/- 6.8e-14
# P_bary (ms)      =  N/A
# P'_bary (s/s)    =  N/A
# P''_bary (s/s^2) =  N/A
# P_orb (s)        =  N/A
# asin(i)/c (s)    =  N/A
# eccentricity     =  N/A
# w (rad)          =  N/A
# T_peri           =  N/A
######################################################
   0  -6.238901
   1  157.9826
   2  202.2999
   3  158.6996
   4  105.4724
   5  216.9486
   6  77.41223
   7  116.4408
   8  43.55809
   9  13.71632
  10  -10.89186
  11  -22.57231
  12  -8.226835
  13  -69.93867
  14  -31.03697
  15  12.19177
  16  69.64995
  17  -8.925299
  18  4.164494
  19  87.42923
  20  81.8969
  21  5.131837
  22  80.70921
  23  172.0401
  24  98.92698
  25  -10.47713
  26  -125.7831
  27  -84.70514
  28  86.14572
  29  98.62119
  30  49.32888
  31  87.71955
  32  3.269534
  33  15.04249
  34  44.42898
  35  25.30094
  36  115.4329
  37  7.979342
  38  73.75296
  39  99.26732
  40  173.3656
  41  88.31572
  42  77.79837
  43  105.4826
  44  60.69366
  45  -8.113526
  46  20.80663
  47  119.5648
  48  43.05992
  49  -36.1003
  50  56.71307
  51  123.7908
  52  78.25166
  53  200.5398
  54  139.1742
  55  -59.87547
  56  9.921926
  57  76.7677
  58  84.68979
  59  30.27116
  60  94.13509
  61  124.9968
  62  50.15741
  63  80.76968
  64  131.1069
  65  1.925811
  66  9.776522
  67  219.3608
  68  325.6908
  69  225.7028
  70  96.34481
  71  -48.58029
  72  63.80072
  73  -55.84591
  74  -92.36788
  75  85.80797
  76  -27.16805
  77  59.50423
  78  93.78775
  79  -20.47053
  80  -1.479261
  81  61.204
  82  103.1849
  83  78.28737
  84  81.54942
  85  134.0783
  86  145.8555
  87  70.58041
  88  120.431
  89  74.37375
  90  -86.47589
  91  83.77856
  92  11.17739
  93  -127.0254
  94  74.4906
  95  226.064
  96  169.5493
  97  143.9475
  98  81.02739
  99  46.32816
 100  58.09708
 101  61.61427
 102  12.39231
 103  -60.06763
 104  127.171
 105  22.01431
 106  -11.08173
 107  81.02043
 108  19.69618
 109  -38.22171
 110  70.783
 111  101.2621
 112  11.41852
 113  64.31364
 114  -34.34896
 115  2.478161
 116  24.53802
 117  67.09189
 118  -11.04758
 119  26.75794
 120  87.64132
 121  57.95753
 122  135.0601
 123  130.8858
 124  139.3772
 125  104.2617
 126  100.8467
 127  101.4309
 128  32.18332
 129  62.99599
 130  49.28719
 131  139.563
 132  145.0583
 133  89.91492
 134  35.9411
 135  131.003
 136  32.00039
 137  6.299412
 138  -23.35215
 139  12.99945
 140  38.27811
 141  -112.7359
 142  83.06486
 143  139.9936
 144  -10.70189
 145  -27.87997
 146  -2.710611
 147  80.7664
 148  124.4731
 149  97.36391
 150  141.3974
 151  125.591
 152  119.3625
 153  76.66774
 154  207.4515
 155  205.0409
 156  183.6356
 157  154.8869
 158  126.6166
 159  90.18678
 160  72.99429
 161  136.2173
 162  142.2814
 163  59.16749
 164  127.7206
 165  219.4167
 166  207.8477
 167  283.175
 168  148.4915
 169  41.86811
 170  186.3524
 171  170.4738
 172  222.0797
 173  262.8619
 174  152.5952
 175  37.77341
 176  3.790584
 177  -11.99552
 178  49.12297
 179  90.16251
 180  -32.82501
 181  -0.4206682
 182  19.40034
 183  82.72579
 184  65.91144
 185  79.72385
 186  192.6132
 187  89.14079
 188  -7.36702
 189  49.53126
 190  150.0952
 191  170.8653
 192  125.5967
 193  146.862
 194  113.0645
 195  107.1553
 196  106.136
 197  70.52381
 198  122.0886
 199  84.82903
 200  -17.1826
 201  97.24198
 202  114.5872
 203  14.82627
 204  -39.11973
 205  -7.169323
 206  -13.49792
 207  34.15521
 208  -19.54128
 209  -113.1112
 210  -58.272
 211  79.55856
 212  100.8411
 213  61.92201
 214  48.17344
 215  -24.64912
 216  116.4852
 217  160.2919
 218  106.3199
 219  55.63931
 220  68.71137
 221  4.080003
 222  -62.72122
 223  88.04615
 224  26.10455
 225  135.4002
 226  186.5927
 227  239.6676
 228  226.3173
 229  83.75171
 230  121.1136
 231  62.80793
 232  205.1282
 233  177.8468
 234  104.2951
 235  136.8976
 236  27.62293
 237  90.47868
 238  86.40173
 239  56.60038
 240  10.09193
 241  57.29035
 242  153.2469
 243  88.88019
 244  -25.1329
 245  47.66674
 246  177.7615
 247  123.1143
 248  36.34159
 249  -24.38814
 250  -20.71059
 251  112.3941
 252  147.6301
 253  102.5574
 254  156.0792
 255  -19.62634
 256  -72.10672
 257  -98.52847
 258  46.68865
 259  36.64266
 260  58.30656
 261  218.8921
 262  340.3424
 263  138.9359
 264  59.66371
 265  130.0192
 266  212.448
 267  106.8075
 268  -27.67916
 269  -6.819115
 270  76.82116
 271  101.0222
 272  26.22474
 273  85.08221
 274  14.12608
 275  -21.90912
 276  28.93383
 277  -37.67139
 278  96.45947
 279  94.03652
 280  71.79906
 281  86.65479
 282  28.80259
 283  35.43102
 284  79.20551
 285  49.61451
 286  132.0252
 287  102.9752
 288  87.06763
 289  149.9209
 290  136.5458
 291  29.61658
 292  9.415278
 293  -54.864
 294  103.7507
 295  114.6371
 296  121.5316
 297  26.223
 298  74.37219
 299  22.61143
 300  53.96848
 301  156.4089
 302  177.203
 303  65.31922
 304  146.7247
 305  301.873
 306  252.0622
 307  283.3758
 308  317.955
 309  254.3035
 310  227.1072
 311  401.114
 312  725.8594
 313  708.4595
 314  769.4511
 315  784.5815
 316  752.4112
 317  479.7622
 318  325.8004
 319  255.9442
 320  245.6179
 321  58.26471
 322  -23.1021
 323  -60.81493
 324  105.3628
 325  157.2737
 326  56.04302
 327  37.46092
 328  168.1949
 329  125.3774
 330  145.3027
 331  39.1242
 332  3.586145
 333  78.40703
 334  88.5215
 335  262.7463
 336  195.2399
 337  104.4726
 338  154.0668
 339  150.7419
 340  115.1905
 341  98.35923
 342  177.7556
 343  188.1016
 344  69.03622
 345  70.8876
 346  70.91098
 347  -34.92228
 348  -56.24661
 349  81.91847
 350  141.6213
 351  79.33327
 352  19.59099
 353  4.10582
 354  -20.84465
 355  -54.21096
 356  126.7918
 357  172.6511
 358  87.40399
 359  86.00084
 360  -4.53505
 361  68.36355
 362  170.125
 363  114.1102
 364  -124.5821
 365  33.0355
 366  99.66945
 367  208.2962
 368  65.05126
 369  244.0755
 370  177.7144
 371  -53.55272
 372  -33.86268
 373  12.22836
 374  160.1038
 375  177.1306
 376  121.2895
 377  -72.11641
 378  -71.49196
 379  229.774
 380  200.5233
 381  65.15742
 382  46.13106
 383  82.7073
 384  156.1591
 385  18.44644
 386  22.62885
 387  64.64062
 388  100.2284
 389  149.6267
 390  103.422
 391  83.47523
 392  141.8821
 393  23.82276
 394  20.00218
 395  36.94296
 396  188.3474
 397  99.29316
 398  83.26748
 399  159.3679
 400  153.5859
 401  77.68368
 402  84.3406
 403  113.1554
 404  66.6598
 405  89.70129
 406  64.69511
 407  93.81595
 408  98.11389
 409  11.65808
 410  -40.61865
 411  75.44834
 412  164.7098
 413  191.4708
 414  50.94006
 415  108.9788
 416  166.2176
 417  152.2339
 418  161.441
 419  -109.6392
 420  -136.9892
 421  -3.519661
 422  94.96121
 423  23.28477
 424  -89.92825
 425  -9.774105
 426  118.4318
 427  32.13685
 428  157.6418
 429  4.572505
 430  -119.9892
 431  67.74297
 432  206.5931
 433  147.8867
 434  109.0189
 435  98.03262
 436  141.5526
 437  31.57479
 438  20.9584
 439  -42.00519
 440  -88.86517
 441  36.31273
 442  13.73184
 443  -17.80818
 444  -56.70535
 445  36.72779
 446  70.01712
 447  -42.11036
 448  117.7052
 449  140.184
 450  85.6944
 451  20.46561
 452  36.10876
 453  22.86501
 454  150.6763
 455  134.5497
 456  271.7095
 457  105.754
 458  -6.951083
 459  45.75141
 460  50.51822
 461  42.0974
 462  55.67299
 463  -8.585294
 464  65.61555
 465  53.30739
 466  75.35495
 467  91.82227
 468  163.1173
 469  156.8537
 470  -133.8901
 471  -49.77666
 472  68.46542
 473  130.9388
 474  162.7529
 475  85.34898
 476  76.11462
 477  218.039
 478  130.3786
 479  156.5964
 480  50.37278
 481  -20.19359
 482  109.6596
 483  174.7599
 484  223.8425
 485  -6.909055
 486  -15.84355
 487  101.0495
 488  100.7874
 489  84.37769
 490  -24.83982
 491  110.1647
 492  67.63052
 493  -29.11965
 494  -12.81233
 495  58.05916
 496  30.04789
 497  -16.72401
 498  74.16083
 499  115.6784
 500  -68.37916
 501  23.11518
 502  176.4169
 503  72.37425
 504  22.96431
 505  138.9296
 506  116.5264
 507  151.069
 508  95.62703
 509  253.3125
 510  101.8585
 511  27.49189
