# Input file       =  1189987313.102369_cleaned.dat
# Candidate        =  PSR_0332+5434
# Telescope        =  AR
# Epoch_topo       =  58017.001528962603
# Epoch_bary       =  N/A
# T_sample         =  0.002
# Data Folded      =  7340032
# Data Avg         =  0.0102283288035566
# Data StdDev      =  1.00002511264437 
# Profile Bins     =  512
# Profile Avg      =  146.664942661694 
# Profile StdDev   =  119.736043189928 
# Reduced chi-sqr  =  1.586
# Prob(Noise)      <  5.85e-16   (~8.0 sigma)
# P_topo (ms)      =  714.46790854943   +/- 0.000185
# P'_topo (s/s)    =  -0                +/- 9.78e-11
# P''_topo (s/s^2) =  0                 +/- 4.32e-14
# P_bary (ms)      =  N/A
# P'_bary (s/s)    =  N/A
# P''_bary (s/s^2) =  N/A
# P_orb (s)        =  N/A
# asin(i)/c (s)    =  N/A
# eccentricity     =  N/A
# w (rad)          =  N/A
# T_peri           =  N/A
######################################################
   0  981.1609
   1  912.5049
   2  650.5612
   3  378.047
   4  292.4655
   5  356.868
   6  162.0898
   7  29.62631
   8  34.01321
   9  133.302
  10  300.8977
  11  347.6346
  12  163.6511
  13  200.9857
  14  285.1361
  15  267.9781
  16  141.2326
  17  206.3408
  18  193.1239
  19  135.4309
  20  117.7142
  21  27.22174
  22  85.7047
  23  129.9482
  24  112.3818
  25  127.9446
  26  230.0002
  27  242.0693
  28  -0.551178
  29  143.9812
  30  304.9698
  31  93.00317
  32  94.92354
  33  199.5595
  34  236.2776
  35  205.0949
  36  181.1325
  37  208.4756
  38  161.0132
  39  148.3346
  40  85.86854
  41  106.0604
  42  57.28188
  43  145.1975
  44  169.3346
  45  207.6926
  46  96.23431
  47  -31.02301
  48  108.0727
  49  128.2332
  50  236.216
  51  352.9542
  52  316.0625
  53  264.2048
  54  189.3544
  55  186.3138
  56  202.2123
  57  148.1831
  58  142.9505
  59  283.5666
  60  230.1386
  61  163.7083
  62  109.4565
  63  208.5952
  64  122.6535
  65  87.45294
  66  199.1235
  67  292.4344
  68  239.8477
  69  115.2782
  70  139.7784
  71  131.6387
  72  104.2859
  73  76.25905
  74  237.8733
  75  212.1854
  76  127.6319
  77  192.675
  78  180.4143
  79  123.2064
  80  56.62452
  81  103.7675
  82  63.42159
  83  138.8472
  84  321.8622
  85  177.9059
  86  130.2483
  87  113.8252
  88  125.0262
  89  203.4581
  90  114.5112
  91  100.698
  92  38.82436
  93  45.98134
  94  206.9223
  95  217.6162
  96  223.9214
  97  176.9151
  98  96.01823
  99  11.20807
 100  150.8375
 101  173.6968
 102  143.3728
 103  296.0557
 104  216.2234
 105  241.4886
 106  175.8725
 107  51.81845
 108  206.065
 109  229.0977
 110  64.69293
 111  101.7389
 112  149.6119
 113  221.7201
 114  203.8858
 115  256.2213
 116  295.9652
 117  165.0093
 118  321.3785
 119  300.1667
 120  244.0891
 121  15.10725
 122  -25.05127
 123  -23.02584
 124  -133.8006
 125  -134.4326
 126  159.0832
 127  158.5947
 128  159.627
 129  109.8953
 130  100.0369
 131  40.95969
 132  101.0651
 133  199.0433
 134  168.261
 135  40.21965
 136  52.83294
 137  53.72785
 138  100.4953
 139  0.1178753
 140  -50.7686
 141  20.42117
 142  69.57424
 143  54.24365
 144  60.14456
 145  153.4932
 146  145.3446
 147  122.1714
 148  5.607194
 149  82.93005
 150  144.8575
 151  194.6583
 152  331.0492
 153  168.5142
 154  43.04686
 155  115.5807
 156  211.3336
 157  192.7303
 158  172.0433
 159  237.8687
 160  242.7843
 161  228.4639
 162  102.8401
 163  20.12255
 164  81.55882
 165  206.1924
 166  317.0184
 167  211.1825
 168  180.1394
 169  251.8586
 170  171.5263
 171  223.3953
 172  210.3102
 173  116.1394
 174  76.53808
 175  120.613
 176  183.668
 177  189.1703
 178  156.3565
 179  112.7484
 180  82.93479
 181  86.50584
 182  137.1059
 183  244.5921
 184  248.8686
 185  157.0969
 186  86.84715
 187  287.3672
 188  277.6184
 189  289.0176
 190  120.0659
 191  126.1263
 192  129.3728
 193  168.7531
 194  -36.23592
 195  25.40159
 196  40.19394
 197  150.6993
 198  145.4693
 199  113.3858
 200  154.0141
 201  220.872
 202  148.5847
 203  42.25506
 204  97.81236
 205  37.5514
 206  76.4577
 207  114.6071
 208  89.79973
 209  18.04228
 210  79.1396
 211  98.0716
 212  -8.275059
 213  60.96226
 214  25.15492
 215  -20.34275
 216  6.179078
 217  82.21629
 218  212.3665
 219  191.5968
 220  111.8759
 221  30.99978
 222  144.6428
 223  113.8815
 224  24.21315
 225  203.9682
 226  203.8436
 227  152.2437
 228  27.4013
 229  122.3725
 230  123.1966
 231  93.20195
 232  182.9995
 233  118.071
 234  45.37513
 235  153.3698
 236  113.7661
 237  95.51448
 238  76.77139
 239  117.286
 240  23.86077
 241  129.9396
 242  104.135
 243  109.8717
 244  225.0904
 245  223.4352
 246  -82.04375
 247  -65.2197
 248  119.177
 249  -29.06753
 250  80.56197
 251  263.8318
 252  216.0038
 253  59.38525
 254  190.537
 255  167.189
 256  121.7507
 257  90.54224
 258  178.8756
 259  98.96459
 260  218.3666
 261  233.4548
 262  174.5141
 263  179.1374
 264  119.1149
 265  164.2544
 266  146.1714
 267  228.9102
 268  175.7685
 269  170.4937
 270  218.5911
 271  62.80036
 272  -11.92496
 273  36.17349
 274  113.6388
 275  241.5423
 276  175.5092
 277  277.1966
 278  420.4711
 279  358.8685
 280  170.595
 281  -0.8445068
 282  203.7465
 283  230.0211
 284  103.3206
 285  224.3649
 286  129.9843
 287  2.234178
 288  160.1007
 289  199.9399
 290  71.64464
 291  127.9899
 292  171.6243
 293  169.4061
 294  121.0904
 295  21.57586
 296  41.55553
 297  -44.78241
 298  -22.28142
 299  195.5367
 300  107.1983
 301  -51.00928
 302  -39.52516
 303  144.773
 304  158.0788
 305  189.6541
 306  130.4711
 307  -4.425574
 308  230.7639
 309  139.5666
 310  125.2753
 311  104.9139
 312  107.8014
 313  261.1374
 314  159.6817
 315  87.67202
 316  173.3144
 317  122.5531
 318  90.72781
 319  194.626
 320  95.14973
 321  170.5638
 322  104.382
 323  168.4825
 324  178.013
 325  141.9532
 326  182.541
 327  -36.98029
 328  -35.96153
 329  93.52676
 330  136.9367
 331  145.4786
 332  43.97934
 333  56.29626
 334  93.35225
 335  107.0591
 336  102.3723
 337  71.72412
 338  190.5912
 339  100.839
 340  121.156
 341  80.24932
 342  68.95715
 343  92.75159
 344  209.8192
 345  170.4113
 346  100.8773
 347  132.23
 348  190.119
 349  137.472
 350  72.84044
 351  232.8052
 352  14.41661
 353  117.1954
 354  252.0313
 355  57.62575
 356  34.47194
 357  109.196
 358  32.54495
 359  136.4465
 360  176.5565
 361  124.4518
 362  131.3367
 363  218.3208
 364  209.6953
 365  215.4635
 366  139.0388
 367  16.9146
 368  37.12926
 369  198.442
 370  98.93885
 371  -22.43237
 372  101.8006
 373  171.6985
 374  55.32927
 375  82.83706
 376  191.1377
 377  244.4207
 378  135.877
 379  139.4685
 380  -27.37724
 381  90.86545
 382  183.3263
 383  94.76563
 384  19.27711
 385  6.227139
 386  63.59924
 387  91.4494
 388  90.27439
 389  53.55014
 390  77.37105
 391  86.40984
 392  84.84782
 393  152.0992
 394  187.9904
 395  114.2896
 396  33.09986
 397  152.3896
 398  24.7548
 399  110.5089
 400  161.4602
 401  58.39788
 402  48.27828
 403  -12.22331
 404  52.36937
 405  26.51692
 406  94.20692
 407  144.1432
 408  157.8892
 409  126.289
 410  85.23175
 411  131.4806
 412  163.3571
 413  134.4935
 414  4.320414
 415  76.97036
 416  56.99886
 417  249.2904
 418  194.7762
 419  52.29515
 420  122.6718
 421  92.95521
 422  24.80587
 423  -5.758513
 424  98.02408
 425  239.8756
 426  158.6854
 427  131.7991
 428  210.7046
 429  163.03
 430  81.79489
 431  110.8743
 432  131.9053
 433  86.57297
 434  100.2148
 435  177.539
 436  271.9409
 437  226.5749
 438  160.526
 439  208.1225
 440  137.6955
 441  82.10944
 442  120.9831
 443  87.27074
 444  134.9237
 445  251.0243
 446  351.2294
 447  178.5518
 448  169.0768
 449  81.46994
 450  86.04984
 451  161.9707
 452  241.2036
 453  198.8305
 454  239.3952
 455  147.5726
 456  133.6736
 457  53.76975
 458  66.66267
 459  267.7576
 460  288.3234
 461  236.6005
 462  217.7445
 463  241.6568
 464  231.8521
 465  202.8582
 466  241.4894
 467  275.7543
 468  119.7656
 469  212.8069
 470  286.7909
 471  228.5526
 472  243.1224
 473  296.4845
 474  218.8237
 475  184.9476
 476  111.2743
 477  80.58163
 478  94.78829
 479  2.110645
 480  180.2929
 481  182.4231
 482  166.4427
 483  119.5023
 484  188.812
 485  279.9031
 486  226.2667
 487  164.8735
 488  263.1213
 489  157.8468
 490  216.436
 491  207.3008
 492  172.449
 493  141.4058
 494  117.3942
 495  175.8628
 496  180.1794
 497  131.4822
 498  237.9936
 499  120.1736
 500  242.5741
 501  42.30312
 502  -79.23986
 503  -10.98755
 504  139.8029
 505  207.099
 506  280.5686
 507  288.3752
 508  278.3875
 509  430.7026
 510  610.4185
 511  883.3891
