# Input file       =  1189470387.118155_cleaned.dat
# Candidate        =  PSR_0332+5434
# Telescope        =  AR
# Epoch_topo       =  58011.018589330495
# Epoch_bary       =  N/A
# T_sample         =  0.002
# Data Folded      =  7340032
# Data Avg         =  0.00349317194816851
# Data StdDev      =  1.00000033422784 
# Profile Bins     =  512
# Profile Avg      =  50.0880982351027 
# Profile StdDev   =  119.73307639488  
# Reduced chi-sqr  =  1.553
# Prob(Noise)      <  1.37e-14   (~7.6 sigma)
# P_topo (ms)      =  714.465884456542  +/- 0.00015
# P'_topo (s/s)    =  -0                +/- 7.92e-11
# P''_topo (s/s^2) =  0                 +/- 3.5e-14
# P_bary (ms)      =  N/A
# P'_bary (s/s)    =  N/A
# P''_bary (s/s^2) =  N/A
# P_orb (s)        =  N/A
# asin(i)/c (s)    =  N/A
# eccentricity     =  N/A
# w (rad)          =  N/A
# T_peri           =  N/A
######################################################
   0  151.8488
   1  143.7836
   2  -148.6583
   3  42.66846
   4  89.36938
   5  104.9619
   6  154.8896
   7  57.59157
   8  -65.0097
   9  -42.19586
  10  -19.43769
  11  52.44897
  12  35.10189
  13  96.99883
  14  249.0584
  15  239.5939
  16  -44.25745
  17  -96.1636
  18  49.95196
  19  46.96776
  20  -25.85226
  21  82.4613
  22  5.119349
  23  -86.53805
  24  117.8155
  25  63.31216
  26  69.78014
  27  9.133709
  28  62.96563
  29  71.75264
  30  199.8578
  31  203.8275
  32  161.8243
  33  191.1452
  34  48.51525
  35  11.46168
  36  157.1264
  37  221.4827
  38  204.1043
  39  137.2519
  40  -18.96741
  41  36.41937
  42  135.587
  43  299.446
  44  183.2634
  45  119.8651
  46  159.0165
  47  99.33866
  48  26.41807
  49  123.8456
  50  89.80435
  51  27.14721
  52  14.83106
  53  20.24983
  54  34.97531
  55  7.746815
  56  28.09463
  57  66.20525
  58  85.28874
  59  56.36958
  60  65.44984
  61  129.6837
  62  128.2262
  63  -26.94316
  64  1.576725
  65  13.48278
  66  -12.72085
  67  16.61134
  68  18.39843
  69  -13.45596
  70  -22.90758
  71  44.66096
  72  -17.15423
  73  -5.404604
  74  7.793262
  75  172.012
  76  144.1648
  77  131.7109
  78  117.4296
  79  11.29069
  80  12.8063
  81  83.51229
  82  -65.25771
  83  -68.98012
  84  17.8898
  85  125.7325
  86  102.5359
  87  150.2659
  88  -68.77765
  89  -205.4796
  90  -76.7765
  91  -97.40939
  92  -14.63844
  93  -152.0515
  94  76.18138
  95  108.2263
  96  68.60504
  97  9.503342
  98  0.1144292
  99  -72.58789
 100  -44.12892
 101  17.57876
 102  -149.5813
 103  19.30568
 104  46.14454
 105  126.8034
 106  87.57145
 107  -90.72023
 108  -113.4936
 109  42.55611
 110  37.39412
 111  157.7972
 112  49.57164
 113  -73.22429
 114  83.83021
 115  13.27729
 116  29.11625
 117  95.59493
 118  147.7753
 119  162.5232
 120  -16.22883
 121  -45.0562
 122  27.6712
 123  -99.28088
 124  -132.9218
 125  141.2014
 126  257.464
 127  175.4059
 128  25.12117
 129  123.2823
 130  -39.48047
 131  -30.92063
 132  -103.1413
 133  45.05718
 134  85.49898
 135  22.87639
 136  -57.38902
 137  72.03475
 138  154.3843
 139  39.17747
 140  -171.8846
 141  -112.6136
 142  135.6525
 143  38.23214
 144  -33.45617
 145  88.01466
 146  155.1753
 147  133.0136
 148  -32.46412
 149  44.41247
 150  -24.16551
 151  110.4308
 152  93.94925
 153  55.1818
 154  -19.81614
 155  111.8251
 156  193.0243
 157  62.67222
 158  -29.57964
 159  0.4227585
 160  -23.13336
 161  53.59794
 162  55.49397
 163  51.4856
 164  -10.71226
 165  49.34681
 166  -7.063113
 167  83.82009
 168  -52.54023
 169  -38.70253
 170  21.40891
 171  8.637828
 172  -76.61143
 173  -17.1944
 174  143.3373
 175  115.8033
 176  -19.88848
 177  -131.8657
 178  43.15377
 179  -20.45412
 180  74.95615
 181  51.99975
 182  -15.66878
 183  126.7671
 184  78.80464
 185  19.08457
 186  -29.71145
 187  86.57452
 188  125.2659
 189  101.592
 190  72.56151
 191  -115.0033
 192  -64.33142
 193  104.2411
 194  65.28062
 195  -58.36775
 196  -45.87336
 197  -19.23971
 198  59.25991
 199  20.70439
 200  24.78845
 201  66.80453
 202  101.1483
 203  -39.33107
 204  -95.57859
 205  -40.16511
 206  -72.65087
 207  -22.92069
 208  58.01676
 209  73.5454
 210  52.86508
 211  -7.065169
 212  82.05862
 213  205.3262
 214  121.5645
 215  109.3221
 216  45.16031
 217  112.645
 218  40.04404
 219  -36.21712
 220  -34.26056
 221  5.872519
 222  122.9971
 223  137.6268
 224  175.9498
 225  165.5767
 226  -6.461807
 227  157.9518
 228  111.7731
 229  155.0216
 230  218.124
 231  4.109709
 232  65.2081
 233  94.27673
 234  12.832
 235  43.66477
 236  -6.252149
 237  5.534842
 238  -155.2138
 239  -152.6885
 240  50.1268
 241  -56.783
 242  13.73431
 243  132.5694
 244  -31.68938
 245  114.9314
 246  182.1143
 247  96.44773
 248  22.56788
 249  16.79976
 250  99.48852
 251  8.299842
 252  74.42072
 253  218.4268
 254  164.3724
 255  123.0043
 256  75.03879
 257  32.04301
 258  29.55974
 259  -35.02273
 260  61.42705
 261  47.95023
 262  164.4089
 263  93.63663
 264  73.2833
 265  88.85431
 266  34.36419
 267  101.4346
 268  172.8471
 269  195.2511
 270  76.38924
 271  -33.45977
 272  -48.82576
 273  -93.20511
 274  96.22389
 275  -29.87712
 276  -64.76691
 277  15.29133
 278  37.97531
 279  -51.73435
 280  -99.04468
 281  17.73175
 282  145.0303
 283  16.89515
 284  -42.6072
 285  -40.20436
 286  126.3582
 287  39.21234
 288  -217.3964
 289  -64.10454
 290  -26.04262
 291  0.8003359
 292  67.86816
 293  16.51997
 294  -26.72014
 295  -166.8337
 296  -63.5482
 297  108.8296
 298  47.49771
 299  -63.48625
 300  -9.847692
 301  43.34838
 302  64.49202
 303  28.68959
 304  58.32051
 305  21.28938
 306  9.284555
 307  -35.09424
 308  36.8567
 309  176.9166
 310  127.1317
 311  28.64835
 312  36.42475
 313  121.5683
 314  111.0723
 315  156.6864
 316  81.68356
 317  -11.61583
 318  84.78857
 319  106.5195
 320  57.63552
 321  47.1968
 322  253.0113
 323  135.6247
 324  -134.2879
 325  48.54958
 326  10.66073
 327  41.73415
 328  31.23376
 329  27.81
 330  150.652
 331  18.335
 332  98.06946
 333  125.5714
 334  57.02466
 335  -9.491232
 336  -80.00661
 337  -59.83356
 338  -25.59555
 339  113.3763
 340  69.74045
 341  16.06713
 342  81.3369
 343  196.3745
 344  71.10447
 345  42.47612
 346  24.1682
 347  -17.46218
 348  -81.85162
 349  26.9985
 350  42.91768
 351  138.9838
 352  70.7887
 353  5.981564
 354  97.75694
 355  51.38222
 356  -124.3512
 357  0.6568946
 358  33.04305
 359  -70.19771
 360  15.04941
 361  12.07661
 362  -99.06612
 363  -85.26755
 364  133.9048
 365  93.9684
 366  -19.36585
 367  136.3001
 368  310.9288
 369  224.2272
 370  71.8307
 371  33.43997
 372  -11.87573
 373  -71.16193
 374  14.72595
 375  63.13048
 376  146.8472
 377  1.391668
 378  -23.25484
 379  18.38882
 380  45.55708
 381  26.02934
 382  13.25603
 383  28.22256
 384  -11.84991
 385  57.29526
 386  4.453375
 387  65.16895
 388  57.97464
 389  127.9276
 390  159.9927
 391  48.47615
 392  -50.72633
 393  79.15611
 394  169.2626
 395  147.7519
 396  -40.94966
 397  -11.34968
 398  -59.4372
 399  -28.71321
 400  -52.1659
 401  75.26393
 402  72.02132
 403  -35.23985
 404  -30.6968
 405  -54.29572
 406  -92.69306
 407  -36.84403
 408  48.66046
 409  -55.93843
 410  -110.1088
 411  74.33067
 412  94.23147
 413  -51.10894
 414  -59.02115
 415  120.2407
 416  85.27227
 417  -51.07735
 418  -122.6424
 419  -22.4451
 420  112.3434
 421  29.70076
 422  -125.8394
 423  2.302123
 424  -24.11702
 425  22.62605
 426  23.76614
 427  122.8153
 428  99.96076
 429  75.93036
 430  17.87682
 431  -109.3647
 432  -18.1653
 433  85.29988
 434  84.97954
 435  -85.57597
 436  -24.08197
 437  72.80241
 438  71.97811
 439  127.7992
 440  -5.901627
 441  57.11119
 442  61.117
 443  65.93824
 444  58.85301
 445  42.39212
 446  45.82687
 447  41.55687
 448  53.75443
 449  161.274
 450  140.7905
 451  44.15993
 452  63.97084
 453  75.95482
 454  106.6678
 455  133.6566
 456  24.67252
 457  115.9436
 458  166.8019
 459  4.891535
 460  20.29325
 461  39.86897
 462  103.582
 463  78.12781
 464  155.205
 465  125.5816
 466  133.8466
 467  339.2488
 468  644.7526
 469  837.4343
 470  785.5495
 471  684.8477
 472  527.0179
 473  399.6656
 474  191.9832
 475  148.2605
 476  197.7669
 477  41.43552
 478  85.0069
 479  111.6865
 480  96.77959
 481  145.1493
 482  209.7223
 483  239.9935
 484  137.1921
 485  66.42287
 486  66.70216
 487  108.7598
 488  52.52645
 489  -22.89822
 490  -33.94229
 491  36.67037
 492  -63.37744
 493  -42.97171
 494  39.34169
 495  -79.63596
 496  -139.5311
 497  -41.18239
 498  75.17589
 499  -159.2472
 500  -93.22616
 501  50.78703
 502  29.71655
 503  37.21347
 504  126.5118
 505  120.6318
 506  34.45937
 507  -47.2979
 508  74.79722
 509  36.37502
 510  51.21065
 511  109.5474
