# Input file       =  1189829930.117989_cleaned.dat
# Candidate        =  PSR_0332+5434
# Telescope        =  AR
# Epoch_topo       =  58015.179966643394
# Epoch_bary       =  N/A
# T_sample         =  0.002
# Data Folded      =  7340032
# Data Avg         =  0.0284420602526683
# Data StdDev      =  3.08460501981225 
# Profile Bins     =  512
# Profile Avg      =  407.705216115837 
# Profile StdDev   =  369.329125045136 
# Reduced chi-sqr  =  1.006
# Prob(Noise)      <  0.455   (~0.1 sigma)
# P_topo (ms)      =  714.46756260016   +/- 0.000167
# P'_topo (s/s)    =  -0                +/- 8.82e-11
# P''_topo (s/s^2) =  0                 +/- 3.89e-14
# P_bary (ms)      =  N/A
# P'_bary (s/s)    =  N/A
# P''_bary (s/s^2) =  N/A
# P_orb (s)        =  N/A
# asin(i)/c (s)    =  N/A
# eccentricity     =  N/A
# w (rad)          =  N/A
# T_peri           =  N/A
######################################################
   0  318.9888
   1  266.938
   2  395.6644
   3  676.0296
   4  466.2176
   5  180.4146
   6  331.0504
   7  194.3181
   8  549.6296
   9  568.8906
  10  266.4255
  11  257.8106
  12  180.1038
  13  415.8168
  14  512.9307
  15  543.9129
  16  546.3593
  17  419.1805
  18  305.6707
  19  270.3937
  20  356.104
  21  693.41
  22  994.816
  23  575.6567
  24  509.5698
  25  51.36317
  26  291.8307
  27  273.9497
  28  654.0527
  29  644.2504
  30  411.1223
  31  327.4203
  32  664.1454
  33  128.4997
  34  10.16906
  35  219.0363
  36  668.9128
  37  871.5235
  38  965.649
  39  612.3408
  40  153.3667
  41  524.8734
  42  556.0051
  43  678.8445
  44  667.0327
  45  276.0338
  46  532.6567
  47  198.1193
  48  133.1322
  49  529.635
  50  407.9727
  51  515.6683
  52  421.9291
  53  605.8435
  54  311.3412
  55  628.5002
  56  574.5915
  57  324.2923
  58  252.2549
  59  180.8221
  60  439.4163
  61  30.43518
  62  281.3116
  63  570.84
  64  661.8311
  65  460.2512
  66  265.2233
  67  721.279
  68  612.218
  69  169.7708
  70  561.3932
  71  473.6631
  72  310.1556
  73  200.9665
  74  558.635
  75  541.1567
  76  476.9411
  77  542.5743
  78  472.8352
  79  494.0423
  80  401.4308
  81  318.5605
  82  251.3138
  83  430.8117
  84  399.0798
  85  515.5839
  86  543.1008
  87  888.0194
  88  860.7154
  89  541.4016
  90  387.5349
  91  372.9585
  92  613.0385
  93  508.5698
  94  610.7927
  95  695.3348
  96  755.5881
  97  507.148
  98  687.0215
  99  532.3118
 100  111.2699
 101  62.79128
 102  203.6396
 103  414.7153
 104  303.2362
 105  484.4593
 106  535.2033
 107  216.1525
 108  413.6517
 109  236.8747
 110  287.8261
 111  475.4609
 112  230.579
 113  -9.390779
 114  41.05909
 115  621.5105
 116  -172.8806
 117  157.5533
 118  597.884
 119  278.0419
 120  194.0834
 121  43.93207
 122  181.8233
 123  558.8296
 124  433.3698
 125  176.9466
 126  214.7375
 127  627.0391
 128  644.141
 129  311.9067
 130  488.3489
 131  272.1284
 132  119.8262
 133  111.1427
 134  474.9594
 135  677.2343
 136  666.3247
 137  552.1014
 138  333.2316
 139  404.8748
 140  552.1442
 141  475.6197
 142  537.9909
 143  170.0961
 144  -159.8633
 145  640.4295
 146  669.0182
 147  653.9192
 148  418.9711
 149  547.2836
 150  676.4376
 151  324.7018
 152  267.8291
 153  746.4123
 154  335.2731
 155  -45.04634
 156  -109.1207
 157  261.4362
 158  656.7562
 159  424.2577
 160  591.6808
 161  736.8284
 162  510.4098
 163  327.3835
 164  256.4169
 165  300.7278
 166  575.4734
 167  689.4322
 168  664.9554
 169  670.0419
 170  385.8051
 171  571.8193
 172  322.7084
 173  135.8399
 174  165.2624
 175  354.8975
 176  219.5852
 177  383.3657
 178  86.76528
 179  344.1784
 180  437.044
 181  827.7977
 182  208.2422
 183  180.3948
 184  461.0312
 185  351.2642
 186  265.6821
 187  256.891
 188  -309.0153
 189  175.8113
 190  390.8675
 191  500.4039
 192  601.0606
 193  580.4615
 194  440.117
 195  510.2592
 196  703.2689
 197  216.3093
 198  320.0333
 199  784.2435
 200  666.7003
 201  390.748
 202  372.414
 203  634.2802
 204  24.3975
 205  208.1026
 206  334.5782
 207  90.68482
 208  -45.34262
 209  194.3735
 210  220.3094
 211  1019.901
 212  1142.819
 213  712.3833
 214  421.3917
 215  267.2811
 216  993.7805
 217  1165.178
 218  690.0587
 219  544.4692
 220  374.5552
 221  517.3379
 222  334.7596
 223  573.0487
 224  631.3989
 225  441.8117
 226  377.4963
 227  281.189
 228  251.813
 229  577.1925
 230  634.723
 231  578.9016
 232  413.6509
 233  575.8945
 234  256.3117
 235  503.846
 236  426.3036
 237  704.2567
 238  82.09739
 239  -164.5457
 240  -44.0397
 241  458.4993
 242  432.4535
 243  209.4187
 244  349.8423
 245  348.5815
 246  322.0095
 247  536.7515
 248  411.3445
 249  424.6826
 250  351.9174
 251  616.9998
 252  428.9416
 253  853.058
 254  569.7106
 255  126.7233
 256  233.3816
 257  -262.7257
 258  133.866
 259  -7.881776
 260  142.5976
 261  576.1966
 262  516.5902
 263  418.8354
 264  280.4212
 265  -38.40723
 266  199.232
 267  506.3921
 268  731.1155
 269  323.3625
 270  500.8918
 271  591.4698
 272  329.8701
 273  106.4242
 274  223.834
 275  409.5682
 276  105.2775
 277  71.4565
 278  -99.88646
 279  298.7796
 280  373.3604
 281  207.7893
 282  352.2413
 283  189.5759
 284  -19.07863
 285  185.234
 286  -60.10563
 287  189.293
 288  414.4713
 289  240.3784
 290  660.1248
 291  687.2207
 292  543.998
 293  713.0151
 294  727.73
 295  621.2767
 296  865.4346
 297  859.1994
 298  674.5096
 299  262.7275
 300  201.6214
 301  305.9434
 302  378.8947
 303  803.1776
 304  417.0746
 305  225.0958
 306  -61.26226
 307  166.312
 308  507.3453
 309  445.4631
 310  480.2985
 311  358.5723
 312  395.5072
 313  232.679
 314  613.092
 315  729.061
 316  346.8521
 317  728.8911
 318  1596.385
 319  1306.926
 320  1512.976
 321  1497.511
 322  1793.069
 323  1684.809
 324  995.6461
 325  443.0227
 326  515.382
 327  900.6908
 328  502.2827
 329  520.736
 330  479.4263
 331  222.3316
 332  315.5524
 333  467.9045
 334  607.5309
 335  617.9272
 336  838.7193
 337  577.3552
 338  532.1922
 339  127.7571
 340  86.02629
 341  444.9695
 342  304.2579
 343  187.2967
 344  -110.6767
 345  -132.7694
 346  110.7166
 347  683.225
 348  660.1861
 349  452.901
 350  307.4124
 351  371.5414
 352  136.4102
 353  136.9989
 354  511.03
 355  510.3595
 356  -170.0465
 357  -196.5194
 358  416.4786
 359  322.5985
 360  628.7714
 361  605.348
 362  308.4789
 363  17.88254
 364  402.5676
 365  501.1943
 366  228.4422
 367  -275.6914
 368  287.5855
 369  327.8582
 370  130.8094
 371  393.3956
 372  505.4672
 373  257.713
 374  430.2839
 375  312.1781
 376  8.27733
 377  379.7416
 378  373.0657
 379  545.4766
 380  313.2995
 381  391.0109
 382  462.7924
 383  320.2859
 384  87.77864
 385  291.1385
 386  225.5618
 387  254.8962
 388  471.6023
 389  444.7565
 390  139.4614
 391  -296.3792
 392  -65.79353
 393  335.8493
 394  478.1402
 395  369.9624
 396  112.4602
 397  166.0093
 398  438.2258
 399  405.6577
 400  325.1174
 401  344.6309
 402  92.08514
 403  290.7627
 404  506.162
 405  697.9125
 406  588.4316
 407  288.0083
 408  418.2582
 409  455.175
 410  496.0252
 411  710.2251
 412  548.0192
 413  273.0143
 414  602.4711
 415  350.2079
 416  201.3053
 417  588.6983
 418  383.8333
 419  -396.6815
 420  124.8467
 421  527.0532
 422  492.5097
 423  673.8184
 424  534.4979
 425  590.0645
 426  529.8979
 427  252.0863
 428  216.9543
 429  476.3019
 430  942.5416
 431  503.9825
 432  426.9281
 433  479.1634
 434  585.9473
 435  426.7319
 436  561.7488
 437  753.5577
 438  419.5323
 439  174.5127
 440  412.19
 441  328.4091
 442  609.9172
 443  556.6424
 444  231.0975
 445  -61.74546
 446  102.185
 447  360.6133
 448  428.8982
 449  439.886
 450  63.12674
 451  -14.01552
 452  375.0547
 453  461.1984
 454  769.151
 455  250.0052
 456  157.4671
 457  386.72
 458  541.3545
 459  582.4241
 460  466.3617
 461  432.0595
 462  253.7945
 463  245.6289
 464  570.6453
 465  195.3103
 466  342.463
 467  306.7008
 468  495.9926
 469  768.2883
 470  911.9794
 471  684.9975
 472  500.0374
 473  215.3485
 474  149.9051
 475  132.8662
 476  141.4503
 477  263.2006
 478  40.91171
 479  4.881989
 480  585.068
 481  413.4494
 482  2.182579
 483  457.4424
 484  166.3584
 485  496.8604
 486  524.0089
 487  499.0632
 488  35.1808
 489  277.6931
 490  492.0791
 491  360.5427
 492  538.2275
 493  626.4913
 494  921.3668
 495  706.2114
 496  335.3716
 497  716.3063
 498  412.1327
 499  347.2501
 500  250.8236
 501  342.1685
 502  498.3828
 503  -87.59936
 504  475.9414
 505  419.3919
 506  387.4441
 507  48.2289
 508  401.1476
 509  466.1303
 510  35.86341
 511  213.2552
