# Input file       =  1189312948.110782_cleaned.dat
# Candidate        =  PSR_0332+5434
# Telescope        =  AR
# Epoch_topo       =  58009.196378597015
# Epoch_bary       =  N/A
# T_sample         =  0.002
# Data Folded      =  7340032
# Data Avg         =  0.0289055477156321
# Data StdDev      =  3.22897582316692 
# Profile Bins     =  256
# Profile Avg      =  829.033186517808 
# Profile StdDev   =  546.756289122544 
# Reduced chi-sqr  =  1.577
# Prob(Noise)      <  1.11e-08   (~5.6 sigma)
# P_topo (ms)      =  714.465725971525  +/- 0.000152
# P'_topo (s/s)    =  -0                +/- 8.04e-11
# P''_topo (s/s^2) =  0                 +/- 3.55e-14
# P_bary (ms)      =  N/A
# P'_bary (s/s)    =  N/A
# P''_bary (s/s^2) =  N/A
# P_orb (s)        =  N/A
# asin(i)/c (s)    =  N/A
# eccentricity     =  N/A
# w (rad)          =  N/A
# T_peri           =  N/A
######################################################
   0  -42.40509
   1  1366.494
   2  238.5862
   3  1191.878
   4  1210.083
   5  712.0086
   6  1039.253
   7  562.4634
   8  -43.85625
   9  680.5641
  10  871.8699
  11  1533.018
  12  247.9382
  13  815.3131
  14  630.0224
  15  1179.48
  16  1465.564
  17  1251.307
  18  732.8555
  19  1329.174
  20  895.9674
  21  185.5498
  22  1304.428
  23  596.6462
  24  1956.911
  25  806.8189
  26  1093.938
  27  1038.343
  28  564.8654
  29  1185.002
  30  979.8566
  31  977.9737
  32  1720.702
  33  843.6252
  34  -437.1836
  35  357.9757
  36  725.4284
  37  399.9924
  38  1343.884
  39  1570.038
  40  1292.594
  41  757.1451
  42  289.3302
  43  1339.266
  44  752.395
  45  324.5192
  46  459.7375
  47  5.084684
  48  1336.796
  49  1429.635
  50  364.8976
  51  1362.608
  52  731.8152
  53  686.7509
  54  523.1461
  55  289.7183
  56  724.9487
  57  1170.001
  58  1122.172
  59  736.0962
  60  990.9215
  61  1743.1
  62  1134.432
  63  1066.151
  64  664.4247
  65  1131.886
  66  -129.4412
  67  548.8505
  68  1458.001
  69  863.8116
  70  734.3848
  71  1060.136
  72  1285.999
  73  732.0801
  74  339.7466
  75  707.4641
  76  206.7328
  77  177.4133
  78  38.70274
  79  402.0581
  80  1191.106
  81  726.9135
  82  864.441
  83  1028.527
  84  492.7836
  85  696.6687
  86  527.9403
  87  254.0775
  88  751.4176
  89  1525.329
  90  738.8
  91  618.1166
  92  1221.212
  93  1205.412
  94  1499.48
  95  1255.24
  96  984.5014
  97  619.9165
  98  40.64349
  99  1080.514
 100  902.1838
 101  991.166
 102  720.3421
 103  949.9883
 104  1146.545
 105  -324.0698
 106  56.35603
 107  1267.439
 108  963.821
 109  24.46095
 110  -172.17
 111  -899.7115
 112  -286.5298
 113  -249.5868
 114  463.8076
 115  1052.739
 116  546.5247
 117  561.0774
 118  693.5132
 119  -103.9004
 120  786.3315
 121  1151.145
 122  1220.574
 123  567.1348
 124  327.8966
 125  85.69088
 126  1124.419
 127  663.6589
 128  933.5342
 129  968.2455
 130  423.0613
 131  5.870242
 132  166.3818
 133  1369.847
 134  480.0665
 135  1025.239
 136  614.6306
 137  708.1693
 138  382.447
 139  1028.832
 140  1464.517
 141  1341.703
 142  862.0042
 143  292.648
 144  903.1673
 145  1257.252
 146  -196.1447
 147  1104.693
 148  620.4246
 149  273.5826
 150  973.4047
 151  1959.095
 152  1676.618
 153  -129.8017
 154  839.6373
 155  639.8062
 156  1779.363
 157  1270.644
 158  1397.161
 159  2847.9
 160  4468.961
 161  3986.357
 162  2411.515
 163  1115.576
 164  414.112
 165  1292.483
 166  1149.609
 167  1251.342
 168  2558.989
 169  1637.446
 170  198.5505
 171  392.1695
 172  744.0989
 173  1746.082
 174  833.5684
 175  773.5961
 176  1200.501
 177  -37.90709
 178  489.9034
 179  918.8914
 180  856.5294
 181  616.5975
 182  -19.05723
 183  530.7388
 184  212.0843
 185  387.105
 186  117.222
 187  973.7165
 188  1275.075
 189  194.7254
 190  277.3849
 191  1223.586
 192  901.4813
 193  263.586
 194  435.7152
 195  1633.814
 196  1251.573
 197  541.2762
 198  1014.695
 199  1001.626
 200  -163.5288
 201  265.3758
 202  729.9756
 203  763.81
 204  784.9755
 205  930.1358
 206  685.0793
 207  759.9178
 208  1364.521
 209  960.7184
 210  72.97347
 211  493.3178
 212  1147.513
 213  992.7736
 214  1069.304
 215  826.3593
 216  751.0761
 217  499.6697
 218  642.1965
 219  831.0684
 220  740.7288
 221  1046.794
 222  517.8959
 223  461.8923
 224  1066.098
 225  1627.837
 226  703.7336
 227  622.6647
 228  505.1234
 229  218.807
 230  1234.576
 231  1087.133
 232  703.7023
 233  984.1187
 234  980.9901
 235  1215.372
 236  485.2606
 237  1028.909
 238  981.2081
 239  770.515
 240  452.3464
 241  896.9083
 242  706.9034
 243  496.6533
 244  1089.196
 245  249.5187
 246  847.136
 247  945.8587
 248  1161.599
 249  1581.97
 250  718.6547
 251  59.70253
 252  897.9612
 253  1234.728
 254  751.6874
 255  739.991
