# Input file       =  1189111040.110165-PSRB0329-2ms-sampling-dd.dat
# Candidate        =  PSR_0332+5434
# Telescope        =  AR
# Epoch_topo       =  58006.859480441723
# Epoch_bary       =  N/A
# T_sample         =  0.002
# Data Folded      =  7208960
# Data Avg         =  4.18184626795876e-10
# Data StdDev      =  4.41298298301806 
# Profile Bins     =  512
# Profile Avg      =  -0.0107858140507805
# Profile StdDev   =  523.640923555799 
# Reduced chi-sqr  =  0.681
# Prob(Noise)      <  1   (~0.0 sigma)
# P_topo (ms)      =  714.464824870073  +/- 0.00015
# P'_topo (s/s)    =  -0                +/- 8.05e-11
# P''_topo (s/s^2) =  0                 +/- 3.62e-14
# P_bary (ms)      =  N/A
# P'_bary (s/s)    =  N/A
# P''_bary (s/s^2) =  N/A
# P_orb (s)        =  N/A
# asin(i)/c (s)    =  N/A
# eccentricity     =  N/A
# w (rad)          =  N/A
# T_peri           =  N/A
######################################################
   0  -309.2336
   1  -426.9853
   2  -182.0854
   3  425.021
   4  7.202258
   5  -111.694
   6  -31.52644
   7  -237.2961
   8  -803.1671
   9  -610.1335
  10  -676.2958
  11  -317.2776
  12  -426.9213
  13  -633.1517
  14  -469.7472
  15  -206.7413
  16  -150.7429
  17  75.5596
  18  167.4432
  19  41.15593
  20  -97.74681
  21  225.399
  22  524.3675
  23  890.9794
  24  1451.385
  25  1283.685
  26  1287.74
  27  883.6536
  28  260.1831
  29  109.5385
  30  -13.78144
  31  232.4149
  32  401.3561
  33  632.8189
  34  741.8024
  35  28.88404
  36  81.45435
  37  46.31614
  38  -195.0834
  39  -198.466
  40  -476.3188
  41  -441.9564
  42  -156.047
  43  -82.85288
  44  -48.07159
  45  -15.95923
  46  -132.0791
  47  -387.7809
  48  -527.605
  49  -319.8524
  50  70.67937
  51  81.99754
  52  -16.58737
  53  55.3047
  54  291.42
  55  169.0465
  56  294.4426
  57  150.9043
  58  230.9901
  59  415.8457
  60  557.2775
  61  269.6238
  62  -258.9926
  63  -434.3236
  64  -415.9633
  65  -303.9055
  66  -27.28245
  67  -386.9613
  68  -61.97412
  69  338.0775
  70  809.4963
  71  394.9297
  72  380.2468
  73  -156.4832
  74  -246.7344
  75  -238.4303
  76  -156.5718
  77  87.31461
  78  111.6891
  79  -7.742359
  80  -45.03289
  81  -130.6785
  82  -150.1612
  83  -273.8948
  84  94.20045
  85  271.5353
  86  -26.22159
  87  9.299696
  88  -98.30503
  89  53.86822
  90  274.7539
  91  104.9771
  92  -8.840214
  93  -53.23339
  94  178.5665
  95  171.8493
  96  -83.49584
  97  -434.8915
  98  -156.2759
  99  36.88833
 100  -153.4791
 101  -169.6048
 102  194.8024
 103  339.4868
 104  -191.5661
 105  -343.0274
 106  -277.5889
 107  -345.2382
 108  -357.2671
 109  -75.91647
 110  75.15211
 111  4.06933
 112  -164.9326
 113  -176.4391
 114  28.13258
 115  8.891865
 116  -61.57571
 117  141.6257
 118  152.5143
 119  -214.9584
 120  -171.6985
 121  -61.52873
 122  -77.75983
 123  -39.3237
 124  -305.4271
 125  -254.8054
 126  86.12389
 127  -179.1604
 128  12.01163
 129  -373.9789
 130  -43.02712
 131  -182.6365
 132  -230.7628
 133  -410.8607
 134  -504.6249
 135  -253.0011
 136  -339.2466
 137  51.04287
 138  114.4056
 139  28.90115
 140  -314.4232
 141  -521.0312
 142  -564.2681
 143  -539.1873
 144  -40.84486
 145  -77.1841
 146  -382.3197
 147  -256.7777
 148  -515.8061
 149  -573.5337
 150  -419.9165
 151  -87.92664
 152  -264.7102
 153  -369.0271
 154  -208.1879
 155  -481.5801
 156  -399.3681
 157  -256.1217
 158  -489.0107
 159  -127.3422
 160  136.8526
 161  98.96796
 162  136.5238
 163  221.9847
 164  -46.56697
 165  131.0228
 166  98.55145
 167  226.7843
 168  340.1487
 169  258.7461
 170  198.8632
 171  -221.7416
 172  152.6324
 173  -30.31989
 174  -266.9833
 175  -310.7202
 176  63.06611
 177  111.9893
 178  122.4575
 179  133.5697
 180  3.157799
 181  -279.0671
 182  -343.5446
 183  45.12483
 184  195.8322
 185  325.1935
 186  589.0024
 187  436.5568
 188  -28.41608
 189  -451.1129
 190  -487.5208
 191  -323.459
 192  41.88132
 193  247.5503
 194  -256.9727
 195  12.81173
 196  10.84765
 197  147.9649
 198  261.9211
 199  426.716
 200  3.922735
 201  102.6733
 202  406.0112
 203  47.87663
 204  326.8842
 205  119.1058
 206  521.634
 207  258.4067
 208  -8.0011
 209  441.3046
 210  281.6365
 211  269.1128
 212  311.3679
 213  -14.75512
 214  -168.3233
 215  77.3145
 216  192.6937
 217  222.884
 218  283.6382
 219  706.4721
 220  865.3951
 221  702.178
 222  330.8374
 223  -135.3084
 224  -279.7096
 225  106.3963
 226  512.8044
 227  558.2559
 228  473.4946
 229  227.1005
 230  75.89078
 231  473.8761
 232  177.8455
 233  231.8262
 234  467.6097
 235  577.6099
 236  342.4273
 237  182.6821
 238  18.72808
 239  16.27916
 240  -106.9561
 241  111.2689
 242  351.5086
 243  305.2707
 244  276.8267
 245  178.8245
 246  478.2997
 247  -18.6593
 248  -10.98211
 249  16.43483
 250  315.4579
 251  517.9736
 252  571.5029
 253  502.6408
 254  -11.7835
 255  -74.58658
 256  -28.04727
 257  -172.3707
 258  -72.42311
 259  232.0134
 260  398.6812
 261  272.1617
 262  408.8894
 263  -251.7688
 264  -85.67137
 265  397.695
 266  297.6375
 267  387.4654
 268  170.497
 269  92.40567
 270  121.9067
 271  278.7069
 272  -22.80018
 273  -0.5646554
 274  -59.07489
 275  113.1786
 276  180.7744
 277  89.16837
 278  86.07709
 279  146.9749
 280  195.0358
 281  -93.39632
 282  124.4281
 283  465.0722
 284  303.1128
 285  148.0463
 286  477.5198
 287  249.9139
 288  129.3617
 289  89.73336
 290  -170.5264
 291  -309.2628
 292  -84.50754
 293  -44.8797
 294  -67.30722
 295  -357.6642
 296  -236.2611
 297  -187.4098
 298  137.4193
 299  55.33642
 300  184.5588
 301  334.0708
 302  36.97034
 303  143.0565
 304  183.2108
 305  10.71948
 306  49.25165
 307  33.27417
 308  186.4743
 309  227.9774
 310  -133.2733
 311  -263.4631
 312  -265.3269
 313  56.10477
 314  44.48586
 315  280.3791
 316  435.6555
 317  387.939
 318  114.6377
 319  155.8801
 320  -21.37502
 321  -348.2472
 322  -242.4866
 323  -306.8924
 324  243.8158
 325  606.3062
 326  609.4664
 327  586.377
 328  178.1662
 329  99.12473
 330  59.97259
 331  -133.179
 332  125.2475
 333  97.99763
 334  216.6666
 335  221.681
 336  -94.71381
 337  -494.3821
 338  -394.8114
 339  -406.8475
 340  -371.3945
 341  -113.6081
 342  -80.68945
 343  288.7051
 344  -36.41744
 345  -155.4141
 346  147.7118
 347  -8.551313
 348  -151.3546
 349  -114.0329
 350  -26.02068
 351  150.8777
 352  -357.6197
 353  -272.3326
 354  -60.88701
 355  -278.7545
 356  -362.979
 357  -142.0093
 358  80.47425
 359  -156.3497
 360  -610.6274
 361  -385.6518
 362  -408.8627
 363  -30.66435
 364  -170.5438
 365  -247.1014
 366  -68.31131
 367  144.153
 368  -104.1787
 369  -182.3948
 370  2.946078
 371  182.9821
 372  -78.98394
 373  -22.0888
 374  266.7283
 375  283.0858
 376  -134.1226
 377  -48.87082
 378  305.7251
 379  465.5947
 380  350.8246
 381  238.9585
 382  302.0285
 383  241.1751
 384  -122.389
 385  185.8014
 386  214.9073
 387  -291.8802
 388  -214.2179
 389  -71.78954
 390  -253.0897
 391  -170.8125
 392  -153.9319
 393  40.31848
 394  -20.40161
 395  -257.0391
 396  7.581284
 397  179.1525
 398  107.116
 399  138.0718
 400  261.8136
 401  42.33738
 402  -52.07526
 403  286.0305
 404  311.4186
 405  411.7957
 406  251.1007
 407  134.3909
 408  -31.9812
 409  64.24106
 410  -241.4949
 411  -94.1365
 412  272.8221
 413  685.5648
 414  611.0392
 415  366.8452
 416  213.2446
 417  -222.8879
 418  -144.4787
 419  -117.3112
 420  110.6724
 421  325.5355
 422  -10.9968
 423  -81.76025
 424  -344.3819
 425  -270.8298
 426  -401.2603
 427  -324.2307
 428  53.55965
 429  28.18822
 430  -83.72327
 431  68.0695
 432  126.6088
 433  -36.19837
 434  111.0447
 435  311.1091
 436  -38.91157
 437  -491.8963
 438  -540.2629
 439  -271.102
 440  -80.85156
 441  431.1819
 442  338.6606
 443  -295.4194
 444  -248.9057
 445  352.6799
 446  36.38779
 447  -208.0117
 448  -127.1399
 449  -283.4836
 450  16.07239
 451  -407.9378
 452  -99.66155
 453  -5.799024
 454  0.6248493
 455  -271.316
 456  -181.1527
 457  180.4013
 458  216.778
 459  129.6364
 460  -269.1194
 461  -389.3159
 462  -762.2393
 463  -399.6139
 464  -56.79172
 465  464.422
 466  445.1452
 467  274.5607
 468  -45.29977
 469  -344.6657
 470  -461.2838
 471  -313.313
 472  -282.8664
 473  -571.4282
 474  -82.09115
 475  -348.1792
 476  -612.1326
 477  -844.9741
 478  -502.1357
 479  -280.2981
 480  -385.6709
 481  41.3291
 482  -113.4002
 483  -354.3914
 484  -604.7369
 485  -635.7877
 486  -518.3247
 487  -367.266
 488  -385.0706
 489  -432.5664
 490  -277.7272
 491  -451.1392
 492  -743.5897
 493  -316.312
 494  19.07893
 495  -40.91031
 496  23.84151
 497  -59.3988
 498  -195.5183
 499  -556.8704
 500  -211.3506
 501  43.99729
 502  -198.5187
 503  -347.6728
 504  -473.6812
 505  -388.5952
 506  -57.27986
 507  342.816
 508  521.8557
 509  295.3265
 510  218.986
 511  -28.48285
