# Input file       =  1189901180.110496_cleaned.dat
# Candidate        =  PSR_0332+5434
# Telescope        =  AR
# Epoch_topo       =  58016.004619334446
# Epoch_bary       =  N/A
# T_sample         =  0.002
# Data Folded      =  7340032
# Data Avg         =  0.00722516777183705
# Data StdDev      =  1.00010807261668 
# Profile Bins     =  512
# Profile Avg      =  103.646119493444 
# Profile StdDev   =  119.745976239311 
# Reduced chi-sqr  =  1.545
# Prob(Noise)      <  2.69e-14   (~7.5 sigma)
# P_topo (ms)      =  714.46752832476   +/- 0.00022
# P'_topo (s/s)    =  -0                +/- 1.16e-10
# P''_topo (s/s^2) =  0                 +/- 5.13e-14
# P_bary (ms)      =  N/A
# P'_bary (s/s)    =  N/A
# P''_bary (s/s^2) =  N/A
# P_orb (s)        =  N/A
# asin(i)/c (s)    =  N/A
# eccentricity     =  N/A
# w (rad)          =  N/A
# T_peri           =  N/A
######################################################
   0  903.4214
   1  721.7626
   2  390.7728
   3  313.1786
   4  132.4465
   5  45.14466
   6  159.8562
   7  55.60884
   8  216.0744
   9  239.8624
  10  93.68879
  11  118.7564
  12  116.0765
  13  91.26559
  14  90.16113
  15  185.0533
  16  106.356
  17  93.03716
  18  190.2845
  19  110.2239
  20  -12.78787
  21  14.60379
  22  218.4048
  23  52.32257
  24  117.6266
  25  191.9647
  26  189.5628
  27  163.4978
  28  180.3244
  29  132.7003
  30  56.03664
  31  54.50636
  32  256.4031
  33  278.5286
  34  53.35797
  35  102.8835
  36  126.7834
  37  95.01354
  38  48.73809
  39  120.7339
  40  116.0021
  41  13.82806
  42  -6.211021
  43  60.1929
  44  83.17945
  45  15.03499
  46  147.8159
  47  166.5608
  48  140.8148
  49  62.04956
  50  190.6968
  51  303.4636
  52  148.9898
  53  84.76235
  54  118.2325
  55  134.2861
  56  181.72
  57  246.9939
  58  98.50983
  59  -41.93059
  60  9.886445
  61  139.2757
  62  -55.96635
  63  -181.4227
  64  83.1619
  65  193.724
  66  131.5817
  67  188.3393
  68  177.2283
  69  93.4982
  70  204.8712
  71  302.7631
  72  41.56327
  73  125.1725
  74  201.3843
  75  104.807
  76  50.65317
  77  168.1226
  78  202.282
  79  118.047
  80  93.95745
  81  158.214
  82  77.99484
  83  149.081
  84  200.4268
  85  147.2506
  86  213.6024
  87  334.9126
  88  219.4967
  89  213.3387
  90  176.5337
  91  84.02694
  92  201.8525
  93  224.3083
  94  237.8365
  95  146.0888
  96  93.62099
  97  139.9186
  98  150.0931
  99  80.85185
 100  93.97202
 101  86.98943
 102  70.41607
 103  37.46859
 104  151.7161
 105  148.67
 106  264.5789
 107  242.4513
 108  171.6871
 109  130.8517
 110  176.7909
 111  102.6063
 112  117.9786
 113  137.9456
 114  179.5716
 115  191.3359
 116  198.5761
 117  50.13392
 118  35.685
 119  106.3554
 120  83.51431
 121  87.95583
 122  94.75164
 123  285.2421
 124  244.5318
 125  43.26648
 126  231.0271
 127  12.53292
 128  -57.84306
 129  69.63182
 130  68.1402
 131  109.4996
 132  39.41376
 133  133.3296
 134  73.61745
 135  -169.5713
 136  -18.7622
 137  144.7776
 138  79.2961
 139  2.022111
 140  175.2489
 141  176.6633
 142  253.9653
 143  134.9893
 144  148.222
 145  186.2035
 146  91.88418
 147  27.34442
 148  -18.6532
 149  88.33833
 150  100.8806
 151  3.665796
 152  48.50541
 153  3.36252
 154  -20.26204
 155  129.6237
 156  243.1907
 157  165.3526
 158  -35.19468
 159  -84.62416
 160  86.91314
 161  143.9895
 162  79.50316
 163  235.7852
 164  134.6089
 165  33.2431
 166  64.41197
 167  94.02628
 168  175.7381
 169  55.55647
 170  77.34361
 171  83.16625
 172  96.00739
 173  91.09761
 174  276.9039
 175  203.6154
 176  151.3163
 177  183.5849
 178  121.2196
 179  23.09163
 180  108.0905
 181  65.64674
 182  128.8399
 183  130.9716
 184  34.45708
 185  -35.17771
 186  -90.34263
 187  62.77447
 188  107.1351
 189  87.99249
 190  77.15479
 191  89.62488
 192  10.35125
 193  60.63295
 194  122.6709
 195  64.0599
 196  40.80177
 197  -16.81294
 198  44.73064
 199  56.39231
 200  -7.712699
 201  200.1062
 202  140.7148
 203  95.3162
 204  168.2535
 205  122.0571
 206  163.4072
 207  246.0389
 208  121.2845
 209  35.99882
 210  -21.15456
 211  -37.19444
 212  42.66739
 213  -75.37071
 214  -100.3557
 215  -29.42865
 216  60.18856
 217  50.22887
 218  153.3359
 219  42.16688
 220  -28.16322
 221  50.63449
 222  108.0679
 223  57.02536
 224  -9.066753
 225  86.25294
 226  164.0428
 227  48.8982
 228  30.37559
 229  -21.46314
 230  68.04945
 231  159.3522
 232  13.2409
 233  -55.82795
 234  83.48941
 235  151.7866
 236  83.75376
 237  112.0711
 238  69.14237
 239  88.84436
 240  241.935
 241  221.8945
 242  218.4636
 243  145.2108
 244  76.09712
 245  66.81206
 246  79.3679
 247  260.1607
 248  141.5661
 249  33.30213
 250  27.30159
 251  -54.65826
 252  8.138008
 253  141.5956
 254  140.1492
 255  51.85053
 256  17.80946
 257  46.39439
 258  112.884
 259  177.52
 260  139.2838
 261  51.60966
 262  33.75087
 263  230.5732
 264  155.4109
 265  59.44989
 266  92.67091
 267  99.02269
 268  59.13511
 269  -9.052633
 270  143.2039
 271  181.1428
 272  125.4791
 273  12.96784
 274  85.18851
 275  161.2525
 276  79.30638
 277  98.85202
 278  123.6663
 279  245.0817
 280  262.5627
 281  89.15952
 282  18.95295
 283  110.8369
 284  164.7466
 285  26.98219
 286  -54.9386
 287  -7.514012
 288  41.09739
 289  -115.3375
 290  -21.25134
 291  54.05128
 292  -39.66352
 293  -14.112
 294  16.66083
 295  169.187
 296  136.6972
 297  51.48695
 298  173.4604
 299  171.5827
 300  29.52386
 301  -59.6512
 302  35.99043
 303  116.2571
 304  108.8852
 305  81.89297
 306  59.26542
 307  -76.65732
 308  -41.36274
 309  71.8202
 310  46.38838
 311  86.77052
 312  34.81745
 313  46.53299
 314  73.71141
 315  154.9706
 316  185.6019
 317  123.6907
 318  95.66341
 319  131.8017
 320  -48.45461
 321  127.0277
 322  88.94189
 323  31.60978
 324  -97.25629
 325  -52.64228
 326  49.54112
 327  122.6688
 328  146.9864
 329  56.78014
 330  63.8544
 331  68.61526
 332  -130.8931
 333  -3.887279
 334  -1.407954
 335  48.21838
 336  -21.54268
 337  16.81301
 338  15.30708
 339  102.4977
 340  117.5241
 341  164.5998
 342  124.5107
 343  30.67524
 344  131.7438
 345  67.04832
 346  112.1763
 347  83.16576
 348  19.83613
 349  39.91656
 350  -77.16941
 351  -70.44241
 352  18.1091
 353  64.08744
 354  111.1964
 355  124.8438
 356  149.2504
 357  142.7021
 358  -9.915004
 359  -63.73607
 360  9.773211
 361  -111.8576
 362  -42.01696
 363  111.2297
 364  76.36588
 365  116.1303
 366  69.12322
 367  91.6263
 368  120.1162
 369  118.2546
 370  237.8014
 371  198.6275
 372  215.2418
 373  203.4218
 374  212.4875
 375  168.0755
 376  112.3399
 377  -25.19084
 378  -116.7485
 379  45.70734
 380  210.5981
 381  180.0921
 382  107.4893
 383  20.20748
 384  103.2395
 385  136.3646
 386  -30.18257
 387  2.417507
 388  31.8064
 389  108.4328
 390  53.06453
 391  6.159855
 392  102.279
 393  174.2226
 394  243.091
 395  87.30431
 396  -70.5359
 397  59.6113
 398  55.50773
 399  190.9647
 400  -77.72256
 401  -73.41691
 402  57.3669
 403  60.21986
 404  15.86621
 405  -104.2304
 406  -79.49869
 407  -3.657928
 408  74.42323
 409  144.6279
 410  106.2347
 411  82.25754
 412  15.67255
 413  3.478766
 414  -48.61826
 415  129.5831
 416  32.10749
 417  161.6082
 418  278.3376
 419  115.9622
 420  146.0791
 421  214.9453
 422  172.335
 423  31.94599
 424  -3.879163
 425  183.364
 426  147.3788
 427  -58.37212
 428  151.8603
 429  292.2662
 430  239.9368
 431  148.8009
 432  61.13116
 433  130.4016
 434  120.9774
 435  128.8176
 436  -99.90685
 437  63.28576
 438  86.7961
 439  16.08097
 440  145.6023
 441  133.2388
 442  115.7954
 443  99.25056
 444  154.3545
 445  97.12328
 446  24.76342
 447  66.55995
 448  33.38391
 449  75.6563
 450  206.4691
 451  281.804
 452  59.3786
 453  10.42043
 454  141.1481
 455  99.81086
 456  172.6293
 457  181.627
 458  161.1187
 459  107.1966
 460  100.1192
 461  102.3995
 462  66.37891
 463  104.2138
 464  156.3824
 465  24.86916
 466  105.8969
 467  102.8265
 468  32.54462
 469  -110.0209
 470  140.7059
 471  251.4709
 472  197.5578
 473  192.0298
 474  116.0843
 475  -21.16752
 476  24.5209
 477  170.4041
 478  68.13161
 479  -47.95637
 480  167.5975
 481  166.0999
 482  75.61603
 483  69.75745
 484  68.89974
 485  51.1086
 486  210.2618
 487  292.6617
 488  188.7761
 489  173.8907
 490  127.2449
 491  83.10104
 492  185.2899
 493  180.9692
 494  220.9167
 495  294.6046
 496  66.98672
 497  93.14016
 498  7.523201
 499  222.243
 500  103.2967
 501  194.7086
 502  227.3801
 503  9.109941
 504  111.906
 505  220.7892
 506  202.4823
 507  243.3579
 508  346.4815
 509  520.0981
 510  678.2399
 511  760.1718
