# Input file       =  1189800420.117078_cleaned.dat
# Candidate        =  PSR_0332+5434
# Telescope        =  AR
# Epoch_topo       =  58014.838415706923
# Epoch_bary       =  N/A
# T_sample         =  0.002
# Data Folded      =  7143424
# Data Avg         =  0.00175768758785509
# Data StdDev      =  3.15116619801268 
# Profile Bins     =  1024
# Profile Avg      =  12.2515223587321 
# Profile StdDev   =  263.193127742165 
# Reduced chi-sqr  =  0.963
# Prob(Noise)      <  0.799   (~0.0 sigma)
# P_topo (ms)      =  714.467090495998  +/- 0.000142
# P'_topo (s/s)    =  -0                +/- 7.71e-11
# P''_topo (s/s^2) =  0                 +/- 3.5e-14
# P_bary (ms)      =  N/A
# P'_bary (s/s)    =  N/A
# P''_bary (s/s^2) =  N/A
# P_orb (s)        =  N/A
# asin(i)/c (s)    =  N/A
# eccentricity     =  N/A
# w (rad)          =  N/A
# T_peri           =  N/A
######################################################
   0  -112.729
   1  -15.7021
   2  23.66533
   3  37.46685
   4  100.2277
   5  126.5151
   6  -58.98246
   7  -70.1078
   8  -30.88819
   9  65.55435
  10  60.83529
  11  109.3447
  12  130.7655
  13  27.41215
  14  -36.11345
  15  58.39757
  16  102.5789
  17  68.51666
  18  34.87898
  19  -1.879324
  20  -176.8793
  21  -244.781
  22  -92.84247
  23  18.52307
  24  46.32976
  25  1.583466
  26  -65.51852
  27  -148.0738
  28  -110.6876
  29  -23.02587
  30  -36.94368
  31  -76.46737
  32  -37.65331
  33  -106.8332
  34  -63.65229
  35  -24.02075
  36  16.38219
  37  -47.80078
  38  -41.53305
  39  71.57172
  40  55.03639
  41  -37.52457
  42  -41.37094
  43  -39.83511
  44  -89.30708
  45  -133.1904
  46  37.91922
  47  119.3606
  48  128.8458
  49  84.12578
  50  108.5543
  51  -12.16933
  52  -163.6376
  53  -192.6124
  54  -127.4627
  55  -58.9903
  56  -29.1509
  57  38.64544
  58  86.82202
  59  199.6443
  60  107.2222
  61  42.20185
  62  -93.44024
  63  -105.4048
  64  -94.64722
  65  -36.06057
  66  63.21855
  67  11.67845
  68  -42.29307
  69  27.88379
  70  5.628996
  71  -26.50115
  72  -41.7728
  73  -37.51434
  74  -49.58832
  75  1.365503
  76  66.65116
  77  61.79094
  78  -8.450356
  79  12.69687
  80  -9.041527
  81  -36.35616
  82  -87.17392
  83  -10.59932
  84  -56.60994
  85  -110.1446
  86  -208.9954
  87  -163.96
  88  -192.9168
  89  -190.3495
  90  -103.3237
  91  17.20933
  92  118.6415
  93  45.66817
  94  52.75161
  95  79.07236
  96  159.4757
  97  156.9996
  98  -26.01682
  99  -168.3167
 100  -265.7104
 101  -291.9791
 102  -193.4242
 103  -116.3773
 104  -4.061734
 105  -47.61735
 106  -4.963345
 107  137.3153
 108  169.7652
 109  175.4964
 110  174.8363
 111  197.0434
 112  142.5172
 113  105.7888
 114  188.7878
 115  160.5219
 116  32.91186
 117  -6.449149
 118  -32.90638
 119  -14.98012
 120  -92.894
 121  -93.19669
 122  -160.1735
 123  -119.9017
 124  -65.7622
 125  74.8278
 126  83.46827
 127  220.7202
 128  270.0699
 129  289.4479
 130  176.1101
 131  140.1468
 132  104.9436
 133  -1.526505
 134  -13.38242
 135  -89.07513
 136  -142.3129
 137  -89.49532
 138  83.36837
 139  164.7766
 140  145.8293
 141  117.5775
 142  164.2713
 143  70.39778
 144  138.0514
 145  186.18
 146  204.986
 147  78.85376
 148  37.20808
 149  70.02805
 150  58.14494
 151  -2.391813
 152  42.2676
 153  32.81831
 154  22.69842
 155  12.68953
 156  15.68213
 157  -80.61716
 158  -114.2492
 159  39.25393
 160  34.48413
 161  -60.56009
 162  -117.2554
 163  -65.51411
 164  -26.14275
 165  22.28769
 166  46.04831
 167  -29.81573
 168  -150.0304
 169  -184.6027
 170  -138.5215
 171  -40.85564
 172  44.43318
 173  145.046
 174  93.43671
 175  98.56704
 176  132.0543
 177  159.7285
 178  81.2898
 179  45.50548
 180  59.30306
 181  81.63728
 182  42.72961
 183  -56.82938
 184  -200.687
 185  -203.8998
 186  -29.37126
 187  12.42608
 188  28.95607
 189  -43.15992
 190  98.84309
 191  40.88082
 192  112.7322
 193  55.24448
 194  -16.43698
 195  -29.88865
 196  -34.4843
 197  12.94097
 198  -34.07049
 199  -18.43578
 200  64.48842
 201  52.36279
 202  120.7999
 203  82.06584
 204  96.85029
 205  -68.92786
 206  -30.9299
 207  62.93877
 208  100.7161
 209  174.8069
 210  216.0045
 211  183.6355
 212  87.86739
 213  31.55295
 214  37.02454
 215  -69.20382
 216  -71.55534
 217  36.96788
 218  -25.38183
 219  -34.8349
 220  -84.79575
 221  -96.82413
 222  -217.7117
 223  -220.8821
 224  -102.9659
 225  -7.392565
 226  47.27094
 227  72.97916
 228  37.60403
 229  -158.1743
 230  -179.3727
 231  -86.65166
 232  -22.57173
 233  41.88845
 234  84.67216
 235  120.4346
 236  56.75241
 237  36.58488
 238  129.0727
 239  86.0535
 240  -3.365704
 241  -3.520475
 242  65.36555
 243  167.777
 244  173.4078
 245  162.0027
 246  100.8839
 247  -80.90954
 248  -125.1897
 249  -176.1807
 250  -76.89375
 251  -77.37698
 252  -175.8278
 253  -227.3543
 254  -210.6953
 255  -139.8308
 256  -122.1424
 257  -167.1712
 258  -12.68394
 259  63.59106
 260  103.2919
 261  -1.501358
 262  -88.08404
 263  -130.7728
 264  -166.4727
 265  -109.8537
 266  -149.5297
 267  -240.2999
 268  -153.6136
 269  -152.2265
 270  -57.25604
 271  -49.4756
 272  143.4552
 273  144.5015
 274  166.4594
 275  87.36313
 276  100.8211
 277  -6.210479
 278  -64.40872
 279  -17.33048
 280  -94.64952
 281  -108.5532
 282  -178.1853
 283  -5.758914
 284  72.64999
 285  58.58721
 286  -5.402359
 287  15.7152
 288  113.0248
 289  99.56413
 290  -61.56715
 291  -170.3343
 292  -86.52883
 293  47.94862
 294  79.01337
 295  108.8184
 296  115.4728
 297  79.12767
 298  80.92835
 299  129.3628
 300  205.6055
 301  193.8197
 302  134.4791
 303  94.3259
 304  36.07379
 305  45.18349
 306  208.0287
 307  194.6999
 308  258.8425
 309  64.99539
 310  37.32097
 311  -95.48276
 312  -86.19328
 313  4.675894
 314  104.4906
 315  108.9871
 316  91.36803
 317  -27.28442
 318  -65.83058
 319  -62.07824
 320  -29.49281
 321  -63.12136
 322  -87.27228
 323  -9.499575
 324  1.366683
 325  -63.02184
 326  -97.57529
 327  -65.98515
 328  11.29191
 329  15.87968
 330  85.45341
 331  128.5978
 332  144.3906
 333  103.0407
 334  -41.49035
 335  -134.3952
 336  -224.6634
 337  -149.1072
 338  -21.09243
 339  131.6848
 340  201.9662
 341  250.0654
 342  58.63041
 343  13.90339
 344  105.7407
 345  197.8771
 346  146.4582
 347  30.548
 348  -15.63424
 349  -70.71449
 350  -80.30347
 351  -76.74648
 352  -37.14709
 353  -27.65731
 354  -34.13304
 355  -139.3392
 356  -203.8799
 357  -127.1282
 358  -59.31321
 359  -8.770306
 360  -124.9919
 361  -178.0748
 362  -315.9192
 363  -341.3935
 364  -181.4655
 365  -107.9341
 366  29.89477
 367  -58.31661
 368  -100.6329
 369  -190.548
 370  -149.8491
 371  -93.03529
 372  -42.53161
 373  73.89897
 374  21.66274
 375  17.07021
 376  -70.86814
 377  -29.34653
 378  -15.77091
 379  -27.62156
 380  -81.6035
 381  5.825523
 382  21.63712
 383  133.2881
 384  4.502294
 385  -42.61856
 386  -187.176
 387  -188.323
 388  -174.7247
 389  -103.54
 390  -163.3272
 391  -33.15448
 392  34.80361
 393  33.79676
 394  -71.26555
 395  66.25668
 396  240.8345
 397  303.6097
 398  159.6796
 399  68.62271
 400  61.87578
 401  39.55272
 402  40.15298
 403  -36.74444
 404  109.7987
 405  132.5414
 406  76.91659
 407  -46.10535
 408  -5.334563
 409  60.94724
 410  50.21844
 411  163.371
 412  130.5263
 413  46.84647
 414  -17.69557
 415  39.64701
 416  25.43979
 417  -82.56471
 418  -153.522
 419  -21.33298
 420  -25.46557
 421  60.14595
 422  -35.08819
 423  85.61634
 424  78.83015
 425  142.3577
 426  188.2099
 427  65.75615
 428  -15.58717
 429  -87.34286
 430  -16.25068
 431  -63.75562
 432  -29.05355
 433  -88.49702
 434  -3.489339
 435  36.36196
 436  82.68295
 437  26.70432
 438  74.69583
 439  174.8023
 440  227.5801
 441  210.1502
 442  193.4921
 443  197.1755
 444  98.0406
 445  23.53519
 446  -35.45702
 447  -64.85484
 448  -82.34031
 449  -48.85443
 450  -93.92764
 451  -78.56666
 452  -78.77185
 453  -34.00861
 454  16.05141
 455  -83.131
 456  15.92036
 457  -58.08868
 458  -39.6447
 459  13.85061
 460  134.4324
 461  131.5728
 462  94.16599
 463  -3.739078
 464  -7.054729
 465  -134.3558
 466  -54.54041
 467  -11.23919
 468  77.72849
 469  34.37954
 470  49.55827
 471  -8.922944
 472  -20.3607
 473  -74.41022
 474  52.94093
 475  -41.65574
 476  -23.59028
 477  28.29363
 478  152.9185
 479  192.0771
 480  284.8577
 481  276.6343
 482  194.1929
 483  -30.43273
 484  -20.16984
 485  -73.11566
 486  -80.03635
 487  -60.66203
 488  -51.26542
 489  -3.507304
 490  67.70039
 491  140.9744
 492  14.47069
 493  -156.9328
 494  -155.9868
 495  -157.5695
 496  -15.96688
 497  77.99191
 498  118.1311
 499  106.3554
 500  34.59204
 501  136.0095
 502  116.9158
 503  168.1595
 504  204.939
 505  214.9386
 506  84.73365
 507  -47.35469
 508  -156.9623
 509  -76.64537
 510  -105.2578
 511  -67.92416
 512  41.93982
 513  220.7338
 514  93.45725
 515  -55.20246
 516  -154.9235
 517  -61.89951
 518  -26.49566
 519  -21.50863
 520  -33.62234
 521  -72.2936
 522  -29.48246
 523  -44.44189
 524  17.03727
 525  40.46162
 526  109.1141
 527  45.29506
 528  25.62218
 529  -15.08664
 530  89.96037
 531  157.3824
 532  201.4123
 533  -45.75043
 534  -28.53819
 535  102.522
 536  204.9982
 537  125.4543
 538  59.98405
 539  68.3092
 540  -53.67877
 541  -145.1745
 542  -139.8351
 543  -48.31549
 544  -99.06605
 545  -116.8661
 546  -261.169
 547  -298.1494
 548  -367.4473
 549  -286.5553
 550  -202.1117
 551  -222.2336
 552  -52.03701
 553  51.24732
 554  112.2137
 555  17.69671
 556  -26.02805
 557  -141.6985
 558  -240.851
 559  -148.7105
 560  -31.08178
 561  -80.85067
 562  -157.9791
 563  -194.7578
 564  -140.8132
 565  -104.993
 566  -20.34657
 567  40.19596
 568  31.24855
 569  32.74268
 570  144.6352
 571  94.48386
 572  150.9517
 573  48.90815
 574  89.95184
 575  -10.20439
 576  -117.5935
 577  -133.6149
 578  -187.6183
 579  -76.17205
 580  18.93911
 581  -20.32621
 582  -52.60266
 583  -97.42951
 584  -29.09311
 585  -31.84451
 586  19.45844
 587  90.81622
 588  3.296787
 589  -127.2457
 590  -163.6236
 591  -139.5846
 592  -157.9942
 593  -132.0722
 594  -83.56097
 595  -11.45149
 596  -39.6867
 597  -28.6895
 598  -171.217
 599  -269.8884
 600  -267.4202
 601  -184.3508
 602  -124.5622
 603  -14.43001
 604  76.07967
 605  54.2155
 606  50.45023
 607  137.2292
 608  106.2766
 609  3.336104
 610  -160.1026
 611  -119.7662
 612  -188.646
 613  -73.85345
 614  98.37369
 615  224.2071
 616  116.3783
 617  45.02839
 618  -21.75016
 619  2.448724
 620  16.68077
 621  119.763
 622  135.4539
 623  162.9913
 624  236.1051
 625  184.192
 626  72.75368
 627  -26.26155
 628  103.5495
 629  62.25879
 630  15.85786
 631  -4.51592
 632  179.3157
 633  324.9392
 634  365.1278
 635  334.0749
 636  311.651
 637  417.0566
 638  574.3168
 639  831.6837
 640  962.7077
 641  981.8965
 642  1008.223
 643  899.5709
 644  900.095
 645  885.1166
 646  862.4668
 647  613.7827
 648  275.7253
 649  165.179
 650  143.8685
 651  143.7533
 652  79.57125
 653  31.44802
 654  31.25347
 655  89.54449
 656  60.16533
 657  55.00426
 658  70.93906
 659  40.18219
 660  -4.166912
 661  -41.85413
 662  -88.68156
 663  -178.701
 664  -169.4082
 665  81.0817
 666  141.6591
 667  75.02348
 668  -47.31897
 669  -31.02551
 670  -49.09196
 671  27.52053
 672  147.9616
 673  185.659
 674  258.9521
 675  255.5553
 676  320.7324
 677  128.1124
 678  125.3418
 679  14.86235
 680  11.84081
 681  -57.87819
 682  -23.52808
 683  -52.03578
 684  4.011436
 685  13.12029
 686  200.6467
 687  182.094
 688  214.5042
 689  51.47119
 690  49.1043
 691  -43.12524
 692  -13.30248
 693  67.5903
 694  92.29934
 695  197.416
 696  319.1915
 697  350.4681
 698  276.3732
 699  61.80437
 700  -63.66474
 701  -151.9124
 702  -130.4607
 703  52.27283
 704  133.1391
 705  121.0962
 706  111.4491
 707  51.87637
 708  -104.8053
 709  -167.4193
 710  -111.037
 711  60.87501
 712  92.19141
 713  38.85713
 714  2.295025
 715  -51.08951
 716  0.6198352
 717  -2.114483
 718  -14.79483
 719  106.8489
 720  157.5399
 721  121.8295
 722  43.67468
 723  0.1171793
 724  -21.25393
 725  -89.83755
 726  -55.32943
 727  -63.8315
 728  -113.0028
 729  -117.4599
 730  -19.98019
 731  50.34531
 732  5.128463
 733  144.6902
 734  268.1025
 735  210.3737
 736  66.19461
 737  -55.02206
 738  95.63663
 739  58.22552
 740  178.1219
 741  98.90006
 742  -58.38525
 743  -267.0619
 744  -183.0469
 745  -81.81608
 746  -35.4641
 747  -145.1591
 748  -185.5936
 749  -187.388
 750  -175.854
 751  -108.1747
 752  -70.14229
 753  -14.14255
 754  57.8315
 755  44.20226
 756  -47.31296
 757  -59.51299
 758  -80.49876
 759  -143.9596
 760  -129.9262
 761  66.1382
 762  151.6013
 763  30.3236
 764  1.571034
 765  20.70333
 766  -95.70128
 767  -102.3867
 768  -78.71252
 769  -15.10516
 770  -193.9505
 771  -165.1757
 772  -173.0827
 773  -92.112
 774  -155.5234
 775  -201.9286
 776  -225.4224
 777  -201.1057
 778  -127.7504
 779  -123.9721
 780  -113.6724
 781  -144.1929
 782  -139.4102
 783  -158.8009
 784  -10.9662
 785  50.77105
 786  118.0278
 787  27.69371
 788  85.07414
 789  96.77351
 790  34.38773
 791  -28.2774
 792  14.4597
 793  20.00229
 794  -26.16785
 795  -91.79237
 796  -134.0363
 797  -107.8822
 798  -9.500852
 799  30.53032
 800  -8.363376
 801  -29.99027
 802  111.3764
 803  186.8101
 804  185.9646
 805  58.10487
 806  186.3037
 807  69.73273
 808  105.7715
 809  118.7005
 810  216.3298
 811  168.4009
 812  10.85289
 813  -57.71712
 814  -36.20554
 815  30.99255
 816  112.9399
 817  84.4528
 818  -83.01747
 819  -137.8752
 820  -150.8017
 821  32.92035
 822  111.9649
 823  225.5471
 824  124.6957
 825  123.368
 826  109.7674
 827  163.6117
 828  21.4929
 829  -16.13024
 830  -9.124645
 831  -76.92999
 832  -32.75701
 833  30.68524
 834  56.09971
 835  15.67334
 836  -60.32481
 837  126.3651
 838  90.97793
 839  19.25756
 840  46.22052
 841  122.0327
 842  215.7566
 843  20.41345
 844  -22.94586
 845  -166.0895
 846  -111.1092
 847  -73.30595
 848  -52.52269
 849  29.7827
 850  81.09341
 851  9.362146
 852  -130.3675
 853  -117.6543
 854  -21.05625
 855  -116.1212
 856  -194.6487
 857  -193.4277
 858  5.170309
 859  124.7104
 860  213.7711
 861  197.5216
 862  90.6881
 863  -60.2525
 864  -177.7048
 865  -176.4527
 866  -27.03468
 867  185.7544
 868  126.0307
 869  44.26546
 870  -45.83218
 871  37.33376
 872  -132.1301
 873  -153.1562
 874  -110.5171
 875  50.40574
 876  -51.59698
 877  -112.7615
 878  -160.1136
 879  -147.5068
 880  -180.2447
 881  -149.3423
 882  -106.1588
 883  -61.59728
 884  28.47768
 885  129.05
 886  178.0189
 887  0.4761558
 888  -129.6583
 889  -155.0721
 890  -93.18225
 891  -138.8486
 892  -113.9908
 893  -171.4929
 894  -101.4487
 895  -101.2284
 896  -61.9557
 897  -78.47044
 898  -123.3794
 899  -74.06729
 900  -62.98817
 901  -54.70288
 902  -30.24549
 903  -46.24242
 904  -29.43254
 905  -27.07765
 906  -103.8013
 907  -104.7884
 908  -99.83495
 909  -14.9692
 910  -57.25774
 911  -147.99
 912  -185.3358
 913  -179.4252
 914  -170.2002
 915  -152.1227
 916  -52.82586
 917  115.2653
 918  165.5141
 919  138.02
 920  100.4384
 921  149.2378
 922  153.4559
 923  87.21642
 924  43.55559
 925  85.37609
 926  -3.33789
 927  -50.38258
 928  -76.95434
 929  -48.4798
 930  -18.23759
 931  -51.20541
 932  -4.277656
 933  47.13085
 934  -55.20145
 935  38.37928
 936  67.3774
 937  188.5348
 938  50.23583
 939  90.77448
 940  134.6809
 941  143.142
 942  9.973343
 943  -113.0398
 944  -185.0964
 945  -146.4329
 946  26.6169
 947  145.237
 948  178.8385
 949  112.9475
 950  150.7258
 951  70.64941
 952  94.91397
 953  119.8228
 954  99.52264
 955  -2.472965
 956  -111.5021
 957  -72.71076
 958  -36.56627
 959  -19.72151
 960  -1.891586
 961  -116.6031
 962  -40.76731
 963  -34.10447
 964  32.25367
 965  -95.44136
 966  -32.45102
 967  83.18665
 968  170.1124
 969  155.5228
 970  173.9675
 971  160.7423
 972  63.57612
 973  25.56988
 974  19.52083
 975  122.7756
 976  190.2006
 977  180.6148
 978  8.212149
 979  -182.4441
 980  -199.5537
 981  -65.29553
 982  1.225619
 983  -19.55743
 984  -149.2442
 985  -22.36013
 986  -38.17947
 987  119.2348
 988  39.51068
 989  40.88967
 990  25.09559
 991  135.6874
 992  107.1292
 993  100.4523
 994  166.0689
 995  154.6407
 996  122.2114
 997  34.92505
 998  130.8549
 999  90.55716
1000  78.88414
1001  55.08652
1002  3.330338
1003  -101.5202
1004  -53.61375
1005  -17.72742
1006  4.716006
1007  -2.874775
1008  96.13362
1009  63.92507
1010  -2.086356
1011  -33.12223
1012  -102.7686
1013  -140.9307
1014  -179.2295
1015  -1.2278
1016  -68.79288
1017  -130.022
1018  -23.2531
1019  63.54161
1020  69.9546
1021  -49.55066
1022  -91.80071
1023  -132.6442
