# Input file       =  1189743766.114279_cleaned.dat
# Candidate        =  PSR_0332+5434
# Telescope        =  AR
# Epoch_topo       =  58014.182698081931
# Epoch_bary       =  N/A
# T_sample         =  0.002
# Data Folded      =  7340032
# Data Avg         =  0.0322279007783177
# Data StdDev      =  3.44235204122011 
# Profile Bins     =  256
# Profile Avg      =  923.897888688353 
# Profile StdDev   =  582.886875277054 
# Reduced chi-sqr  =  1.356
# Prob(Noise)      <  0.00013   (~3.7 sigma)
# P_topo (ms)      =  714.467213137334  +/- 0.000323
# P'_topo (s/s)    =  -0                +/- 1.7e-10
# P''_topo (s/s^2) =  0                 +/- 7.51e-14
# P_bary (ms)      =  N/A
# P'_bary (s/s)    =  N/A
# P''_bary (s/s^2) =  N/A
# P_orb (s)        =  N/A
# asin(i)/c (s)    =  N/A
# eccentricity     =  N/A
# w (rad)          =  N/A
# T_peri           =  N/A
######################################################
   0  1113.064
   1  1130.102
   2  1084.948
   3  1465.587
   4  1031.077
   5  430.7886
   6  925.8989
   7  847.6131
   8  1000.04
   9  1755.723
  10  1498.619
  11  1197.169
  12  1917.258
  13  1325.991
  14  746.1631
  15  615.3386
  16  528.5861
  17  504.1162
  18  859.5999
  19  1261.277
  20  918.3743
  21  -122.0519
  22  675.8139
  23  972.5761
  24  993.9445
  25  368.6394
  26  809.4438
  27  319.08
  28  876.8546
  29  199.3622
  30  133.3847
  31  1323.104
  32  1307.324
  33  174.1457
  34  1142.949
  35  788.6851
  36  679.1234
  37  1037.485
  38  204.307
  39  1022.822
  40  509.217
  41  -414.5041
  42  192.6928
  43  1024.854
  44  164.7447
  45  -263.3982
  46  434.5846
  47  1044.424
  48  71.91498
  49  656.8497
  50  935.1651
  51  1433.256
  52  1565.191
  53  720.0167
  54  499.9448
  55  -254.7097
  56  -128.6494
  57  1193.977
  58  1132.681
  59  1224.681
  60  1666.552
  61  1502.449
  62  387.5787
  63  -320.0535
  64  287.1369
  65  1054.86
  66  -30.17849
  67  999.4361
  68  1786.655
  69  1398.515
  70  882.0101
  71  1132.214
  72  658.6179
  73  640.9329
  74  85.93745
  75  394.395
  76  771.9042
  77  961.757
  78  1188.112
  79  1445.59
  80  511.775
  81  1305.521
  82  1191.429
  83  738.7999
  84  891.2665
  85  639.644
  86  623.0745
  87  1064.048
  88  463.6516
  89  253.3369
  90  -29.84646
  91  721.7999
  92  755.324
  93  539.0885
  94  1149.346
  95  633.8767
  96  801.926
  97  283.9167
  98  286.1197
  99  994.5809
 100  331.0075
 101  1090.982
 102  1039.611
 103  1686.562
 104  640.6371
 105  1271.417
 106  995.6765
 107  1684.119
 108  394.6278
 109  -13.22638
 110  1119.543
 111  994.2587
 112  668.2732
 113  915.3381
 114  864.2513
 115  1470.726
 116  591.2666
 117  1106.391
 118  557.1656
 119  681.8848
 120  963.2879
 121  1134.03
 122  1170.201
 123  1238.035
 124  1224.9
 125  589.0306
 126  1644.063
 127  819.327
 128  642.0739
 129  936.9106
 130  470.2355
 131  392.787
 132  1411.672
 133  1422.838
 134  -15.45801
 135  421.1234
 136  604.6169
 137  1109.335
 138  538.0332
 139  972.5057
 140  578.554
 141  -280.6695
 142  1180.707
 143  1176.363
 144  1175.602
 145  819.7556
 146  1286.444
 147  1054.18
 148  1042.698
 149  888.3072
 150  407.4952
 151  1068.75
 152  873.161
 153  1089.306
 154  1334.153
 155  650.4803
 156  1816.262
 157  1521.858
 158  1930.976
 159  3063.742
 160  3697.628
 161  3311.389
 162  2929.806
 163  1379.63
 164  1031.194
 165  1399.261
 166  1400.214
 167  1794.891
 168  1184.876
 169  1122.003
 170  284.3024
 171  450.8736
 172  -29.11131
 173  1091.197
 174  206.1382
 175  1640.941
 176  1740.465
 177  1520.636
 178  1104.906
 179  924.11
 180  1297.841
 181  167.9391
 182  522.651
 183  1164.532
 184  845.9081
 185  1022.58
 186  907.6561
 187  1068.488
 188  1238.303
 189  1397.206
 190  1292.398
 191  1027.241
 192  206.8764
 193  1627.871
 194  1342.303
 195  420.9219
 196  51.01085
 197  788.333
 198  548.2837
 199  557.6646
 200  846.132
 201  694.3316
 202  2038.562
 203  115.0706
 204  375.8757
 205  549.3024
 206  1081.122
 207  1531.685
 208  1315.268
 209  1294.356
 210  432.4373
 211  1627.049
 212  1416.807
 213  2167.965
 214  858.5991
 215  -86.07491
 216  997.9199
 217  663.1306
 218  668.4763
 219  677.9333
 220  1259.257
 221  431.4838
 222  1036.352
 223  332.0444
 224  1309.046
 225  1640.075
 226  753.7435
 227  1091.188
 228  1425.008
 229  1743.398
 230  1306.358
 231  1217.507
 232  1773.485
 233  2185.547
 234  1998.103
 235  1370.193
 236  1182.144
 237  831.4724
 238  1421.347
 239  997.0792
 240  1250.942
 241  261.222
 242  1055.199
 243  50.66719
 244  1041.774
 245  64.71605
 246  347.876
 247  1281.72
 248  1065.309
 249  719.7642
 250  398.474
 251  435.4865
 252  -184.1227
 253  125.8309
 254  1349.785
 255  1022.535
