# Input file       =  1189125652.118063_cleaned.dat
# Candidate        =  PSR_0332+5434
# Telescope        =  AR
# Epoch_topo       =  58007.028600903504
# Epoch_bary       =  N/A
# T_sample         =  0.002
# Data Folded      =  7340032
# Data Avg         =  0.010719115677985
# Data StdDev      =  1.00002486189806 
# Profile Bins     =  512
# Profile Avg      =  153.705535051736 
# Profile StdDev   =  119.736013167311 
# Reduced chi-sqr  =  1.350
# Prob(Noise)      <  1.95e-07   (~5.1 sigma)
# P_topo (ms)      =  714.46487529879   +/- 0.000139
# P'_topo (s/s)    =  -0                +/- 7.32e-11
# P''_topo (s/s^2) =  0                 +/- 3.23e-14
# P_bary (ms)      =  N/A
# P'_bary (s/s)    =  N/A
# P''_bary (s/s^2) =  N/A
# P_orb (s)        =  N/A
# asin(i)/c (s)    =  N/A
# eccentricity     =  N/A
# w (rad)          =  N/A
# T_peri           =  N/A
######################################################
   0  220.2039
   1  178.1913
   2  208.9977
   3  161.8983
   4  167.1083
   5  180.8365
   6  216.1201
   7  185.9354
   8  162.4687
   9  160.6239
  10  131.1778
  11  124.2428
  12  237.6209
  13  251.4937
  14  198.1415
  15  64.49953
  16  206.9999
  17  262.2299
  18  222.8748
  19  288.0925
  20  199.48
  21  296.7553
  22  287.2204
  23  207.2382
  24  188.0017
  25  160.2056
  26  219.7633
  27  253.3739
  28  132.9339
  29  118.1943
  30  150.8011
  31  118.8889
  32  60.81054
  33  137.1652
  34  243.4517
  35  86.5306
  36  91.54958
  37  143.4712
  38  166.5787
  39  237.5116
  40  162.4994
  41  22.64907
  42  89.60104
  43  113.6565
  44  128.0067
  45  114.3519
  46  132.9218
  47  11.14087
  48  -23.77601
  49  142.5105
  50  108.1213
  51  60.80029
  52  101.8269
  53  272.2721
  54  180.7225
  55  59.51765
  56  191.8731
  57  273.1322
  58  214.1548
  59  127.7373
  60  187.6069
  61  160.0861
  62  73.81747
  63  9.118591
  64  -7.775405
  65  72.53802
  66  203.1951
  67  53.14907
  68  124.304
  69  120.9942
  70  123.9425
  71  66.36399
  72  184.7828
  73  180.4892
  74  132.0276
  75  80.07516
  76  13.88522
  77  94.19344
  78  224.0489
  79  227.9347
  80  59.09105
  81  75.91093
  82  92.77488
  83  30.1381
  84  -45.19197
  85  34.36087
  86  103.6701
  87  155.1354
  88  173.8451
  89  184.9695
  90  152.3468
  91  105.6657
  92  153.9732
  93  188.3476
  94  81.27246
  95  73.52044
  96  156.7569
  97  224.0038
  98  145.815
  99  39.35555
 100  22.21314
 101  87.86463
 102  187.0201
 103  133.7839
 104  69.69775
 105  118.4004
 106  118.3602
 107  206.4292
 108  221.2754
 109  198.3554
 110  55.47538
 111  -111.8643
 112  -32.42567
 113  193.8273
 114  262.4654
 115  76.18293
 116  111.358
 117  74.48483
 118  133.0928
 119  330.0238
 120  245.9324
 121  185.9269
 122  -16.56628
 123  140.2482
 124  159.1082
 125  181.9228
 126  116.9025
 127  41.18871
 128  158.9436
 129  241.4855
 130  210.7209
 131  206.8607
 132  129.9179
 133  189.6034
 134  176.9941
 135  192.9984
 136  111.202
 137  190.6921
 138  103.0133
 139  110.0829
 140  150.7572
 141  280.2933
 142  316.3327
 143  356.6765
 144  395.776
 145  248.9941
 146  172.5792
 147  72.68124
 148  41.08112
 149  144.6397
 150  156.0453
 151  140.2109
 152  175.7496
 153  194.0384
 154  253.7711
 155  107.9188
 156  266.4368
 157  267.7072
 158  231.261
 159  89.18745
 160  34.26171
 161  131.6862
 162  223.7166
 163  236.0658
 164  52.33037
 165  74.68246
 166  124.4351
 167  155.4698
 168  190.8302
 169  175.5745
 170  108.7807
 171  59.17409
 172  237.8789
 173  218.4072
 174  61.1969
 175  130.8271
 176  163.5689
 177  146.107
 178  151.1659
 179  84.00354
 180  41.19647
 181  33.89985
 182  266.9361
 183  434.5423
 184  674.3797
 185  724.438
 186  904.5444
 187  719.5041
 188  570.8577
 189  481.6278
 190  254.5458
 191  112.6254
 192  125.2098
 193  154.419
 194  125.0034
 195  119.3547
 196  204.8785
 197  168.9415
 198  63.8243
 199  100.0051
 200  286.3495
 201  104.5663
 202  141.421
 203  160.7661
 204  86.35349
 205  107.0368
 206  176.8701
 207  173.8611
 208  125.0129
 209  165.3939
 210  167.1379
 211  108.7488
 212  -17.86932
 213  102.6431
 214  74.70381
 215  103.0453
 216  38.23558
 217  165.0625
 218  215.6973
 219  69.26485
 220  135.975
 221  211.5122
 222  113.25
 223  158.6324
 224  206.1709
 225  235.8519
 226  153.6917
 227  197.4684
 228  203.2556
 229  310.0493
 230  180.0694
 231  220.1226
 232  136.7368
 233  102.634
 234  47.35244
 235  96.44828
 236  161.9798
 237  133.6451
 238  237.5809
 239  257.7512
 240  271.8416
 241  208.03
 242  159.4746
 243  31.93278
 244  -17.22138
 245  101.7826
 246  245.7545
 247  354.8864
 248  208.3613
 249  110.9444
 250  147.2687
 251  152.8681
 252  103.954
 253  51.2645
 254  237.125
 255  54.59679
 256  32.54775
 257  97.88078
 258  250.6259
 259  289.9907
 260  193.763
 261  306.0131
 262  157.9148
 263  138.5248
 264  129.5331
 265  134.3364
 266  56.99065
 267  129.5531
 268  108.7774
 269  -32.34722
 270  104.195
 271  122.6294
 272  132.5991
 273  242.1013
 274  274.0136
 275  287.5252
 276  68.07829
 277  -50.10405
 278  116.7554
 279  213.1249
 280  271.5274
 281  76.80587
 282  -30.81097
 283  13.74547
 284  28.36646
 285  86.99438
 286  189.3966
 287  194.5897
 288  240.3101
 289  251.0284
 290  168.4868
 291  174.6811
 292  143.6932
 293  98.34635
 294  208.9032
 295  212.3622
 296  43.99338
 297  56.46566
 298  54.4896
 299  -27.13152
 300  96.23306
 301  100.4351
 302  241.5858
 303  368.9797
 304  156.6989
 305  96.93742
 306  163.4412
 307  314.0335
 308  227.2966
 309  207.8904
 310  175.9839
 311  140.3036
 312  126.3467
 313  204.5313
 314  208.752
 315  226.4158
 316  289.4212
 317  265.6692
 318  168.5486
 319  168.0395
 320  57.09385
 321  108.063
 322  304.3275
 323  190.3908
 324  181.0287
 325  143.0643
 326  142.0639
 327  171.2606
 328  104.1617
 329  105.6759
 330  57.60029
 331  170.0607
 332  135.4796
 333  171.343
 334  122.8547
 335  130.352
 336  96.77963
 337  143.7617
 338  178.1662
 339  74.64165
 340  55.29576
 341  204.4651
 342  246.938
 343  288.1997
 344  260.8066
 345  265.7281
 346  144.5176
 347  71.83165
 348  155.7426
 349  261.4207
 350  127.5339
 351  156.6051
 352  187.253
 353  204.413
 354  113.2485
 355  97.97927
 356  103.2205
 357  68.98885
 358  36.77459
 359  5.410825
 360  98.22281
 361  232.1048
 362  207.0629
 363  220.6031
 364  144.4922
 365  199.2593
 366  167.3692
 367  204.651
 368  202.17
 369  201.7259
 370  3.671657
 371  17.28778
 372  36.36721
 373  215.2606
 374  171.3288
 375  122.0706
 376  213.4115
 377  249.7506
 378  12.69777
 379  32.25678
 380  225.758
 381  130.5629
 382  34.6676
 383  105.1583
 384  215.758
 385  143.6592
 386  60.38593
 387  112.3364
 388  -39.63458
 389  -89.73265
 390  47.09218
 391  88.72981
 392  172.0862
 393  308.5565
 394  259.6134
 395  93.59258
 396  85.32287
 397  62.63634
 398  142.7122
 399  82.10407
 400  11.43649
 401  23.05682
 402  169.0676
 403  145.7674
 404  115.5392
 405  52.69283
 406  82.349
 407  -67.02314
 408  33.34529
 409  337.2475
 410  115.6505
 411  92.9396
 412  70.76035
 413  79.55576
 414  158.9727
 415  160.3289
 416  212.2819
 417  121.317
 418  39.0324
 419  130.6991
 420  142.7287
 421  300.8915
 422  162.9215
 423  51.40443
 424  204.0627
 425  58.34302
 426  -1.159583
 427  63.7117
 428  193.9911
 429  176.3944
 430  101.6574
 431  164.4275
 432  196.3664
 433  183.8929
 434  130.8836
 435  65.89473
 436  -4.976834
 437  40.51462
 438  157.1355
 439  95.10619
 440  170.317
 441  211.4655
 442  178.1729
 443  122.9197
 444  28.8694
 445  129.897
 446  305.4646
 447  230.2478
 448  254.8177
 449  139.9709
 450  139.0347
 451  198.6247
 452  176.4604
 453  68.99378
 454  94.24824
 455  156.7158
 456  206.4901
 457  260.7761
 458  158.223
 459  120.5388
 460  154.6897
 461  231.6853
 462  294.1995
 463  361.082
 464  236.2428
 465  171.5237
 466  70.95192
 467  127.5516
 468  110.8704
 469  256.995
 470  186.2417
 471  74.66717
 472  105.7513
 473  58.10612
 474  106.7804
 475  82.42551
 476  123.021
 477  97.39606
 478  92.74544
 479  60.04413
 480  18.60807
 481  190.3299
 482  238.3067
 483  250.3853
 484  231.7309
 485  117.327
 486  4.136807
 487  128.4548
 488  163.0766
 489  205.9261
 490  210.2423
 491  17.67536
 492  -12.22571
 493  167.8825
 494  260.5503
 495  300.5509
 496  293.9693
 497  217.4814
 498  175.9114
 499  201.6365
 500  271.4861
 501  132.4201
 502  55.57508
 503  144.6397
 504  142.0397
 505  190.7234
 506  239.7144
 507  109.4471
 508  111.0353
 509  195.8455
 510  180.6567
 511  233.2668
