# Input file       =  1189728850.110648_cleaned.dat
# Candidate        =  PSR_0332+5434
# Telescope        =  AR
# Epoch_topo       =  58014.010059151020
# Epoch_bary       =  N/A
# T_sample         =  0.002
# Data Folded      =  7340032
# Data Avg         =  0.0323925381536745
# Data StdDev      =  2.62137749136137 
# Profile Bins     =  512
# Profile Avg      =  464.507809090269 
# Profile StdDev   =  313.865486530407 
# Reduced chi-sqr  =  1.229
# Prob(Noise)      <  0.000294   (~3.4 sigma)
# P_topo (ms)      =  714.466818977931  +/- 0.000121
# P'_topo (s/s)    =  -0                +/- 6.41e-11
# P''_topo (s/s^2) =  0                 +/- 2.83e-14
# P_bary (ms)      =  N/A
# P'_bary (s/s)    =  N/A
# P''_bary (s/s^2) =  N/A
# P_orb (s)        =  N/A
# asin(i)/c (s)    =  N/A
# eccentricity     =  N/A
# w (rad)          =  N/A
# T_peri           =  N/A
######################################################
   0  121.0544
   1  351.3923
   2  570.6509
   3  478.5625
   4  433.5844
   5  665.7324
   6  762.7301
   7  614.6252
   8  304.0603
   9  359.7546
  10  436.758
  11  540.1893
  12  396.0687
  13  363.5479
  14  748.4186
  15  548.4563
  16  182.9688
  17  -11.51735
  18  3.230541
  19  -0.276243
  20  134.6906
  21  373.4023
  22  392.2903
  23  184.0851
  24  437.7168
  25  395.316
  26  651.8502
  27  642.5713
  28  817.693
  29  727.9444
  30  744.7234
  31  565.076
  32  182.5429
  33  635.1209
  34  373.38
  35  260.3186
  36  376.2402
  37  168.7768
  38  375.0529
  39  576.1978
  40  495.1763
  41  534.5764
  42  336.9001
  43  286.3681
  44  452.3579
  45  440.2003
  46  755.9424
  47  648.0243
  48  420.7035
  49  825.9533
  50  408.8954
  51  385.2165
  52  330.6138
  53  228.6805
  54  517.3265
  55  721.3543
  56  705.595
  57  367.2402
  58  630.9548
  59  548.9248
  60  453.1577
  61  316.0107
  62  767.8827
  63  505.213
  64  464.6811
  65  486.0914
  66  362.3245
  67  314.4421
  68  265.2948
  69  723.3986
  70  924.9688
  71  288.6424
  72  12.8376
  73  352.8905
  74  215.7211
  75  156.5093
  76  432.8138
  77  163.9777
  78  103.2442
  79  399.9604
  80  356.641
  81  437.2032
  82  564.3242
  83  976.1052
  84  701.4833
  85  572.8619
  86  312.9368
  87  389.0674
  88  259.4081
  89  103.5338
  90  298.5066
  91  309.1408
  92  494.8862
  93  495.6434
  94  748.5762
  95  531.1696
  96  40.64631
  97  465.7858
  98  457.5731
  99  291.3616
 100  95.31955
 101  128.5986
 102  301.423
 103  442.4161
 104  443.7218
 105  369.7115
 106  152.63
 107  52.83988
 108  543.4369
 109  767.4904
 110  440.7576
 111  607.6269
 112  235.8525
 113  415.8825
 114  389.4939
 115  965.1794
 116  785.0754
 117  343.2711
 118  263.9323
 119  622.2566
 120  385.4551
 121  -149.7786
 122  11.93346
 123  331.5678
 124  583.6808
 125  326.6855
 126  498.9521
 127  852.131
 128  629.386
 129  202.8317
 130  10.80574
 131  240.2512
 132  347.7943
 133  97.82201
 134  374.9853
 135  741.3268
 136  875.1636
 137  509.0573
 138  409.4163
 139  301.264
 140  213.7221
 141  265.7188
 142  454.8852
 143  516.2837
 144  648.336
 145  398.5312
 146  117.1811
 147  348.632
 148  459.2762
 149  209.6704
 150  664.7581
 151  659.3134
 152  607.9726
 153  476.5138
 154  748.9736
 155  364.2169
 156  358.0261
 157  509.4102
 158  137.6384
 159  791.2704
 160  499.588
 161  208.1198
 162  383.9867
 163  209.051
 164  260.4777
 165  374.1034
 166  569.4099
 167  502.9243
 168  632.2988
 169  769.9225
 170  342.7749
 171  540.4518
 172  293.3537
 173  109.9453
 174  185.7188
 175  717.4943
 176  823.1654
 177  228.0815
 178  619.2559
 179  1105.126
 180  896.947
 181  945.9439
 182  1206.262
 183  1698.859
 184  2072.227
 185  1861.493
 186  1850.391
 187  1543.117
 188  1052.451
 189  744.8978
 190  882.861
 191  611.8325
 192  237.2254
 193  561.2363
 194  391.536
 195  535.2272
 196  542.3141
 197  470.5422
 198  326.5177
 199  374.9182
 200  586.2803
 201  297.5412
 202  630.6808
 203  681.6894
 204  423.7867
 205  263.3806
 206  642.8105
 207  834.0993
 208  536.4418
 209  627.4066
 210  131.3604
 211  -17.74998
 212  274.2489
 213  436.8044
 214  445.3682
 215  415.258
 216  659.6608
 217  585.1926
 218  424.0652
 219  348.1651
 220  473.8065
 221  373.642
 222  382.1983
 223  563.9608
 224  772.8442
 225  461.7997
 226  247.5478
 227  212.9116
 228  333.3688
 229  400.9391
 230  508.6419
 231  608.3972
 232  583.8779
 233  355.192
 234  442.7302
 235  346.112
 236  639.7225
 237  659.7344
 238  878.0706
 239  389.19
 240  265.9211
 241  541.8304
 242  372.7454
 243  535.0868
 244  612.5288
 245  399.9164
 246  462.7648
 247  652.6952
 248  583.1475
 249  80.2329
 250  181.4461
 251  446.2349
 252  247.2141
 253  610.2434
 254  196.8022
 255  1.230126
 256  187.9183
 257  343.6503
 258  142.2853
 259  96.79968
 260  130.5554
 261  486.1859
 262  299.5608
 263  614.6445
 264  560.2576
 265  725.4274
 266  769.3583
 267  256.9085
 268  401.3474
 269  664.7476
 270  364.1718
 271  718.908
 272  527.3632
 273  788.0305
 274  620.9247
 275  312.4939
 276  155.556
 277  421.4817
 278  614.6404
 279  779.1369
 280  379.0641
 281  491.2343
 282  496.218
 283  247.7517
 284  400.9991
 285  652.1531
 286  663.6018
 287  726.7265
 288  636.0208
 289  819.0696
 290  687.0056
 291  397.1909
 292  199.0094
 293  314.2113
 294  349.1762
 295  551.0445
 296  1112.282
 297  737.1232
 298  826.1754
 299  303.6878
 300  488.4392
 301  669.9976
 302  345.342
 303  18.46852
 304  278.5028
 305  389.5896
 306  578.3596
 307  657.3101
 308  489.2032
 309  683.0287
 310  525.2774
 311  106.8117
 312  282.2612
 313  312.2802
 314  462.8689
 315  363.2628
 316  650.062
 317  817.4614
 318  374.3802
 319  61.58101
 320  335.3664
 321  365.1809
 322  588.2297
 323  366.2001
 324  299.9346
 325  401.6149
 326  330.762
 327  322.2132
 328  340.567
 329  635.4327
 330  527.7618
 331  438.5539
 332  69.61726
 333  186.7543
 334  502.0449
 335  276.2067
 336  604.2307
 337  545.7592
 338  414.4702
 339  45.08113
 340  282.2361
 341  572.338
 342  682.2454
 343  330.3943
 344  113.1671
 345  386.1027
 346  553.811
 347  338.6122
 348  46.40719
 349  4.071098
 350  462.0547
 351  480.5266
 352  366.5671
 353  182.0241
 354  494.0963
 355  836.3927
 356  637.3809
 357  477.0466
 358  614.8995
 359  577.3133
 360  767.5999
 361  600.8816
 362  320.1251
 363  -65.52093
 364  76.67728
 365  498.439
 366  498.5451
 367  627.6227
 368  463.7448
 369  381.9626
 370  420.29
 371  564.8192
 372  497.6976
 373  249.3544
 374  552.7278
 375  534.935
 376  447.1121
 377  608.5431
 378  516.3104
 379  451.9347
 380  671.9754
 381  378.1796
 382  334.2246
 383  674.6179
 384  941.3085
 385  440.6941
 386  371.37
 387  273.4127
 388  81.93817
 389  289.1244
 390  822.7027
 391  290.0625
 392  239.1483
 393  491.7361
 394  373.9579
 395  323.6918
 396  467.7842
 397  269.2721
 398  288.9391
 399  440.8938
 400  526.256
 401  576.1784
 402  356.5335
 403  91.81229
 404  231.3681
 405  459.77
 406  644.0942
 407  379.4711
 408  440.1742
 409  613.7041
 410  412.7638
 411  412.9324
 412  636.4067
 413  508.0397
 414  287.5957
 415  715.4067
 416  470.1492
 417  520.997
 418  499.6754
 419  760.3073
 420  455.655
 421  447.5591
 422  736.9886
 423  807.7759
 424  304.8779
 425  329.4131
 426  678.3141
 427  834.4623
 428  748.564
 429  409.488
 430  167.2505
 431  351.8075
 432  345.4106
 433  242.0447
 434  215.5724
 435  414.5363
 436  272.7296
 437  370.8927
 438  380.2435
 439  593.9719
 440  331.836
 441  436.3608
 442  329.415
 443  490.2616
 444  557.703
 445  509.7578
 446  1025.637
 447  508.1689
 448  222.5195
 449  23.63532
 450  230.2251
 451  727.4756
 452  432.0999
 453  859.9828
 454  524.9662
 455  488.0847
 456  438.8881
 457  285.441
 458  429.9055
 459  508.4762
 460  331.9391
 461  543.3958
 462  683.9608
 463  349.5827
 464  49.53025
 465  164.9217
 466  707.037
 467  659.321
 468  -57.97625
 469  327.4702
 470  697.1868
 471  587.6321
 472  750.8822
 473  847.0295
 474  517.1332
 475  543.4603
 476  537.5219
 477  461.8581
 478  434.4253
 479  547.9515
 480  582.1048
 481  420.1551
 482  669.1436
 483  671.7847
 484  562.1118
 485  481.287
 486  409.3525
 487  515.3432
 488  363.1475
 489  418.0576
 490  449.8718
 491  509.9417
 492  242.6467
 493  563.274
 494  565.5009
 495  424.7282
 496  206.6804
 497  387.9418
 498  490.7338
 499  184.9064
 500  335.8333
 501  465.4745
 502  449.9545
 503  406.9789
 504  462.6955
 505  496.0628
 506  441.2063
 507  116.145
 508  208.3575
 509  833.5408
 510  828.7121
 511  354.7892
