# Input file       =  1189226738.107004_cleaned.dat
# Candidate        =  PSR_0332+5434
# Telescope        =  AR
# Epoch_topo       =  58008.198577627358
# Epoch_bary       =  N/A
# T_sample         =  0.002
# Data Folded      =  7340032
# Data Avg         =  0.00789069542371925
# Data StdDev      =  1.0000060837787  
# Profile Bins     =  512
# Profile Avg      =  113.091546384816 
# Profile StdDev   =  119.733764806062 
# Reduced chi-sqr  =  1.453
# Prob(Noise)      <  8.62e-11   (~6.4 sigma)
# P_topo (ms)      =  714.465478410971  +/- 0.00012
# P'_topo (s/s)    =  -0                +/- 6.31e-11
# P''_topo (s/s^2) =  0                 +/- 2.79e-14
# P_bary (ms)      =  N/A
# P'_bary (s/s)    =  N/A
# P''_bary (s/s^2) =  N/A
# P_orb (s)        =  N/A
# asin(i)/c (s)    =  N/A
# eccentricity     =  N/A
# w (rad)          =  N/A
# T_peri           =  N/A
######################################################
   0  104.5139
   1  137.1273
   2  46.58087
   3  119.6197
   4  113.1691
   5  122.3785
   6  118.4393
   7  150.4377
   8  -13.7692
   9  80.10817
  10  200.5423
  11  190.188
  12  115.512
  13  -20.41851
  14  119.9184
  15  143.8495
  16  171.762
  17  101.3876
  18  44.29624
  19  108.8819
  20  60.61411
  21  108.8025
  22  216.2119
  23  99.43435
  24  129.5408
  25  186.6156
  26  140.3141
  27  87.67902
  28  104.8966
  29  103.834
  30  256.9913
  31  128.0685
  32  107.5907
  33  174.4086
  34  47.81227
  35  -60.81748
  36  59.85404
  37  75.67186
  38  -52.22345
  39  17.11148
  40  8.033468
  41  30.34078
  42  85.30402
  43  128.5298
  44  -55.80433
  45  21.09633
  46  108.5937
  47  186.1869
  48  194.211
  49  194.1896
  50  56.08514
  51  -36.01512
  52  -18.33895
  53  170.168
  54  42.23854
  55  55.6697
  56  216.9184
  57  129.1637
  58  126.0504
  59  195.168
  60  72.92723
  61  32.92688
  62  16.83422
  63  34.72076
  64  43.32338
  65  19.99562
  66  137.4686
  67  222.118
  68  215.3812
  69  125.6961
  70  27.77097
  71  146.3242
  72  151.215
  73  169.0551
  74  137.1947
  75  146.2386
  76  214.7984
  77  185.2661
  78  83.84102
  79  143.9196
  80  136.6832
  81  -42.39588
  82  6.609343
  83  138.2056
  84  201.4466
  85  268.3725
  86  155.3738
  87  48.55154
  88  96.81703
  89  96.66444
  90  90.67905
  91  -4.069425
  92  94.5199
  93  140.0533
  94  207.8687
  95  257.4748
  96  161.5289
  97  93.45177
  98  56.97751
  99  109.2963
 100  85.63494
 101  226.9162
 102  99.70304
 103  151.8199
 104  -0.4347405
 105  -38.08412
 106  70.58942
 107  -9.32646
 108  -12.96946
 109  5.367072
 110  108.9353
 111  43.27962
 112  22.49414
 113  207.6506
 114  239.5306
 115  100.6931
 116  102.5151
 117  77.19431
 118  70.0228
 119  65.32156
 120  199.5418
 121  135.206
 122  66.27007
 123  95.85409
 124  86.47888
 125  137.2606
 126  41.97486
 127  11.58188
 128  -41.03693
 129  8.40303
 130  143.2592
 131  4.320183
 132  194.5663
 133  135.6212
 134  59.04117
 135  0.1410315
 136  41.49081
 137  25.66385
 138  54.7543
 139  177.9498
 140  187.1292
 141  -52.74673
 142  -40.88945
 143  54.04129
 144  52.23755
 145  139.6433
 146  224.562
 147  69.0999
 148  96.07465
 149  81.30283
 150  213.5562
 151  159.6227
 152  5.42494
 153  66.14062
 154  121.5811
 155  158.4648
 156  48.46033
 157  -33.2794
 158  108.6503
 159  139.4732
 160  71.05642
 161  -28.08545
 162  89.25772
 163  99.16693
 164  76.20127
 165  180.3355
 166  74.96463
 167  72.7683
 168  242.4846
 169  206.2
 170  27.31225
 171  70.26181
 172  53.88984
 173  19.01603
 174  106.2173
 175  60.80995
 176  90.09599
 177  129.8905
 178  92.65414
 179  161.5407
 180  152.9254
 181  232.6502
 182  167.5748
 183  97.12274
 184  160.7141
 185  100.3533
 186  201.9465
 187  194.6528
 188  178.1466
 189  131.1727
 190  120.2286
 191  59.12255
 192  52.50742
 193  162.3498
 194  87.34929
 195  90.17879
 196  94.98202
 197  91.48766
 198  93.69342
 199  86.01765
 200  113.7658
 201  193.0489
 202  201.0542
 203  62.25107
 204  -89.56013
 205  45.23893
 206  138.5437
 207  190.249
 208  168.5187
 209  237.1595
 210  161.2385
 211  55.74183
 212  36.06751
 213  -20.5786
 214  -50.39681
 215  15.27492
 216  147.8414
 217  93.48724
 218  142.0324
 219  102.1844
 220  94.56539
 221  146.483
 222  159.4957
 223  117.9966
 224  139.0049
 225  229.8297
 226  250.8613
 227  169.526
 228  23.65311
 229  186.9834
 230  201.7348
 231  254.4599
 232  292.7654
 233  337.8822
 234  98.77711
 235  258.7037
 236  228.8525
 237  -12.26516
 238  93.11898
 239  148.3678
 240  264.4543
 241  22.38024
 242  124.2079
 243  182.5248
 244  249.5637
 245  94.9332
 246  -30.25985
 247  22.85681
 248  10.65564
 249  88.53498
 250  59.19838
 251  184.9895
 252  110.2995
 253  0.7643105
 254  97.57884
 255  11.37961
 256  104.0011
 257  111.855
 258  2.786609
 259  62.53747
 260  151.6478
 261  138.2687
 262  65.28044
 263  174.2136
 264  181.2309
 265  90.37341
 266  97.93138
 267  267.213
 268  267.5306
 269  79.85792
 270  118.7044
 271  152.1403
 272  142.5513
 273  265.0823
 274  200.9195
 275  188.9333
 276  136.0187
 277  276.7804
 278  201.7183
 279  411.9722
 280  696.097
 281  875.0844
 282  890.8284
 283  635.9897
 284  428.9052
 285  382.4265
 286  288.0215
 287  120.0126
 288  155.8376
 289  64.54518
 290  -39.70468
 291  -28.33535
 292  237.6163
 293  220.9568
 294  135.3731
 295  319.2323
 296  266.5944
 297  157.9536
 298  215.6473
 299  209.2219
 300  175.0855
 301  31.9767
 302  38.41599
 303  136.882
 304  176.709
 305  139.6765
 306  183.9486
 307  142.4285
 308  45.50682
 309  -77.53089
 310  165.8775
 311  202.3398
 312  -6.778582
 313  111.1156
 314  49.41948
 315  126.1802
 316  118.2792
 317  48.10895
 318  20.22587
 319  166.551
 320  90.01208
 321  -30.70606
 322  58.22059
 323  133.2897
 324  2.787647
 325  104.3859
 326  235.362
 327  144.4387
 328  7.518461
 329  -23.14215
 330  -42.37083
 331  70.59026
 332  142.76
 333  133.2417
 334  66.00473
 335  43.135
 336  122.4439
 337  116.1644
 338  45.16472
 339  82.71012
 340  -29.91551
 341  18.06428
 342  83.77145
 343  152.7493
 344  199.8561
 345  109.2948
 346  94.4854
 347  -5.033978
 348  144.49
 349  148.9335
 350  99.09212
 351  179.288
 352  246.8251
 353  312.3938
 354  167.3761
 355  95.85516
 356  101.0508
 357  85.2887
 358  253.3021
 359  280.7393
 360  200.5685
 361  39.73739
 362  238.0613
 363  182.9209
 364  -2.549497
 365  88.88403
 366  277.9238
 367  256.7493
 368  138.8068
 369  97.03995
 370  -5.347563
 371  13.53157
 372  -41.59734
 373  35.90242
 374  192.9765
 375  153.4331
 376  -24.75126
 377  8.995535
 378  119.1358
 379  -25.58194
 380  47.02586
 381  256.2794
 382  215.2425
 383  144.8391
 384  72.79533
 385  52.49934
 386  86.3505
 387  105.6034
 388  121.7
 389  11.11811
 390  165.1848
 391  256.3919
 392  -9.915556
 393  79.17041
 394  58.21371
 395  70.97226
 396  61.79207
 397  113.5039
 398  94.39705
 399  60.58379
 400  208.3774
 401  251.5249
 402  22.22244
 403  -44.59849
 404  80.35435
 405  96.14091
 406  7.823209
 407  -19.9834
 408  203.7926
 409  332.9238
 410  45.27205
 411  25.01615
 412  65.31891
 413  -16.91747
 414  -85.20065
 415  62.53123
 416  216.9867
 417  -37.6523
 418  9.824678
 419  85.15403
 420  27.50756
 421  146.824
 422  167.5329
 423  180.0514
 424  152.6937
 425  159.426
 426  183.2455
 427  194.1976
 428  197.4595
 429  206.4182
 430  200.5257
 431  133.4215
 432  58.45068
 433  102.8457
 434  226.8232
 435  224.0026
 436  127.4179
 437  87.8484
 438  72.57567
 439  123.4194
 440  84.25857
 441  115.3641
 442  286.5599
 443  192.3059
 444  94.53271
 445  88.14727
 446  -26.33834
 447  1.805745
 448  65.21593
 449  156.9142
 450  188.0316
 451  119.5463
 452  135.5927
 453  119.3855
 454  55.72935
 455  137.8607
 456  141.5283
 457  194.9729
 458  263.3472
 459  111.8121
 460  205.2904
 461  87.97884
 462  -28.72747
 463  101.4047
 464  45.31953
 465  -98.86538
 466  135.5189
 467  184.0627
 468  130.2231
 469  -89.67193
 470  37.22982
 471  67.43803
 472  98.74886
 473  174.1837
 474  213.7101
 475  136.7547
 476  183.0006
 477  71.6788
 478  -73.91224
 479  -48.13655
 480  110.3792
 481  43.84373
 482  212.9331
 483  87.6087
 484  58.67702
 485  170.9984
 486  53.68169
 487  -48.44211
 488  -130.1228
 489  57.48585
 490  120.1293
 491  120.0451
 492  89.60348
 493  116.3191
 494  56.6799
 495  70.42831
 496  76.1356
 497  161.4426
 498  58.28275
 499  -29.39059
 500  79.07622
 501  103.1909
 502  135.7882
 503  6.297716
 504  -176.3064
 505  11.02933
 506  98.90967
 507  40.30154
 508  35.83895
 509  100.9634
 510  68.03268
 511  108.0273
