# Input file       =  1189972712.116665_cleaned.dat
# Candidate        =  PSR_0332+5434
# Telescope        =  AR
# Epoch_topo       =  58016.832536072507
# Epoch_bary       =  N/A
# T_sample         =  0.002
# Data Folded      =  7143424
# Data Avg         =  0.0206942292503692
# Data StdDev      =  1.00028399356806 
# Profile Bins     =  512
# Profile Avg      =  288.752116528362 
# Profile StdDev   =  118.152129400129 
# Reduced chi-sqr  =  1.604
# Prob(Noise)      <  1.05e-16   (~8.2 sigma)
# P_topo (ms)      =  714.46782988093   +/- 0.000215
# P'_topo (s/s)    =  -0                +/- 1.17e-10
# P''_topo (s/s^2) =  0                 +/- 5.3e-14
# P_bary (ms)      =  N/A
# P'_bary (s/s)    =  N/A
# P''_bary (s/s^2) =  N/A
# P_orb (s)        =  N/A
# asin(i)/c (s)    =  N/A
# eccentricity     =  N/A
# w (rad)          =  N/A
# T_peri           =  N/A
######################################################
   0  331.3108
   1  276.0894
   2  358.7594
   3  349.7532
   4  288.2787
   5  223.493
   6  268.6139
   7  266.64
   8  307.2174
   9  193.0898
  10  135.5878
  11  241.2113
  12  274.5998
  13  301.8365
  14  283.7643
  15  279.8112
  16  229.6392
  17  262.4588
  18  267.9287
  19  257.6276
  20  200.7703
  21  231.5349
  22  279.6857
  23  330.861
  24  302.567
  25  234.4704
  26  123.3401
  27  204.1011
  28  315.6719
  29  391.41
  30  285.9597
  31  225.3975
  32  296.2662
  33  352.8224
  34  428.9969
  35  425.2161
  36  353.9173
  37  356.8015
  38  320.2314
  39  438.532
  40  246.6058
  41  274.6007
  42  382.4279
  43  170.1575
  44  242.9003
  45  294.6648
  46  169.082
  47  255.8075
  48  245.4926
  49  306.3975
  50  343.4417
  51  250.6506
  52  229.6915
  53  215.4309
  54  196.9472
  55  307.9018
  56  222.5894
  57  272.6691
  58  382.865
  59  387.4034
  60  383.6375
  61  362.7895
  62  381.6771
  63  316.1046
  64  218.6478
  65  371.0868
  66  290.6074
  67  278.0288
  68  363.6279
  69  352.2197
  70  321.1435
  71  268.0913
  72  241.6047
  73  234.6269
  74  441.904
  75  308.5831
  76  145.1139
  77  213.1691
  78  160.8202
  79  250.5444
  80  188.5326
  81  164.8463
  82  234.1312
  83  369.4345
  84  384.9082
  85  159.7035
  86  195.2314
  87  283.1866
  88  277.7536
  89  365.5641
  90  464.9701
  91  427.8552
  92  412.0175
  93  395.0916
  94  389.6859
  95  221.6624
  96  234.1073
  97  343.944
  98  332.9803
  99  237.8003
 100  279.5702
 101  352.9139
 102  381.7666
 103  319.3169
 104  329.3754
 105  433.0663
 106  465.0619
 107  397.8664
 108  250.1414
 109  266.6439
 110  375.9638
 111  321.2683
 112  246.0953
 113  186.4316
 114  211.3217
 115  204.3398
 116  276.2331
 117  377.2593
 118  473.7974
 119  326.7737
 120  196.9484
 121  263.8226
 122  260.5517
 123  179.26
 124  200.6944
 125  258.0858
 126  205.6547
 127  223.7131
 128  207.031
 129  187.4094
 130  280.0666
 131  361.761
 132  351.7225
 133  224.224
 134  293.4984
 135  393.2956
 136  337.4605
 137  239.0637
 138  190.3813
 139  386.7218
 140  274.1647
 141  352.297
 142  266.0269
 143  227.2015
 144  228.0361
 145  157.8638
 146  385.101
 147  507.9057
 148  241.2858
 149  168.0978
 150  194.6798
 151  321.8098
 152  289.6416
 153  178.763
 154  79.57133
 155  142.7
 156  159.802
 157  346.1596
 158  363.9291
 159  342.1689
 160  206.2619
 161  255.285
 162  288.6967
 163  240.5648
 164  283.0525
 165  246.8616
 166  347.7555
 167  278.5808
 168  279.0011
 169  284.8361
 170  148.4512
 171  143.8672
 172  311.7126
 173  292.5537
 174  279.6195
 175  330.9796
 176  258.3855
 177  364.179
 178  279.7146
 179  279.0304
 180  314.4083
 181  173.9965
 182  173.4631
 183  106.0255
 184  282.1931
 185  308.777
 186  204.0633
 187  159.046
 188  326.947
 189  384.6741
 190  384.9255
 191  349.9255
 192  290.9471
 193  118.0162
 194  93.1966
 195  159.8423
 196  195.989
 197  214.6497
 198  241.8508
 199  220.6908
 200  319.2225
 201  298.9838
 202  219.6635
 203  243.6203
 204  285.469
 205  312.6587
 206  323.1442
 207  268.4083
 208  233.4128
 209  303.3394
 210  150.3067
 211  311.129
 212  361.5772
 213  254.0265
 214  211.2661
 215  181.4614
 216  110.8127
 217  174.652
 218  344.7674
 219  243.2165
 220  262.2914
 221  243.1104
 222  130.4414
 223  122.4184
 224  132.8519
 225  191.8947
 226  220.9888
 227  234.2888
 228  349.0576
 229  342.4672
 230  356.9822
 231  375.6
 232  347.0414
 233  177.6056
 234  142.0368
 235  319.4947
 236  254.3736
 237  217.422
 238  187.8127
 239  209.016
 240  375.25
 241  373.8592
 242  370.2408
 243  425.6906
 244  515.1763
 245  543.304
 246  701.7021
 247  829.1864
 248  960.9998
 249  1030.091
 250  988.9457
 251  941.4384
 252  644.1102
 253  364.739
 254  385.2218
 255  326.0289
 256  283.1386
 257  253.4955
 258  200.4304
 259  27.27514
 260  105.8544
 261  287.729
 262  418.2797
 263  315.1886
 264  284.5359
 265  272.95
 266  263.9431
 267  268.5807
 268  434.4916
 269  341.8122
 270  405.7401
 271  310.3804
 272  336.8128
 273  341.6301
 274  313.4536
 275  375.1065
 276  278.4747
 277  251.9646
 278  283.9634
 279  267.3294
 280  289.018
 281  381.9543
 282  350.131
 283  165.2422
 284  241.694
 285  326.0149
 286  392.4816
 287  362.8365
 288  364.7589
 289  388.6487
 290  212.2098
 291  170.1494
 292  253.0948
 293  327.9054
 294  271.773
 295  326.6046
 296  392.8736
 297  323.9308
 298  95.45385
 299  228.1732
 300  321.8468
 301  404.5716
 302  373.2536
 303  359.7731
 304  223.0602
 305  187.1796
 306  242.1369
 307  187.6828
 308  136.3018
 309  298.3095
 310  239.3783
 311  247.4966
 312  174.5361
 313  201.3305
 314  221.7739
 315  228.686
 316  306.1839
 317  328.0727
 318  186.1232
 319  217.3131
 320  379.3169
 321  358.5139
 322  182.4471
 323  284.4443
 324  301.7402
 325  322.7919
 326  201.6474
 327  187.9104
 328  364.9269
 329  234.8814
 330  146.8245
 331  202.6707
 332  187.0266
 333  167.4364
 334  233.535
 335  327.1141
 336  376.574
 337  195.3503
 338  60.89526
 339  186.1132
 340  140.22
 341  183.0667
 342  331.7814
 343  283.9282
 344  240.8224
 345  307.6333
 346  343.4653
 347  295.3329
 348  269.2253
 349  349.0329
 350  445.0699
 351  472.1784
 352  483.754
 353  403.9551
 354  247.736
 355  164.18
 356  182.6697
 357  143.6022
 358  350.4127
 359  266.2533
 360  131.9032
 361  237.6676
 362  323.1517
 363  437.4787
 364  367.9495
 365  349.5042
 366  265.9792
 367  127.2865
 368  154.2688
 369  417.2701
 370  318.4773
 371  326.9725
 372  301.8882
 373  375.3336
 374  298.7761
 375  246.7318
 376  392.1566
 377  426.6671
 378  345.6958
 379  266.3262
 380  355.9989
 381  272.7081
 382  305.4958
 383  323.6798
 384  355.1112
 385  427.1819
 386  210.8964
 387  237.2634
 388  259.4995
 389  233.0164
 390  245.3295
 391  292.3014
 392  347.2354
 393  297.2865
 394  292.2732
 395  227.7971
 396  288.1133
 397  318.3549
 398  309.8776
 399  238.0763
 400  150.3857
 401  224.6108
 402  290.399
 403  316.4899
 404  244.4994
 405  300.9096
 406  276.7076
 407  307.9241
 408  252.2538
 409  307.7544
 410  443.3114
 411  386.7926
 412  349.439
 413  315.3763
 414  205.462
 415  200.1118
 416  279.8037
 417  263.8408
 418  210.5372
 419  298.4802
 420  257.5497
 421  281.4278
 422  296.8611
 423  311.4294
 424  281.03
 425  164.3815
 426  244.9061
 427  215.3899
 428  278.3524
 429  283.304
 430  226.3057
 431  288.1965
 432  414.0858
 433  335.9898
 434  248.503
 435  315.6134
 436  413.695
 437  377.1717
 438  354.0558
 439  356.7877
 440  345.7525
 441  323.0698
 442  278.5576
 443  271.2473
 444  328.6471
 445  211.9634
 446  154.2545
 447  149.0426
 448  242.7588
 449  320.6711
 450  291.4099
 451  271.5465
 452  247.2119
 453  197.4991
 454  399.8978
 455  431.5049
 456  366.476
 457  236.0494
 458  220.8563
 459  385.9013
 460  427.9007
 461  356.091
 462  261.7567
 463  231.4839
 464  165.1372
 465  223.6398
 466  303.3781
 467  195.4743
 468  128.3362
 469  221.2622
 470  313.2323
 471  339.5099
 472  314.5553
 473  225.4471
 474  115.1559
 475  178.9934
 476  164.4487
 477  265.9862
 478  214.9308
 479  260.9923
 480  260.798
 481  200.8553
 482  483.1762
 483  341.4555
 484  344.3554
 485  349.1936
 486  354.0232
 487  258.3287
 488  383.7932
 489  422.9522
 490  383.828
 491  265.6251
 492  214.5166
 493  227.4011
 494  239.5698
 495  356.8642
 496  178.1041
 497  117.957
 498  402.9581
 499  356.6804
 500  325.7743
 501  381.097
 502  320.7896
 503  288.5608
 504  264.0407
 505  170.8499
 506  133.8448
 507  265.1521
 508  365.796
 509  167.7691
 510  295.4417
 511  266.8553
