# Input file       =  1189125652.118063-PSRB0329-2ms-sampling-dd.dat
# Candidate        =  PSR_0332+5434
# Telescope        =  AR
# Epoch_topo       =  58007.028600903504
# Epoch_bary       =  N/A
# T_sample         =  0.002
# Data Folded      =  7340032
# Data Avg         =  8.31050671217894e-11
# Data StdDev      =  2.90559498477434 
# Profile Bins     =  512
# Profile Avg      =  0.79399991994511 
# Profile StdDev   =  347.895710008135 
# Reduced chi-sqr  =  1.205
# Prob(Noise)      <  0.000992   (~3.1 sigma)
# P_topo (ms)      =  714.46487529879   +/- 0.000176
# P'_topo (s/s)    =  -0                +/- 9.3e-11
# P''_topo (s/s^2) =  0                 +/- 4.11e-14
# P_bary (ms)      =  N/A
# P'_bary (s/s)    =  N/A
# P''_bary (s/s^2) =  N/A
# P_orb (s)        =  N/A
# asin(i)/c (s)    =  N/A
# eccentricity     =  N/A
# w (rad)          =  N/A
# T_peri           =  N/A
######################################################
   0  -89.40699
   1  -216.6026
   2  -136.5691
   3  -281.4212
   4  -261.2197
   5  -199.0123
   6  -118.2536
   7  -219.7981
   8  -156.5438
   9  -217.0488
  10  -369.0294
  11  -373.8376
  12  -81.62726
  13  -142.1706
  14  -218.8638
  15  -480.3681
  16  -49.81214
  17  187.2244
  18  101.3956
  19  104.656
  20  -83.01557
  21  119.4008
  22  73.28602
  23  -129.7222
  24  -141.6541
  25  -175.196
  26  -75.04829
  27  32.25499
  28  -355.6331
  29  -335.7255
  30  -255.9456
  31  -268.6053
  32  -417.9565
  33  -261.3802
  34  55.75239
  35  -343.2764
  36  -334.6352
  37  -142.351
  38  -121.421
  39  99.40826
  40  -72.42651
  41  -397.7886
  42  -180.4683
  43  -89.20149
  44  -113.5881
  45  -178.4502
  46  -54.12005
  47  -324.3965
  48  -379.2747
  49  -51.34991
  50  -161.1814
  51  -298.8683
  52  -264.6461
  53  196.2285
  54  -32.8988
  55  -293.9238
  56  83.48779
  57  321.8861
  58  197.1183
  59  -15.24286
  60  50.35387
  61  -32.03449
  62  -165.8331
  63  -363.6234
  64  -367.9828
  65  -211.837
  66  111.7808
  67  -307.4807
  68  -175.9871
  69  -192.6701
  70  -148.8577
  71  -297.547
  72  -9.179625
  73  22.58246
  74  -187.7089
  75  -347.0824
  76  -475.4304
  77  -271.1236
  78  49.02703
  79  65.32121
  80  -255.3603
  81  -223.8761
  82  -146.5814
  83  -305.2327
  84  -513.59
  85  -290.7181
  86  -149.321
  87  -122.941
  88  -43.06261
  89  26.55049
  90  -35.232
  91  -67.41249
  92  61.99636
  93  153.2354
  94  -177.2173
  95  -214.1669
  96  38.9257
  97  122.4333
  98  92.25137
  99  -112.3743
 100  -266.0289
 101  -146.5944
 102  58.25207
 103  -115.4245
 104  -371.517
 105  -182.0439
 106  -156.8247
 107  46.59127
 108  30.12737
 109  -25.01751
 110  -355.4521
 111  -751.7786
 112  -508.6146
 113  62.37399
 114  276.7439
 115  -131.582
 116  -101.5494
 117  -184.214
 118  -156.2638
 119  303.0537
 120  151.3925
 121  50.27191
 122  -431.8538
 123  -142.0787
 124  -49.56266
 125  130.8586
 126  -52.30378
 127  -169.5934
 128  130.0741
 129  305.095
 130  187.2115
 131  150.5882
 132  -21.35009
 133  173.6712
 134  95.50642
 135  130.535
 136  -48.01272
 137  167.5467
 138  -123.9305
 139  -60.46144
 140  122.2739
 141  421.4086
 142  523.7555
 143  530.4581
 144  594.4244
 145  317.4452
 146  98.78228
 147  -85.1674
 148  -210.1041
 149  112.7021
 150  210.9189
 151  51.11364
 152  232.7809
 153  237.4184
 154  411.8534
 155  49.40289
 156  388.446
 157  429.2825
 158  334.5919
 159  -61.36382
 160  -148.3294
 161  123.8435
 162  405.8223
 163  411.9869
 164  -66.47873
 165  40.80889
 166  129.0003
 167  233.2012
 168  316.4789
 169  318.3168
 170  86.36494
 171  9.940077
 172  434.2826
 173  398.3188
 174  36.48206
 175  202.5159
 176  216.6801
 177  164.9088
 178  197.4884
 179  89.36627
 180  71.98072
 181  27.84312
 182  489.4681
 183  834.3812
 184  1383.015
 185  1424.336
 186  1870.2
 187  1451.237
 188  1103.546
 189  942.6815
 190  399.9766
 191  127.9987
 192  158.97
 193  217.3824
 194  52.27729
 195  50.33793
 196  358.3637
 197  192.5259
 198  0.2923896
 199  139.5128
 200  519.506
 201  -50.94136
 202  31.1964
 203  110.7255
 204  17.30525
 205  11.73997
 206  188.4892
 207  137.4054
 208  34.44775
 209  119.7358
 210  150.9129
 211  31.74307
 212  -242.0176
 213  151.1758
 214  99.13256
 215  137.056
 216  -139.6084
 217  164.3484
 218  211.1659
 219  -83.29739
 220  148.6733
 221  392.931
 222  134.9715
 223  189.869
 224  233.4302
 225  227.4986
 226  -2.527151
 227  191.6339
 228  281.522
 229  521.2494
 230  236.742
 231  326.535
 232  119.0473
 233  97.92068
 234  -102.9676
 235  47.64504
 236  202.0195
 237  115.0749
 238  400.1366
 239  385.458
 240  401.7282
 241  247.0035
 242  139.3518
 243  -165.1878
 244  -333.2493
 245  16.34928
 246  377.8491
 247  665.537
 248  345.4618
 249  48.66545
 250  165.4053
 251  192.1261
 252  -19.60419
 253  -94.33865
 254  312.336
 255  -92.47755
 256  -99.41347
 257  60.04744
 258  405.8477
 259  537.9473
 260  286.2754
 261  600.6154
 262  353.9786
 263  188.5883
 264  110.0517
 265  175.8934
 266  -41.82499
 267  94.20596
 268  74.787
 269  -231.5376
 270  173.0662
 271  122.0918
 272  90.02036
 273  313.8296
 274  392.0749
 275  408.9671
 276  -129.6612
 277  -380.3555
 278  -5.990398
 279  261.9762
 280  448.7729
 281  32.6328
 282  -286.1075
 283  -270.5418
 284  -186.8262
 285  -111.4862
 286  142.4621
 287  178.1301
 288  300.2677
 289  383.5263
 290  142.1956
 291  160.1113
 292  83.44361
 293  -82.14107
 294  137.8495
 295  358.3895
 296  -96.3332
 297  -72.17775
 298  -128.0829
 299  -308.0688
 300  -85.36617
 301  -49.85957
 302  314.0648
 303  585.1279
 304  105.9994
 305  12.46363
 306  88.80127
 307  349.0298
 308  164.0167
 309  46.44642
 310  8.143197
 311  -45.88898
 312  -69.42998
 313  85.09428
 314  70.12554
 315  125.7626
 316  262.8589
 317  249.4075
 318  42.01899
 319  3.959804
 320  -249.5016
 321  -186.089
 322  192.586
 323  -52.61454
 324  -73.89093
 325  -100.745
 326  -108.4447
 327  -45.21889
 328  -204.1371
 329  -132.8728
 330  -262.1163
 331  -32.92356
 332  -29.10155
 333  14.72254
 334  -183.0002
 335  -168.6143
 336  -211.0698
 337  -66.24102
 338  -1.98172
 339  -234.9136
 340  -282.9637
 341  74.88129
 342  150.8663
 343  215.9042
 344  156.1746
 345  99.21238
 346  -93.35665
 347  -256.9195
 348  -34.4859
 349  285.1758
 350  -69.57753
 351  12.06717
 352  -39.86692
 353  5.871953
 354  -208.0876
 355  -283.1727
 356  -168.5591
 357  -217.25
 358  -313.0532
 359  -391.5179
 360  -202.3807
 361  111.1074
 362  69.80269
 363  131.6345
 364  -52.30777
 365  108.1643
 366  33.80434
 367  95.77356
 368  25.6353
 369  -46.30397
 370  -510.0526
 371  -353.2543
 372  -320.9797
 373  84.79018
 374  43.00266
 375  -81.51505
 376  121.6211
 377  185.8098
 378  -317.1142
 379  -257.5682
 380  156.6747
 381  -82.16125
 382  -257.2265
 383  -98.21558
 384  141.1138
 385  -96.29215
 386  -232.2368
 387  -177.3957
 388  -522.7525
 389  -619.2155
 390  -279.4014
 391  -98.69799
 392  7.263048
 393  366.5771
 394  222.7534
 395  -168.4399
 396  -277.1434
 397  -304.7615
 398  -140.6532
 399  -365.1328
 400  -524.8135
 401  -389.9832
 402  38.1931
 403  -80.56595
 404  -85.19002
 405  -218.7658
 406  -252.4385
 407  -698.8262
 408  -412.1572
 409  435.5663
 410  -97.70745
 411  -173.0223
 412  -262.4725
 413  -272.9988
 414  -180.5907
 415  -119.814
 416  15.78796
 417  -144.2427
 418  -340.7408
 419  -176.3448
 420  -183.7031
 421  163.3042
 422  -129.1098
 423  -354.8325
 424  51.9042
 425  -376.525
 426  -512.8234
 427  -258.4694
 428  -8.041131
 429  -73.57779
 430  -208.8162
 431  -94.9555
 432  -16.12019
 433  -14.61249
 434  -224.8242
 435  -400.8455
 436  -550.6812
 437  -333.3126
 438  24.7403
 439  -208.5096
 440  -68.12885
 441  -41.56004
 442  47.02723
 443  -23.79469
 444  -255.3544
 445  -51.19373
 446  329.1919
 447  156.5124
 448  191.0916
 449  -74.49666
 450  -64.9875
 451  20.87625
 452  4.961243
 453  -306.7917
 454  -221.0068
 455  -181.4801
 456  -79.01965
 457  104.7807
 458  -156.1348
 459  -173.0383
 460  28.93013
 461  254.8996
 462  419.882
 463  450.5656
 464  124.7124
 465  -0.2487337
 466  -262.1266
 467  -99.3011
 468  -200.1514
 469  236.27
 470  53.06556
 471  -167.9318
 472  -73.0406
 473  -242.1619
 474  -180.9976
 475  -186.4471
 476  -0.02944217
 477  -58.33067
 478  -110.2666
 479  -286.002
 480  -435.5652
 481  -47.90427
 482  191.1319
 483  313.2773
 484  123.2553
 485  -126.6551
 486  -429.547
 487  -161.1606
 488  -101.7527
 489  51.68296
 490  89.48664
 491  -322.529
 492  -413.5091
 493  -21.74398
 494  205.7489
 495  232.6471
 496  190.7827
 497  -32.56853
 498  -92.09011
 499  -85.57183
 500  160.9928
 501  -130.2795
 502  -305.873
 503  -166.1554
 504  -154.9268
 505  -70.96381
 506  34.4751
 507  -233.0788
 508  -216.2381
 509  44.09516
 510  -38.5635
 511  94.30389
