# Input file       =  1189140557.120794_cleaned.dat
# Candidate        =  PSR_0332+5434
# Telescope        =  AR
# Epoch_topo       =  58007.201112509189
# Epoch_bary       =  N/A
# T_sample         =  0.002
# Data Folded      =  7340032
# Data Avg         =  0.00839931845431312
# Data StdDev      =  1.00002819310591 
# Profile Bins     =  512
# Profile Avg      =  120.335612232658 
# Profile StdDev   =  119.736412022942 
# Reduced chi-sqr  =  1.230
# Prob(Noise)      <  0.00028   (~3.5 sigma)
# P_topo (ms)      =  714.465246945942  +/- 0.000337
# P'_topo (s/s)    =  -0                +/- 1.78e-10
# P''_topo (s/s^2) =  0                 +/- 7.85e-14
# P_bary (ms)      =  N/A
# P'_bary (s/s)    =  N/A
# P''_bary (s/s^2) =  N/A
# P_orb (s)        =  N/A
# asin(i)/c (s)    =  N/A
# eccentricity     =  N/A
# w (rad)          =  N/A
# T_peri           =  N/A
######################################################
   0  612.1304
   1  610.4816
   2  448.613
   3  392.2043
   4  258.6464
   5  155.2523
   6  176.9059
   7  261.6894
   8  291.3839
   9  11.43021
  10  177.713
  11  228.9747
  12  265.48
  13  206.0515
  14  178.2583
  15  97.76868
  16  199.7346
  17  103.5784
  18  35.51997
  19  228.0427
  20  315.4219
  21  181.6826
  22  17.67819
  23  67.99216
  24  59.99385
  25  193.2204
  26  219.1519
  27  180.6295
  28  39.03328
  29  31.88584
  30  227.4834
  31  320.9431
  32  145.4222
  33  201.6434
  34  54.0576
  35  140.0984
  36  158.1935
  37  86.36043
  38  121.5526
  39  165.8324
  40  220.7414
  41  217.7148
  42  131.8141
  43  92.30862
  44  209.0395
  45  127.5473
  46  54.12593
  47  297.492
  48  233.9119
  49  229.5756
  50  247.0063
  51  41.85269
  52  -46.36258
  53  -45.54068
  54  50.07459
  55  112.7953
  56  -12.59482
  57  42.4818
  58  124.7214
  59  44.03542
  60  -27.68403
  61  88.82155
  62  138.884
  63  150.6623
  64  -33.43
  65  -19.39285
  66  -22.92422
  67  132.9392
  68  131.2878
  69  78.38894
  70  5.034621
  71  24.00428
  72  23.56816
  73  -89.86289
  74  -112.8371
  75  -66.22624
  76  90.32079
  77  75.39368
  78  95.48781
  79  150.327
  80  120.637
  81  89.0153
  82  -5.296074
  83  56.3302
  84  -43.34592
  85  88.64046
  86  217.957
  87  154.1425
  88  235.6398
  89  224.7742
  90  78.61439
  91  127.2154
  92  74.34239
  93  190.4035
  94  114.4975
  95  -14.90325
  96  74.8204
  97  77.68813
  98  -36.71017
  99  69.59644
 100  127.5705
 101  2.287651
 102  -36.58075
 103  -7.134955
 104  84.36805
 105  220.0666
 106  146.301
 107  154.4357
 108  47.68376
 109  98.13123
 110  10.54104
 111  100.7178
 112  89.25293
 113  126.2021
 114  139.5477
 115  76.00974
 116  124.237
 117  178.4218
 118  184.3353
 119  234.9252
 120  234.2703
 121  212.6085
 122  119.843
 123  111.7298
 124  125.4443
 125  88.58002
 126  119.4533
 127  165.0612
 128  220.139
 129  161.1332
 130  138.4052
 131  106.2547
 132  72.3976
 133  115.9722
 134  -82.56488
 135  -49.80952
 136  92.41853
 137  130.1328
 138  2.176153
 139  13.19883
 140  147.1642
 141  55.1081
 142  -39.65456
 143  10.18967
 144  69.96068
 145  59.70628
 146  26.6133
 147  110.3326
 148  252.9366
 149  139.7892
 150  9.325455
 151  197.5585
 152  260.6819
 153  175.6649
 154  188.6634
 155  149.2092
 156  244.077
 157  61.75771
 158  163.5158
 159  163.8189
 160  11.38099
 161  95.34483
 162  215.7687
 163  109.3522
 164  139.9564
 165  147.3595
 166  193.2433
 167  -2.310429
 168  25.03564
 169  132.7041
 170  221.4965
 171  221.7666
 172  73.61038
 173  90.23784
 174  -40.40962
 175  87.28663
 176  210.2436
 177  195.6007
 178  112.7411
 179  13.00211
 180  74.11937
 181  99.92037
 182  -10.24125
 183  34.85291
 184  170.1724
 185  156.3233
 186  145.0112
 187  198.1348
 188  178.9516
 189  98.2457
 190  161.2224
 191  94.31106
 192  112.0777
 193  278.5618
 194  228.8793
 195  178.9119
 196  6.512638
 197  -11.0679
 198  156.7482
 199  138.9141
 200  -0.3020957
 201  76.67204
 202  134.6354
 203  116.0413
 204  88.67097
 205  121.7742
 206  202.0118
 207  198.3078
 208  16.22925
 209  105.8093
 210  -38.94957
 211  -25.39931
 212  118.1722
 213  87.59427
 214  168.8443
 215  42.66204
 216  81.69251
 217  109.3613
 218  53.19345
 219  55.53703
 220  2.825763
 221  46.21951
 222  74.7267
 223  178.1553
 224  142.0229
 225  188.1657
 226  51.22629
 227  126.7957
 228  132.1801
 229  24.68975
 230  -34.03735
 231  68.99178
 232  180.1559
 233  192.5759
 234  222.7711
 235  -24.88742
 236  123.8171
 237  175.5018
 238  206.5356
 239  50.67743
 240  -27.89435
 241  134.6076
 242  147.8997
 243  48.3065
 244  100.1401
 245  195.9016
 246  121.9697
 247  82.56885
 248  106.6343
 249  45.52763
 250  43.34375
 251  234.6505
 252  110.2701
 253  76.09466
 254  168.1699
 255  146.7814
 256  104.6729
 257  84.21874
 258  202.4592
 259  165.6641
 260  118.5942
 261  261.453
 262  75.16481
 263  11.59671
 264  186.6642
 265  201.1392
 266  211.2332
 267  224.7214
 268  163.5959
 269  196.0307
 270  237.0514
 271  237.2782
 272  206.9702
 273  136.3633
 274  124.3014
 275  191.178
 276  255.6482
 277  88.18382
 278  -59.46168
 279  39.80836
 280  86.19283
 281  254.992
 282  231.0559
 283  4.127342
 284  -46.42801
 285  17.35213
 286  57.37753
 287  143.9199
 288  102.2793
 289  72.97062
 290  -43.29268
 291  49.69004
 292  -19.39953
 293  35.54322
 294  38.93687
 295  112.4023
 296  80.97089
 297  269.7202
 298  176.965
 299  -5.137156
 300  80.11963
 301  111.6469
 302  244.5062
 303  168.2603
 304  144.0247
 305  250.3127
 306  78.60209
 307  74.16146
 308  101.8789
 309  161.4092
 310  217.9716
 311  141.2556
 312  84.06081
 313  103.2281
 314  142.6344
 315  248.2249
 316  118.2223
 317  59.93144
 318  275.9301
 319  262.9641
 320  184.2322
 321  95.15936
 322  -5.059072
 323  117.0075
 324  205.5467
 325  124.4984
 326  76.66638
 327  79.56892
 328  180.0403
 329  85.22775
 330  152.125
 331  178.895
 332  90.90031
 333  206.0926
 334  297.9534
 335  257.178
 336  142.1827
 337  56.21643
 338  141.9367
 339  164.7734
 340  167.3627
 341  137.2276
 342  85.71733
 343  31.28927
 344  -39.34296
 345  -35.30807
 346  -122.6889
 347  -42.58156
 348  -16.00903
 349  111.8353
 350  96.79047
 351  83.3332
 352  98.89161
 353  -11.98809
 354  15.23252
 355  -21.38111
 356  -19.51249
 357  122.2614
 358  200.3229
 359  95.83733
 360  55.45765
 361  15.57088
 362  237.512
 363  195.2418
 364  143.8642
 365  86.98082
 366  91.42019
 367  183.4353
 368  137.1935
 369  18.10534
 370  122.9169
 371  127.3538
 372  95.64868
 373  82.18339
 374  115.0909
 375  13.44071
 376  145.483
 377  171.4913
 378  45.88152
 379  194.3849
 380  239.6564
 381  186.7556
 382  221.8339
 383  102.2989
 384  98.06394
 385  122.6027
 386  117.6645
 387  168.7672
 388  182.8072
 389  94.7065
 390  74.50084
 391  37.99175
 392  -32.82307
 393  47.30886
 394  241.6281
 395  184.9748
 396  56.95162
 397  134.8435
 398  125.921
 399  109.8549
 400  101.6611
 401  296.9064
 402  228.3038
 403  142.9751
 404  59.34803
 405  -149.1451
 406  45.74823
 407  109.9531
 408  171.2867
 409  125.1938
 410  153.6123
 411  173.4348
 412  133.5569
 413  190.9124
 414  251.3108
 415  231.5337
 416  170.1039
 417  145.0984
 418  55.36634
 419  10.02328
 420  119.2493
 421  76.20657
 422  197.6598
 423  170.2143
 424  210.934
 425  -57.99977
 426  70.09428
 427  149.2956
 428  115.8949
 429  138.8744
 430  154.4324
 431  130.0187
 432  -13.35781
 433  158.8831
 434  128.5499
 435  22.44779
 436  179.9202
 437  135.6001
 438  156.3886
 439  66.77935
 440  159.74
 441  74.81116
 442  -35.67867
 443  -84.17498
 444  22.34612
 445  131.4382
 446  132.9468
 447  242.3693
 448  208.6355
 449  -11.20003
 450  101.3217
 451  184.6665
 452  175.0664
 453  56.10582
 454  -52.84366
 455  79.32449
 456  219.0857
 457  84.35596
 458  163.0213
 459  258.2589
 460  246.1757
 461  155.8724
 462  79.52634
 463  84.56243
 464  42.94674
 465  244.4423
 466  142.8386
 467  175.4635
 468  107.5321
 469  96.91783
 470  67.33498
 471  265.5047
 472  219.1076
 473  -3.876173
 474  77.35528
 475  52.69738
 476  173.0162
 477  63.18039
 478  -49.08734
 479  -7.119519
 480  52.45346
 481  158.3362
 482  266.6103
 483  134.6322
 484  -11.49812
 485  -3.605999
 486  114.2183
 487  139.0613
 488  57.51815
 489  -34.49511
 490  58.32202
 491  175.7162
 492  154.2019
 493  34.53215
 494  93.73019
 495  130.7811
 496  207.969
 497  52.4936
 498  98.80815
 499  154.5029
 500  145.0782
 501  268.9072
 502  308.2032
 503  256.4473
 504  227.6544
 505  212.7129
 506  239.8237
 507  264.854
 508  256.4266
 509  204.3677
 510  494.2687
 511  567.1393
