# Input file       =  1189556553.120852_cleaned.dat
# Candidate        =  PSR_0332+5434
# Telescope        =  AR
# Epoch_topo       =  58012.015881028383
# Epoch_bary       =  N/A
# T_sample         =  0.002
# Data Folded      =  7340032
# Data Avg         =  0.00525843064661254
# Data StdDev      =  1.00002125481318 
# Profile Bins     =  512
# Profile Avg      =  75.3642272337557 
# Profile StdDev   =  119.735581280086 
# Reduced chi-sqr  =  1.506
# Prob(Noise)      <  9.55e-13   (~7.0 sigma)
# P_topo (ms)      =  714.466177785517  +/- 0.000152
# P'_topo (s/s)    =  -0                +/- 8e-11
# P''_topo (s/s^2) =  0                 +/- 3.53e-14
# P_bary (ms)      =  N/A
# P'_bary (s/s)    =  N/A
# P''_bary (s/s^2) =  N/A
# P_orb (s)        =  N/A
# asin(i)/c (s)    =  N/A
# eccentricity     =  N/A
# w (rad)          =  N/A
# T_peri           =  N/A
######################################################
   0  791.6166
   1  675.689
   2  504.321
   3  255.4571
   4  135.2467
   5  168.7283
   6  84.80164
   7  80.9137
   8  192.4197
   9  206.2438
  10  94.68395
  11  165.7811
  12  285.8527
  13  81.80597
  14  34.13549
  15  84.20325
  16  41.40507
  17  17.58504
  18  55.56502
  19  134.4701
  20  146.1888
  21  -6.362895
  22  104.5197
  23  81.06385
  24  30.14744
  25  91.21047
  26  91.15404
  27  77.26318
  28  113.5345
  29  106.327
  30  107.1266
  31  -53.26936
  32  180.9421
  33  61.53616
  34  32.10464
  35  40.1972
  36  48.4789
  37  29.15921
  38  81.1356
  39  129.6475
  40  165.2162
  41  45.21663
  42  58.52785
  43  223.9626
  44  260.0687
  45  124.6728
  46  36.44558
  47  205.6292
  48  87.56283
  49  5.526015
  50  73.79068
  51  60.95875
  52  62.8391
  53  -20.62983
  54  -44.88993
  55  130.0273
  56  30.75432
  57  -103.14
  58  -83.88193
  59  14.36425
  60  15.76318
  61  53.24389
  62  171.7921
  63  87.34753
  64  59.87751
  65  71.20023
  66  48.20093
  67  23.81124
  68  179.2717
  69  102.7334
  70  114.7704
  71  143.5275
  72  68.36855
  73  61.54352
  74  186.4668
  75  177.6389
  76  92.90205
  77  152.0246
  78  244.9458
  79  241.9538
  80  168.0713
  81  59.91775
  82  17.21041
  83  127.4711
  84  113.4721
  85  91.93195
  86  62.599
  87  -82.14973
  88  -127.6606
  89  -42.44787
  90  -80.96515
  91  156.1573
  92  51.35887
  93  -103.3397
  94  83.66496
  95  93.12236
  96  48.59226
  97  64.30704
  98  -2.089851
  99  -65.8689
 100  -33.49797
 101  123.0848
 102  71.94049
 103  193.2519
 104  79.36384
 105  11.60668
 106  15.27131
 107  49.51861
 108  -42.53724
 109  78.64125
 110  57.35493
 111  65.87831
 112  151.3026
 113  173.9962
 114  2.662883
 115  -68.78764
 116  54.54308
 117  -62.71602
 118  -45.13339
 119  21.37457
 120  78.03046
 121  134.4604
 122  103.4355
 123  53.5242
 124  199.0643
 125  186.276
 126  123.1321
 127  -7.63146
 128  85.99626
 129  245.9558
 130  102.2239
 131  -123.6624
 132  -188.3948
 133  -17.99978
 134  -53.17472
 135  33.11562
 136  0.4685501
 137  -71.79032
 138  94.43719
 139  141.1467
 140  86.52739
 141  55.83681
 142  -42.84159
 143  -6.053816
 144  70.78313
 145  57.7694
 146  89.62222
 147  30.25933
 148  137.5273
 149  143.1195
 150  87.3923
 151  32.78211
 152  -48.91282
 153  28.38595
 154  18.33385
 155  105.6818
 156  129.2211
 157  -70.06312
 158  -94.51958
 159  80.02761
 160  34.8516
 161  136.7086
 162  90.52416
 163  113.2344
 164  23.34089
 165  9.771106
 166  16.3772
 167  24.57033
 168  146.3723
 169  42.82713
 170  139.1862
 171  23.37622
 172  108.8048
 173  136.6434
 174  -24.841
 175  43.43172
 176  103.629
 177  169.248
 178  -50.41249
 179  -86.21088
 180  104.3726
 181  162.2008
 182  185.4004
 183  178.4455
 184  203.6104
 185  -54.87012
 186  42.53752
 187  144.9977
 188  159.9735
 189  64.08821
 190  74.36012
 191  165.7722
 192  190.9045
 193  21.44049
 194  -62.39025
 195  124.4813
 196  165.825
 197  188.9043
 198  160.2107
 199  -30.33558
 200  81.29567
 201  116.3668
 202  45.38683
 203  122.3954
 204  108.0638
 205  -23.22781
 206  41.20885
 207  121.3149
 208  39.99476
 209  33.33236
 210  101.263
 211  45.52349
 212  225.9345
 213  56.11668
 214  36.64374
 215  0.9634029
 216  35.23938
 217  85.12138
 218  178.6202
 219  68.11079
 220  42.3605
 221  26.37354
 222  81.27566
 223  232.5118
 224  58.75994
 225  58.99401
 226  54.52605
 227  85.86942
 228  -2.426363
 229  16.2512
 230  99.95163
 231  56.31595
 232  122.3373
 233  9.888599
 234  -43.45461
 235  -12.55867
 236  91.40152
 237  170.2439
 238  126.0343
 239  107.9283
 240  149.1085
 241  207.2003
 242  161.8687
 243  188.7677
 244  -39.04155
 245  8.822961
 246  202.147
 247  173.1839
 248  151.4172
 249  140.3168
 250  119.4353
 251  75.68659
 252  125.582
 253  104.0301
 254  29.79284
 255  121.8197
 256  58.58875
 257  20.22568
 258  -19.63219
 259  83.12811
 260  75.44092
 261  56.89434
 262  -3.348812
 263  87.13622
 264  -7.909269
 265  -20.83434
 266  151.8482
 267  168.6033
 268  -14.17882
 269  66.79971
 270  19.50015
 271  78.77006
 272  199.2636
 273  273.7217
 274  195.8127
 275  39.43796
 276  -9.11326
 277  31.38715
 278  85.38858
 279  50.05402
 280  -51.49191
 281  25.34078
 282  13.87844
 283  29.21988
 284  108.6086
 285  221.7819
 286  117.1587
 287  22.48207
 288  -106.6826
 289  27.20753
 290  44.72667
 291  171.5775
 292  127.7728
 293  74.61419
 294  76.97501
 295  -140.2577
 296  -74.04387
 297  -40.94984
 298  70.29388
 299  -23.73989
 300  -33.46547
 301  93.87689
 302  92.33647
 303  75.24704
 304  73.56464
 305  140.0616
 306  10.31033
 307  139.4957
 308  39.55791
 309  -70.16212
 310  -120.7305
 311  38.3608
 312  111.8044
 313  -111.9717
 314  -2.300005
 315  -26.85302
 316  -55.08068
 317  27.23477
 318  154.4879
 319  144.3983
 320  107.347
 321  108.1612
 322  35.01605
 323  69.15584
 324  132.7039
 325  51.21624
 326  180.5504
 327  134.8981
 328  106.6589
 329  4.238307
 330  16.75805
 331  -57.02682
 332  -57.18385
 333  17.70904
 334  110.2674
 335  131.7098
 336  93.31729
 337  96.34323
 338  281.4954
 339  152.9785
 340  -60.71888
 341  -11.25181
 342  124.3146
 343  113.9217
 344  186.0743
 345  145.1311
 346  -53.56746
 347  -110.5581
 348  218.2127
 349  106.6109
 350  -6.432639
 351  7.718303
 352  -8.002009
 353  36.31762
 354  -34.62432
 355  -140.6168
 356  -186.0213
 357  -173.1124
 358  31.66385
 359  141.1289
 360  66.41218
 361  54.90223
 362  11.39567
 363  -9.857748
 364  23.67786
 365  -59.40685
 366  -46.54209
 367  -8.939534
 368  64.93607
 369  135.7034
 370  132.5782
 371  78.70694
 372  39.11837
 373  81.34669
 374  136.7783
 375  106.8006
 376  109.1394
 377  99.83564
 378  47.11087
 379  89.83104
 380  109.6024
 381  3.287545
 382  43.23024
 383  254.1863
 384  326.4014
 385  227.814
 386  74.44897
 387  28.06525
 388  25.2215
 389  98.06146
 390  1.4442
 391  124.9076
 392  141.022
 393  234.5878
 394  98.43951
 395  0.7468802
 396  -101.2602
 397  -8.075885
 398  95.12653
 399  35.51004
 400  -93.95435
 401  21.66978
 402  146.0201
 403  -2.502698
 404  -4.311915
 405  41.22514
 406  69.56654
 407  161.9943
 408  59.88966
 409  106.9734
 410  83.39304
 411  32.53312
 412  -13.54868
 413  181.0411
 414  7.433003
 415  201.5123
 416  189.6443
 417  46.83261
 418  95.56879
 419  63.39354
 420  8.031425
 421  -125.9032
 422  -43.6523
 423  19.29864
 424  96.80948
 425  96.46186
 426  68.7841
 427  80.25581
 428  88.59259
 429  118.7045
 430  -6.102868
 431  -16.94558
 432  -10.1921
 433  -25.27683
 434  -46.48635
 435  26.9592
 436  106.9203
 437  92.91247
 438  -96.87486
 439  26.88643
 440  64.16619
 441  81.2279
 442  91.35291
 443  57.68391
 444  44.50381
 445  176.9877
 446  67.94267
 447  6.239242
 448  131.2933
 449  164.6223
 450  44.43782
 451  5.670642
 452  89.95207
 453  118.8864
 454  96.98192
 455  47.60333
 456  42.5346
 457  133.6681
 458  107.9369
 459  174.1767
 460  19.89926
 461  64.61577
 462  -30.36018
 463  -107.642
 464  -15.74427
 465  61.03531
 466  82.75311
 467  18.8675
 468  97.64302
 469  133.2295
 470  247.1428
 471  37.71201
 472  54.40564
 473  8.935041
 474  163.1899
 475  173.4156
 476  81.71268
 477  10.02801
 478  37.47205
 479  239.0089
 480  104.9308
 481  118.4952
 482  115.0175
 483  104.555
 484  76.87703
 485  162.8928
 486  -23.697
 487  -4.345713
 488  -10.50784
 489  -34.43441
 490  -85.65316
 491  137.6716
 492  189.4014
 493  314.9848
 494  -4.051799
 495  54.76142
 496  53.11294
 497  27.09596
 498  157.35
 499  75.84093
 500  105.8845
 501  83.28545
 502  1.129851
 503  81.42416
 504  50.11789
 505  179.5069
 506  13.06705
 507  118.1994
 508  361.0182
 509  484.0028
 510  733.4158
 511  808.8115
