# Input file       =  1189916087.115150-PSRB0329-2ms-sampling-dd.dat
# Candidate        =  PSR_0332+5434
# Telescope        =  AR
# Epoch_topo       =  58016.177154110534
# Epoch_bary       =  N/A
# T_sample         =  0.002
# Data Folded      =  7340032
# Data Avg         =  -7.3941105765574e-10
# Data StdDev      =  5.34778449197558 
# Profile Bins     =  512
# Profile Avg      =  -0.27456872834626
# Profile StdDev   =  640.306475112818 
# Reduced chi-sqr  =  0.842
# Prob(Noise)      <  0.996   (~0.0 sigma)
# P_topo (ms)      =  714.467929271989  +/- 7.36e-05
# P'_topo (s/s)    =  -0                +/- 3.88e-11
# P''_topo (s/s^2) =  0                 +/- 1.71e-14
# P_bary (ms)      =  N/A
# P'_bary (s/s)    =  N/A
# P''_bary (s/s^2) =  N/A
# P_orb (s)        =  N/A
# asin(i)/c (s)    =  N/A
# eccentricity     =  N/A
# w (rad)          =  N/A
# T_peri           =  N/A
######################################################
   0  -947.548
   1  -726.6786
   2  -336.8424
   3  194.6482
   4  457.9071
   5  429.959
   6  -80.65693
   7  -275.0347
   8  -527.4683
   9  -406.5479
  10  87.32323
  11  -189.8111
  12  -162.5858
  13  -263.954
  14  19.49545
  15  -298.9821
  16  -314.9871
  17  257.4516
  18  -195.7161
  19  -351.4987
  20  -219.7578
  21  -58.69581
  22  -783.3428
  23  -801.7719
  24  -481.3863
  25  -508.5524
  26  -324.0249
  27  -57.69943
  28  75.9147
  29  -22.78253
  30  172.4568
  31  -146.4481
  32  -266.9183
  33  -357.3571
  34  -769.8966
  35  -844.8101
  36  -553.21
  37  192.833
  38  318.1707
  39  468.4576
  40  36.05885
  41  -638.7083
  42  -555.5662
  43  -1039.683
  44  -817.139
  45  32.61145
  46  648.3526
  47  812.6884
  48  572.8594
  49  547.246
  50  -94.77303
  51  -203.2371
  52  74.01768
  53  -170.5765
  54  -263.6915
  55  -448.8838
  56  -643.238
  57  -603.3455
  58  -308.7303
  59  -328.9653
  60  -848.3294
  61  -469.9037
  62  -277.8592
  63  -465.0637
  64  -645.6317
  65  -311.0279
  66  219.4291
  67  -106.6175
  68  -1.598974
  69  -220.4453
  70  -9.605755
  71  126.1433
  72  -52.9964
  73  -63.18655
  74  -270.4901
  75  -155.5752
  76  -309.587
  77  42.85159
  78  215.8823
  79  402.5395
  80  -141.2162
  81  67.03567
  82  375.5857
  83  -14.18867
  84  -129.0882
  85  557.1629
  86  950.1118
  87  588.8359
  88  512.6477
  89  101.2094
  90  -518.0973
  91  -692.4157
  92  -455.9227
  93  -100.1969
  94  68.46296
  95  77.72147
  96  142.1767
  97  223.9478
  98  -156.1378
  99  -552.4278
 100  -680.8627
 101  -623.21
 102  -324.4781
 103  -97.49312
 104  -379.6534
 105  -145.3877
 106  -147.8226
 107  -32.75672
 108  -205.666
 109  33.79113
 110  411.079
 111  651.9177
 112  800.7585
 113  955.8893
 114  645.1476
 115  434.4087
 116  308.3963
 117  259.446
 118  198.9001
 119  692.7745
 120  1124.189
 121  1059.091
 122  256.7861
 123  429.035
 124  463.4539
 125  470.14
 126  1125.519
 127  1275.654
 128  1451.352
 129  1293.757
 130  852.8336
 131  -79.89223
 132  -385.5022
 133  -221.3565
 134  -215.149
 135  -364.2972
 136  -132.9754
 137  600.7958
 138  464.8236
 139  224.2396
 140  168.8877
 141  220.5467
 142  97.42429
 143  125.5165
 144  829.1838
 145  512.3877
 146  377.4907
 147  365.9781
 148  584.1772
 149  482.0722
 150  155.569
 151  -36.37549
 152  120.8088
 153  635.5146
 154  360.9295
 155  458.905
 156  -246.2924
 157  55.91533
 158  132.3339
 159  -139.8849
 160  -842.0211
 161  -233.9545
 162  -187.0048
 163  -111.4162
 164  -40.73902
 165  -258.5699
 166  -695.5398
 167  -115.7746
 168  117.3735
 169  -203.8264
 170  -333.3388
 171  -405.412
 172  -130.8679
 173  -145.2357
 174  331.6166
 175  420.1439
 176  566.1804
 177  188.5154
 178  256.2549
 179  88.78618
 180  524.6141
 181  223.5985
 182  948.3502
 183  857.2097
 184  478.3099
 185  453.7637
 186  236.3739
 187  362.6967
 188  301.2325
 189  351.1211
 190  388.6334
 191  59.38473
 192  -148.202
 193  -369.447
 194  51.58054
 195  257.8674
 196  444.3409
 197  280.7903
 198  -109.8852
 199  -587.0271
 200  -954.6089
 201  -295.9055
 202  457.6987
 203  245.0038
 204  44.03578
 205  -2.962773
 206  47.04264
 207  11.62244
 208  128.1167
 209  493.2264
 210  508.984
 211  750.2246
 212  898.6162
 213  245.1781
 214  377.564
 215  223.2941
 216  623.7649
 217  698.761
 218  176.3244
 219  70.87527
 220  282.1317
 221  248.5831
 222  -36.98985
 223  353.0924
 224  371.756
 225  -309.6121
 226  12.01931
 227  108.478
 228  370.1429
 229  516.1155
 230  213.1495
 231  376.2255
 232  150.229
 233  -150.5469
 234  -450.3364
 235  -514.0744
 236  334.2465
 237  287.016
 238  130.8018
 239  52.27156
 240  -405.008
 241  -100.7425
 242  -86.71573
 243  274.2554
 244  679.9868
 245  705.4449
 246  835.97
 247  864.2173
 248  115.6712
 249  315.9501
 250  791.9553
 251  213.2764
 252  228.9144
 253  321.2449
 254  215.5842
 255  91.24923
 256  356.4612
 257  412.5472
 258  136.473
 259  400.288
 260  350.9673
 261  92.36436
 262  -18.76543
 263  613.7117
 264  926.6467
 265  892.2761
 266  227.5868
 267  -249.469
 268  153.5083
 269  71.59902
 270  -1.571753
 271  248.8494
 272  439.0475
 273  528.5241
 274  223.1214
 275  146.7985
 276  312.7431
 277  212.2119
 278  651.5806
 279  957.2762
 280  564.7375
 281  -155.8732
 282  177.2646
 283  480.2964
 284  607.8114
 285  693.0173
 286  321.6355
 287  14.50095
 288  56.59927
 289  138.2262
 290  683.8588
 291  592.0326
 292  470.553
 293  313.0723
 294  -460.425
 295  -166.6787
 296  -239.5412
 297  203.4079
 298  400.4659
 299  100.7525
 300  -546.2099
 301  -466.7223
 302  -293.258
 303  310.4178
 304  343.0371
 305  296.3145
 306  231.1073
 307  -138.2257
 308  -491.6529
 309  -486.3268
 310  -158.9313
 311  -109.069
 312  510.9124
 313  468.1603
 314  1.895588
 315  -353.7301
 316  -335.4735
 317  -212.9628
 318  -440.4168
 319  -453.5845
 320  -26.40259
 321  162.2513
 322  -225.2884
 323  -14.6718
 324  -222.671
 325  380.0543
 326  327.2817
 327  100.7132
 328  47.3494
 329  -212.1229
 330  -23.59079
 331  315.4756
 332  562.4122
 333  684.399
 334  -219.2343
 335  -114.1023
 336  -113.8549
 337  -221.9383
 338  58.18058
 339  286.0809
 340  342.6875
 341  171.8307
 342  69.43661
 343  -160.3997
 344  -238.2838
 345  -216.1116
 346  43.99154
 347  30.26804
 348  247.7385
 349  114.397
 350  242.9814
 351  -304.3907
 352  -85.72504
 353  67.00805
 354  -107.2572
 355  358.7206
 356  264.0769
 357  668.0251
 358  286.5019
 359  177.1064
 360  296.2169
 361  -739.6943
 362  -621.5995
 363  74.19243
 364  -102.8154
 365  45.22775
 366  -170.1926
 367  -122.9754
 368  -355.2249
 369  -265.462
 370  -532.8284
 371  -264.9252
 372  286.3456
 373  155.9428
 374  -150.8172
 375  -161.38
 376  -305.0807
 377  -534.3262
 378  -198.2632
 379  280.9721
 380  460.4595
 381  70.50224
 382  59.81659
 383  -47.53232
 384  -260.9356
 385  -180.525
 386  -227.6029
 387  156.0565
 388  243.4427
 389  82.17678
 390  -65.62313
 391  -625.4185
 392  -100.5233
 393  239.86
 394  460.1086
 395  66.14379
 396  -68.12608
 397  196.9728
 398  197.6989
 399  222.9782
 400  60.73877
 401  -191.8221
 402  -848.6191
 403  -805.0915
 404  -375.9666
 405  8.262527
 406  253.4756
 407  -44.75337
 408  -172.5519
 409  -535.8048
 410  -1031.957
 411  -822.3132
 412  -727.6434
 413  173.5744
 414  -1.833626
 415  402.7666
 416  18.60242
 417  -64.4825
 418  -468.681
 419  -901.4666
 420  -368.0483
 421  134.2892
 422  357.6994
 423  -815.0281
 424  -611.418
 425  -360.5966
 426  97.95789
 427  -236.4322
 428  -1.786515
 429  422.1381
 430  -187.4324
 431  32.54023
 432  -105.9532
 433  -230.4777
 434  -461.4654
 435  -564.9236
 436  -611.0011
 437  -235.9328
 438  -213.7752
 439  283.287
 440  96.57784
 441  -155.7169
 442  -327.1613
 443  -412.6989
 444  -386.5971
 445  -706.0909
 446  -317.2693
 447  60.81499
 448  306.4541
 449  226.3037
 450  200.9704
 451  -360.4342
 452  -741.214
 453  -444.4927
 454  395.9037
 455  344.6624
 456  -3.873694
 457  -254.397
 458  482.2837
 459  -171.1601
 460  -504.8757
 461  -428.5588
 462  -205.2507
 463  -153.3692
 464  -577.5646
 465  -963.2499
 466  -715.3221
 467  -292.2989
 468  -321.6976
 469  -448.7974
 470  -551.1045
 471  -779.8922
 472  -354.0015
 473  -41.62486
 474  -286.2532
 475  -334.9
 476  -704.1436
 477  -539.9753
 478  -752.8116
 479  -565.3997
 480  -499.5535
 481  -68.44635
 482  188.207
 483  -107.5946
 484  -528.4686
 485  -498.3177
 486  48.10937
 487  41.63653
 488  90.63211
 489  595.3882
 490  -9.936825
 491  -8.891044
 492  233.9972
 493  -220.847
 494  -392.5254
 495  -335.3592
 496  -660.6504
 497  -382.9612
 498  -55.34328
 499  -103.4305
 500  -571.903
 501  -419.9817
 502  -558.3937
 503  -388.0825
 504  -324.1033
 505  -843.5995
 506  -896.7781
 507  -655.8787
 508  -26.51616
 509  -127.1406
 510  -656.8984
 511  -951.8648
