# Input file       =  1189399122.117035_cleaned.dat
# Candidate        =  PSR_0332+5434
# Telescope        =  AR
# Epoch_topo       =  58010.193762928648
# Epoch_bary       =  N/A
# T_sample         =  0.002
# Data Folded      =  7340032
# Data Avg         =  0.0461678609364232
# Data StdDev      =  3.65936024762095 
# Profile Bins     =  256
# Profile Avg      =  1323.59428805873 
# Profile StdDev   =  619.632459059249 
# Reduced chi-sqr  =  1.725
# Prob(Noise)      <  5.16e-12   (~6.8 sigma)
# P_topo (ms)      =  714.465989329173  +/- 0.000533
# P'_topo (s/s)    =  -0                +/- 2.81e-10
# P''_topo (s/s^2) =  0                 +/- 1.24e-13
# P_bary (ms)      =  N/A
# P'_bary (s/s)    =  N/A
# P''_bary (s/s^2) =  N/A
# P_orb (s)        =  N/A
# asin(i)/c (s)    =  N/A
# eccentricity     =  N/A
# w (rad)          =  N/A
# T_peri           =  N/A
######################################################
   0  2018.77
   1  1384.65
   2  1465.41
   3  2237.286
   4  1938.406
   5  1398.589
   6  1044.202
   7  1275.394
   8  1431.439
   9  1168.327
  10  695.6274
  11  1140.701
  12  1046.878
  13  756.6558
  14  1191.935
  15  1348.704
  16  1236.45
  17  833.1759
  18  1092.975
  19  830.2847
  20  800.0056
  21  1077.668
  22  1463.114
  23  2428.768
  24  1334.843
  25  1833.656
  26  1111.491
  27  1165.539
  28  1107.191
  29  839.187
  30  311.4128
  31  388.0583
  32  1579.959
  33  1215.79
  34  1470.917
  35  2256.901
  36  2176.85
  37  2289.106
  38  1624.47
  39  1135.617
  40  2027.276
  41  1518.942
  42  1343.805
  43  2149.981
  44  2422.11
  45  1685.836
  46  2435.892
  47  1357.989
  48  1506.947
  49  1987.635
  50  1815.694
  51  889.6033
  52  530.9285
  53  1532.145
  54  1762.919
  55  957.0815
  56  2352.599
  57  853.5941
  58  553.5226
  59  1767.317
  60  1627.67
  61  1571.113
  62  1618.824
  63  666.1876
  64  1060.978
  65  1694.38
  66  1208.78
  67  1687.7
  68  1988.399
  69  1346.651
  70  748.9532
  71  512.9398
  72  2500.656
  73  2171.326
  74  988.8824
  75  1672.656
  76  1115.202
  77  1050.811
  78  1337.113
  79  823.4397
  80  1360.152
  81  1051.793
  82  982.3073
  83  1034.152
  84  1166.369
  85  607.123
  86  905.3515
  87  968.7582
  88  548.4179
  89  1152.827
  90  916.4025
  91  213.7063
  92  22.67371
  93  725.5728
  94  353.8688
  95  801.4855
  96  178.7061
  97  1398.398
  98  1164.805
  99  1039.282
 100  1018.99
 101  763.8493
 102  1410.143
 103  1263.064
 104  499.4862
 105  235.0801
 106  1055.207
 107  715.8791
 108  701.2125
 109  -586.2748
 110  1040.176
 111  766.7151
 112  1374.53
 113  1501.421
 114  814.094
 115  1447.73
 116  823.6578
 117  536.4465
 118  1048.902
 119  39.83572
 120  790.2847
 121  1308.603
 122  446.8002
 123  40.97735
 124  179.4399
 125  1656.453
 126  1074.854
 127  699.8103
 128  934.6208
 129  695.46
 130  1097.453
 131  850.8865
 132  722.0505
 133  343.6586
 134  636.9829
 135  1149.627
 136  1174.517
 137  279.787
 138  165.4255
 139  1128.544
 140  1177.364
 141  1355.27
 142  1070.166
 143  1169.306
 144  1247.333
 145  2283.725
 146  1759.808
 147  1966.266
 148  1908.692
 149  1663.383
 150  1523.593
 151  2640.991
 152  2158.297
 153  1837.746
 154  821.5266
 155  1586.178
 156  2471.837
 157  1643.821
 158  2184.779
 159  4056.514
 160  4623.069
 161  4631.987
 162  3441.403
 163  2560.048
 164  1261.828
 165  1293.906
 166  1839.039
 167  2604.424
 168  2594.902
 169  1887.88
 170  1620.178
 171  1831.051
 172  1814.915
 173  1637.258
 174  1712.929
 175  2042.276
 176  1543.104
 177  1629.148
 178  797.2086
 179  1869.807
 180  1989.272
 181  1521.666
 182  1744.366
 183  2315.706
 184  2050.143
 185  1146.619
 186  1147.428
 187  1561.002
 188  1271.569
 189  1602.868
 190  1923.328
 191  1604.587
 192  1376.327
 193  639.8231
 194  2346.06
 195  1590.35
 196  1862.126
 197  1974.148
 198  1573.114
 199  2254.346
 200  2965.512
 201  1205.128
 202  1030.591
 203  1420.732
 204  2118.599
 205  580.0401
 206  825.4697
 207  1074.072
 208  638.3358
 209  841.0224
 210  1143.235
 211  1588.311
 212  648.8333
 213  1559.728
 214  1632.409
 215  994.6406
 216  1109.565
 217  2009.37
 218  1472.058
 219  553.9524
 220  1261.688
 221  806.7568
 222  1007.088
 223  760.4724
 224  1086.309
 225  444.1954
 226  620.7885
 227  1032.666
 228  -190.6444
 229  615.7444
 230  1781.087
 231  926.8297
 232  70.90556
 233  -393.5214
 234  328.7887
 235  961.2504
 236  1556.137
 237  1982.144
 238  711.7527
 239  1007.44
 240  1094.914
 241  643.5846
 242  1215.447
 243  1608.211
 244  1259.115
 245  1241.492
 246  1619.132
 247  1121.045
 248  2531.759
 249  1269.094
 250  1712.629
 251  1142.217
 252  2057.959
 253  1939.037
 254  1469.54
 255  1438.257
