# Input file       =  1189197207.127362_cleaned.dat
# Candidate        =  PSR_0332+5434
# Telescope        =  AR
# Epoch_topo       =  58007.856783881507
# Epoch_bary       =  N/A
# T_sample         =  0.002
# Data Folded      =  7208960
# Data Avg         =  0.0159510115991496
# Data StdDev      =  1.00003732583268 
# Profile Bins     =  512
# Profile Avg      =  224.592019584516 
# Profile StdDev   =  118.663604846073 
# Reduced chi-sqr  =  1.413
# Prob(Noise)      <  1.95e-09   (~5.9 sigma)
# P_topo (ms)      =  714.46504928921   +/- 0.000179
# P'_topo (s/s)    =  -0                +/- 9.64e-11
# P''_topo (s/s^2) =  0                 +/- 4.33e-14
# P_bary (ms)      =  N/A
# P'_bary (s/s)    =  N/A
# P''_bary (s/s^2) =  N/A
# P_orb (s)        =  N/A
# asin(i)/c (s)    =  N/A
# eccentricity     =  N/A
# w (rad)          =  N/A
# T_peri           =  N/A
######################################################
   0  185.5798
   1  214.8665
   2  262.6259
   3  281.2928
   4  190.8139
   5  162.6702
   6  329.1538
   7  371.7557
   8  318.8445
   9  280.7773
  10  231.0476
  11  209.9525
  12  128.3467
  13  247.2286
  14  172.7863
  15  158.7241
  16  226.448
  17  247.5747
  18  278.8916
  19  250.1917
  20  170.9812
  21  190.9345
  22  279.425
  23  255.5445
  24  222.8407
  25  246.4308
  26  172.5008
  27  148.0864
  28  43.39663
  29  143.2987
  30  226.6024
  31  161.7439
  32  115.8557
  33  147.5629
  34  94.50595
  35  166.3861
  36  135.3274
  37  112.5295
  38  159.8042
  39  190.2097
  40  210.984
  41  233.7628
  42  251.9109
  43  236.4907
  44  288.6155
  45  256.4447
  46  140.0488
  47  122.7287
  48  292.0093
  49  267.6396
  50  161.4839
  51  91.56837
  52  195.1447
  53  107.808
  54  106.9259
  55  217.3159
  56  185.0005
  57  178.7261
  58  192.467
  59  354.9668
  60  367.9282
  61  270.5599
  62  131.6252
  63  204.1572
  64  222.3315
  65  159.196
  66  173.2504
  67  98.27914
  68  160.6931
  69  277.1745
  70  190.0524
  71  76.12695
  72  98.90857
  73  214.6796
  74  377.1504
  75  259.3364
  76  86.3736
  77  164.2094
  78  273.8603
  79  199.7887
  80  85.59691
  81  192.3273
  82  226.0177
  83  314.4328
  84  196.7805
  85  280.5113
  86  179.5635
  87  65.24976
  88  168.8753
  89  268.0225
  90  264.8232
  91  271.8805
  92  249.502
  93  308.4762
  94  227.6519
  95  267.3869
  96  374.7974
  97  341.2564
  98  152.9867
  99  238.3443
 100  215.6051
 101  153.2355
 102  139.1001
 103  326.066
 104  330.0387
 105  458.5854
 106  262.5042
 107  179.9841
 108  152.3523
 109  126.0625
 110  82.40027
 111  177.3233
 112  312.2365
 113  343.3589
 114  338.7494
 115  183.3618
 116  257.0397
 117  206.871
 118  208.0372
 119  182.397
 120  276.5811
 121  283.5539
 122  295.3715
 123  208.6499
 124  176.9319
 125  156.931
 126  63.48923
 127  124.6957
 128  116.3395
 129  224.1521
 130  206.1074
 131  171.4552
 132  265.6613
 133  241.5659
 134  224.8107
 135  203.7557
 136  225.6013
 137  183.0957
 138  228.1138
 139  343.1795
 140  266.5734
 141  269.3584
 142  126.7484
 143  195.975
 144  308.7221
 145  230.0954
 146  154.9277
 147  161.9855
 148  235.8403
 149  231.289
 150  321.6902
 151  190.3312
 152  192.59
 153  239.6717
 154  348.1333
 155  376.9466
 156  119.2311
 157  117.3722
 158  289.6567
 159  319.5589
 160  266.6407
 161  250.3725
 162  242.7338
 163  211.168
 164  281.8889
 165  201.6586
 166  292.0947
 167  405.0381
 168  309.0668
 169  217.451
 170  290.0799
 171  242.1201
 172  209.071
 173  217.7418
 174  282.1425
 175  329.9604
 176  128.245
 177  178.7469
 178  136.7731
 179  110.6921
 180  170.9014
 181  315.3238
 182  358.4814
 183  365.3952
 184  245.1135
 185  307.1232
 186  136.8906
 187  170.2036
 188  185.4061
 189  58.9083
 190  135.2242
 191  292.387
 192  126.0258
 193  203.8177
 194  246.5504
 195  190.1492
 196  159.053
 197  124.2261
 198  207.914
 199  241.2294
 200  189.2408
 201  263.15
 202  243.3676
 203  188.0181
 204  194.2725
 205  192.99
 206  308.8681
 207  76.9089
 208  172.8713
 209  174.8521
 210  184.4168
 211  108.4454
 212  96.86942
 213  138.1735
 214  313.8917
 215  379.0741
 216  185.2929
 217  262.8756
 218  132.9239
 219  292.5658
 220  311.3022
 221  191.165
 222  191.0102
 223  185.9981
 224  227.7926
 225  121.0326
 226  120.6241
 227  226.09
 228  326.6098
 229  262.6706
 230  369.4935
 231  296.1243
 232  169.4272
 233  245.5617
 234  239.5669
 235  153.5965
 236  248.6641
 237  372.4251
 238  283.5174
 239  256.3532
 240  263.3383
 241  249.7183
 242  184.2024
 243  131.4021
 244  114.0631
 245  108.379
 246  375.7052
 247  292.6535
 248  288.562
 249  235.7288
 250  152.267
 251  237.5717
 252  118.1391
 253  237.5256
 254  355.8702
 255  352.1256
 256  330.0066
 257  242.9706
 258  359.1236
 259  315.2322
 260  204.698
 261  237.1838
 262  225.443
 263  155.4821
 264  183.854
 265  290.8281
 266  245.9756
 267  218.0464
 268  212.9128
 269  301.2731
 270  401.3978
 271  367.286
 272  690.735
 273  746.8176
 274  893.9415
 275  1013
 276  864.7007
 277  684.3373
 278  434.2882
 279  364.0813
 280  187.6852
 281  286.5478
 282  280.0748
 283  181.9671
 284  159.8159
 285  361.7958
 286  375.9564
 287  336.1298
 288  282.6837
 289  257.895
 290  272.4382
 291  272.6501
 292  260.3825
 293  235.6846
 294  236.6361
 295  258.3725
 296  286.3442
 297  137.3844
 298  167.688
 299  290.8091
 300  233.716
 301  231.1965
 302  342.8236
 303  410.313
 304  151.9245
 305  19.01082
 306  191.3136
 307  240.1729
 308  209.5738
 309  294.4777
 310  299.7013
 311  258.2943
 312  225.9849
 313  252.0669
 314  226.5677
 315  228.9727
 316  184.1401
 317  307.8459
 318  147.4813
 319  254.2593
 320  218.4227
 321  188.1989
 322  216.0408
 323  269.8553
 324  254.5404
 325  266.6369
 326  262.4302
 327  289.6081
 328  322.9436
 329  196.8096
 330  253.0591
 331  348.4923
 332  270.425
 333  188.0512
 334  144.259
 335  173.3419
 336  274.6086
 337  171.0385
 338  100.5846
 339  105.176
 340  282.6071
 341  382.6378
 342  166.8446
 343  32.8978
 344  83.20934
 345  110.8701
 346  214.3268
 347  187.7249
 348  244.8566
 349  290.4418
 350  219.8474
 351  240.1691
 352  164.4129
 353  251.6436
 354  263.0911
 355  187.2552
 356  134.0801
 357  114.2522
 358  161.3267
 359  152.7673
 360  144.5224
 361  167.1302
 362  164.1506
 363  190.2728
 364  194.8029
 365  246.7269
 366  191.8671
 367  219.2894
 368  345.9522
 369  248.8516
 370  361.1316
 371  263.4392
 372  172.2618
 373  147.1044
 374  313.8413
 375  371.4999
 376  196.9759
 377  293.0712
 378  148.6423
 379  194.9503
 380  256.0692
 381  97.50341
 382  212.4212
 383  313.1763
 384  266.7423
 385  248.009
 386  199.8742
 387  232.4347
 388  328.1692
 389  213.6622
 390  221.7423
 391  302.3483
 392  227.5432
 393  109.092
 394  208.6898
 395  244.7438
 396  192.3519
 397  127.9199
 398  218.3442
 399  170.4436
 400  66.50983
 401  63.07314
 402  121.9227
 403  206.1184
 404  348.7414
 405  204.7921
 406  176.4862
 407  185.2803
 408  215.3627
 409  252.661
 410  283.5527
 411  123.9946
 412  165.2806
 413  173.8265
 414  204.0911
 415  319.9248
 416  238.2577
 417  90.50895
 418  143.9062
 419  245.6178
 420  126.9474
 421  27.80415
 422  191.976
 423  270.3976
 424  321.5739
 425  354.6043
 426  315.0215
 427  235.7688
 428  184.7598
 429  181.334
 430  124.539
 431  135.7626
 432  151.8786
 433  157.1701
 434  81.82998
 435  95.6984
 436  279.8846
 437  181.7508
 438  -8.661575
 439  28.86281
 440  67.59219
 441  149.0386
 442  122.4314
 443  261.5529
 444  179.6124
 445  150.7564
 446  211.9764
 447  209.34
 448  111.8883
 449  253.7544
 450  339.1377
 451  223.1682
 452  82.54175
 453  196.744
 454  365.6705
 455  318.4271
 456  232.6428
 457  280.2497
 458  243.1613
 459  228.2531
 460  158.4696
 461  205.3933
 462  333.9009
 463  358.7788
 464  408.9119
 465  211.1257
 466  132.1668
 467  92.67844
 468  34.91924
 469  164.7257
 470  258.2385
 471  362.5735
 472  251.6758
 473  202.1429
 474  204.6977
 475  143.8644
 476  53.15413
 477  23.49746
 478  161.136
 479  230.228
 480  300.1187
 481  251.2986
 482  167.8339
 483  123.3172
 484  128.6564
 485  217.7021
 486  237.5786
 487  204.1136
 488  189.6667
 489  214.7261
 490  271.0249
 491  120.0187
 492  184.8855
 493  183.8465
 494  143.4905
 495  132.1792
 496  181.2978
 497  184.4469
 498  129.2779
 499  75.16331
 500  167.1255
 501  212.5731
 502  129.1907
 503  167.5191
 504  239.338
 505  227.5132
 506  226.067
 507  198.2943
 508  213.2283
 509  311.3302
 510  257.5307
 511  224.6395
