# Input file       =  1189485312.127878_cleaned.dat
# Candidate        =  PSR_0332+5434
# Telescope        =  AR
# Epoch_topo       =  58011.191332498587
# Epoch_bary       =  N/A
# T_sample         =  0.002
# Data Folded      =  7340032
# Data Avg         =  0.02853479127225 
# Data StdDev      =  3.05708585726135 
# Profile Bins     =  512
# Profile Avg      =  409.156507348534 
# Profile StdDev   =  366.03417215437  
# Reduced chi-sqr  =  1.305
# Prob(Noise)      <  3.79e-06   (~4.5 sigma)
# P_topo (ms)      =  714.466270063692  +/- 0.000145
# P'_topo (s/s)    =  -0                +/- 7.67e-11
# P''_topo (s/s^2) =  0                 +/- 3.39e-14
# P_bary (ms)      =  N/A
# P'_bary (s/s)    =  N/A
# P''_bary (s/s^2) =  N/A
# P_orb (s)        =  N/A
# asin(i)/c (s)    =  N/A
# eccentricity     =  N/A
# w (rad)          =  N/A
# T_peri           =  N/A
######################################################
   0  95.11279
   1  -289.9216
   2  374.8461
   3  545.8148
   4  222.2675
   5  424.4973
   6  69.16637
   7  399.4479
   8  68.3249
   9  82.43353
  10  332.1422
  11  541.9702
  12  680.8255
  13  449.7564
  14  336.3454
  15  395.8765
  16  248.2409
  17  234.7865
  18  258.625
  19  343.5551
  20  549.4479
  21  518.4936
  22  -69.05424
  23  124.969
  24  580.2076
  25  243.9211
  26  -115.0211
  27  -111.2191
  28  337.8507
  29  227.0801
  30  490.1076
  31  423.4738
  32  116.2029
  33  492.5704
  34  483.3336
  35  180.4085
  36  -149.137
  37  -99.3828
  38  389.0086
  39  232.9311
  40  4.847732
  41  -32.55236
  42  -13.72402
  43  796.6253
  44  832.3325
  45  377.0364
  46  183.4531
  47  622.6494
  48  787.9445
  49  436.9111
  50  214.558
  51  353.3171
  52  147.7655
  53  61.30492
  54  279.8927
  55  211.9581
  56  495.9595
  57  676.7008
  58  421.0759
  59  128.7296
  60  87.76057
  61  481.9999
  62  442.6585
  63  613.3968
  64  329.3956
  65  -104.4412
  66  -145.0207
  67  86.6784
  68  -13.8527
  69  -57.57318
  70  331.8561
  71  261.9154
  72  647.6883
  73  374.6526
  74  503.7465
  75  357.4482
  76  -54.88031
  77  -299.2665
  78  -10.11589
  79  376.3642
  80  -0.4790238
  81  83.12251
  82  286.2656
  83  621.806
  84  387.2303
  85  140.0944
  86  276.3771
  87  558.0936
  88  557.2133
  89  978.5533
  90  1383.177
  91  2039.769
  92  2253.317
  93  2418.234
  94  1808.448
  95  894.5273
  96  682.5973
  97  855.9185
  98  158.4719
  99  160.0138
 100  80.25615
 101  321.3502
 102  172.9287
 103  93.72557
 104  331.0318
 105  713.4379
 106  144.2508
 107  274.8304
 108  500.8871
 109  682.0947
 110  203.3737
 111  243.1584
 112  281.2612
 113  82.531
 114  355.8987
 115  770.5505
 116  495.1218
 117  95.81116
 118  185.358
 119  -124.0122
 120  156.1945
 121  649.7501
 122  830.0819
 123  480.7669
 124  299.122
 125  946.6304
 126  387.3286
 127  400.8445
 128  384.7829
 129  590.7596
 130  289.4495
 131  374.4184
 132  505.8841
 133  725.0429
 134  608.3459
 135  685.3655
 136  454.1188
 137  139.3737
 138  358.9206
 139  606.2404
 140  421.2377
 141  220.5922
 142  83.04965
 143  349.3698
 144  427.1
 145  521.0059
 146  513.8408
 147  282.3816
 148  432.9786
 149  -199.6329
 150  71.94977
 151  255.6235
 152  679.7784
 153  493.1125
 154  76.79472
 155  477.5909
 156  719.363
 157  428.6595
 158  334.7335
 159  326.4351
 160  625.8005
 161  240.1552
 162  454.6038
 163  501.6083
 164  132.5414
 165  -17.77603
 166  360.8873
 167  357.2559
 168  636.6299
 169  423.1612
 170  281.4545
 171  266.256
 172  37.36346
 173  256.9737
 174  641.463
 175  593.2052
 176  593.7693
 177  197.0344
 178  281.696
 179  489.3002
 180  837.4792
 181  1148.096
 182  683.6413
 183  341.6631
 184  517.3597
 185  531.2863
 186  770.013
 187  603.6483
 188  184.1361
 189  374.6193
 190  429.9145
 191  536.6274
 192  461.1212
 193  527.7357
 194  818.3875
 195  232.2145
 196  284.764
 197  929.4454
 198  676.2377
 199  482.5536
 200  192.0926
 201  580.4121
 202  874.4892
 203  973.6458
 204  1112.123
 205  808.4805
 206  705.386
 207  295.2925
 208  205.8241
 209  533.2673
 210  926.741
 211  81.54533
 212  -15.24462
 213  2.204261
 214  367.3491
 215  709.9604
 216  113.6207
 217  -124.7873
 218  -55.38877
 219  233.0551
 220  859.6268
 221  447.6568
 222  286.5202
 223  -24.76711
 224  29.69495
 225  324.2892
 226  800.2646
 227  556.2727
 228  120.3633
 229  -31.85491
 230  254.2884
 231  357.4978
 232  -89.69394
 233  -144.1192
 234  235.0611
 235  618.0355
 236  788.4492
 237  606.949
 238  353.0155
 239  407.4588
 240  261.2935
 241  258.9706
 242  526.1412
 243  900.8769
 244  1021.664
 245  735.5943
 246  547.493
 247  316.5631
 248  278.1709
 249  172.1248
 250  165.0836
 251  19.44922
 252  -190.2864
 253  -282.2074
 254  -89.55913
 255  465.0439
 256  370.5598
 257  507.394
 258  566.552
 259  467.6884
 260  369.498
 261  479.8003
 262  329.903
 263  115.5068
 264  171.1929
 265  395.8085
 266  467.7055
 267  355.3011
 268  514.415
 269  642.4653
 270  438.5311
 271  373.9115
 272  601.3237
 273  440.6838
 274  176.7583
 275  428.5352
 276  510.0332
 277  349.2422
 278  131.897
 279  240.8657
 280  3.326277
 281  168.4047
 282  341.7874
 283  395.4723
 284  586.3191
 285  897.59
 286  563.2233
 287  408.9788
 288  345.7514
 289  616.8199
 290  344.0106
 291  548.2713
 292  821.1039
 293  546.5468
 294  700.4219
 295  441.0581
 296  423.1832
 297  686.8402
 298  463.9355
 299  -219.9911
 300  244.026
 301  537.4045
 302  438.0651
 303  289.5865
 304  550.5597
 305  314.9354
 306  386.9612
 307  265.4332
 308  716.5157
 309  478.644
 310  108.2268
 311  32.77218
 312  225.4931
 313  403.0521
 314  96.11916
 315  -75.76031
 316  354.7027
 317  719.6234
 318  675.2137
 319  1164.168
 320  639.3481
 321  513.7086
 322  389.1007
 323  42.22514
 324  387.8882
 325  514.4313
 326  708.947
 327  436.9568
 328  355.5775
 329  355.8395
 330  -5.837892
 331  -183.3026
 332  280.0435
 333  163.106
 334  172.1363
 335  436.0123
 336  302.4936
 337  150.1432
 338  268.6895
 339  113.5554
 340  155.6664
 341  119.8124
 342  81.18667
 343  188.7863
 344  332.9632
 345  510.4314
 346  796.9044
 347  618.8333
 348  480.0435
 349  777.4133
 350  674.778
 351  638.08
 352  455.5348
 353  217.5611
 354  667.9861
 355  312.6978
 356  128.7476
 357  394.2151
 358  322.6705
 359  781.1572
 360  509.6797
 361  426.592
 362  358.7188
 363  386.9819
 364  620.1134
 365  958.5923
 366  433.7472
 367  215.2282
 368  468.2446
 369  198.8116
 370  648.0471
 371  510.6831
 372  539.8555
 373  746.5161
 374  649.8141
 375  388.0399
 376  611.8789
 377  408.9973
 378  423.0204
 379  516.1475
 380  323.8217
 381  282.1805
 382  215.709
 383  202.7846
 384  468.5743
 385  204.2365
 386  379.74
 387  496.1181
 388  472.5365
 389  531.3607
 390  376.9514
 391  498.7995
 392  314.8353
 393  469.5989
 394  680.282
 395  373.2326
 396  465.2677
 397  443.3788
 398  237.6726
 399  414.4448
 400  475.0696
 401  312.5002
 402  232.6281
 403  313.0306
 404  438.8739
 405  698.0259
 406  833.5507
 407  546.0881
 408  315.7617
 409  59.31621
 410  443.279
 411  261.3059
 412  356.393
 413  641.1298
 414  139.6397
 415  669.7478
 416  639.6151
 417  311.1182
 418  780.1627
 419  1024.328
 420  765.5211
 421  948.6562
 422  1082.869
 423  796.3721
 424  254.0505
 425  232.8427
 426  819.6451
 427  810.6402
 428  669.8975
 429  505.3643
 430  710.2479
 431  579.7038
 432  403.5047
 433  387.051
 434  423.7216
 435  287.1227
 436  64.48052
 437  266.5536
 438  211.7436
 439  400.756
 440  898.2094
 441  684.6096
 442  268.1097
 443  437.2987
 444  464.6588
 445  262.7434
 446  372.3524
 447  237.961
 448  637.5905
 449  345.4194
 450  248.3298
 451  734.2622
 452  691.3929
 453  276.2178
 454  91.35167
 455  267.2251
 456  741.6
 457  708.2943
 458  516.5991
 459  652.5521
 460  697.9991
 461  524.5496
 462  484.7418
 463  46.43275
 464  -158.522
 465  139.573
 466  439.5653
 467  747.6801
 468  235.4104
 469  661.2569
 470  541.5317
 471  704.5012
 472  572.2057
 473  579.6525
 474  773.7637
 475  264.3839
 476  154.0452
 477  348.4698
 478  278.2521
 479  54.62492
 480  153.8383
 481  578.8511
 482  634.0286
 483  348.3799
 484  275.1294
 485  612.0451
 486  982.7424
 487  328.9669
 488  463.4202
 489  669.4514
 490  672.4821
 491  417.2873
 492  480.985
 493  575.8683
 494  34.603
 495  136.8115
 496  339.1702
 497  158.1339
 498  398.32
 499  428.184
 500  139.6152
 501  -10.58355
 502  309.624
 503  417.8284
 504  465.2443
 505  581.6913
 506  488.1724
 507  352.8577
 508  52.58678
 509  346.326
 510  182.8677
 511  512.5591
