# Input file       =  1189039511.117748_cleaned.dat
# Candidate        =  PSR_0332+5434
# Telescope        =  AR
# Epoch_topo       =  58006.031598585047
# Epoch_bary       =  N/A
# T_sample         =  0.002
# Data Folded      =  7340032
# Data Avg         =  0.00676789840744286
# Data StdDev      =  1.00002786545813 
# Profile Bins     =  512
# Profile Avg      =  96.9829777807071 
# Profile StdDev   =  119.736372792678 
# Reduced chi-sqr  =  1.358
# Prob(Noise)      <  1.13e-07   (~5.2 sigma)
# P_topo (ms)      =  714.464663562808  +/- 0.000222
# P'_topo (s/s)    =  -0                +/- 1.17e-10
# P''_topo (s/s^2) =  0                 +/- 5.18e-14
# P_bary (ms)      =  N/A
# P'_bary (s/s)    =  N/A
# P''_bary (s/s^2) =  N/A
# P_orb (s)        =  N/A
# asin(i)/c (s)    =  N/A
# eccentricity     =  N/A
# w (rad)          =  N/A
# T_peri           =  N/A
######################################################
   0  755.5614
   1  663.9976
   2  475.9709
   3  208.5903
   4  47.86088
   5  169.881
   6  216.6818
   7  107.7219
   8  32.64416
   9  14.73558
  10  147.5194
  11  189.4839
  12  173.2141
  13  119.2628
  14  157.4361
  15  92.12183
  16  95.13535
  17  108.5025
  18  181.2802
  19  65.58836
  20  -59.88699
  21  -32.34081
  22  -44.74404
  23  -63.28456
  24  -78.43324
  25  48.67889
  26  175.3275
  27  126.1638
  28  42.91195
  29  58.41782
  30  -78.67097
  31  -58.65779
  32  90.52469
  33  131.2766
  34  88.19769
  35  87.96178
  36  86.75202
  37  72.79759
  38  31.16391
  39  -159.7665
  40  -34.30375
  41  3.098175
  42  77.35285
  43  40.2664
  44  103.8337
  45  175.4337
  46  85.52107
  47  40.64388
  48  97.53957
  49  35.31547
  50  -44.99106
  51  54.20089
  52  86.70715
  53  -31.78316
  54  113.8054
  55  153.7827
  56  164.9903
  57  143.4896
  58  62.51368
  59  -87.47623
  60  -50.11518
  61  12.82164
  62  49.38581
  63  73.85548
  64  83.25175
  65  145.5267
  66  -22.0605
  67  -62.03416
  68  115.4896
  69  58.37206
  70  141.4451
  71  122.3117
  72  14.90729
  73  13.81135
  74  -51.04155
  75  -108.9948
  76  46.64098
  77  62.78436
  78  84.37439
  79  54.13966
  80  10.9829
  81  138.1457
  82  213.5381
  83  198.0965
  84  173.1949
  85  97.47829
  86  295.1362
  87  249.2602
  88  185.1635
  89  74.37903
  90  155.4075
  91  180.2449
  92  179.1066
  93  95.96176
  94  79.04831
  95  1.4032
  96  -87.38724
  97  -20.23368
  98  101.6023
  99  64.67083
 100  80.12299
 101  35.02206
 102  74.54994
 103  86.30552
 104  26.87851
 105  7.210573
 106  29.46294
 107  114.5856
 108  73.72961
 109  72.11734
 110  169.5003
 111  219.751
 112  113.2672
 113  121.3132
 114  135.2457
 115  35.30026
 116  35.06061
 117  143.8016
 118  109.755
 119  123.8777
 120  163.1857
 121  176.9375
 122  137.0774
 123  130.889
 124  30.51163
 125  50.8617
 126  156.5912
 127  213.0399
 128  246.9178
 129  239.6084
 130  65.54969
 131  109.558
 132  109.1372
 133  201.7645
 134  69.67809
 135  184.2501
 136  150.9387
 137  167.5601
 138  355.9409
 139  204.7612
 140  59.66812
 141  111.584
 142  83.58595
 143  40.1651
 144  32.28653
 145  116.0565
 146  0.5258895
 147  -35.98266
 148  68.03799
 149  174.7766
 150  139.3385
 151  75.9501
 152  -21.56819
 153  55.13093
 154  75.28725
 155  30.67549
 156  -1.124463
 157  122.8794
 158  50.81482
 159  46.18604
 160  7.08723
 161  -54.79492
 162  -44.71289
 163  16.9104
 164  7.065969
 165  -96.71432
 166  -67.44581
 167  59.23846
 168  131.414
 169  158.5309
 170  175.0178
 171  144.1835
 172  86.83321
 173  66.68357
 174  -18.89906
 175  -93.45782
 176  -86.94341
 177  -58.54898
 178  123.8869
 179  96.66269
 180  154.1939
 181  -34.80307
 182  177.2129
 183  238.9523
 184  200.0668
 185  22.97889
 186  39.06451
 187  97.37733
 188  61.97254
 189  82.92107
 190  41.64239
 191  8.314938
 192  83.11116
 193  -39.53993
 194  91.33125
 195  122.8296
 196  52.45396
 197  -5.779222
 198  147.2094
 199  11.2886
 200  17.79238
 201  139.5511
 202  159.7459
 203  15.80185
 204  0.991259
 205  35.75686
 206  101.8485
 207  142.8543
 208  149.9485
 209  172.2858
 210  134.3743
 211  104.1682
 212  21.70271
 213  7.730274
 214  178.9541
 215  159.3252
 216  139.5976
 217  174.2482
 218  171.7774
 219  67.77108
 220  32.9062
 221  9.27806
 222  7.814227
 223  208.4616
 224  209.7877
 225  108.053
 226  33.21448
 227  110.9411
 228  34.31442
 229  -59.5336
 230  120.176
 231  109.2637
 232  57.70068
 233  110.3013
 234  135.105
 235  242.0089
 236  171.6884
 237  -44.29617
 238  29.74545
 239  171.2869
 240  86.90868
 241  151.9924
 242  162.2423
 243  189.1439
 244  203.3901
 245  53.70387
 246  23.01358
 247  44.34481
 248  -19.35941
 249  -54.25882
 250  38.4805
 251  90.63669
 252  66.52026
 253  -24.85727
 254  33.76379
 255  183.3616
 256  -61.73175
 257  -53.566
 258  38.02911
 259  53.05119
 260  227.4487
 261  251.9939
 262  254.7732
 263  309.7828
 264  270.6717
 265  114.316
 266  67.64049
 267  141.3568
 268  136.6702
 269  120.5283
 270  275.1871
 271  219.2614
 272  219.2951
 273  149.0498
 274  102.3493
 275  192.9933
 276  54.96258
 277  73.83522
 278  235.0918
 279  86.32919
 280  48.08255
 281  138.8709
 282  169.6266
 283  71.60469
 284  -13.95578
 285  65.04565
 286  320.2693
 287  191.4577
 288  48.91017
 289  91.34592
 290  100.5598
 291  175.799
 292  133.4865
 293  217.0604
 294  70.3586
 295  -44.19532
 296  85.63036
 297  123.5154
 298  35.5885
 299  82.84541
 300  123.3696
 301  157.6348
 302  58.75698
 303  -5.383499
 304  89.68401
 305  22.0788
 306  138.5149
 307  35.19059
 308  -50.35013
 309  113.7418
 310  4.48781
 311  34.04391
 312  -33.50419
 313  25.33764
 314  -7.192192
 315  34.03052
 316  81.55277
 317  159.2907
 318  62.33904
 319  -2.394072
 320  231.1581
 321  274.1105
 322  197.5686
 323  61.01746
 324  -87.17215
 325  -28.80753
 326  106.8913
 327  238.7906
 328  143.4145
 329  48.2439
 330  188.0322
 331  154.2192
 332  83.37127
 333  184.4609
 334  236.9805
 335  203.8683
 336  123.5409
 337  241.7653
 338  179.8565
 339  188.8217
 340  79.9038
 341  86.54183
 342  97.36604
 343  23.11046
 344  114.6301
 345  111.3105
 346  174.5276
 347  211.7899
 348  105.8556
 349  -17.09534
 350  51.68327
 351  90.31014
 352  139.7986
 353  160.7627
 354  -33.15635
 355  113.8561
 356  301.1801
 357  127.4211
 358  31.11642
 359  18.41272
 360  -16.185
 361  115.7095
 362  170.3499
 363  94.61797
 364  106.7285
 365  63.25253
 366  -25.02476
 367  -1.182411
 368  37.75239
 369  63.44332
 370  112.1572
 371  201.4099
 372  46.92327
 373  -67.19965
 374  173.0677
 375  173.6792
 376  127.0088
 377  48.06434
 378  118.4957
 379  143.2392
 380  103.2552
 381  157.447
 382  57.23604
 383  185.5147
 384  -25.16699
 385  -21.01167
 386  88.40443
 387  36.3292
 388  -141.7489
 389  43.15843
 390  176.6707
 391  153.1999
 392  159.325
 393  114.4617
 394  110.9799
 395  78.54307
 396  -13.19396
 397  -65.00381
 398  1.967007
 399  177.5474
 400  141.863
 401  114.1338
 402  116.1051
 403  168.9021
 404  206.8401
 405  146.3648
 406  61.67596
 407  8.268317
 408  64.49406
 409  182.6532
 410  77.84091
 411  2.101869
 412  0.05999171
 413  57.07296
 414  85.37976
 415  164.0751
 416  159.4588
 417  81.05513
 418  84.32751
 419  74.20451
 420  164.0482
 421  120.1656
 422  227.2195
 423  39.79005
 424  59.18982
 425  91.90324
 426  94.18497
 427  125.0894
 428  188.2972
 429  207.4821
 430  64.94128
 431  32.29998
 432  84.70113
 433  90.31817
 434  85.2512
 435  190.216
 436  170.2119
 437  135.3057
 438  237.9
 439  207.1758
 440  190.7232
 441  185.8951
 442  145.2745
 443  152.593
 444  36.2912
 445  -150.9656
 446  -71.25391
 447  51.21749
 448  -6.130327
 449  16.42785
 450  36.72246
 451  122.9823
 452  78.47026
 453  171.2811
 454  71.49616
 455  -43.9203
 456  -81.24039
 457  20.34649
 458  157.1399
 459  169.6103
 460  124.6119
 461  144.8728
 462  -20.32129
 463  -89.47709
 464  71.5701
 465  73.52972
 466  24.22142
 467  44.05851
 468  67.61388
 469  100.6141
 470  31.21354
 471  50.49821
 472  53.05842
 473  5.904299
 474  34.11569
 475  21.9851
 476  109.3631
 477  149.2063
 478  63.22267
 479  220.323
 480  228.8783
 481  82.80002
 482  126.7108
 483  103.6571
 484  50.7942
 485  69.34226
 486  43.60204
 487  -31.99383
 488  97.67036
 489  87.32852
 490  105.6628
 491  102.7362
 492  120.6913
 493  119.7955
 494  33.55783
 495  212.4681
 496  224.174
 497  87.51196
 498  102.4585
 499  277.3036
 500  208.1178
 501  147.1877
 502  139.117
 503  191.9832
 504  211.2916
 505  137.4562
 506  90.139
 507  215.3606
 508  328.4604
 509  324.341
 510  532.9489
 511  760.1351
