# Input file       =  1189369560.126245_cleaned.dat
# Candidate        =  PSR_0332+5434
# Telescope        =  AR
# Epoch_topo       =  58009.851610257465
# Epoch_bary       =  N/A
# T_sample         =  0.002
# Data Folded      =  7208960
# Data Avg         =  0.00727684848580209
# Data StdDev      =  1.00004745263436 
# Profile Bins     =  512
# Profile Avg      =  102.457084735865 
# Profile StdDev   =  118.664806484013 
# Reduced chi-sqr  =  1.666
# Prob(Noise)      <  1.92e-19   (~8.9 sigma)
# P_topo (ms)      =  714.465546191426  +/- 0.000209
# P'_topo (s/s)    =  -0                +/- 1.12e-10
# P''_topo (s/s^2) =  0                 +/- 5.05e-14
# P_bary (ms)      =  N/A
# P'_bary (s/s)    =  N/A
# P''_bary (s/s^2) =  N/A
# P_orb (s)        =  N/A
# asin(i)/c (s)    =  N/A
# eccentricity     =  N/A
# w (rad)          =  N/A
# T_peri           =  N/A
######################################################
   0  815.1922
   1  783.9448
   2  641.0081
   3  345.5612
   4  178.1273
   5  68.5038
   6  40.46851
   7  89.38152
   8  74.17008
   9  162.1413
  10  138.7835
  11  160.954
  12  236.0972
  13  301.7968
  14  235.4086
  15  120.7321
  16  122.5117
  17  94.99463
  18  182.3227
  19  55.25693
  20  -12.71177
  21  122.3892
  22  107.1777
  23  -7.910252
  24  -25.68196
  25  13.92264
  26  -9.528097
  27  -81.51292
  28  81.18844
  29  216.8618
  30  171.4982
  31  112.6067
  32  182.4803
  33  226.9517
  34  266.0486
  35  168.6567
  36  116.2898
  37  90.50622
  38  55.30519
  39  178.0262
  40  279.5907
  41  300.1407
  42  207.1659
  43  138.9854
  44  157.9948
  45  78.45284
  46  112.19
  47  232.9139
  48  114.9203
  49  92.22127
  50  130.6696
  51  202.0937
  52  190.1769
  53  33.67449
  54  -27.82477
  55  -62.92528
  56  5.456588
  57  144.7646
  58  166.2909
  59  180.1373
  60  108.039
  61  97.43752
  62  104.5382
  63  157.0968
  64  252.053
  65  107.0184
  66  68.99985
  67  -19.45756
  68  95.5064
  69  111.6024
  70  184.2686
  71  334.8736
  72  161.2759
  73  73.32511
  74  97.50326
  75  5.980966
  76  -7.431475
  77  121.9279
  78  64.08577
  79  -5.661102
  80  168.1691
  81  230.9946
  82  155.2175
  83  37.98718
  84  56.70509
  85  64.14414
  86  149.0139
  87  165.5747
  88  86.03691
  89  40.08978
  90  81.32262
  91  61.67091
  92  55.79473
  93  56.87742
  94  8.886863
  95  108.2982
  96  -15.83058
  97  1.166561
  98  2.21225
  99  5.358898
 100  128.8471
 101  144.9005
 102  86.28013
 103  172.0901
 104  96.0987
 105  -5.494468
 106  140.4338
 107  105.5712
 108  269.2332
 109  200.033
 110  15.67894
 111  133.3566
 112  1.832986
 113  -28.59607
 114  176.9467
 115  217.6405
 116  48.23183
 117  -33.86447
 118  -1.649339
 119  -95.27682
 120  -59.82995
 121  17.79397
 122  198.4443
 123  140.2287
 124  -2.184522
 125  -30.36403
 126  75.50372
 127  169.598
 128  123.2817
 129  56.28825
 130  -9.761072
 131  76.91496
 132  140.0908
 133  100.2973
 134  98.25746
 135  142.5434
 136  263.1975
 137  190.8567
 138  232.6497
 139  44.85974
 140  34.953
 141  93.13117
 142  167.273
 143  242.7403
 144  92.30119
 145  88.6507
 146  65.51962
 147  -54.51164
 148  -126.0912
 149  -24.75928
 150  83.54224
 151  22.84995
 152  -41.39578
 153  -71.07683
 154  -46.99128
 155  139.1028
 156  174.7336
 157  67.6301
 158  112.5423
 159  121.8106
 160  78.47691
 161  164.1396
 162  34.24708
 163  120.2173
 164  182.5437
 165  283.251
 166  71.93818
 167  -77.98967
 168  -76.3577
 169  28.93778
 170  194.2695
 171  197.3621
 172  129.9743
 173  8.314462
 174  115.8613
 175  95.10376
 176  103.0663
 177  9.510394
 178  35.86032
 179  -81.67525
 180  -76.94942
 181  -62.81388
 182  62.83693
 183  128.5072
 184  257.1536
 185  86.92596
 186  117.3681
 187  122.6755
 188  65.79292
 189  52.63287
 190  124.942
 191  194.1031
 192  124.6182
 193  5.271957
 194  58.69799
 195  76.54088
 196  53.8439
 197  34.55065
 198  160.7389
 199  92.45988
 200  125.9915
 201  67.59079
 202  97.55961
 203  143.9116
 204  94.04132
 205  98.17336
 206  27.52637
 207  99.1953
 208  100.2724
 209  41.37583
 210  113.4629
 211  109.8643
 212  230.5625
 213  280.3387
 214  138.1157
 215  -35.53347
 216  -18.58933
 217  111.1892
 218  326.2888
 219  146.9819
 220  55.65907
 221  204.9342
 222  64.18091
 223  158.2999
 224  214.1886
 225  64.16552
 226  27.08426
 227  192.4526
 228  167.1938
 229  39.60356
 230  94.57029
 231  211.5982
 232  184.7428
 233  165.4172
 234  143.4435
 235  14.2985
 236  96.7158
 237  135.0465
 238  37.99148
 239  31.48407
 240  -7.474394
 241  54.80251
 242  245.6553
 243  186.4238
 244  172.3747
 245  172.6501
 246  123.3139
 247  -23.49667
 248  29.81408
 249  27.28649
 250  -47.48971
 251  104.3893
 252  76.54233
 253  176.0213
 254  70.76059
 255  6.109053
 256  -31.08639
 257  -24.1077
 258  97.04795
 259  217.6817
 260  79.58285
 261  37.27368
 262  84.606
 263  143.0843
 264  48.88474
 265  104.5223
 266  78.57447
 267  149.1461
 268  142.8603
 269  71.47363
 270  115.6082
 271  192.7164
 272  267.1628
 273  -65.32583
 274  71.87762
 275  309.8579
 276  272.3656
 277  7.290806
 278  82.25808
 279  279.086
 280  187.8445
 281  106.6268
 282  68.50273
 283  213.471
 284  152.4629
 285  95.34673
 286  30.66571
 287  -45.01121
 288  -66.51605
 289  5.269692
 290  44.6883
 291  233.9248
 292  92.70657
 293  -39.84327
 294  96.87258
 295  189.5941
 296  232.9373
 297  273.3305
 298  88.62901
 299  10.92609
 300  116.0596
 301  258.1676
 302  208.7878
 303  288.2986
 304  202.5891
 305  176.9513
 306  81.39897
 307  155.9496
 308  172.1714
 309  6.061727
 310  -5.714613
 311  117.5063
 312  53.95488
 313  -79.50866
 314  -188.1938
 315  -46.24232
 316  129.0582
 317  105.8637
 318  213.6834
 319  193.3329
 320  195.6216
 321  56.62131
 322  -16.19158
 323  174.887
 324  220.018
 325  104.2543
 326  47.83176
 327  88.38289
 328  86.46466
 329  -41.13068
 330  19.24555
 331  -11.83711
 332  -15.97018
 333  108.9204
 334  60.33431
 335  153.8231
 336  182.2541
 337  48.02865
 338  -0.1683379
 339  53.71832
 340  121.8474
 341  136.7525
 342  192.5294
 343  140.758
 344  2.702328
 345  34.61555
 346  -58.8999
 347  81.06828
 348  117.7424
 349  103.1487
 350  111.2217
 351  -41.26625
 352  -14.06795
 353  4.397191
 354  97.91421
 355  81.78498
 356  93.62314
 357  188.7233
 358  -21.71515
 359  15.20194
 360  63.79859
 361  102.0023
 362  73.36005
 363  110.0759
 364  -33.58296
 365  -161.2402
 366  -152.6642
 367  31.87829
 368  119.4023
 369  80.86894
 370  80.06481
 371  112.2519
 372  94.33019
 373  8.398957
 374  -43.58777
 375  43.61515
 376  124.3907
 377  178.5735
 378  175.1335
 379  116.6699
 380  90.62772
 381  118.3632
 382  39.47877
 383  40.85728
 384  -5.135082
 385  91.4204
 386  97.93017
 387  131.4751
 388  187.4038
 389  59.95543
 390  120.864
 391  117.1828
 392  195.1569
 393  172.2429
 394  50.84514
 395  73.03687
 396  47.86631
 397  84.26817
 398  156.162
 399  128.3088
 400  118.9421
 401  131.4644
 402  95.9459
 403  80.62893
 404  50.11323
 405  95.70683
 406  37.06463
 407  114.8807
 408  68.56392
 409  -21.82573
 410  -0.1956121
 411  124.3318
 412  95.75889
 413  47.84735
 414  41.26679
 415  127.2532
 416  267.869
 417  151.6183
 418  127.8546
 419  196.8884
 420  35.28658
 421  -39.79678
 422  149.6953
 423  349.2582
 424  320.5557
 425  219.3951
 426  190.5953
 427  -9.159513
 428  38.97775
 429  53.33067
 430  40.67955
 431  53.55348
 432  136.0311
 433  153.788
 434  45.47354
 435  122.0842
 436  207.3792
 437  156.3293
 438  131.3896
 439  112.1513
 440  92.11102
 441  132.1818
 442  106.9929
 443  -50.10673
 444  -48.01515
 445  31.28971
 446  135.5662
 447  11.8265
 448  2.381025
 449  -41.1096
 450  91.77972
 451  31.3752
 452  45.49137
 453  36.81407
 454  -66.08113
 455  13.2281
 456  -79.34077
 457  56.08445
 458  59.60481
 459  23.31391
 460  103.8172
 461  141.2194
 462  248.3259
 463  228.1593
 464  46.21677
 465  133.5908
 466  5.31132
 467  -1.582202
 468  49.42132
 469  138.1108
 470  88.18134
 471  4.820361
 472  37.0923
 473  -42.5032
 474  -11.86929
 475  -5.853179
 476  74.00669
 477  0.1660171
 478  44.48294
 479  33.11417
 480  75.00423
 481  134.1045
 482  92.71751
 483  -10.28111
 484  85.35887
 485  126.5685
 486  187.1764
 487  167.8538
 488  82.70512
 489  134.5308
 490  92.08131
 491  179.7321
 492  186.9642
 493  150.9463
 494  86.79246
 495  23.19003
 496  90.409
 497  112.2594
 498  75.37067
 499  48.02985
 500  77.48828
 501  140.315
 502  197.7429
 503  140.0879
 504  110.1239
 505  222.0036
 506  323.1981
 507  294.0442
 508  365.115
 509  427.3293
 510  700.9263
 511  850.6393
