# Input file       =  1189571473.122714-PSRB0329-2ms-sampling-dd.dat
# Candidate        =  PSR_0332+5434
# Telescope        =  AR
# Epoch_topo       =  58012.188566235120
# Epoch_bary       =  N/A
# T_sample         =  0.002
# Data Folded      =  7340032
# Data Avg         =  5.68698046223564e-11
# Data StdDev      =  5.57735235447717 
# Profile Bins     =  512
# Profile Avg      =  -0.609363069524763
# Profile StdDev   =  667.793332344657 
# Reduced chi-sqr  =  0.705
# Prob(Noise)      <  1   (~0.0 sigma)
# P_topo (ms)      =  714.466567411401  +/- 0.000191
# P'_topo (s/s)    =  -0                +/- 1.01e-10
# P''_topo (s/s^2) =  0                 +/- 4.45e-14
# P_bary (ms)      =  N/A
# P'_bary (s/s)    =  N/A
# P''_bary (s/s^2) =  N/A
# P_orb (s)        =  N/A
# asin(i)/c (s)    =  N/A
# eccentricity     =  N/A
# w (rad)          =  N/A
# T_peri           =  N/A
######################################################
   0  187.8219
   1  415.6804
   2  -101.6836
   3  -258.9452
   4  -570.9977
   5  -137.4126
   6  -274.041
   7  -547.5435
   8  -591.5268
   9  -696.7149
  10  -441.4041
  11  -57.00414
  12  -336.0254
  13  -264.646
  14  -379.1616
  15  -221.8893
  16  -479.7346
  17  -219.8946
  18  -227.732
  19  -548.4285
  20  -41.23879
  21  -256.6461
  22  -107.7706
  23  -321.5065
  24  -81.19056
  25  66.8239
  26  89.17792
  27  -159.5977
  28  289.9826
  29  287.6938
  30  284.1913
  31  108.0581
  32  124.029
  33  -249.4859
  34  -214.5811
  35  -52.56451
  36  326.9764
  37  753.6086
  38  289.3154
  39  -33.8634
  40  -103.6243
  41  -76.34905
  42  15.70451
  43  -387.7297
  44  -202.6201
  45  37.38942
  46  136.6313
  47  92.26244
  48  -14.2831
  49  95.73516
  50  89.84224
  51  193.9861
  52  -79.31841
  53  -318.9868
  54  -233.0592
  55  -71.86413
  56  -58.36374
  57  19.52217
  58  -332.5306
  59  -201.9431
  60  -311.1078
  61  -730.0011
  62  -785.8424
  63  -141.5322
  64  322.6129
  65  -482.8638
  66  -289.4699
  67  -6.514596
  68  -346.6291
  69  52.23754
  70  102.7602
  71  -304.6393
  72  -498.5873
  73  -307.7104
  74  -332.6559
  75  -326.843
  76  85.70573
  77  -298.4199
  78  -740.5927
  79  -192.6698
  80  -335.7369
  81  23.23523
  82  -202.6596
  83  -191.1381
  84  -383.929
  85  -262.1611
  86  -81.12361
  87  -243.8655
  88  -209.5518
  89  54.2873
  90  -289.1776
  91  -205.2491
  92  -347.6708
  93  -314.3944
  94  63.14263
  95  -487.0243
  96  -471.7896
  97  -991.4874
  98  -747.799
  99  -54.39388
 100  -52.87944
 101  -282.4673
 102  -246.307
 103  178.1108
 104  173.7777
 105  -35.1211
 106  -139.8828
 107  64.37402
 108  -82.79068
 109  23.08916
 110  320.8095
 111  498.014
 112  248.5961
 113  -11.91329
 114  358.0216
 115  286.7203
 116  177.8648
 117  577.4813
 118  152.4884
 119  458.4973
 120  840.2224
 121  445.4177
 122  474.6246
 123  70.78023
 124  290.7502
 125  120.5959
 126  99.13093
 127  391.9586
 128  178.4697
 129  743.5406
 130  893.2209
 131  74.42342
 132  169.8475
 133  -216.6494
 134  563.8386
 135  389.1606
 136  716.8392
 137  613.5693
 138  955.5629
 139  228.5628
 140  203.3234
 141  195.8905
 142  249.3748
 143  478.6392
 144  -69.40524
 145  312.2354
 146  1239.84
 147  1964.085
 148  1877.82
 149  1275.684
 150  1295.516
 151  1121.802
 152  320.2395
 153  -135.6729
 154  181.6029
 155  261.2878
 156  388.7775
 157  569.2718
 158  189.8597
 159  255.9689
 160  -317.7332
 161  85.21127
 162  -72.19078
 163  177.5365
 164  -102.1847
 165  -486.8406
 166  -409.9557
 167  -574.2349
 168  -173.1611
 169  -131.2863
 170  -8.147751
 171  217.6453
 172  -154.8684
 173  55.34885
 174  84.2365
 175  209.495
 176  478.0473
 177  503.0532
 178  466.2233
 179  96.66068
 180  -461.6726
 181  -579.4909
 182  -440.6786
 183  -190.8986
 184  -413.6975
 185  -192.9886
 186  -161.1517
 187  -17.48821
 188  202.1809
 189  -44.03603
 190  -163.2015
 191  -52.88035
 192  -531.4525
 193  -810.7818
 194  -658.6422
 195  -613.5154
 196  -153.5291
 197  160.3224
 198  424.7647
 199  14.64139
 200  -312.9614
 201  128.2738
 202  -252.8807
 203  124.7932
 204  468.62
 205  626.7843
 206  299.6026
 207  37.98782
 208  -149.3651
 209  39.93618
 210  1137.69
 211  718.2638
 212  236.2444
 213  -107.9455
 214  -269.2505
 215  -190.8343
 216  -301.7889
 217  476.5787
 218  788.2421
 219  495.9063
 220  342.9099
 221  129.1847
 222  246.409
 223  669.1439
 224  738.7846
 225  128.5423
 226  528.8885
 227  322.4024
 228  339.844
 229  317.0484
 230  333.3072
 231  246.9288
 232  -85.61361
 233  -239.1285
 234  -72.44892
 235  280.5412
 236  300.5906
 237  631.034
 238  415.8013
 239  335.9379
 240  262.7876
 241  181.5204
 242  145.7079
 243  133.915
 244  173.5491
 245  384.7647
 246  249.7081
 247  -241.2853
 248  -68.49986
 249  -70.73895
 250  152.3916
 251  189.1967
 252  367.4308
 253  1054.851
 254  793.98
 255  112.6784
 256  -39.52897
 257  116.877
 258  129.1222
 259  157.2742
 260  116.1046
 261  122.3254
 262  -79.33794
 263  -581.129
 264  -809.8166
 265  -621.9362
 266  13.48576
 267  -63.00053
 268  -418.1012
 269  -280.1611
 270  -39.95618
 271  102.3673
 272  -200.2311
 273  -210.5035
 274  -196.4658
 275  -706.2178
 276  -533.3875
 277  -209.4485
 278  8.521812
 279  651.2404
 280  321.6026
 281  -52.91025
 282  -291.5996
 283  -131.1621
 284  -373.008
 285  -57.47322
 286  -100.0743
 287  -187.616
 288  -334.255
 289  -273.3443
 290  -11.12381
 291  -389.4719
 292  -541.9768
 293  -813.484
 294  -602.5775
 295  -100.9226
 296  -305.1509
 297  146.9917
 298  -245.4949
 299  -206.901
 300  -69.11787
 301  -207.8213
 302  -392.48
 303  308.4742
 304  417.3618
 305  365.8774
 306  215.3706
 307  -558.4767
 308  -388.0089
 309  -480.5685
 310  -270.2561
 311  9.355452
 312  381.7975
 313  815.624
 314  140.221
 315  -239.5159
 316  -525.6491
 317  -133.5001
 318  237.8082
 319  328.748
 320  318.1808
 321  333.2284
 322  -316.9167
 323  -143.3208
 324  -410.9905
 325  -269.5414
 326  -285.8459
 327  -506.1972
 328  -460.5156
 329  -813.3558
 330  -825.0518
 331  -374.1565
 332  -610.8679
 333  -333.2195
 334  -480.3622
 335  -198.9062
 336  -209.8792
 337  -426.8697
 338  313.2228
 339  458.4768
 340  151.6881
 341  -55.13781
 342  -109.4359
 343  20.66783
 344  83.26756
 345  491.5065
 346  209.7754
 347  20.66631
 348  136.2991
 349  -170.5951
 350  -419.4612
 351  -190.8714
 352  75.73843
 353  -164.658
 354  -44.64043
 355  4.161518
 356  127.6623
 357  -99.39097
 358  284.317
 359  -475.3879
 360  -698.5392
 361  -223.4852
 362  172.4307
 363  -321.3663
 364  -16.3152
 365  238.7175
 366  174.0772
 367  -609.4425
 368  -583.4565
 369  -587.5781
 370  -545.7098
 371  -26.60574
 372  341.6873
 373  65.43456
 374  -538.2518
 375  -317.8136
 376  -200.8827
 377  -621.4657
 378  -419.0528
 379  67.88335
 380  237.9059
 381  -335.5885
 382  -593.6809
 383  -480.4773
 384  -351.6746
 385  -281.2552
 386  -246.9459
 387  -315.8387
 388  -301.6861
 389  -974.5828
 390  -921.2664
 391  -1050.499
 392  -509.0511
 393  -128.019
 394  132.7856
 395  512.3614
 396  93.62363
 397  -483.1231
 398  -990.0504
 399  -1157.962
 400  -471.6099
 401  -60.17009
 402  488.0789
 403  550.0798
 404  -42.04732
 405  -114.621
 406  -127.4449
 407  -349.1394
 408  -69.36211
 409  -37.8268
 410  314.4979
 411  156.4888
 412  -54.63907
 413  729.1281
 414  983.7018
 415  360.4033
 416  400.5473
 417  208.6563
 418  -391.8064
 419  32.35471
 420  -3.094652
 421  -108.2583
 422  158.0451
 423  214.2272
 424  439.6307
 425  92.25307
 426  70.31404
 427  459.9664
 428  434.6657
 429  193.8254
 430  192.539
 431  642.2178
 432  891.6697
 433  186.3148
 434  123.7005
 435  453.9003
 436  -134.6416
 437  12.20432
 438  -158.7983
 439  364.5759
 440  554.4968
 441  558.4232
 442  -63.88388
 443  -169.9085
 444  335.5199
 445  238.9647
 446  701.6001
 447  1049.37
 448  902.4882
 449  433.5526
 450  352.3289
 451  -70.3913
 452  -277.9033
 453  100.8004
 454  89.26152
 455  83.31961
 456  -441.6632
 457  -427.632
 458  -487.0967
 459  -207.28
 460  200.6537
 461  319.5709
 462  172.4131
 463  200.9185
 464  -399.2271
 465  -537.8415
 466  -118.6302
 467  403.1446
 468  688.2824
 469  713.0773
 470  318.8679
 471  -127.2163
 472  -317.7167
 473  106.0925
 474  200.848
 475  -103.1222
 476  533.0731
 477  391.1407
 478  120.2764
 479  -257.719
 480  -424.0739
 481  -110.3369
 482  -92.94056
 483  -84.45451
 484  127.7591
 485  140.3931
 486  -21.01914
 487  -105.4123
 488  69.03932
 489  -121.3583
 490  -547.4373
 491  -683.5193
 492  -345.7414
 493  346.4065
 494  29.67679
 495  -219.6288
 496  2.753045
 497  296.2954
 498  26.20087
 499  -762.1609
 500  -295.4943
 501  -56.89414
 502  164.8158
 503  338.4052
 504  393.0328
 505  68.07288
 506  23.39809
 507  195.9153
 508  104.7883
 509  -345.5692
 510  96.07691
 511  406.934
