# Input file       =  1189628040.113569_cleaned.dat
# Candidate        =  PSR_0332+5434
# Telescope        =  AR
# Epoch_topo       =  58012.843276777421
# Epoch_bary       =  N/A
# T_sample         =  0.002
# Data Folded      =  7208960
# Data Avg         =  0.0278360952993602
# Data StdDev      =  3.25437303992478 
# Profile Bins     =  512
# Profile Avg      =  391.90527949437  
# Profile StdDev   =  386.161222642161 
# Reduced chi-sqr  =  0.909
# Prob(Noise)      <  0.93   (~0.0 sigma)
# P_topo (ms)      =  714.466421345452  +/- 0.000233
# P'_topo (s/s)    =  -0                +/- 1.25e-10
# P''_topo (s/s^2) =  0                 +/- 5.64e-14
# P_bary (ms)      =  N/A
# P'_bary (s/s)    =  N/A
# P''_bary (s/s^2) =  N/A
# P_orb (s)        =  N/A
# asin(i)/c (s)    =  N/A
# eccentricity     =  N/A
# w (rad)          =  N/A
# T_peri           =  N/A
######################################################
   0  583.492
   1  507.2245
   2  336.7132
   3  379.8831
   4  286.146
   5  356.7939
   6  306.5306
   7  345.4428
   8  326.1958
   9  401.3689
  10  609.8538
  11  448.7017
  12  561.5875
  13  433.515
  14  542.8152
  15  591.1173
  16  391.1838
  17  7.329342
  18  135.0001
  19  372.2111
  20  604.5753
  21  172.1961
  22  122.7528
  23  -122.2989
  24  -149.63
  25  186.378
  26  253.7576
  27  289.2952
  28  583.1685
  29  370.1698
  30  279.8763
  31  275.8068
  32  252.2975
  33  579.7107
  34  422.8916
  35  464.6806
  36  531.0113
  37  514.6271
  38  495.7846
  39  116.3464
  40  227.594
  41  320.1573
  42  227.3186
  43  411.1455
  44  505.1146
  45  428.1118
  46  814.2962
  47  379.0267
  48  266.4748
  49  -88.98802
  50  114.3788
  51  261.9788
  52  212.2052
  53  359.9102
  54  511.3428
  55  534.1553
  56  507.9605
  57  276.6543
  58  336.1416
  59  627.9374
  60  865.9792
  61  753.3318
  62  523.8831
  63  655.4895
  64  537.8056
  65  566.4155
  66  257.3592
  67  503.766
  68  291.1789
  69  196.7073
  70  403.9401
  71  398.1953
  72  844.9739
  73  290.1678
  74  529.4513
  75  227.6673
  76  77.88663
  77  318.0453
  78  489.0656
  79  336.1161
  80  125.2369
  81  320.5213
  82  120.953
  83  44.45386
  84  207.3154
  85  -93.92354
  86  7.83954
  87  186.5862
  88  272.0054
  89  143.5309
  90  552.6033
  91  566.8624
  92  610.4353
  93  557.871
  94  628.2948
  95  435.6961
  96  282.0302
  97  424.2146
  98  377.7687
  99  325.2744
 100  681.6898
 101  808.8728
 102  539.5041
 103  298.3333
 104  48.83286
 105  249.2859
 106  121.5836
 107  404.1332
 108  575.3561
 109  477.3701
 110  289.1988
 111  787.0366
 112  745.6839
 113  432.1892
 114  417.286
 115  583.2717
 116  -59.61323
 117  327.921
 118  635.6289
 119  306.3156
 120  188.8625
 121  438.5919
 122  809.7836
 123  736.0731
 124  125.6207
 125  14.47213
 126  405.5132
 127  311.7603
 128  554.3169
 129  797.1654
 130  685.0653
 131  630.0231
 132  684.2263
 133  381.9826
 134  148.4284
 135  80.10816
 136  324.8571
 137  758.2162
 138  751.6349
 139  514.3293
 140  555.7343
 141  322.6426
 142  39.01606
 143  161.2935
 144  680.1137
 145  496.9646
 146  255.0271
 147  121.0667
 148  156.6629
 149  250.4708
 150  393.623
 151  331.0238
 152  -32.41511
 153  74.59264
 154  236.3748
 155  -1.182361
 156  158.0282
 157  186.6065
 158  151.8819
 159  5.327739
 160  293.8666
 161  270.7407
 162  54.31376
 163  -11.61238
 164  275.1991
 165  414.8699
 166  320.1199
 167  171.9778
 168  365.9759
 169  178.3609
 170  247.6344
 171  300.3042
 172  23.66918
 173  81.55891
 174  406.9024
 175  87.60813
 176  118.9429
 177  175.4608
 178  231.6469
 179  142.0984
 180  260.3253
 181  168.9487
 182  242.5817
 183  664.9858
 184  541.449
 185  124.0342
 186  89.52853
 187  25.8007
 188  385.2985
 189  455.4546
 190  322.9487
 191  588.3483
 192  656.2626
 193  479.7908
 194  182.5107
 195  410.7232
 196  219.4223
 197  806.0265
 198  585.9702
 199  318.6941
 200  1.46129
 201  -3.586838
 202  327.2428
 203  356.844
 204  237.8232
 205  331.08
 206  962.1292
 207  726.8436
 208  489.1514
 209  744.1355
 210  537.3173
 211  326.6546
 212  204.3079
 213  212.5481
 214  309.4737
 215  513.0644
 216  565.7165
 217  327.5435
 218  431.5804
 219  724.1548
 220  461.4315
 221  428.5674
 222  13.11067
 223  165.1781
 224  196.481
 225  535.5202
 226  879.5591
 227  657.0884
 228  573.9201
 229  448.3897
 230  0.9750929
 231  -18.24066
 232  331.4248
 233  362.0766
 234  243.6033
 235  577.0801
 236  413.3227
 237  502.2744
 238  400.5897
 239  130.5523
 240  390.286
 241  391.6344
 242  370.6766
 243  436.7765
 244  502.8832
 245  680.3337
 246  331.5049
 247  296.8084
 248  255.656
 249  275.7459
 250  312.9735
 251  476.7763
 252  233.2456
 253  188.3938
 254  656.5129
 255  262.2433
 256  -104.6756
 257  128.4903
 258  -39.242
 259  114.6684
 260  311.9144
 261  280.6583
 262  643.5907
 263  206.5336
 264  120.0407
 265  348.7628
 266  615.6882
 267  494.1837
 268  446.2828
 269  514.5677
 270  837.2499
 271  926.9623
 272  316.9992
 273  14.88113
 274  380.2296
 275  456.522
 276  395.0144
 277  486.5841
 278  671.4666
 279  523.1951
 280  733.2021
 281  389.843
 282  376.4214
 283  329.9586
 284  144.7677
 285  475.2076
 286  857.9343
 287  669.5009
 288  968.3585
 289  882.7627
 290  1403.418
 291  2080.879
 292  2348.145
 293  2142.969
 294  1446.553
 295  1218.457
 296  859.0356
 297  850.4012
 298  766.6271
 299  772.6264
 300  603.9985
 301  115.3261
 302  176.692
 303  313.4252
 304  112.5348
 305  344.8391
 306  584.6039
 307  695.3063
 308  880.1118
 309  470.7716
 310  432.5967
 311  62.46721
 312  291.5873
 313  203.8328
 314  325.334
 315  466.6004
 316  100.4266
 317  137.1237
 318  236.7933
 319  112.8456
 320  -165.6335
 321  348.7846
 322  562.1676
 323  435.7787
 324  461.2027
 325  542.8275
 326  470.1101
 327  234.8381
 328  198.6844
 329  171.2885
 330  219.8885
 331  85.70514
 332  236.7684
 333  443.9836
 334  391.5714
 335  302.3256
 336  310.9928
 337  343.3431
 338  283.5843
 339  93.00882
 340  185.977
 341  368.9285
 342  372.7083
 343  321.3047
 344  315.0347
 345  474.392
 346  497.4547
 347  373.3282
 348  705.076
 349  423.122
 350  274.7173
 351  285.9676
 352  115.6501
 353  568.8953
 354  491.7054
 355  576.8488
 356  575.4047
 357  345.6172
 358  606.5245
 359  172.069
 360  204.4996
 361  197.5973
 362  498.7461
 363  451.9788
 364  234.272
 365  605.2326
 366  443.9438
 367  553.1769
 368  473.2995
 369  641.1011
 370  632.6501
 371  161.0268
 372  403.2527
 373  502.1251
 374  407.6992
 375  515.2743
 376  335.4963
 377  594.1706
 378  786.1794
 379  377.4437
 380  254.1269
 381  123.8282
 382  267.9573
 383  411.1306
 384  786.3045
 385  81.72742
 386  196.8076
 387  310.4882
 388  556.1318
 389  605.26
 390  444.0699
 391  447.8423
 392  306.6705
 393  237.6721
 394  199.5586
 395  152.4743
 396  228.0061
 397  451.4923
 398  625.6835
 399  559.2753
 400  193.5852
 401  173.201
 402  204.068
 403  71.61063
 404  152.9077
 405  447.929
 406  918.0052
 407  780.5691
 408  436.2055
 409  419.3057
 410  545.7831
 411  481.2792
 412  393.2986
 413  478.3892
 414  866.6694
 415  723.6923
 416  148.7833
 417  57.56916
 418  22.18354
 419  106.8007
 420  361.3694
 421  352.1534
 422  431.3808
 423  460.3695
 424  254.7979
 425  471.0248
 426  388.0805
 427  381.1177
 428  198.6094
 429  667.5692
 430  738.7963
 431  310.5588
 432  290.3433
 433  347.9293
 434  157.0266
 435  131.8699
 436  10.54297
 437  145.5214
 438  232.1278
 439  529.7609
 440  644.1457
 441  718.9792
 442  976.7675
 443  594.7368
 444  464.3073
 445  499.9289
 446  319.8284
 447  344.2751
 448  272.0832
 449  146.2911
 450  42.16256
 451  166.6253
 452  3.656573
 453  294.6308
 454  103.4017
 455  292.5747
 456  299.0036
 457  395.8706
 458  333.0675
 459  201.7962
 460  78.89986
 461  268.863
 462  383.3058
 463  482.5769
 464  533.6838
 465  139.5724
 466  162.4424
 467  210.2858
 468  519.1512
 469  479.747
 470  385.9769
 471  625.5096
 472  613.5763
 473  838.7116
 474  591.9371
 475  540.9513
 476  350.6947
 477  380.0399
 478  185.216
 479  384.3442
 480  526.8888
 481  315.6411
 482  288.7193
 483  363.5293
 484  602.2831
 485  346.6767
 486  431.6558
 487  251.8142
 488  696.7498
 489  483.394
 490  662.5518
 491  564.6767
 492  165.8903
 493  144.8447
 494  234.49
 495  451.5985
 496  673.3638
 497  268.4506
 498  119.1853
 499  496.3351
 500  354.293
 501  315.5973
 502  291.5098
 503  307.4927
 504  467.7928
 505  197.9226
 506  408.4374
 507  640.1381
 508  530.1461
 509  212.2059
 510  269.8672
 511  570.7219
