# Input file       =  1189283375.118279_cleaned.dat
# Candidate        =  PSR_0332+5434
# Telescope        =  AR
# Epoch_topo       =  58008.854098591190
# Epoch_bary       =  N/A
# T_sample         =  0.002
# Data Folded      =  7208960
# Data Avg         =  0.206089302138637
# Data StdDev      =  4.25721306615343 
# Profile Bins     =  512
# Profile Avg      =  2901.7438757408  
# Profile StdDev   =  505.157393607216 
# Reduced chi-sqr  =  0.602
# Prob(Noise)      <  1   (~0.0 sigma)
# P_topo (ms)      =  714.465289901126  +/- 0.000916
# P'_topo (s/s)    =  -0                +/- 4.92e-10
# P''_topo (s/s^2) =  0                 +/- 2.21e-13
# P_bary (ms)      =  N/A
# P'_bary (s/s)    =  N/A
# P''_bary (s/s^2) =  N/A
# P_orb (s)        =  N/A
# asin(i)/c (s)    =  N/A
# eccentricity     =  N/A
# w (rad)          =  N/A
# T_peri           =  N/A
######################################################
   0  2832.73
   1  2790.622
   2  2890.788
   3  3123.161
   4  2673.269
   5  2787.451
   6  2833.127
   7  2609.521
   8  2850.628
   9  2748.237
  10  2911.692
  11  2357.778
  12  2955.496
  13  2994.833
  14  2957.514
  15  2992.283
  16  2574.919
  17  2924.389
  18  2391.788
  19  2799.281
  20  3042.482
  21  2771.233
  22  2787.081
  23  2951.87
  24  3086.359
  25  2691.122
  26  2663.685
  27  3053.048
  28  2985.339
  29  3155.19
  30  2721.231
  31  2783.069
  32  2846.398
  33  2743.068
  34  2996.029
  35  2711.218
  36  3009.585
  37  2709.254
  38  2912.975
  39  3223.528
  40  2719.835
  41  2740.007
  42  2669.903
  43  3125.028
  44  3656.144
  45  3607.594
  46  3280.032
  47  2769.919
  48  3007.711
  49  2768.46
  50  2823.656
  51  2648.104
  52  2683.469
  53  2749.502
  54  3049.861
  55  3027.687
  56  3298.721
  57  3020.471
  58  2886.813
  59  2943.891
  60  2557.263
  61  2825.467
  62  2885.451
  63  2951.459
  64  3050.265
  65  3378.922
  66  2691.376
  67  2170.126
  68  2812.849
  69  2927.191
  70  3200.009
  71  2963.017
  72  2896.498
  73  2731.391
  74  2583.511
  75  2636.626
  76  2599.161
  77  3082.885
  78  3225.956
  79  2941.59
  80  3141.011
  81  2980.706
  82  2428.455
  83  2478.442
  84  2859.892
  85  2989.314
  86  3105.603
  87  2752.34
  88  3011.843
  89  3024.458
  90  2897.288
  91  2618.202
  92  2700.805
  93  2926.785
  94  3031.088
  95  3090.924
  96  2917.035
  97  3134.138
  98  3167.394
  99  3359.858
 100  2776.377
 101  2929.262
 102  2677.864
 103  2636.309
 104  3212.836
 105  3260.358
 106  3016.881
 107  2807.935
 108  3051.9
 109  3414.919
 110  3120.346
 111  3000.885
 112  2999.777
 113  2865.186
 114  2979.629
 115  2873.062
 116  2979.774
 117  2586.35
 118  2777.004
 119  3087.287
 120  3215.337
 121  2924.291
 122  2535.704
 123  3084.966
 124  2478.299
 125  2304.515
 126  2265.577
 127  2637.803
 128  3228.354
 129  2836.43
 130  2925.346
 131  3002.53
 132  2652.329
 133  3053.652
 134  3179.006
 135  3131.741
 136  2842.99
 137  2708.319
 138  2891.198
 139  2953.834
 140  3069.729
 141  2946.982
 142  3223.547
 143  3271.902
 144  2843.996
 145  2910.676
 146  3100.681
 147  2950.348
 148  2703.606
 149  3041.58
 150  2873.549
 151  2148.666
 152  2674.879
 153  2884.869
 154  2694.752
 155  2777.969
 156  2766.361
 157  2907.666
 158  2835.057
 159  2870.443
 160  2805.459
 161  3015.329
 162  3040.288
 163  2611.195
 164  2734.02
 165  2916.991
 166  2348.879
 167  2795.975
 168  3523.129
 169  2715.592
 170  2642.921
 171  2805.933
 172  2618.273
 173  2594.044
 174  2743.088
 175  2847.558
 176  2962.327
 177  2383.212
 178  2631.891
 179  3140.684
 180  3027.892
 181  3033.858
 182  2780.133
 183  2682.442
 184  2575.414
 185  2792.146
 186  2948.973
 187  2659.113
 188  2794.053
 189  2776.096
 190  3008.415
 191  2780.606
 192  2943.597
 193  3024.386
 194  3177.223
 195  2928.237
 196  2898.961
 197  2840.666
 198  2848.569
 199  2260.778
 200  2898.036
 201  3034.063
 202  2598.953
 203  2774.591
 204  2708.867
 205  3023.513
 206  2566.984
 207  2659.279
 208  2626.346
 209  2674.921
 210  3016.693
 211  2734.16
 212  3167.442
 213  3294.62
 214  3262.654
 215  3104.634
 216  2456.332
 217  2238.77
 218  2651.958
 219  2930.975
 220  2632.28
 221  2762.065
 222  3119.586
 223  2813.356
 224  2605.333
 225  2815.436
 226  2785.653
 227  2836.734
 228  2900.644
 229  2841.937
 230  3220.819
 231  3328.598
 232  2998.364
 233  2999.427
 234  3166.04
 235  2608.82
 236  2454.827
 237  2739.366
 238  2809.406
 239  2751.581
 240  2879.271
 241  3110.863
 242  3180.7
 243  3313.651
 244  2932.665
 245  2992.338
 246  2837.687
 247  2554.898
 248  3057.928
 249  3041.81
 250  3388.318
 251  3247.742
 252  2918.036
 253  2599.272
 254  2712.409
 255  2668.944
 256  2784.355
 257  2867.691
 258  3066.71
 259  3139.751
 260  3131.79
 261  2936.441
 262  2774.296
 263  3112.609
 264  2850.88
 265  2843.442
 266  2857.478
 267  3380.501
 268  3291.918
 269  2980.423
 270  2919.77
 271  2805.344
 272  3044.939
 273  2803.675
 274  2659.71
 275  2825.041
 276  3021.306
 277  3035.036
 278  2934.521
 279  3287.461
 280  3038.93
 281  2964.626
 282  2982.763
 283  2563.266
 284  3099.562
 285  3377.695
 286  3016.64
 287  3189.76
 288  2959.561
 289  3083.712
 290  3083.788
 291  2833.56
 292  2887.168
 293  2528.106
 294  2675.193
 295  2285.21
 296  2439.438
 297  2984.07
 298  2677.298
 299  2663.79
 300  2717.685
 301  2791.7
 302  2742.421
 303  3178.885
 304  3024.132
 305  2823.738
 306  2808.358
 307  2755.853
 308  2928.715
 309  2668.78
 310  2933.82
 311  2779.072
 312  2746.653
 313  3200.8
 314  3201.566
 315  3397.838
 316  3448.171
 317  3101.309
 318  3416.78
 319  3817.154
 320  4196.49
 321  4458.467
 322  4677.183
 323  4472.778
 324  4104.375
 325  3881.638
 326  3333.057
 327  2948.021
 328  2874.157
 329  2876.833
 330  3262.015
 331  2777.583
 332  2684.448
 333  2788.725
 334  2973.001
 335  2937.723
 336  3017.573
 337  3402.203
 338  2822.808
 339  2821.558
 340  2783.614
 341  2486.405
 342  3057.038
 343  3133.007
 344  3084.391
 345  2943.47
 346  3066.002
 347  2723.269
 348  2739.447
 349  3017.46
 350  2780.797
 351  2687.753
 352  2890.944
 353  2569.56
 354  2861.641
 355  2857.294
 356  2842.771
 357  2845.722
 358  2444.855
 359  2724.587
 360  2633.822
 361  3047.692
 362  2851.143
 363  3100.584
 364  3076.99
 365  3001.79
 366  2752.997
 367  2856.689
 368  3086.194
 369  2869.471
 370  2656.702
 371  2721.131
 372  2538.242
 373  2819.739
 374  2893.43
 375  2811.291
 376  3036.799
 377  2880.861
 378  3190.988
 379  2958.495
 380  2668.992
 381  2805.829
 382  3008.69
 383  3135.034
 384  2851.803
 385  2829.15
 386  2668.687
 387  2839.273
 388  2813.712
 389  2495.466
 390  3120.01
 391  2850.92
 392  2910.811
 393  2800.658
 394  2845.126
 395  2788.407
 396  2922.404
 397  3215.291
 398  2451.821
 399  3081.13
 400  3249.206
 401  2781.692
 402  2979.182
 403  2860.675
 404  2801.595
 405  2618.574
 406  2860.015
 407  3017.502
 408  3107.39
 409  2946.646
 410  3063.495
 411  2675.438
 412  2883.503
 413  3026.278
 414  3072.839
 415  2665.603
 416  2619.332
 417  2890.802
 418  3191.912
 419  3234.011
 420  3007.894
 421  3034.468
 422  2561.866
 423  2485.176
 424  2864.075
 425  2892.565
 426  3407.382
 427  3013.081
 428  3200.882
 429  3583.265
 430  2959.13
 431  2886.709
 432  2698.402
 433  2606.559
 434  2635.302
 435  2784.296
 436  3004.485
 437  2930.505
 438  2971.927
 439  2567.299
 440  2704.5
 441  2751.615
 442  2510.391
 443  2468.554
 444  2724.683
 445  3110.506
 446  2633.176
 447  2395.399
 448  2688.763
 449  2671.825
 450  3212.428
 451  3486.727
 452  3360.843
 453  2949.11
 454  2707
 455  2569.248
 456  2462.238
 457  2888.509
 458  2887.705
 459  3081.525
 460  3108.938
 461  2797.809
 462  2664.821
 463  2622.02
 464  2965.763
 465  2760.015
 466  2717.801
 467  2680.643
 468  2645.811
 469  2957.123
 470  2681.787
 471  2485.339
 472  2864.818
 473  3063.509
 474  3213.458
 475  2849.449
 476  2745.127
 477  2835.873
 478  2437.032
 479  2714.742
 480  2788.599
 481  3154.48
 482  2951.965
 483  2816.343
 484  3237.676
 485  2946.162
 486  2876.977
 487  2643.901
 488  2992.544
 489  3255.935
 490  3268.813
 491  3364.251
 492  3061.63
 493  3309.458
 494  2955.162
 495  2783.025
 496  2718.958
 497  2735.572
 498  3197.356
 499  2772.936
 500  2675.442
 501  2718.479
 502  2849.39
 503  2826.446
 504  2849.891
 505  2733.583
 506  2798.018
 507  2683.878
 508  2569.349
 509  2578.907
 510  2876.03
 511  2913.509
