# Input file       =  1189628040.113569-PSRB0329-2ms-sampling-dd.dat
# Candidate        =  PSR_0332+5434
# Telescope        =  AR
# Epoch_topo       =  58012.843276777421
# Epoch_bary       =  N/A
# T_sample         =  0.002
# Data Folded      =  7208960
# Data Avg         =  -5.38004339578496e-10
# Data StdDev      =  4.94860795369772 
# Profile Bins     =  512
# Profile Avg      =  -0.0686776546517777
# Profile StdDev   =  587.197741111081 
# Reduced chi-sqr  =  0.697
# Prob(Noise)      <  1   (~0.0 sigma)
# P_topo (ms)      =  714.466421345452  +/- 0.000203
# P'_topo (s/s)    =  -0                +/- 1.09e-10
# P''_topo (s/s^2) =  0                 +/- 4.91e-14
# P_bary (ms)      =  N/A
# P'_bary (s/s)    =  N/A
# P''_bary (s/s^2) =  N/A
# P_orb (s)        =  N/A
# asin(i)/c (s)    =  N/A
# eccentricity     =  N/A
# w (rad)          =  N/A
# T_peri           =  N/A
######################################################
   0  -62.17603
   1  -302.989
   2  -472.6444
   3  -374.5607
   4  -436.7836
   5  -297.2756
   6  -257.5647
   7  -207.8574
   8  -384.6475
   9  -307.7681
  10  5.380408
  11  -291.6018
  12  -396.4565
  13  -580.3297
  14  -215.7368
  15  -165.0904
  16  -312.1619
  17  -580.748
  18  -525.9186
  19  -188.9357
  20  -60.48018
  21  -473.8586
  22  -512.3838
  23  -729.2045
  24  -666.0347
  25  -398.5847
  26  -282.2638
  27  -391.8098
  28  -128.1261
  29  -312.5039
  30  -343.7928
  31  -347.6495
  32  -337.606
  33  -106.4905
  34  -414.6695
  35  -216.4604
  36  -120.6591
  37  -134.2419
  38  -222.0016
  39  -355.2
  40  -118.0882
  41  -73.41621
  42  -239.953
  43  -57.18368
  44  117.3979
  45  -203.7584
  46  214.674
  47  2.602151
  48  -63.1208
  49  -393.7476
  50  -321.3436
  51  132.2722
  52  109.7327
  53  155.0222
  54  176.38
  55  326.1784
  56  388.7487
  57  69.80508
  58  61.56837
  59  498.5706
  60  691.1107
  61  501.6095
  62  352.7467
  63  442.3999
  64  333.7293
  65  413.0262
  66  -127.0213
  67  119.6103
  68  -165.5497
  69  -245.1656
  70  40.79363
  71  -33.43314
  72  454.4444
  73  -6.631947
  74  269.4003
  75  -216.9828
  76  -337.6062
  77  -12.3079
  78  14.19193
  79  -182.5517
  80  -339.4762
  81  -25.68511
  82  -407.9628
  83  -526.8585
  84  -334.3397
  85  -576.8279
  86  -476.1217
  87  -419.821
  88  -134.5276
  89  -222.8556
  90  126.4179
  91  223.3752
  92  194.0847
  93  68.71497
  94  90.02898
  95  -101.7382
  96  -222.6317
  97  6.05652
  98  42.19403
  99  -54.17019
 100  153.2609
 101  233.146
 102  -10.92867
 103  -289.554
 104  -420.3792
 105  -121.3509
 106  -119.1095
 107  149.9997
 108  152.1071
 109  -159.3766
 110  -418.2507
 111  134.3621
 112  53.85249
 113  -72.04878
 114  -17.21258
 115  52.33441
 116  -802.9507
 117  -393.1155
 118  30.47953
 119  -180.3926
 120  -254.5069
 121  -9.967392
 122  419.9602
 123  313.4536
 124  -334.1282
 125  -529.5408
 126  -135.4011
 127  -203.6475
 128  32.58299
 129  267.0097
 130  249.4482
 131  229.8951
 132  305.6204
 133  -94.97658
 134  -467.3462
 135  -494.5482
 136  -240.5166
 137  274.4183
 138  252.8745
 139  136.2092
 140  211.8439
 141  -27.83099
 142  -428.2473
 143  -294.7455
 144  323.0266
 145  16.06935
 146  -153.1826
 147  -239.6573
 148  -187.1594
 149  -224.0951
 150  -172.8372
 151  -230.4761
 152  -634.4317
 153  -507.8417
 154  -296.8527
 155  -392.2871
 156  -201.3473
 157  -319.1375
 158  -418.9281
 159  -515.6836
 160  -339.2301
 161  -382.091
 162  -500.986
 163  -460.7092
 164  -45.07571
 165  51.47686
 166  -88.99917
 167  -342.9743
 168  -261.8336
 169  -406.4606
 170  -267.4593
 171  -172.2095
 172  -424.2144
 173  -291.6432
 174  163.2672
 175  -182.3757
 176  -221.3453
 177  -215.2875
 178  -251.9426
 179  -414.5316
 180  -254.0497
 181  -264.6139
 182  -41.70079
 183  392.9182
 184  164.3103
 185  -285.0953
 186  -352.1632
 187  -375.3141
 188  142.1328
 189  332.4874
 190  265.0661
 191  262.5719
 192  219.7269
 193  -43.23266
 194  -310.1859
 195  10.44866
 196  -25.15491
 197  536.2037
 198  131.1263
 199  -168.4476
 200  -493.6911
 201  -471.0768
 202  -35.75728
 203  -83.92943
 204  -138.6437
 205  32.25738
 206  639.0969
 207  301.5683
 208  160.5533
 209  487.7276
 210  140.35
 211  -287.5258
 212  -362.9053
 213  -246.791
 214  9.947446
 215  164.6213
 216  216.4391
 217  -61.84903
 218  37.3499
 219  318.2906
 220  77.69666
 221  54.26884
 222  -271.5229
 223  -155.6455
 224  -133.7482
 225  178.2549
 226  563.3222
 227  299.3046
 228  152.1811
 229  39.55125
 230  -349.4737
 231  -425.2889
 232  -48.72066
 233  95.31413
 234  54.04227
 235  544.2998
 236  271.093
 237  300.1642
 238  242.8345
 239  -60.07458
 240  80.23785
 241  120.2417
 242  267.9624
 243  234.4051
 244  249.7209
 245  442.2081
 246  58.15926
 247  -145.595
 248  -305.6245
 249  -181.0963
 250  30.18143
 251  383.7198
 252  46.82273
 253  -42.18544
 254  272.8765
 255  -165.1733
 256  -388.4156
 257  89.77988
 258  196.863
 259  215.9763
 260  121.1475
 261  47.29827
 262  430.2133
 263  70.1404
 264  -34.68062
 265  175.5552
 266  383.4397
 267  263.122
 268  249.9819
 269  313.0384
 270  642.4091
 271  807.8342
 272  283.7345
 273  -118.8641
 274  267.9773
 275  374.909
 276  395.4813
 277  355.825
 278  514.8755
 279  339.7477
 280  423.2834
 281  75.30357
 282  75.54597
 283  135.9569
 284  19.73221
 285  303.0765
 286  669.9822
 287  604.5692
 288  822.6147
 289  687.1603
 290  1044.202
 291  1839.485
 292  2200.567
 293  2044.809
 294  1316.83
 295  1178.974
 296  787.0154
 297  738.4132
 298  703.5156
 299  630.6928
 300  373.6137
 301  -151.5097
 302  43.53471
 303  254.8731
 304  103.0711
 305  395.1978
 306  549.4462
 307  443.8167
 308  699.5668
 309  322.8145
 310  282.8868
 311  -13.76356
 312  204.8391
 313  71.37229
 314  38.75357
 315  62.085
 316  -198.1439
 317  22.34406
 318  296.5225
 319  123.4627
 320  -296.1695
 321  86.94707
 322  159.2631
 323  69.23491
 324  128.0798
 325  416.9117
 326  484.8817
 327  139.2061
 328  -33.43563
 329  -159.3524
 330  -135.3213
 331  -399.3428
 332  -14.66561
 333  194.7219
 334  158.567
 335  54.13838
 336  -30.73661
 337  -1.88696
 338  -142.7951
 339  -120.9766
 340  -70.46541
 341  204.2395
 342  122.6782
 343  7.277962
 344  4.516526
 345  91.40457
 346  183.9814
 347  74.324
 348  368.1402
 349  13.8853
 350  -16.30191
 351  -62.89917
 352  -256.4156
 353  181.6273
 354  223.4337
 355  406.4446
 356  255.0088
 357  -55.31906
 358  162.7168
 359  -97.82158
 360  -47.71336
 361  37.31012
 362  352.4999
 363  117.2102
 364  -189.0523
 365  211.255
 366  -10.02323
 367  126.6632
 368  141.4241
 369  442.8875
 370  410.1926
 371  22.81147
 372  56.55471
 373  122.9422
 374  171.83
 375  170.6596
 376  76.35548
 377  360.485
 378  738.7278
 379  261.9904
 380  5.772642
 381  -146.5024
 382  -117.3735
 383  -113.3472
 384  253.4917
 385  -279.0563
 386  23.447
 387  129.5762
 388  242.977
 389  183.2244
 390  -149.9221
 391  -12.07653
 392  -152.3382
 393  -204.4072
 394  -107.8361
 395  -193.0129
 396  -252.8627
 397  -65.26246
 398  174.9645
 399  118.7239
 400  -194.2229
 401  -113.0175
 402  -110.5056
 403  -339.5327
 404  -216.8448
 405  116.6992
 406  686.5971
 407  479.1983
 408  226.0025
 409  1.12718
 410  -14.59889
 411  -30.28025
 412  -146.4475
 413  20.43547
 414  362.9016
 415  426.0529
 416  -283.9979
 417  -402.949
 418  -472.5012
 419  -518.0049
 420  1.7772
 421  -116.9788
 422  29.39053
 423  -74.22198
 424  -391.5137
 425  -155.3708
 426  -193.5117
 427  -152.3206
 428  -351.5272
 429  75.6283
 430  26.70016
 431  -430.2986
 432  -559.4258
 433  -451.6207
 434  -594.4256
 435  -502.9162
 436  -481.3192
 437  -420.1183
 438  -243.9971
 439  62.26107
 440  51.49229
 441  117.1488
 442  304.4785
 443  -104.7413
 444  -156.2984
 445  -110.1876
 446  12.64774
 447  201.2432
 448  418.4734
 449  441.2104
 450  34.85761
 451  -71.11326
 452  -671.3649
 453  313.5015
 454  576.4594
 455  1163.976
 456  1077.052
 457  619.6897
 458  -7.018705
 459  -618.8583
 460  -652.717
 461  -320.7452
 462  -156.5414
 463  -214.6089
 464  -206.1381
 465  -684.6191
 466  -664.6211
 467  -667.5588
 468  -112.9472
 469  -74.55298
 470  -428.1758
 471  -63.69269
 472  -6.399938
 473  522.0264
 474  214.5447
 475  145.9872
 476  -133.6
 477  -262.0731
 478  -348.4958
 479  -236.8035
 480  73.54474
 481  -109.52
 482  15.20339
 483  -94.8428
 484  68.47626
 485  -179.3739
 486  -255.078
 487  -328.9389
 488  165.0917
 489  205.5765
 490  320.2577
 491  11.53743
 492  -447.8496
 493  -493.4547
 494  -423.9524
 495  -206.9197
 496  197.1485
 497  -218.683
 498  -384.6118
 499  -191.6758
 500  -261.0129
 501  -148.9691
 502  -130.3983
 503  -116.5303
 504  -78.13717
 505  -302.4317
 506  -146.5143
 507  114.4659
 508  28.63096
 509  -336.8948
 510  -232.205
 511  177.6218
