# Input file       =  1189111040.110165_cleaned.dat
# Candidate        =  PSR_0332+5434
# Telescope        =  AR
# Epoch_topo       =  58006.859480441723
# Epoch_bary       =  N/A
# T_sample         =  0.002
# Data Folded      =  7143424
# Data Avg         =  0.0238266159514117
# Data StdDev      =  1.00002576061705 
# Profile Bins     =  512
# Profile Avg      =  332.415897971318 
# Profile StdDev   =  118.121627289489 
# Reduced chi-sqr  =  1.386
# Prob(Noise)      <  1.53e-08   (~5.5 sigma)
# P_topo (ms)      =  714.464824018453  +/- 0.000166
# P'_topo (s/s)    =  -0                +/- 9.01e-11
# P''_topo (s/s^2) =  0                 +/- 4.09e-14
# P_bary (ms)      =  N/A
# P'_bary (s/s)    =  N/A
# P''_bary (s/s^2) =  N/A
# P_orb (s)        =  N/A
# asin(i)/c (s)    =  N/A
# eccentricity     =  N/A
# w (rad)          =  N/A
# T_peri           =  N/A
######################################################
   0  901.7814
   1  951.8018
   2  860.4807
   3  608.0436
   4  405.1523
   5  292.3609
   6  339.5874
   7  319.4047
   8  425.7911
   9  550.8014
  10  512.1071
  11  384.4023
  12  363.3392
  13  459.004
  14  382.3354
  15  372.2172
  16  217.0626
  17  320.5412
  18  333.2975
  19  364.5358
  20  380.49
  21  305.3465
  22  337.1669
  23  180.1239
  24  170.6315
  25  250.0822
  26  313.2287
  27  319.1692
  28  262.1628
  29  409.1933
  30  410.9755
  31  385.1481
  32  385.7887
  33  381.0419
  34  436.3668
  35  420.0535
  36  361.9294
  37  211.6407
  38  127.1893
  39  149.2091
  40  158.5728
  41  235.124
  42  283.9832
  43  270.6278
  44  348.1212
  45  463.9677
  46  473.5278
  47  393.7192
  48  289.1678
  49  245.852
  50  283.5494
  51  243.655
  52  228.7753
  53  299.9514
  54  344.4403
  55  299.5108
  56  284.0903
  57  246.5122
  58  207.4916
  59  204.3836
  60  326.5801
  61  351.4512
  62  225.5629
  63  283.4899
  64  273.6628
  65  439.6454
  66  440.1884
  67  308.4811
  68  255.3419
  69  346.0493
  70  278.9867
  71  377.9785
  72  243.1217
  73  247.0695
  74  311.9641
  75  361.7476
  76  287.2363
  77  206.7272
  78  346.4511
  79  265.1178
  80  224.7498
  81  221.1783
  82  289.9828
  83  299.3635
  84  243.857
  85  276.2557
  86  271.4181
  87  305.495
  88  284.316
  89  247.4068
  90  378.5553
  91  354.9017
  92  335.762
  93  373.7334
  94  275.7
  95  236.196
  96  298.0207
  97  297.0589
  98  332.4083
  99  281.1977
 100  189.6104
 101  350.0007
 102  438.3053
 103  370.3929
 104  376.0038
 105  292.3372
 106  351.055
 107  236.5018
 108  250.7028
 109  225.8254
 110  219.0427
 111  229.3971
 112  267.0836
 113  374.4698
 114  429.274
 115  292.9843
 116  281.2393
 117  270.8968
 118  210.907
 119  208.9627
 120  357.9737
 121  295.0472
 122  273.1399
 123  373.887
 124  203.7088
 125  227.1346
 126  263.0497
 127  302.8123
 128  171.3004
 129  203.2835
 130  226.8019
 131  170.4824
 132  299.4823
 133  252.605
 134  156.077
 135  416.4501
 136  435.2618
 137  390.9141
 138  499.2017
 139  382.7261
 140  310.9857
 141  370.8694
 142  435.2642
 143  476.3012
 144  438.7608
 145  451.6544
 146  390.8713
 147  350.4516
 148  423.3368
 149  328.5698
 150  223.9632
 151  276.3205
 152  350.858
 153  288.2723
 154  425.0663
 155  424.6658
 156  313.8556
 157  265.3958
 158  256.4271
 159  354.0638
 160  284.895
 161  278.9992
 162  441.9303
 163  339.4373
 164  300.9041
 165  263.7654
 166  309.2327
 167  341.5665
 168  397.8111
 169  362.2432
 170  217.0758
 171  361.2124
 172  442.603
 173  349.7587
 174  374.9429
 175  301.9373
 176  213.0757
 177  366.6012
 178  421.8071
 179  437.4122
 180  356.1477
 181  277.4157
 182  394.9001
 183  254.011
 184  355.4094
 185  408.5914
 186  406.8097
 187  394.8343
 188  433.4979
 189  251.5275
 190  180.7589
 191  303.0458
 192  346.5791
 193  295.3874
 194  427.8292
 195  598.4969
 196  641.8456
 197  600.6254
 198  415.2482
 199  246.822
 200  257.4705
 201  442.2127
 202  479.7944
 203  465.0508
 204  322.3514
 205  276.3768
 206  329.3252
 207  409.9958
 208  303.4009
 209  328.4918
 210  446.6758
 211  372.3787
 212  353.3346
 213  283.1701
 214  239.737
 215  302.9569
 216  298.6693
 217  395.59
 218  367.4033
 219  339.8413
 220  347.7679
 221  353.3175
 222  391.9935
 223  211.2024
 224  260.3636
 225  259.3609
 226  283.8638
 227  336.7571
 228  344.3017
 229  304.3865
 230  217.3658
 231  297.0731
 232  291.7614
 233  300.0497
 234  338.7737
 235  361.0686
 236  344.087
 237  417.0096
 238  326.284
 239  190.1974
 240  393.3645
 241  546.0895
 242  402.401
 243  332.9693
 244  308.1895
 245  242.2695
 246  347.8594
 247  377.0828
 248  235.7979
 249  277.9718
 250  275.8416
 251  371.6925
 252  363.1784
 253  366.3105
 254  341.7472
 255  402.3461
 256  292.6584
 257  244.5352
 258  379.3422
 259  406.2151
 260  305.0565
 261  308.5138
 262  413.6528
 263  325.4419
 264  386.2256
 265  358.0757
 266  283.4757
 267  280.4951
 268  285.1989
 269  331.4391
 270  247.6632
 271  179.2064
 272  281.9341
 273  272.5663
 274  395.1454
 275  292.9007
 276  340.8039
 277  308.5702
 278  295.2043
 279  396.0632
 280  433.635
 281  424.0072
 282  425.0229
 283  359.7003
 284  419.0027
 285  359.1096
 286  243.558
 287  195.7046
 288  241.9106
 289  336.1274
 290  342.3821
 291  401.7602
 292  450.4381
 293  308.3611
 294  331.7454
 295  330.2992
 296  268.6404
 297  175.6559
 298  141.8469
 299  191.9332
 300  391.3307
 301  509.7342
 302  421.4402
 303  417.4597
 304  357.3246
 305  374.2946
 306  285.4344
 307  228.9311
 308  430.5734
 309  311.5622
 310  312.9467
 311  376.0025
 312  254.151
 313  130.8475
 314  221.07
 315  226.9241
 316  232.098
 317  229.2564
 318  360.5139
 319  409.0022
 320  288.1802
 321  302.7005
 322  340.4775
 323  301.4174
 324  263.0983
 325  275.2307
 326  339.4717
 327  446.6588
 328  149.5726
 329  281.0798
 330  283.0717
 331  255.7402
 332  186.8566
 333  431.0751
 334  429.2304
 335  243.8732
 336  182.6619
 337  244.6685
 338  347.1771
 339  396.6744
 340  390.0384
 341  324.1756
 342  401.0779
 343  340.1368
 344  279.3994
 345  286.1011
 346  289.3623
 347  428.4935
 348  327.1981
 349  375.5673
 350  476.8846
 351  392.754
 352  220.1523
 353  313.1596
 354  430.5011
 355  394.4295
 356  318.7036
 357  356.7342
 358  391.5699
 359  336.4851
 360  346.5849
 361  470.4234
 362  320.1819
 363  207.3011
 364  276.4334
 365  294.4219
 366  265.2686
 367  236.1958
 368  194.0211
 369  329.0797
 370  241.8492
 371  304.3814
 372  415.0055
 373  439.3322
 374  335.9774
 375  317.5964
 376  345.5835
 377  217.5934
 378  353.7492
 379  417.7853
 380  397.8364
 381  465.7834
 382  322.2931
 383  287.7358
 384  267.2207
 385  290.287
 386  274.5655
 387  296.8404
 388  346.0294
 389  482.2685
 390  412.8244
 391  427.5105
 392  335.8249
 393  260.0054
 394  202.4062
 395  161.1657
 396  298.0226
 397  378.4911
 398  336.7433
 399  220.867
 400  179.3797
 401  280.612
 402  181.6287
 403  367.9406
 404  402.6644
 405  349.1661
 406  263.1471
 407  378.9547
 408  361.6994
 409  268.1313
 410  439.0691
 411  407.3175
 412  263.0055
 413  155.2702
 414  242.1915
 415  333.1263
 416  355.8943
 417  513.3008
 418  322.1528
 419  120.3508
 420  383.5218
 421  488.5622
 422  367.2899
 423  330.0692
 424  308.0477
 425  290.4157
 426  258.1136
 427  138.8089
 428  301.7465
 429  389.2807
 430  355.7759
 431  282.7742
 432  282.7613
 433  393.6906
 434  441.2917
 435  402.4045
 436  282.566
 437  184.6084
 438  197.916
 439  271.3513
 440  347.2625
 441  500.8243
 442  493.3671
 443  444.5993
 444  322.1165
 445  311.5554
 446  316.6737
 447  412.5327
 448  244.087
 449  243.8046
 450  426.6317
 451  297.5349
 452  223.6676
 453  254.877
 454  305.3674
 455  304.8169
 456  377.8077
 457  467.6849
 458  271.8697
 459  199.12
 460  199.6847
 461  211.4917
 462  291.869
 463  366.6352
 464  356.9031
 465  293.209
 466  317.0189
 467  234.3107
 468  177.9397
 469  314.532
 470  425.9888
 471  384.5357
 472  436.3063
 473  344.6613
 474  242.1889
 475  146.5008
 476  335.8181
 477  419.4854
 478  304.6857
 479  233.2566
 480  220.5085
 481  330.3939
 482  385.5677
 483  441.799
 484  383.2737
 485  401.5663
 486  427.7295
 487  393.1147
 488  315.3345
 489  304.0866
 490  407.2293
 491  394.5156
 492  280.8792
 493  384.2015
 494  456.8454
 495  322.0845
 496  185.2686
 497  291.7047
 498  231.3161
 499  395.9619
 500  296.5236
 501  282.2289
 502  383.5293
 503  440.2514
 504  517.4904
 505  542.1418
 506  548.6994
 507  529.8213
 508  446.9719
 509  597.0264
 510  687.1266
 511  839.0529
