# Input file       =  1189039511.117748_cleaned.dat
# Candidate        =  PSR_0332+5434
# Telescope        =  AR
# Epoch_topo       =  58006.031598585047
# Epoch_bary       =  N/A
# T_sample         =  0.002
# Data Folded      =  7340032
# Data Avg         =  0.0161763970806663
# Data StdDev      =  2.37860941856292 
# Profile Bins     =  256
# Profile Avg      =  463.604170083628 
# Profile StdDev   =  402.7653752111   
# Reduced chi-sqr  =  1.516
# Prob(Noise)      <  1.89e-07   (~5.1 sigma)
# P_topo (ms)      =  714.464664365459  +/- 0.000227
# P'_topo (s/s)    =  -0                +/- 1.2e-10
# P''_topo (s/s^2) =  0                 +/- 5.28e-14
# P_bary (ms)      =  N/A
# P'_bary (s/s)    =  N/A
# P''_bary (s/s^2) =  N/A
# P_orb (s)        =  N/A
# asin(i)/c (s)    =  N/A
# eccentricity     =  N/A
# w (rad)          =  N/A
# T_peri           =  N/A
######################################################
   0  202.8199
   1  168.7151
   2  488.803
   3  140.5327
   4  454.4067
   5  294.2317
   6  518.9585
   7  60.30089
   8  556.8838
   9  724.6331
  10  526.0099
  11  108.5235
  12  767.7481
  13  793.1981
  14  626.4567
  15  142.9661
  16  381.2905
  17  834.3093
  18  259.1528
  19  -42.30547
  20  556.1483
  21  356.9046
  22  803.9689
  23  490.0564
  24  342.9661
  25  553.8091
  26  790.3997
  27  757.4131
  28  247.5345
  29  -88.6779
  30  283.2524
  31  204.4769
  32  545.8946
  33  -164.7386
  34  286.0168
  35  1011.31
  36  1291.051
  37  1063.773
  38  486.6604
  39  498.4524
  40  1146.428
  41  922.9569
  42  661.2869
  43  274.4469
  44  726.5511
  45  419.1319
  46  595.0619
  47  -41.26901
  48  1234.323
  49  344.8476
  50  565.2418
  51  791.1027
  52  125.717
  53  553.6801
  54  280.8438
  55  660.9094
  56  149.8526
  57  278.4294
  58  465.8799
  59  174.4985
  60  100.5058
  61  18.66749
  62  105.3323
  63  497.6916
  64  184.2897
  65  1152.506
  66  763.15
  67  -351.6342
  68  730.0402
  69  490.2344
  70  846.5989
  71  584.0972
  72  989.795
  73  811.2039
  74  982.4317
  75  518.9924
  76  380.4973
  77  513.7388
  78  989.3109
  79  270.1902
  80  242.177
  81  676.7917
  82  99.3325
  83  1053.198
  84  144.1029
  85  145.4847
  86  585.36
  87  559.8473
  88  -3.219034
  89  207.1169
  90  673.2432
  91  13.70381
  92  821.5377
  93  474.9425
  94  633.4641
  95  579.1886
  96  582.7449
  97  -47.13033
  98  429.4342
  99  -255.2493
 100  908.5342
 101  740.6995
 102  568.7247
 103  -226.6988
 104  315.1784
 105  615.8293
 106  630.6209
 107  816.2689
 108  197.9104
 109  396.631
 110  191.9631
 111  144.8584
 112  522.9131
 113  649.952
 114  297.9622
 115  578.1662
 116  728.7377
 117  324.4762
 118  457.0835
 119  909.6072
 120  270.2214
 121  379.3604
 122  590.2831
 123  774.863
 124  1035.723
 125  909.3084
 126  656.8221
 127  -208.7283
 128  -158.3983
 129  28.04818
 130  374.1302
 131  566.8884
 132  149.9561
 133  -140.6878
 134  690.6091
 135  595.1718
 136  -134.4023
 137  453.8927
 138  180.7877
 139  476.0743
 140  258.9121
 141  105.4556
 142  133.7702
 143  710.1448
 144  679.8681
 145  816.6576
 146  531.9293
 147  286.1489
 148  117.5769
 149  449.2065
 150  486.243
 151  661.0909
 152  475.5394
 153  801.5981
 154  822.7423
 155  873.2357
 156  703.4618
 157  756.8654
 158  583.0379
 159  1465.087
 160  2790.987
 161  3377.157
 162  1892.525
 163  423.1446
 164  747.437
 165  115.7839
 166  793.8654
 167  810.1628
 168  607.7162
 169  444.1969
 170  587.0161
 171  -220.1954
 172  -319.3802
 173  -134.4363
 174  714.6508
 175  280.531
 176  -356.8286
 177  475.7563
 178  276.2561
 179  340.9569
 180  -170.0689
 181  -119.7987
 182  307.8
 183  560.6071
 184  375.7617
 185  446.7537
 186  -69.79321
 187  99.42673
 188  610.8264
 189  755.3817
 190  22.19592
 191  -92.98815
 192  343.4195
 193  537.5982
 194  -267.1791
 195  282.8827
 196  519.4664
 197  39.39806
 198  -336.4024
 199  237.6266
 200  278.0973
 201  288.1421
 202  988.6876
 203  576.5529
 204  1144.534
 205  744.5046
 206  804.2687
 207  730.4929
 208  232.7515
 209  -282.5645
 210  362.4456
 211  300.5621
 212  403.437
 213  214.8368
 214  369.3939
 215  400.0226
 216  943.3393
 217  650.7322
 218  573.5933
 219  366.5444
 220  566.0085
 221  839.2106
 222  708.5715
 223  174.3156
 224  786.8936
 225  1253.783
 226  409.8168
 227  658.1611
 228  404.1267
 229  621.8904
 230  1324.806
 231  351.0412
 232  329.272
 233  205.4336
 234  -35.99275
 235  471.1718
 236  579.9864
 237  120.7227
 238  242.9445
 239  253.8112
 240  349.8248
 241  -52.81966
 242  -16.20282
 243  -153.0684
 244  -43.94044
 245  680.9623
 246  797.5389
 247  515.3577
 248  -83.8886
 249  -398.2164
 250  548.1176
 251  406.0245
 252  969.7001
 253  638.1538
 254  268.376
 255  344.3304
