# Input file       =  1189657632.118036_cleaned.dat
# Candidate        =  PSR_0332+5434
# Telescope        =  AR
# Epoch_topo       =  58013.185776829123
# Epoch_bary       =  N/A
# T_sample         =  0.002
# Data Folded      =  7340032
# Data Avg         =  0.0284025458801937
# Data StdDev      =  2.9290396799733  
# Profile Bins     =  512
# Profile Avg      =  407.28555613362  
# Profile StdDev   =  350.702814551235 
# Reduced chi-sqr  =  1.127
# Prob(Noise)      <  0.0244   (~2.0 sigma)
# P_topo (ms)      =  714.466881804346  +/- 9.83e-05
# P'_topo (s/s)    =  -0                +/- 5.19e-11
# P''_topo (s/s^2) =  0                 +/- 2.29e-14
# P_bary (ms)      =  N/A
# P'_bary (s/s)    =  N/A
# P''_bary (s/s^2) =  N/A
# P_orb (s)        =  N/A
# asin(i)/c (s)    =  N/A
# eccentricity     =  N/A
# w (rad)          =  N/A
# T_peri           =  N/A
######################################################
   0  236.3172
   1  443.7454
   2  650.2155
   3  460.7805
   4  338.414
   5  289.5956
   6  264.6559
   7  233.0854
   8  294.3442
   9  594.0413
  10  711.2435
  11  413.7766
  12  161.2351
  13  445.0425
  14  532.6507
  15  277.6925
  16  143.3435
  17  424.7922
  18  464.9165
  19  120.8424
  20  84.39667
  21  130.5441
  22  77.78477
  23  575.5105
  24  539.4693
  25  401.9411
  26  -169.3579
  27  54.97488
  28  163.1898
  29  439.7993
  30  311.2413
  31  412.1008
  32  378.4902
  33  127.7979
  34  149.2508
  35  400.4901
  36  556.8829
  37  391.4874
  38  782.2269
  39  472.243
  40  305.4795
  41  269.9789
  42  215.5146
  43  581.1546
  44  790.07
  45  427.1273
  46  90.90603
  47  271.5092
  48  265.9176
  49  331.4977
  50  572.6732
  51  481.7803
  52  682.7001
  53  684.49
  54  234.6395
  55  740.2721
  56  604.5399
  57  667.2061
  58  587.5551
  59  833.7435
  60  617.3411
  61  -138.7358
  62  340.9539
  63  787.7041
  64  596.61
  65  296.1104
  66  112.4203
  67  605.0488
  68  653.4858
  69  763.9392
  70  733.0742
  71  494.972
  72  193.5848
  73  605.1599
  74  831.5384
  75  505.4998
  76  987.9688
  77  1029.012
  78  716.8351
  79  307.0884
  80  340.1594
  81  240.1171
  82  357.393
  83  295.1911
  84  682.9821
  85  561.2717
  86  167.5505
  87  89.72439
  88  208.457
  89  144.4393
  90  222.4745
  91  502.1052
  92  744.907
  93  549.713
  94  256.953
  95  699.5737
  96  509.625
  97  453.1236
  98  225.8439
  99  225.8671
 100  636.4816
 101  476.4272
 102  509.694
 103  709.6592
 104  673.7897
 105  457.8928
 106  663.2462
 107  759.1948
 108  581.0338
 109  306.8171
 110  292.446
 111  491.9903
 112  696.549
 113  549.1093
 114  340.7284
 115  450.1191
 116  272.0711
 117  445.198
 118  367.5744
 119  19.90243
 120  -267.3511
 121  -20.10015
 122  121.8605
 123  407.9964
 124  274.0318
 125  -24.51808
 126  323.5203
 127  542.0844
 128  369.6671
 129  326.6567
 130  192.1224
 131  362.886
 132  439.5816
 133  277.7325
 134  449.6663
 135  537.4102
 136  423.474
 137  465.5922
 138  502.4953
 139  453.4655
 140  570.7574
 141  518.451
 142  475.4665
 143  542.004
 144  417.7714
 145  392.0022
 146  164.7908
 147  21.73035
 148  267.4273
 149  430.1519
 150  491.3427
 151  534.269
 152  255.0957
 153  301.7041
 154  485.127
 155  371.8014
 156  544.2597
 157  682.7266
 158  650.3904
 159  315.8352
 160  117.0702
 161  487.793
 162  458.2019
 163  352.1512
 164  380.481
 165  527.813
 166  507.2318
 167  328.1572
 168  22.09507
 169  229.0146
 170  218.8044
 171  -88.44642
 172  240.0466
 173  95.42623
 174  275.8294
 175  498.3528
 176  84.74243
 177  31.06779
 178  386.3943
 179  508.3658
 180  -12.18925
 181  37.46393
 182  647.163
 183  526.8018
 184  107.9938
 185  242.6654
 186  -44.61174
 187  176.5918
 188  720.8292
 189  1014.512
 190  667.9982
 191  710.2667
 192  680.8514
 193  574.8657
 194  460.5645
 195  444.301
 196  518.1832
 197  622.8035
 198  661.5766
 199  325.7702
 200  62.01722
 201  8.423753
 202  236.9175
 203  239.1035
 204  138.765
 205  328.3461
 206  262.9572
 207  270.7438
 208  404.6322
 209  583.6036
 210  710.7887
 211  531.6602
 212  58.42209
 213  152.2587
 214  126.0821
 215  468.5683
 216  586.2024
 217  427.1115
 218  498.2945
 219  481.3747
 220  491.1226
 221  81.14783
 222  14.85951
 223  367.4706
 224  391.1019
 225  11.02689
 226  153.0704
 227  706.0365
 228  787.4636
 229  528.3396
 230  527.463
 231  457.3796
 232  506.2157
 233  509.7137
 234  22.76209
 235  -113.3958
 236  447.3568
 237  663.0284
 238  329.299
 239  599.3627
 240  415.337
 241  209.4755
 242  408.7795
 243  242.1903
 244  85.20168
 245  42.57975
 246  637.9534
 247  847.1454
 248  481.7845
 249  413.1221
 250  410.4297
 251  308.1216
 252  386.1085
 253  349.8406
 254  367.4699
 255  120.052
 256  123.1382
 257  440.1305
 258  246.2237
 259  260.2347
 260  502.8117
 261  629.2938
 262  263.5151
 263  -66.40309
 264  365.2834
 265  126.2727
 266  -119.0646
 267  -98.40559
 268  80.939
 269  195.9253
 270  320.979
 271  520.4816
 272  431.709
 273  364.0039
 274  222.1195
 275  559.442
 276  1163.628
 277  564.1418
 278  295.2447
 279  -67.19015
 280  471.6472
 281  944.737
 282  635.0474
 283  532.394
 284  54.95715
 285  306.4867
 286  435.7776
 287  218.4216
 288  437.9111
 289  661.4631
 290  714.0688
 291  867.8386
 292  430.0272
 293  404.9795
 294  508.4132
 295  57.75823
 296  9.92639
 297  449.343
 298  447.4854
 299  411.2693
 300  176.1853
 301  237.3343
 302  622.2529
 303  625.9023
 304  738.5063
 305  583.6768
 306  443.0041
 307  39.18109
 308  382.6732
 309  710.7756
 310  434.2419
 311  413.2437
 312  374.0116
 313  631.32
 314  808.691
 315  355.9581
 316  372.3177
 317  580.502
 318  1129.817
 319  1465.779
 320  1664.211
 321  1924.97
 322  1737.36
 323  1834.571
 324  992.2283
 325  596.9638
 326  415.0172
 327  388.5234
 328  319.2271
 329  472.8567
 330  322.9436
 331  395.1761
 332  441.3354
 333  702.3594
 334  981.8437
 335  797.1475
 336  615.1039
 337  286.5165
 338  395.4154
 339  407.1214
 340  124.3317
 341  395.1964
 342  584.3253
 343  817.0039
 344  1089.945
 345  988.8185
 346  552.4047
 347  578.9062
 348  22.41104
 349  409.4812
 350  430.8162
 351  271.1925
 352  472.0643
 353  310.0356
 354  -44.76798
 355  159.5411
 356  312.1381
 357  187.809
 358  365.0931
 359  475.1009
 360  105.9457
 361  196.89
 362  476.2812
 363  672.4456
 364  740.655
 365  647.3722
 366  231.7343
 367  332.9194
 368  102.9322
 369  -167.9097
 370  379.2424
 371  397.8744
 372  -81.95658
 373  216.1279
 374  738.1462
 375  864.6379
 376  523.1829
 377  319.1184
 378  100.8039
 379  254.1845
 380  239.2406
 381  273.0068
 382  343.5885
 383  535.7246
 384  639.5762
 385  226.3986
 386  177.7259
 387  605.1954
 388  664.6226
 389  502.7284
 390  101.283
 391  633.3865
 392  197.6007
 393  163.8965
 394  325.1275
 395  494.8187
 396  239.5362
 397  467.6559
 398  682.2856
 399  376.5309
 400  435.0526
 401  436.8593
 402  565.0993
 403  -20.20992
 404  93.88908
 405  364.0674
 406  847.745
 407  1097.899
 408  493.4455
 409  411.7559
 410  504.2374
 411  254.879
 412  -18.23116
 413  66.72752
 414  402.9084
 415  564.803
 416  886.3988
 417  886.0168
 418  673.2805
 419  252.6396
 420  365.1443
 421  316.0105
 422  212.9225
 423  173.3727
 424  528.9836
 425  150.2164
 426  339.1135
 427  376.0966
 428  321.8407
 429  -75.90789
 430  281.9869
 431  281.1891
 432  328.5297
 433  393.5794
 434  153.4235
 435  154.6772
 436  217.2643
 437  369.4453
 438  411.2415
 439  478.068
 440  439.3965
 441  312.9732
 442  453.0446
 443  400.3306
 444  250.6952
 445  455.1333
 446  418.487
 447  257.089
 448  77.39931
 449  224.2815
 450  163.8138
 451  373.0981
 452  541.2894
 453  513.7171
 454  578.784
 455  136.2287
 456  463.4696
 457  438.6505
 458  487.1699
 459  751.7346
 460  572.9791
 461  394.6371
 462  273.8771
 463  198.0775
 464  143.7227
 465  272.6516
 466  439.0257
 467  311.7758
 468  252.4
 469  547.5822
 470  521.0503
 471  32.92263
 472  39.6298
 473  91.97318
 474  270.3625
 475  376.9155
 476  203.9523
 477  630.7203
 478  691.54
 479  241.3159
 480  351.3707
 481  82.5051
 482  -86.92004
 483  129.2985
 484  316.136
 485  40.45518
 486  330.1371
 487  841.8222
 488  702.7037
 489  862.2777
 490  219.2689
 491  128.9875
 492  370.6443
 493  370.8297
 494  362.7101
 495  47.41372
 496  137.258
 497  254.9824
 498  587.6024
 499  720.4644
 500  191.1896
 501  134.7883
 502  487.4383
 503  634.4922
 504  483.3849
 505  529.5998
 506  389.7247
 507  306.7072
 508  463.3168
 509  575.5294
 510  729.6562
 511  274.9774
