# Input file       =  1189886569.111768-PSRB0329-2ms-sampling-dd.dat
# Candidate        =  PSR_0332+5434
# Telescope        =  AR
# Epoch_topo       =  58015.835510552868
# Epoch_bary       =  N/A
# T_sample         =  0.002
# Data Folded      =  7208960
# Data Avg         =  -9.64475702492498e-10
# Data StdDev      =  4.77812225695349 
# Profile Bins     =  512
# Profile Avg      =  0.0120518884164793
# Profile StdDev   =  566.968048850825 
# Reduced chi-sqr  =  0.678
# Prob(Noise)      <  1   (~0.0 sigma)
# P_topo (ms)      =  714.467451490873  +/- 0.000115
# P'_topo (s/s)    =  -0                +/- 6.2e-11
# P''_topo (s/s^2) =  0                 +/- 2.79e-14
# P_bary (ms)      =  N/A
# P'_bary (s/s)    =  N/A
# P''_bary (s/s^2) =  N/A
# P_orb (s)        =  N/A
# asin(i)/c (s)    =  N/A
# eccentricity     =  N/A
# w (rad)          =  N/A
# T_peri           =  N/A
######################################################
   0  550.108
   1  348.7614
   2  -6.772959
   3  -400.0293
   4  -263.4703
   5  25.29208
   6  472.4622
   7  434.019
   8  402.1765
   9  162.6508
  10  -318.2537
  11  -107.5588
  12  -41.75126
  13  202.0455
  14  163.6325
  15  148.5001
  16  -142.6981
  17  -214.4434
  18  181.6561
  19  356.9779
  20  458.9427
  21  93.777
  22  168.9161
  23  -91.96644
  24  26.63092
  25  23.65964
  26  8.91166
  27  225.8251
  28  309.9532
  29  223.7029
  30  277.4351
  31  363.01
  32  -197.2902
  33  -623.4217
  34  -366.2879
  35  201.3512
  36  -51.99044
  37  -341.5537
  38  51.83604
  39  -102.5998
  40  236.5186
  41  182.4498
  42  -1.416167
  43  -127.6884
  44  -35.14526
  45  149.5046
  46  97.64935
  47  -33.3531
  48  149.425
  49  150.7797
  50  -170.4312
  51  -100.1291
  52  -476.6446
  53  -157.6126
  54  133.0797
  55  222.7758
  56  72.27196
  57  -141.0442
  58  -291.6054
  59  -329.6687
  60  179.1696
  61  220.1433
  62  89.15271
  63  402.2048
  64  259.6353
  65  186.7386
  66  52.04796
  67  184.5265
  68  -51.11316
  69  38.62653
  70  37.0572
  71  119.0538
  72  20.87985
  73  -139.6248
  74  158.7311
  75  442.9988
  76  -10.31191
  77  -547.2704
  78  -428.2806
  79  -401.9594
  80  176.3867
  81  247.4373
  82  451.2566
  83  279.5212
  84  -101.9973
  85  -61.67948
  86  -249.7999
  87  -229.1302
  88  202.7409
  89  294.5747
  90  110.373
  91  61.16895
  92  171.7992
  93  471.9651
  94  611.0515
  95  583.5405
  96  664.7137
  97  171.72
  98  -75.97118
  99  -369.8934
 100  -261.8272
 101  356.4376
 102  299.4756
 103  350.8765
 104  -189.7602
 105  360.937
 106  326.3499
 107  255.9786
 108  118.779
 109  107.5815
 110  133.9967
 111  265.5009
 112  376.201
 113  7.894039
 114  103.3903
 115  440.4166
 116  98.80688
 117  104.1164
 118  55.98555
 119  -111.5644
 120  293.0388
 121  386.0673
 122  515.813
 123  36.00607
 124  208.8746
 125  326.2289
 126  -75.27477
 127  66.65307
 128  305.1829
 129  108.1582
 130  -82.08499
 131  -128.77
 132  -141.0744
 133  29.23833
 134  -73.51846
 135  222.4909
 136  89.87734
 137  -78.97062
 138  245.05
 139  365.6487
 140  321.9651
 141  2.201722
 142  104.8329
 143  -139.252
 144  -138.9439
 145  49.50628
 146  132.9874
 147  171.3254
 148  411.2591
 149  869.9481
 150  27.43675
 151  -479.2576
 152  -416.0704
 153  -5.717364
 154  519.4281
 155  100.5469
 156  98.29519
 157  -38.08164
 158  -460.3914
 159  -482.8215
 160  -129.0129
 161  253.3642
 162  -119.6702
 163  149.1494
 164  114.7981
 165  77.33762
 166  -335.8289
 167  154.8571
 168  520.9891
 169  118.2343
 170  -14.62857
 171  -498.8586
 172  -269.374
 173  -541.421
 174  -537.731
 175  -143.8367
 176  -76.08561
 177  -42.46385
 178  -12.68501
 179  179.349
 180  -15.15266
 181  -395.9791
 182  -457.0488
 183  -434.9586
 184  -345.7847
 185  -107.3209
 186  422.9128
 187  159.1524
 188  3.6007
 189  76.98472
 190  -203.6207
 191  -53.20258
 192  -216.6568
 193  -756.8835
 194  -262.7415
 195  -293.7822
 196  -245.2802
 197  -36.72073
 198  140.8189
 199  231.3998
 200  121.5255
 201  -312.5406
 202  -22.93999
 203  78.77019
 204  275.8636
 205  176.4521
 206  149.5344
 207  62.94455
 208  11.55292
 209  -213.1185
 210  -72.41469
 211  42.91132
 212  -364.2874
 213  -391.9095
 214  148.4629
 215  70.77411
 216  -144.0434
 217  -509.2507
 218  -336.3436
 219  -383.2654
 220  -32.36146
 221  83.71315
 222  21.37894
 223  83.98373
 224  -65.99409
 225  -29.15829
 226  -551.5948
 227  -326.5639
 228  -324.4792
 229  23.06423
 230  -0.2466109
 231  310.284
 232  594.5956
 233  185.0478
 234  -10.65933
 235  163.8888
 236  246.9727
 237  3.495602
 238  -92.75311
 239  133.6911
 240  -399.8983
 241  -291.9828
 242  -148.2014
 243  297.6919
 244  209.421
 245  455.0686
 246  325.2631
 247  145.461
 248  131.5006
 249  -253.0867
 250  -245.3554
 251  -234.8586
 252  -151.3376
 253  -310.2361
 254  -471.1118
 255  -661.5728
 256  -468.3184
 257  -159.709
 258  -114.7581
 259  -265.5278
 260  52.80438
 261  19.12087
 262  -257.0497
 263  -81.25648
 264  43.99402
 265  -375.1606
 266  -424.0405
 267  -194.7576
 268  -196.8774
 269  75.66521
 270  19.85476
 271  217.0768
 272  -33.52763
 273  -144.2248
 274  -304.5227
 275  -282.9678
 276  -237.7912
 277  -501.1628
 278  -175.6727
 279  27.33451
 280  18.09148
 281  -357.3004
 282  -303.1435
 283  -403.0512
 284  -735.1931
 285  -217.55
 286  -514.0732
 287  -329.7813
 288  -407.7488
 289  -40.82347
 290  -206.2605
 291  -674.1514
 292  -732.0209
 293  -502.6142
 294  -223.2622
 295  -36.53382
 296  204.9998
 297  50.40733
 298  -21.71047
 299  110.0486
 300  -235.2305
 301  -228.0201
 302  13.91909
 303  134.7418
 304  -73.72018
 305  -2.411778
 306  74.87955
 307  -175.1767
 308  -270.6713
 309  -235.9202
 310  -2.673551
 311  -81.87587
 312  90.94864
 313  -1.596298
 314  348.9395
 315  402.6283
 316  167.0123
 317  173.4959
 318  -287.9477
 319  -486.7955
 320  -366.5505
 321  -349.7495
 322  -108.3582
 323  -161.3013
 324  -170.5168
 325  -264.1439
 326  -483.5925
 327  -394.2529
 328  61.54343
 329  273.7746
 330  85.99841
 331  167.372
 332  -253.2713
 333  -190.5327
 334  26.04799
 335  95.7392
 336  353.1593
 337  216.0445
 338  -17.70187
 339  -252.4579
 340  -207.7778
 341  34.20704
 342  -174.4452
 343  -124.3185
 344  80.77214
 345  75.23015
 346  37.71161
 347  387.3574
 348  11.51688
 349  65.08321
 350  152.6625
 351  -34.16245
 352  -278.6106
 353  -97.16344
 354  378.244
 355  129.1101
 356  45.10234
 357  -31.48514
 358  -22.41202
 359  -237.5189
 360  -360.0926
 361  -45.33727
 362  68.49472
 363  348.7745
 364  96.61586
 365  -173.1994
 366  -214.9354
 367  -232.5205
 368  -408.74
 369  -481.1534
 370  -104.6815
 371  9.121016
 372  -360.6096
 373  -403.1342
 374  -256.5658
 375  -235.8614
 376  15.67986
 377  307.8247
 378  379.5773
 379  -113.2887
 380  -367.8461
 381  -150.6021
 382  -192.1918
 383  -345.8958
 384  -115.5578
 385  -203.804
 386  -164.4839
 387  -328.8006
 388  -582.3757
 389  -252.5902
 390  -391.1684
 391  -427.887
 392  -517.395
 393  -334.055
 394  -484.5243
 395  -359.7797
 396  -41.34056
 397  -182.0045
 398  -319.0207
 399  -385.2863
 400  -65.86265
 401  -156.0373
 402  17.91799
 403  -91.09177
 404  -195.3548
 405  -22.31922
 406  -258.7141
 407  -219.8365
 408  -334.164
 409  -551.7692
 410  -349.4639
 411  -106.1552
 412  153.5944
 413  -54.30718
 414  -138.182
 415  243.4438
 416  156.2785
 417  -95.06669
 418  -213.3272
 419  -199.7902
 420  -186.248
 421  -99.27385
 422  76.21849
 423  -108.9106
 424  -34.20253
 425  133.1081
 426  117.0705
 427  186.5277
 428  -253.3762
 429  -376.402
 430  -161.3051
 431  -371.472
 432  -333.1354
 433  -40.29119
 434  -369.4766
 435  -194.5899
 436  368.1436
 437  434.2035
 438  62.12673
 439  -203.0669
 440  -301.5522
 441  -319.996
 442  -111.5842
 443  139.4386
 444  265.1534
 445  321.3352
 446  180.4039
 447  -110.2673
 448  -56.80002
 449  -6.781124
 450  337.8163
 451  83.40887
 452  -232.0574
 453  -410.6909
 454  -140.8056
 455  -301.421
 456  -18.20753
 457  20.7587
 458  343.666
 459  114.3708
 460  -137.7816
 461  -373.3916
 462  -480.9271
 463  -554.5691
 464  -197.9161
 465  119.5692
 466  117.2167
 467  198.3176
 468  167.8796
 469  522.6199
 470  550.5754
 471  156.6617
 472  144.604
 473  -96.79299
 474  540.7762
 475  1105.308
 476  1848.45
 477  2182.593
 478  2033.354
 479  1285.074
 480  640.7408
 481  -186.7086
 482  -707.1911
 483  -255.0485
 484  21.35092
 485  55.74252
 486  -0.5874565
 487  -272.1004
 488  -676.2465
 489  -479.3684
 490  96.93658
 491  545.0196
 492  425.6211
 493  749.9431
 494  1196.677
 495  845.3456
 496  269.2162
 497  75.1404
 498  135.2791
 499  322.3571
 500  605.779
 501  895.2967
 502  857.754
 503  892.8695
 504  518.6072
 505  306.7338
 506  -61.82689
 507  207.9506
 508  291.9176
 509  165.1119
 510  497.5366
 511  456.5647
