# Input file       =  1189916087.11515_cleaned.dat
# Candidate        =  PSR_0332+5434
# Telescope        =  AR
# Epoch_topo       =  58016.177154110534
# Epoch_bary       =  N/A
# T_sample         =  0.002
# Data Folded      =  7340032
# Data Avg         =  0.025014488814382
# Data StdDev      =  3.0090997999518  
# Profile Bins     =  256
# Profile Avg      =  717.126128462264 
# Profile StdDev   =  509.525103414187 
# Reduced chi-sqr  =  1.241
# Prob(Noise)      <  0.00532   (~2.6 sigma)
# P_topo (ms)      =  714.46792921071   +/- 0.000228
# P'_topo (s/s)    =  -0                +/- 1.2e-10
# P''_topo (s/s^2) =  0                 +/- 5.3e-14
# P_bary (ms)      =  N/A
# P'_bary (s/s)    =  N/A
# P''_bary (s/s^2) =  N/A
# P_orb (s)        =  N/A
# asin(i)/c (s)    =  N/A
# eccentricity     =  N/A
# w (rad)          =  N/A
# T_peri           =  N/A
######################################################
   0  330.4206
   1  -87.06341
   2  762.0656
   3  323.0243
   4  823.403
   5  834.5017
   6  854.5305
   7  1279.143
   8  840.8299
   9  1053.773
  10  653.2264
  11  614.9418
  12  799.8868
  13  699.6053
  14  652.4623
  15  347.203
  16  677.701
  17  594.0146
  18  381.0762
  19  545.0596
  20  906.8823
  21  1139.238
  22  40.54269
  23  325.3626
  24  133.6454
  25  391.6018
  26  775.0307
  27  689.6268
  28  201.1731
  29  339.0501
  30  840.72
  31  837.6288
  32  852.7089
  33  1554.316
  34  735.8193
  35  453.4151
  36  41.99379
  37  -78.25882
  38  1170.257
  39  887.6716
  40  967.8966
  41  961.5852
  42  559.8221
  43  1083.121
  44  1111.82
  45  813.9333
  46  428.1128
  47  191.9922
  48  552.9741
  49  969.365
  50  1055.202
  51  270.7011
  52  1021.866
  53  -38.78703
  54  1134.422
  55  807.5092
  56  803.5593
  57  836.7266
  58  169.1211
  59  144.277
  60  180.0853
  61  643.7269
  62  600.841
  63  1245.177
  64  634.6578
  65  1087.823
  66  1451.589
  67  465.7743
  68  821.277
  69  474.5093
  70  828.5982
  71  138.0431
  72  457.5608
  73  379.5339
  74  154.7801
  75  661.36
  76  451.152
  77  775.8691
  78  833.7987
  79  313.2996
  80  655.7334
  81  253.7761
  82  622.5922
  83  84.11364
  84  1387.73
  85  938.7968
  86  971.6113
  87  1059.586
  88  672.347
  89  310.4131
  90  926.4462
  91  -36.86305
  92  335.2135
  93  899.8467
  94  119.9718
  95  840.725
  96  789.1006
  97  284.4985
  98  822.7087
  99  1023.608
 100  666.4132
 101  393.4364
 102  963.9573
 103  508.5653
 104  565.1445
 105  778.6023
 106  1387.418
 107  903.4885
 108  683.7347
 109  726.851
 110  900.6494
 111  1653.049
 112  1328.442
 113  1358.461
 114  945.1663
 115  911.4814
 116  1484.233
 117  1111.3
 118  612.4636
 119  -449.8828
 120  882.1371
 121  1676.684
 122  1033.308
 123  805.3821
 124  37.08598
 125  130.5426
 126  496.6281
 127  167.3274
 128  522.9658
 129  130.4342
 130  1191.336
 131  1209.115
 132  188.1025
 133  223.9843
 134  410.4609
 135  420.1224
 136  1007.445
 137  456.5322
 138  1090.702
 139  596.6201
 140  1682.052
 141  1324.97
 142  364.4846
 143  3.146912
 144  633.0326
 145  464.8261
 146  1052.198
 147  393.1891
 148  1021.875
 149  112.8763
 150  215.7876
 151  812.7159
 152  970.6147
 153  1116.753
 154  1165.828
 155  926.4178
 156  1422.888
 157  1714.931
 158  1610.632
 159  2312.408
 160  3792.112
 161  2929.642
 162  1695.457
 163  447.8334
 164  743.5457
 165  541.0383
 166  925.5023
 167  962.9603
 168  851.455
 169  1097.118
 170  604.8822
 171  1040.537
 172  451.2684
 173  84.24437
 174  701.525
 175  631.7554
 176  655.9139
 177  -219.7854
 178  17.52913
 179  711.6434
 180  363.785
 181  1005.438
 182  -295.2916
 183  169.4464
 184  1265.681
 185  1209.703
 186  145.5324
 187  244.6724
 188  1174.173
 189  865.4064
 190  1046.714
 191  1061.451
 192  903.3842
 193  343.8003
 194  1225.007
 195  1226.035
 196  359.5506
 197  -668.1869
 198  875.2546
 199  23.0197
 200  441.8703
 201  1087.359
 202  666.4956
 203  862.366
 204  256.7671
 205  961.2068
 206  866.7885
 207  565.2835
 208  614.0569
 209  972.1203
 210  751.7003
 211  1295.478
 212  905.7939
 213  971.1603
 214  223.6988
 215  673.2971
 216  585.014
 217  -138.873
 218  -29.56313
 219  73.71927
 220  651.361
 221  856.361
 222  1316.204
 223  587.6017
 224  598.8976
 225  889.3474
 226  487.313
 227  1359.639
 228  596.7898
 229  919.4559
 230  466.5111
 231  709.6555
 232  1151.407
 233  702.6078
 234  724.3857
 235  973.5936
 236  935.8225
 237  976.9264
 238  -46.80593
 239  895.1336
 240  217.4885
 241  177.8995
 242  1094.674
 243  1456.072
 244  243.3453
 245  516.1644
 246  942.3812
 247  187.9311
 248  737.3673
 249  1125.97
 250  466.6592
 251  550.4681
 252  428.3571
 253  610.2544
 254  593.512
 255  610.6698
