# Input file       =  1189283375.118279_cleaned.dat
# Candidate        =  PSR_0332+5434
# Telescope        =  AR
# Epoch_topo       =  58008.854098591190
# Epoch_bary       =  N/A
# T_sample         =  0.002
# Data Folded      =  7208960
# Data Avg         =  0.0273056616972007
# Data StdDev      =  1.00015980543161 
# Profile Bins     =  512
# Profile Avg      =  384.466774558882 
# Profile StdDev   =  118.678138174333 
# Reduced chi-sqr  =  1.638
# Prob(Noise)      <  3.54e-18   (~8.6 sigma)
# P_topo (ms)      =  714.465288968465  +/- 0.000205
# P'_topo (s/s)    =  -0                +/- 1.1e-10
# P''_topo (s/s^2) =  0                 +/- 4.94e-14
# P_bary (ms)      =  N/A
# P'_bary (s/s)    =  N/A
# P''_bary (s/s^2) =  N/A
# P_orb (s)        =  N/A
# asin(i)/c (s)    =  N/A
# eccentricity     =  N/A
# w (rad)          =  N/A
# T_peri           =  N/A
######################################################
   0  1172.174
   1  1072.48
   2  824.1583
   3  749.1873
   4  572.6042
   5  354.4187
   6  356.4144
   7  416.9159
   8  500.9355
   9  396.7907
  10  335.257
  11  320.3576
  12  408.793
  13  310.4396
  14  406.3912
  15  568.9977
  16  477.2903
  17  408.9777
  18  328.3849
  19  245.4623
  20  396.8568
  21  520.3156
  22  455.2944
  23  355.2445
  24  412.228
  25  348.6683
  26  245.7489
  27  397.7123
  28  417.4246
  29  336.5498
  30  408.4
  31  297.0026
  32  352.3833
  33  347.2006
  34  319.9923
  35  314.6648
  36  272.0078
  37  304.6552
  38  319.0998
  39  412.2527
  40  387.2964
  41  402.1058
  42  412.2906
  43  503.963
  44  328.2936
  45  419.9524
  46  481.3832
  47  376.7565
  48  271.1149
  49  294.9394
  50  300.689
  51  353.7163
  52  310.5515
  53  286.2402
  54  383.0869
  55  335.1875
  56  400.6448
  57  428.8001
  58  364.5913
  59  295.8851
  60  394.9619
  61  401.9107
  62  359.3168
  63  305.0614
  64  286.5097
  65  362.2823
  66  361.6403
  67  266.3354
  68  431.1855
  69  394.1474
  70  430.0111
  71  344.968
  72  334.5807
  73  337.4585
  74  349.778
  75  485.0869
  76  286.4585
  77  367.8866
  78  513.3071
  79  410.0602
  80  361.8376
  81  320.4414
  82  356.8055
  83  329.5282
  84  400.1741
  85  391.6437
  86  515.741
  87  373.7185
  88  393.6316
  89  285.9595
  90  302.411
  91  432.855
  92  490.0755
  93  375.8893
  94  302.1351
  95  341.4453
  96  475.2368
  97  498.5871
  98  452.7412
  99  396.9904
 100  344.0646
 101  277.6544
 102  332.6437
 103  349.5701
 104  538.1863
 105  459.399
 106  424.0068
 107  557.0155
 108  434.8291
 109  433.0535
 110  340.5166
 111  353.1673
 112  436.6432
 113  387.078
 114  417.2698
 115  359.6151
 116  355.8688
 117  206.0649
 118  282.3763
 119  290.5908
 120  278.0251
 121  252.1048
 122  283.8272
 123  423.6946
 124  341.3538
 125  201.7979
 126  205.5187
 127  311.3118
 128  441.5847
 129  587.6709
 130  561.0801
 131  380.505
 132  386.7571
 133  315.169
 134  258.672
 135  330.3957
 136  353.438
 137  420.1817
 138  419.1282
 139  348.5613
 140  272.0428
 141  277.1244
 142  372.8703
 143  250.8223
 144  259.1442
 145  316.8754
 146  333.4073
 147  417.6087
 148  343.7545
 149  193.1696
 150  275.3722
 151  446.9863
 152  423.4961
 153  360.4643
 154  369.1255
 155  376.8674
 156  251.1805
 157  275.8942
 158  322.8151
 159  444.4904
 160  373.7161
 161  396.4168
 162  541.1374
 163  456.6499
 164  397.3926
 165  344.3525
 166  386.3864
 167  494.9631
 168  533.6935
 169  538.4641
 170  465.199
 171  503.1849
 172  427.0648
 173  285.3275
 174  352.4301
 175  417.8565
 176  509.0128
 177  292.7057
 178  228.2753
 179  281.1076
 180  303.0175
 181  304.4542
 182  339.8157
 183  347.9719
 184  335.3324
 185  331.0879
 186  263.6516
 187  288.4284
 188  323.1312
 189  393.1928
 190  461.2763
 191  369.2264
 192  376.2439
 193  414.2781
 194  347.7542
 195  294.2755
 196  342.8599
 197  295.1688
 198  353.8846
 199  339.8021
 200  398.2842
 201  212.539
 202  301.4025
 203  372.3169
 204  363.3091
 205  379.0814
 206  222.8819
 207  269.5049
 208  185.0941
 209  364.1478
 210  409.3663
 211  336.7036
 212  321.7387
 213  349.8046
 214  437.9715
 215  394.215
 216  358.4359
 217  415.906
 218  382.9432
 219  479.5153
 220  338.21
 221  347.3882
 222  306.8541
 223  391.4559
 224  407.2278
 225  263.9005
 226  395.616
 227  310.1602
 228  295.7018
 229  467.1006
 230  431.5447
 231  343.4207
 232  266.4712
 233  406.0603
 234  566.3351
 235  563.2291
 236  494.9478
 237  338.5472
 238  490.0928
 239  390.4924
 240  294.1191
 241  231.1565
 242  327.3512
 243  290.4459
 244  479.3595
 245  524.1442
 246  544.6423
 247  448.7096
 248  428.7303
 249  406.4747
 250  273.0959
 251  353.0423
 252  366.0935
 253  352.5638
 254  408.533
 255  446.5767
 256  287.5447
 257  159.2038
 258  317.5958
 259  440.2663
 260  553.4437
 261  373.7641
 262  345.4142
 263  288.3605
 264  279.8249
 265  304.1755
 266  268.1891
 267  381.2783
 268  527.5995
 269  430.5496
 270  408.6494
 271  437.4786
 272  259.9532
 273  189.2431
 274  380.4088
 275  441.1167
 276  489.168
 277  249.3879
 278  410.1442
 279  464.4063
 280  459.5386
 281  327.8763
 282  266.496
 283  412.5699
 284  388.3141
 285  465.1924
 286  424.9717
 287  500.9697
 288  442.6747
 289  578.8696
 290  397.3582
 291  374.5791
 292  369.6651
 293  373.0897
 294  472.1207
 295  511.1387
 296  468.907
 297  353.4863
 298  458.5949
 299  518.3568
 300  432.3427
 301  409.997
 302  453.8977
 303  393.6853
 304  456.7455
 305  455.24
 306  405.4759
 307  243.9887
 308  306.5401
 309  375.5353
 310  507.3257
 311  426.7215
 312  302.0555
 313  446.3565
 314  334.8017
 315  228.5468
 316  128.4635
 317  245.0301
 318  411.9082
 319  399.6154
 320  408.5336
 321  364.4575
 322  361.8598
 323  513.1878
 324  490.0291
 325  470.4859
 326  458.3794
 327  378.118
 328  353.9432
 329  340.9765
 330  463.1332
 331  428.0231
 332  460.7441
 333  525.5058
 334  385.4315
 335  365.9676
 336  480.3925
 337  377.4731
 338  328.4462
 339  436.5506
 340  432.5226
 341  175.7163
 342  238.1709
 343  409.7789
 344  341.5195
 345  290.4779
 346  340.4027
 347  438.2758
 348  433.4789
 349  302.7871
 350  232.2825
 351  388.5541
 352  428.8654
 353  291.1875
 354  310.1636
 355  439.2698
 356  207.0415
 357  258.9927
 358  575.9966
 359  359.0841
 360  284.0368
 361  371.4946
 362  334.8169
 363  266.3445
 364  243.3246
 365  337.3033
 366  364.5327
 367  189.2755
 368  271.8952
 369  507.0142
 370  512.7667
 371  440.4172
 372  325.0074
 373  219.8518
 374  236.4682
 375  348.969
 376  325.9057
 377  309.7448
 378  297.025
 379  312.754
 380  409.2911
 381  362.9386
 382  380.489
 383  350.3408
 384  470.9112
 385  403.953
 386  403.6001
 387  357.2505
 388  413.291
 389  224.3303
 390  358.3944
 391  376.0222
 392  274.6139
 393  330.3452
 394  295.6745
 395  408.9234
 396  301.4876
 397  389.25
 398  335.9138
 399  308.4778
 400  430.2553
 401  379.2009
 402  426.1494
 403  479.8521
 404  449.9269
 405  468.5295
 406  264.1936
 407  141.769
 408  287.3661
 409  352.525
 410  235.2596
 411  316.3995
 412  420.9358
 413  341.9762
 414  229.3386
 415  277.8105
 416  367.4691
 417  305.0243
 418  361.4141
 419  389.9268
 420  494.5509
 421  571.2839
 422  457.9921
 423  479.2362
 424  495.1401
 425  373.6039
 426  248.73
 427  302.7882
 428  402.9694
 429  312.0876
 430  371.6682
 431  421.0422
 432  553.7088
 433  529.437
 434  408.2425
 435  430.3877
 436  328.2235
 437  347.7621
 438  409.9709
 439  371.0915
 440  556.8767
 441  503.6101
 442  389.1198
 443  247.3282
 444  407.7144
 445  308.738
 446  347.4608
 447  354.0521
 448  473.2968
 449  485.1523
 450  362.3374
 451  333.9689
 452  357.8526
 453  475.4193
 454  407.5209
 455  433.3272
 456  430.9585
 457  502.6442
 458  497.9194
 459  401.6424
 460  351.4883
 461  348.5811
 462  400.7683
 463  379.9448
 464  340.5057
 465  325.5049
 466  404.1297
 467  401.7803
 468  393.2499
 469  499.5953
 470  462.4911
 471  413.9178
 472  418.9075
 473  394.6912
 474  539.8353
 475  547.8408
 476  482.6508
 477  481.8399
 478  377.1535
 479  394.516
 480  473.1385
 481  400.2941
 482  318.8605
 483  263.8372
 484  253.3593
 485  191.8858
 486  154.9922
 487  315.0293
 488  319.2824
 489  256.8426
 490  302.0809
 491  280.093
 492  284.741
 493  476.8927
 494  515.0635
 495  437.7955
 496  364.9707
 497  395.0853
 498  430.1219
 499  337.2911
 500  404.4844
 501  346.2627
 502  375.4805
 503  532.8751
 504  574.9586
 505  570.3734
 506  619.68
 507  527.5865
 508  598.6605
 509  798.8864
 510  959.2855
 511  1060.899
