# Input file       =  1189800420.117078_cleaned.dat
# Candidate        =  PSR_0332+5434
# Telescope        =  AR
# Epoch_topo       =  58014.838415706923
# Epoch_bary       =  N/A
# T_sample         =  0.002
# Data Folded      =  7143424
# Data Avg         =  0.00794506004875864
# Data StdDev      =  1.00008247292257 
# Profile Bins     =  512
# Profile Avg      =  110.838962439454 
# Profile StdDev   =  118.128326066739 
# Reduced chi-sqr  =  1.535
# Prob(Noise)      <  6.93e-14   (~7.4 sigma)
# P_topo (ms)      =  714.467089486558  +/- 0.000236
# P'_topo (s/s)    =  -0                +/- 1.28e-10
# P''_topo (s/s^2) =  0                 +/- 5.81e-14
# P_bary (ms)      =  N/A
# P'_bary (s/s)    =  N/A
# P''_bary (s/s^2) =  N/A
# P_orb (s)        =  N/A
# asin(i)/c (s)    =  N/A
# eccentricity     =  N/A
# w (rad)          =  N/A
# T_peri           =  N/A
######################################################
   0  890.9745
   1  840.4111
   2  628.0561
   3  277.2945
   4  186.5618
   5  114.8911
   6  118.2573
   7  132.9085
   8  151.9034
   9  107.7207
  10  20.25493
  11  134.1785
  12  161.8576
  13  20.26381
  14  76.63056
  15  182.3142
  16  285.7668
  17  233.8567
  18  158.0538
  19  91.76389
  20  52.28948
  21  169.3072
  22  221.3145
  23  123.4608
  24  63.75653
  25  144.0104
  26  275.6808
  27  348.0485
  28  155.0255
  29  -75.07564
  30  81.53483
  31  186.894
  32  174.4201
  33  5.038511
  34  147.1696
  35  191.8385
  36  134.9414
  37  100.6011
  38  115.391
  39  180.5294
  40  131.7265
  41  78.06676
  42  90.84805
  43  57.91608
  44  135.7616
  45  209.5537
  46  219.6839
  47  25.33197
  48  121.514
  49  133.9465
  50  -28.29208
  51  73.39063
  52  88.2672
  53  7.799534
  54  62.25156
  55  120.3565
  56  72.46252
  57  24.22811
  58  1.608484
  59  131.9343
  60  140.8893
  61  100.7127
  62  5.94136
  63  15.04341
  64  -119.0961
  65  -40.03113
  66  -85.17432
  67  -50.08139
  68  41.46571
  69  66.75013
  70  80.20641
  71  160.383
  72  137.2434
  73  109.6077
  74  51.83844
  75  101.7011
  76  66.66018
  77  35.7393
  78  106.1837
  79  3.607873
  80  179.6043
  81  129.4794
  82  161.3326
  83  239.6172
  84  264.2718
  85  82.65036
  86  126.9468
  87  163.9826
  88  -11.66041
  89  48.99042
  90  225.7326
  91  190.6264
  92  194.0479
  93  71.48703
  94  37.66809
  95  126.7413
  96  96.41319
  97  159.1707
  98  98.02052
  99  135.0289
 100  174.047
 101  17.8141
 102  80.18594
 103  154.8529
 104  130.8445
 105  20.37985
 106  75.69581
 107  -8.68743
 108  189.4585
 109  239.9276
 110  103.9758
 111  -61.43907
 112  135.6224
 113  115.7305
 114  104.6834
 115  21.84516
 116  124.6033
 117  106.4908
 118  -2.851089
 119  -15.66142
 120  70.18452
 121  193.6906
 122  140.8993
 123  -29.80316
 124  46.77325
 125  31.22277
 126  75.93109
 127  59.1629
 128  67.12289
 129  67.59783
 130  68.16286
 131  73.99792
 132  4.277696
 133  92.38061
 134  109.0037
 135  -3.567846
 136  -9.037361
 137  164.515
 138  169.0063
 139  176.6303
 140  119.7152
 141  137.8508
 142  90.91509
 143  59.9888
 144  76.8626
 145  56.90038
 146  48.4739
 147  144.7043
 148  166.7254
 149  202.3811
 150  41.76728
 151  39.05596
 152  221.9531
 153  226.7949
 154  147.4148
 155  104.5345
 156  -16.37097
 157  -15.31544
 158  157.0663
 159  76.89693
 160  114.0883
 161  140.9865
 162  186.5681
 163  205.6078
 164  208.3221
 165  122.6793
 166  176.0364
 167  255.5788
 168  32.72308
 169  37.05898
 170  81.2908
 171  19.48095
 172  120.1036
 173  98.62277
 174  159.5605
 175  181.0537
 176  244.8209
 177  125.4832
 178  82.18198
 179  80.20985
 180  -18.5954
 181  51.03537
 182  135.0947
 183  179.4193
 184  62.14903
 185  -32.92644
 186  35.84648
 187  40.52666
 188  163.5455
 189  119.5276
 190  51.66359
 191  76.73922
 192  102.2451
 193  183.1983
 194  62.56012
 195  106.6179
 196  128.8805
 197  114.5155
 198  155.8696
 199  168.2192
 200  116.7791
 201  -10.47103
 202  98.70425
 203  71.77136
 204  -56.52698
 205  45.06546
 206  108.9222
 207  80.53209
 208  134.4532
 209  110.359
 210  98.38887
 211  75.11166
 212  87.26784
 213  -26.02881
 214  124.7139
 215  181.3423
 216  178.238
 217  32.14133
 218  48.0474
 219  137.8235
 220  232.6165
 221  142.8177
 222  60.93569
 223  80.26918
 224  120.686
 225  127.4578
 226  63.5906
 227  39.76155
 228  68.67708
 229  146.7172
 230  102.4864
 231  64.30556
 232  95.61057
 233  -4.836726
 234  -65.43999
 235  -3.215952
 236  76.17513
 237  110.5814
 238  151.7076
 239  189.7674
 240  3.43947
 241  -89.42377
 242  10.19343
 243  60.33978
 244  111.6981
 245  168.8154
 246  210.7598
 247  178.5719
 248  217.2301
 249  156.51
 250  97.0243
 251  -3.868959
 252  -14.03677
 253  123.0611
 254  232.7683
 255  249.0631
 256  180.6301
 257  136.9345
 258  42.82917
 259  28.62181
 260  163.9091
 261  161.9819
 262  119.7473
 263  196.1429
 264  206.4627
 265  141.4006
 266  148.5313
 267  130.5742
 268  98.34073
 269  6.295357
 270  64.07213
 271  100.5151
 272  58.87179
 273  120.2577
 274  80.03017
 275  -74.16726
 276  18.37284
 277  140.8341
 278  154.8638
 279  178.2964
 280  125.5024
 281  137.664
 282  66.5751
 283  36.15877
 284  137.7099
 285  103.8324
 286  148.4245
 287  175.1168
 288  115.9534
 289  80.6018
 290  135.1944
 291  261.7139
 292  212.4219
 293  84.00724
 294  61.52105
 295  188.8212
 296  213.243
 297  137.1091
 298  109.33
 299  117.1605
 300  86.87645
 301  99.94345
 302  -6.97523
 303  19.79571
 304  121.4819
 305  -8.358546
 306  -2.931815
 307  97.95493
 308  182.711
 309  172.5695
 310  148.3844
 311  62.75272
 312  204.5507
 313  165.0362
 314  77.43899
 315  -15.43851
 316  17.75068
 317  -61.04362
 318  -30.44813
 319  -13.90095
 320  152.7791
 321  111.9685
 322  -25.33235
 323  38.15844
 324  17.14372
 325  -29.00296
 326  10.69098
 327  143.6955
 328  122.2926
 329  73.45071
 330  15.03838
 331  65.73107
 332  121.0513
 333  170.9068
 334  143.4871
 335  191.1327
 336  20.80189
 337  77.01585
 338  157.1675
 339  193.9107
 340  195.9449
 341  242.7744
 342  181.5924
 343  160.2203
 344  213.376
 345  157.4697
 346  50.09004
 347  87.26628
 348  219.9476
 349  103.2755
 350  55.26902
 351  54.24703
 352  75.87955
 353  41.11249
 354  29.44983
 355  105.7874
 356  149.8952
 357  139.1809
 358  -48.13738
 359  -65.45522
 360  176.6408
 361  289.736
 362  120.2686
 363  211.56
 364  145.9579
 365  81.49736
 366  113.7429
 367  160.7528
 368  71.23649
 369  7.29926
 370  10.92748
 371  -32.19482
 372  -113.6183
 373  36.79741
 374  130.0055
 375  25.54128
 376  2.279678
 377  104.7499
 378  56.11208
 379  79.76077
 380  89.24538
 381  140.8721
 382  222.297
 383  134.4133
 384  -2.766414
 385  20.99995
 386  83.00548
 387  141.6129
 388  140.2463
 389  350.219
 390  177.0013
 391  159.6784
 392  125.0926
 393  225.7668
 394  122.011
 395  182.6253
 396  264.8694
 397  188.9071
 398  135.3239
 399  115.1034
 400  88.4052
 401  186.469
 402  198.0302
 403  199.309
 404  188.079
 405  78.25585
 406  143.8072
 407  66.20787
 408  148.6721
 409  96.94292
 410  126.6532
 411  181.9707
 412  222.147
 413  89.52325
 414  45.25877
 415  99.31107
 416  63.93784
 417  35.27388
 418  19.31582
 419  46.21242
 420  117.454
 421  200.099
 422  141.3331
 423  53.53573
 424  107.0462
 425  172.3494
 426  63.6574
 427  43.19753
 428  73.11613
 429  132.1219
 430  233.392
 431  313.5889
 432  119.5614
 433  24.62881
 434  26.95933
 435  63.49882
 436  154.0307
 437  -35.82793
 438  -17.42075
 439  142.4534
 440  220.9227
 441  214.7184
 442  215.3928
 443  214.0245
 444  -26.03938
 445  -5.772287
 446  65.08597
 447  254.6471
 448  86.5001
 449  68.60548
 450  130.4536
 451  108.4111
 452  99.11008
 453  161.1777
 454  215.6198
 455  174.1817
 456  267.8181
 457  111.7281
 458  144.2172
 459  244.4013
 460  158.825
 461  39.05226
 462  103.6732
 463  69.21457
 464  -116.2994
 465  -146.5191
 466  -19.57489
 467  111.2228
 468  142.6598
 469  43.7835
 470  -9.531281
 471  94.19446
 472  -0.795149
 473  26.01943
 474  82.13095
 475  146.0911
 476  181.1674
 477  166.4154
 478  116.9818
 479  -48.6576
 480  21.48022
 481  151.4721
 482  101.8347
 483  69.91122
 484  99.26415
 485  -36.65836
 486  -116.1038
 487  -48.01704
 488  97.23272
 489  89.18472
 490  -75.52346
 491  -39.96814
 492  66.99284
 493  121.5671
 494  135.021
 495  103.405
 496  -24.93097
 497  67.27805
 498  278.9665
 499  164.2261
 500  62.28678
 501  105.5315
 502  203.3021
 503  236.5654
 504  172.4435
 505  184.3974
 506  145.4018
 507  312.7505
 508  329.2625
 509  349.3515
 510  697.111
 511  889.0649
