# Input file       =  1189829930.117989_cleaned.dat
# Candidate        =  PSR_0332+5434
# Telescope        =  AR
# Epoch_topo       =  58015.179966643394
# Epoch_bary       =  N/A
# T_sample         =  0.002
# Data Folded      =  7340032
# Data Avg         =  0.00905578671978436
# Data StdDev      =  1.00001489629619 
# Profile Bins     =  512
# Profile Avg      =  129.804109530121 
# Profile StdDev   =  119.73481995554  
# Reduced chi-sqr  =  1.023
# Prob(Noise)      <  0.349   (~0.4 sigma)
# P_topo (ms)      =  714.467561534525  +/- 0.000153
# P'_topo (s/s)    =  -0                +/- 8.08e-11
# P''_topo (s/s^2) =  0                 +/- 3.57e-14
# P_bary (ms)      =  N/A
# P'_bary (s/s)    =  N/A
# P''_bary (s/s^2) =  N/A
# P_orb (s)        =  N/A
# asin(i)/c (s)    =  N/A
# eccentricity     =  N/A
# w (rad)          =  N/A
# T_peri           =  N/A
######################################################
   0  530.9915
   1  633.632
   2  492.5109
   3  216.2399
   4  130.267
   5  196.9465
   6  287.8655
   7  140.3838
   8  233.3679
   9  94.93999
  10  90.70086
  11  94.36065
  12  206.9681
  13  196.8287
  14  215.5336
  15  269.0629
  16  189.9538
  17  145.9554
  18  -12.62322
  19  71.75397
  20  143.204
  21  47.90167
  22  50.87825
  23  -48.29166
  24  -29.68709
  25  77.94644
  26  242.5185
  27  185.3071
  28  114.4605
  29  88.32458
  30  132.2804
  31  25.5001
  32  128.2887
  33  183.4094
  34  104.8325
  35  -127.4013
  36  34.15144
  37  138.7641
  38  127.5098
  39  209.3499
  40  170.5356
  41  64.98755
  42  51.67017
  43  175.9827
  44  132.4343
  45  20.72299
  46  -50.8894
  47  152.0893
  48  71.97411
  49  94.23642
  50  157.0974
  51  133.7812
  52  92.35676
  53  161.6171
  54  13.42441
  55  48.27266
  56  135.7797
  57  158.5933
  58  186.5325
  59  101.1264
  60  165.0162
  61  125.7683
  62  83.12897
  63  58.14795
  64  96.06403
  65  105.134
  66  100.0077
  67  165.592
  68  97.61633
  69  6.912049
  70  -60.81812
  71  12.14859
  72  133.4883
  73  167.8732
  74  90.81914
  75  45.78059
  76  87.21349
  77  173.3404
  78  112.0824
  79  105.2433
  80  69.77633
  81  40.33716
  82  126.7753
  83  221.6597
  84  227.8485
  85  139.1833
  86  78.63071
  87  156.3107
  88  155.8246
  89  187.8714
  90  240.5536
  91  126.1783
  92  127.3773
  93  206.8474
  94  36.53304
  95  116.4333
  96  247.4151
  97  19.94399
  98  -114.1403
  99  113.4869
 100  161.2925
 101  169.9744
 102  177.6873
 103  164.9713
 104  196.8163
 105  116.4017
 106  70.88773
 107  58.25396
 108  247.7069
 109  245.5158
 110  142.3308
 111  109.3821
 112  185.4369
 113  151.4589
 114  164.6992
 115  190.1507
 116  246.1938
 117  45.67192
 118  80.67753
 119  96.8194
 120  120.9438
 121  188.7707
 122  142.6026
 123  22.66821
 124  -41.4459
 125  88.0417
 126  94.54913
 127  144.6956
 128  77.31683
 129  -15.32436
 130  27.8916
 131  130.3727
 132  193.0748
 133  215.0081
 134  57.05502
 135  83.33924
 136  153.219
 137  183.0516
 138  197.6197
 139  156.5077
 140  155.6073
 141  31.01312
 142  116.7671
 143  108.1158
 144  56.0633
 145  104.0848
 146  101.5062
 147  153.924
 148  275.3333
 149  247.7707
 150  169.777
 151  112.1996
 152  37.62521
 153  68.96356
 154  7.766107
 155  68.81783
 156  47.64535
 157  -32.06277
 158  46.63537
 159  186.566
 160  41.09937
 161  89.23563
 162  127.63
 163  63.52081
 164  165.7185
 165  187.4487
 166  101.0398
 167  -15.37252
 168  143.1706
 169  107.4683
 170  137.8062
 171  187.9839
 172  226.5857
 173  289.8342
 174  152.4567
 175  136.2773
 176  210.9227
 177  84.89973
 178  114.9482
 179  72.12454
 180  159.7933
 181  58.30084
 182  10.54262
 183  150.6963
 184  125.1856
 185  53.52137
 186  41.41794
 187  175.394
 188  94.01832
 189  -12.12992
 190  107.6898
 191  101.0704
 192  77.37693
 193  147.7643
 194  205.7876
 195  117.0111
 196  68.40378
 197  103.925
 198  54.72415
 199  224.6808
 200  153.0212
 201  106.391
 202  56.4765
 203  55.7553
 204  164.0916
 205  156.8602
 206  182.3291
 207  164.3905
 208  90.02094
 209  101.0664
 210  74.68343
 211  181.9622
 212  258.6342
 213  288.9776
 214  157.4953
 215  115.5409
 216  15.25974
 217  105.6273
 218  108.8343
 219  241.5322
 220  189.7998
 221  125.1307
 222  177.386
 223  170.5296
 224  2.200832
 225  1.392397
 226  115.7326
 227  233.381
 228  328.2361
 229  279.3111
 230  172.6577
 231  85.97201
 232  188.354
 233  182.6236
 234  232.998
 235  155.2971
 236  85.52668
 237  137.657
 238  25.63712
 239  84.37672
 240  152.7361
 241  134.1563
 242  145.7988
 243  167.1343
 244  164.3522
 245  67.09499
 246  251.2733
 247  144.2919
 248  113.6632
 249  47.51549
 250  101.437
 251  107.5503
 252  7.806158
 253  125.9452
 254  229.5083
 255  155.9725
 256  118.4592
 257  106.0084
 258  283.8865
 259  115.2891
 260  98.47369
 261  177.9895
 262  102.5146
 263  70.04839
 264  95.71342
 265  202.7253
 266  146.4792
 267  160.3965
 268  178.4983
 269  141.1821
 270  138.7972
 271  113.1134
 272  93.29564
 273  108.9796
 274  125.8289
 275  120.0309
 276  172.9659
 277  219.0519
 278  288.6185
 279  211.4231
 280  145.7003
 281  117.5027
 282  142.1978
 283  193.5265
 284  170.2416
 285  211.2658
 286  248.8452
 287  224.1553
 288  203.015
 289  225.6548
 290  136.4956
 291  -8.461717
 292  46.20693
 293  52.55259
 294  118.1367
 295  82.77043
 296  192.746
 297  108.292
 298  99.69399
 299  127.2133
 300  34.73223
 301  134.6735
 302  126.3503
 303  52.43541
 304  -52.71989
 305  138.6559
 306  110.5247
 307  -92.57453
 308  124.0468
 309  143.322
 310  96.43113
 311  25.09514
 312  5.517801
 313  100.7737
 314  189.0062
 315  138.3135
 316  28.19882
 317  107.9504
 318  241.772
 319  149.8261
 320  100.337
 321  129.791
 322  57.35314
 323  52.30479
 324  96.00768
 325  204.1634
 326  226.6749
 327  189.229
 328  131.1293
 329  95.61922
 330  180.5592
 331  170.439
 332  175.3796
 333  133.4935
 334  -14.81134
 335  -3.768094
 336  250.0106
 337  195.7513
 338  215.9477
 339  127.9671
 340  213.2427
 341  192.6245
 342  70.93834
 343  129.3096
 344  207.6377
 345  53.83292
 346  -22.25086
 347  4.589356
 348  140.7019
 349  217.8443
 350  106.252
 351  247.0706
 352  188.1671
 353  149.8542
 354  92.35484
 355  76.83519
 356  115.6062
 357  221.8765
 358  220.2083
 359  229.0097
 360  177.4568
 361  105.5951
 362  173.1441
 363  57.29708
 364  34.43752
 365  81.98729
 366  95.03801
 367  91.79234
 368  92.39769
 369  68.31412
 370  146.2483
 371  177.8616
 372  202.8729
 373  16.35009
 374  112.9913
 375  175.3655
 376  63.22629
 377  110.5888
 378  -22.85127
 379  -69.07591
 380  95.22054
 381  120.2242
 382  172.7461
 383  185.3515
 384  192.2368
 385  145.2003
 386  207.1417
 387  183.7015
 388  27.73508
 389  167.1535
 390  232.5514
 391  163.3165
 392  74.90439
 393  189.4297
 394  113.659
 395  -1.151962
 396  107.8244
 397  92.80488
 398  2.938426
 399  12.07662
 400  64.94682
 401  133.2061
 402  393.0872
 403  291.349
 404  195.0688
 405  91.21152
 406  136.88
 407  368.7507
 408  294.8359
 409  171.9913
 410  108.8983
 411  114.4907
 412  166.6952
 413  142.4317
 414  206.9058
 415  184.7633
 416  117.2396
 417  87.37896
 418  74.13499
 419  80.69759
 420  239.2963
 421  195.3752
 422  167.73
 423  134.3028
 424  148.6356
 425  91.86807
 426  155.5717
 427  165.9088
 428  187.1359
 429  -49.18976
 430  -50.96701
 431  40.17104
 432  165.9859
 433  72.98981
 434  69.71169
 435  120.4457
 436  124.7102
 437  139.037
 438  149.7103
 439  118.9577
 440  151.4296
 441  141.8427
 442  190.1507
 443  128.0927
 444  329.8991
 445  68.7159
 446  97.22781
 447  2.940444
 448  -51.2784
 449  48.72137
 450  -43.34632
 451  90.5045
 452  198.0712
 453  154.3694
 454  138.9707
 455  42.28988
 456  9.513579
 457  83.22216
 458  200.6605
 459  202.8305
 460  94.92297
 461  183.5025
 462  189.4872
 463  50.64233
 464  66.50353
 465  105.2828
 466  83.40865
 467  34.68895
 468  -23.72344
 469  22.23096
 470  139.4696
 471  101.2534
 472  84.57697
 473  126.8515
 474  16.5788
 475  17.25331
 476  48.31258
 477  0.4196394
 478  107.1564
 479  107.4514
 480  106.5192
 481  241.9355
 482  184.5562
 483  168.6054
 484  227.2158
 485  227.4818
 486  230.0627
 487  299.4403
 488  293.252
 489  163.3696
 490  70.9202
 491  62.69571
 492  114.1042
 493  181.8355
 494  246.5337
 495  102.6888
 496  -0.3745125
 497  -5.670158
 498  106.1324
 499  158.7107
 500  145.23
 501  152.0232
 502  93.45767
 503  114.6175
 504  88.28128
 505  247.4125
 506  205.3224
 507  118.3536
 508  366.3047
 509  504.9452
 510  447.6801
 511  478.9944
