# Input file       =  1189197207.127362_cleaned.dat
# Candidate        =  PSR_0332+5434
# Telescope        =  AR
# Epoch_topo       =  58007.856783881507
# Epoch_bary       =  N/A
# T_sample         =  0.002
# Data Folded      =  7208960
# Data Avg         =  0.0159510115991496
# Data StdDev      =  1.00003732583268 
# Profile Bins     =  512
# Profile Avg      =  224.592035169182 
# Profile StdDev   =  118.663604846073 
# Reduced chi-sqr  =  1.405
# Prob(Noise)      <  3.72e-09   (~5.8 sigma)
# P_topo (ms)      =  714.465048185374  +/- 0.000182
# P'_topo (s/s)    =  -0                +/- 9.76e-11
# P''_topo (s/s^2) =  0                 +/- 4.39e-14
# P_bary (ms)      =  N/A
# P'_bary (s/s)    =  N/A
# P''_bary (s/s^2) =  N/A
# P_orb (s)        =  N/A
# asin(i)/c (s)    =  N/A
# eccentricity     =  N/A
# w (rad)          =  N/A
# T_peri           =  N/A
######################################################
   0  1015.507
   1  825.4807
   2  648.5201
   3  412.4758
   4  330.4138
   5  196.417
   6  294.7337
   7  269.4458
   8  155.4807
   9  192.6205
  10  379.3904
  11  358.6571
  12  338.7092
  13  271.3978
  14  263.7547
  15  271.8347
  16  277.7196
  17  250.8572
  18  235.4972
  19  233.7392
  20  268.285
  21  269.0856
  22  117.9907
  23  193.7065
  24  298.3013
  25  225.8029
  26  251.0293
  27  366.7389
  28  384.7482
  29  97.2022
  30  39.08771
  31  212.1975
  32  233.1302
  33  215.6345
  34  312.7875
  35  284.6937
  36  261.9668
  37  221.3431
  38  246.8257
  39  229.2927
  40  215.1837
  41  214.6154
  42  282.2581
  43  140.8061
  44  269.6809
  45  216.1077
  46  182.3652
  47  223.6909
  48  271.1858
  49  253.0777
  50  275.5496
  51  264.8924
  52  305.4734
  53  300.9408
  54  191.8346
  55  270.6335
  56  356.0695
  57  244.3401
  58  177.4012
  59  140.8485
  60  192.8456
  61  268.1827
  62  164.0639
  63  84.08324
  64  126.3352
  65  314.8687
  66  366.1401
  67  125.8387
  68  31.82754
  69  92.36261
  70  116.1002
  71  229.7956
  72  180.3391
  73  280.0804
  74  265.6806
  75  227.9221
  76  217.206
  77  174.0099
  78  262.5915
  79  253.4457
  80  169.5829
  81  133.5467
  82  105.3675
  83  178.6656
  84  141.5719
  85  166.0785
  86  148.2125
  87  180.1736
  88  183.4719
  89  213.2364
  90  233.4973
  91  182.6813
  92  265.0994
  93  322.6676
  94  261.955
  95  355.8918
  96  246.6427
  97  156.0244
  98  164.8201
  99  351.6383
 100  331.6905
 101  197.7494
 102  290.4069
 103  136.8759
 104  214.4602
 105  243.6587
 106  83.69789
 107  255.3095
 108  291.9444
 109  274.4097
 110  234.0393
 111  206.5324
 112  248.2399
 113  320.8108
 114  202.0971
 115  233.7861
 116  301.2185
 117  202.4296
 118  110.4074
 119  234.3585
 120  233.9677
 121  169.4614
 122  137.587
 123  229.6415
 124  148.1093
 125  52.61308
 126  77.7042
 127  123.6529
 128  253.2044
 129  332.6344
 130  199.8937
 131  158.8651
 132  194.8775
 133  215.1086
 134  275.2219
 135  262.9285
 136  104.5645
 137  185.3298
 138  162.8335
 139  235.5652
 140  309.6928
 141  223.8554
 142  69.78381
 143  179.2211
 144  227.4586
 145  109.5089
 146  21.71065
 147  239.9393
 148  259.2603
 149  343.4761
 150  341.3001
 151  314.2732
 152  227.0957
 153  180.6318
 154  177.5184
 155  113.1389
 156  140.8828
 157  152.8006
 158  152.2843
 159  60.31277
 160  133.7464
 161  280.5905
 162  145.1113
 163  -8.785641
 164  26.24662
 165  98.7294
 166  126.2822
 167  157.4698
 168  261.2885
 169  166.6701
 170  155.4062
 171  209.3279
 172  203.2107
 173  111.8482
 174  289.388
 175  324.5967
 176  187.9264
 177  84.356
 178  233.8934
 179  369.6194
 180  296.1581
 181  239.47
 182  286.7788
 183  239.7287
 184  224.0936
 185  145.3887
 186  234.5292
 187  336.0664
 188  375.6819
 189  376.8137
 190  196.2863
 191  115.0263
 192  95.22089
 193  38.42724
 194  191.1624
 195  279.3366
 196  354.3538
 197  240.0919
 198  190.4454
 199  209.3543
 200  115.0476
 201  48.21946
 202  39.92846
 203  177.0083
 204  244.3455
 205  300.8911
 206  233.1877
 207  174.3835
 208  101.1687
 209  139.5437
 210  223.4957
 211  232.4712
 212  209.2418
 213  187.2115
 214  237.3251
 215  245.9602
 216  114.4535
 217  198.1225
 218  171.1752
 219  142.7637
 220  136.4163
 221  192.3087
 222  180.5484
 223  108.1252
 224  93.93912
 225  172.427
 226  206.945
 227  124.3424
 228  180.5206
 229  243.874
 230  221.506
 231  234.9824
 232  182.8166
 233  231.3461
 234  311.1066
 235  241.3831
 236  230.3931
 237  186.916
 238  216.621
 239  273.0481
 240  263.7129
 241  186.9541
 242  172.8481
 243  361.425
 244  357.1182
 245  316.6194
 246  258.0213
 247  241.958
 248  193.0966
 249  136.3233
 250  255.2841
 251  157.1251
 252  165.5161
 253  235.0488
 254  246.4667
 255  286.4792
 256  230.2209
 257  162.3899
 258  207.9014
 259  295.614
 260  231.8793
 261  239.2503
 262  225.7061
 263  175.7105
 264  132.4458
 265  47.80613
 266  167.8289
 267  217.422
 268  150.7397
 269  116.563
 270  144.6729
 271  101.9947
 272  171.4467
 273  119.0561
 274  116.9153
 275  181.9923
 276  177.8406
 277  223.1982
 278  234.4556
 279  256.1205
 280  240.7679
 281  288.8576
 282  231.8915
 283  121.262
 284  147.4128
 285  307.5063
 286  248.1089
 287  147.7938
 288  104.2954
 289  193.7736
 290  91.89539
 291  128.8361
 292  220.596
 293  176.4229
 294  176.748
 295  216.1541
 296  371.5833
 297  358.4883
 298  239.5904
 299  132.8353
 300  215.358
 301  212.364
 302  153.4512
 303  172.3586
 304  82.45885
 305  192.4158
 306  274.5546
 307  167.9117
 308  82.50773
 309  103.4096
 310  249.9516
 311  378.1558
 312  223.6836
 313  83.17178
 314  183.0125
 315  277.1166
 316  168.2728
 317  103.0612
 318  186.7316
 319  260.044
 320  284.1747
 321  215.3393
 322  273.692
 323  161.7711
 324  59.37696
 325  195.9621
 326  280.282
 327  252.1097
 328  284.3242
 329  245.9888
 330  311.3356
 331  208.8053
 332  295.4839
 333  372.3936
 334  312.9719
 335  146.6147
 336  251.0357
 337  206.9548
 338  131.8691
 339  176.4893
 340  331.9419
 341  359.925
 342  436.0716
 343  238.8111
 344  166.518
 345  156.1888
 346  105.8819
 347  90.82349
 348  212.0728
 349  319.3899
 350  356.9433
 351  311.0031
 352  176.5667
 353  262.1508
 354  195.6462
 355  214.215
 356  180.6643
 357  292.7717
 358  277.8478
 359  298.4068
 360  188.2984
 361  182.5587
 362  139.2753
 363  62.68901
 364  125.6079
 365  128.1988
 366  237.1121
 367  190.2921
 368  193.76
 369  257.7545
 370  241.3025
 371  217.8166
 372  210.6363
 373  234.6666
 374  164.1426
 375  256.5564
 376  326.1992
 377  280.7723
 378  228.4652
 379  132.0762
 380  230.4933
 381  304.787
 382  212.6404
 383  144.6308
 384  179.4565
 385  234.3866
 386  247.1312
 387  317.0718
 388  164.6277
 389  205.3946
 390  252.6111
 391  371.8531
 392  350.3742
 393  77.22816
 394  158.7485
 395  293.283
 396  317.1003
 397  256.5168
 398  248.9266
 399  253.2678
 400  204.3705
 401  301.6308
 402  182.0371
 403  324.6628
 404  392.0854
 405  293.2578
 406  213.3313
 407  309.313
 408  211.4732
 409  229.7842
 410  215.3734
 411  308.6601
 412  290.4537
 413  126.1275
 414  179.557
 415  133.6735
 416  93.74369
 417  215.7154
 418  303.178
 419  394.9478
 420  327.1082
 421  272.8624
 422  270.6653
 423  127.0075
 424  182.1407
 425  158.5458
 426  64.50583
 427  161.6022
 428  298.7375
 429  99.86794
 430  236.5963
 431  224.6214
 432  191.3276
 433  146.8306
 434  130.3396
 435  227.147
 436  222.7704
 437  204.5151
 438  258.9595
 439  231.9016
 440  201.9739
 441  179.9837
 442  220.854
 443  277.0002
 444  76.98557
 445  190.0717
 446  176.6527
 447  164.8457
 448  107.1258
 449  95.95483
 450  156.6737
 451  351.2503
 452  330.7738
 453  194.0122
 454  258.3781
 455  139.3354
 456  318.7192
 457  286.2575
 458  175.8904
 459  197.9463
 460  188.2233
 461  222.3582
 462  108.3833
 463  141.2209
 464  254.4862
 465  319.3174
 466  264.1194
 467  364.0236
 468  271.7578
 469  164.0528
 470  271.4242
 471  215.119
 472  151.6772
 473  289.6686
 474  361.9279
 475  274.7409
 476  250.5894
 477  266.334
 478  240.2582
 479  189.8911
 480  113.0813
 481  105.6595
 482  140.2264
 483  396.3033
 484  275.1814
 485  287.4177
 486  221.335
 487  158.4494
 488  232.8099
 489  108.6281
 490  280.7277
 491  357.233
 492  346.8854
 493  322.2013
 494  239.2
 495  382.0034
 496  280.6383
 497  206.5581
 498  238.2908
 499  221.9653
 500  138.793
 501  216.7242
 502  275.8693
 503  246.1445
 504  206.777
 505  226.9127
 506  327.0574
 507  384.9524
 508  419.1012
 509  715.0011
 510  766.1852
 511  910.7365
