# Input file       =  1189298030.121802_cleaned.dat
# Candidate        =  PSR_0332+5434
# Telescope        =  AR
# Epoch_topo       =  58009.023716687523
# Epoch_bary       =  N/A
# T_sample         =  0.002
# Data Folded      =  7340032
# Data Avg         =  0.0291376933050092
# Data StdDev      =  2.39524774438996 
# Profile Bins     =  512
# Profile Avg      =  417.037831564305 
# Profile StdDev   =  286.790285310411 
# Reduced chi-sqr  =  1.572
# Prob(Noise)      <  2.23e-15   (~7.8 sigma)
# P_topo (ms)      =  714.465346787631  +/- 0.000184
# P'_topo (s/s)    =  -0                +/- 9.7e-11
# P''_topo (s/s^2) =  0                 +/- 4.28e-14
# P_bary (ms)      =  N/A
# P'_bary (s/s)    =  N/A
# P''_bary (s/s^2) =  N/A
# P_orb (s)        =  N/A
# asin(i)/c (s)    =  N/A
# eccentricity     =  N/A
# w (rad)          =  N/A
# T_peri           =  N/A
######################################################
   0  333.8827
   1  211.7894
   2  297.0189
   3  352.7205
   4  363.7047
   5  318.1424
   6  380.5827
   7  456.9261
   8  210.8318
   9  -51.21299
  10  343.095
  11  542.6805
  12  575.9839
  13  418.2299
  14  503.9837
  15  322.101
  16  262.2213
  17  141.1805
  18  447.8434
  19  83.24002
  20  321.3023
  21  435.6163
  22  438.5441
  23  71.73769
  24  128.4925
  25  138.1464
  26  317.7102
  27  313.5457
  28  112.2439
  29  274.5841
  30  308.4099
  31  290.9978
  32  300.5166
  33  106.2931
  34  161.1259
  35  70.76198
  36  394.9294
  37  439.251
  38  505.1385
  39  267.4613
  40  161.6497
  41  253.7424
  42  263.9088
  43  -35.16132
  44  353.3659
  45  538.7188
  46  491.9882
  47  512.4894
  48  526.9565
  49  658.3998
  50  328.9951
  51  209.0922
  52  423.5635
  53  501.1198
  54  522.0267
  55  387.0208
  56  178.793
  57  578.0954
  58  215.8761
  59  151.879
  60  402.2533
  61  463.9222
  62  285.5388
  63  149.6279
  64  405.278
  65  389.2416
  66  267.9238
  67  185.521
  68  322.1738
  69  674.2426
  70  453.2437
  71  346.3825
  72  504.7679
  73  327.2753
  74  384.0814
  75  320.8489
  76  471.2979
  77  433.5879
  78  205.3409
  79  518.7859
  80  514.2076
  81  473.2919
  82  339.4594
  83  160.8269
  84  654.8262
  85  804.6727
  86  623.2653
  87  338.4327
  88  378.7699
  89  173.0805
  90  177.895
  91  702.3373
  92  926.8348
  93  835.9049
  94  660.9587
  95  626.2208
  96  351.8855
  97  219.8912
  98  509.8922
  99  589.1865
 100  425.57
 101  535.5146
 102  709.329
 103  712.6438
 104  765.3455
 105  490.8058
 106  411.4006
 107  562.3776
 108  613.0112
 109  729.3627
 110  209.2702
 111  183.5232
 112  340.2528
 113  218.7578
 114  87.2914
 115  294.3888
 116  359.4976
 117  216.8428
 118  163.5617
 119  326.4417
 120  197.5726
 121  187.9329
 122  411.5104
 123  412.3519
 124  373.3348
 125  144.7811
 126  222.1405
 127  454.5278
 128  258.6336
 129  449.4062
 130  474.7078
 131  456.306
 132  391.8541
 133  381.5386
 134  445.4934
 135  335.9009
 136  330.1738
 137  120.5665
 138  57.78222
 139  552.4284
 140  503.8025
 141  454.4987
 142  402.5149
 143  481.8007
 144  663.9185
 145  520.486
 146  306.3732
 147  313.014
 148  319.1143
 149  517.0879
 150  574.9676
 151  566.376
 152  461.5171
 153  362.8917
 154  103.516
 155  25.45894
 156  455.1926
 157  565.551
 158  173.9025
 159  186.8597
 160  90.66806
 161  139.6773
 162  95.0173
 163  226.1687
 164  242.0691
 165  571.8979
 166  762.2998
 167  592.6698
 168  565.2961
 169  712.468
 170  541.3347
 171  118.1839
 172  348.3553
 173  340.4555
 174  202.8254
 175  356.7055
 176  254.0955
 177  210.7202
 178  575.1634
 179  478.3883
 180  294.2818
 181  395.9907
 182  330.9026
 183  360.6295
 184  455.7271
 185  469.6786
 186  380.8585
 187  519.7276
 188  476.9783
 189  463.1668
 190  373.4171
 191  308.7877
 192  561.8102
 193  741.552
 194  594.6008
 195  538.0895
 196  368.4224
 197  524.9581
 198  392.4829
 199  403.3821
 200  358.5737
 201  209.7931
 202  363.9235
 203  645.1104
 204  72.64157
 205  -85.60759
 206  -155.7881
 207  52.29669
 208  244.6499
 209  284.5386
 210  275.2257
 211  366.4166
 212  423.579
 213  506.782
 214  315.8261
 215  206.6274
 216  266.2018
 217  196.992
 218  110.3516
 219  347.7673
 220  419.0106
 221  329.1185
 222  528.2535
 223  515.2178
 224  440.7831
 225  136.4779
 226  -26.15204
 227  165.6015
 228  43.11399
 229  -37.07316
 230  278.2882
 231  357.873
 232  528.2236
 233  611.0212
 234  297.8015
 235  569.5527
 236  747.2526
 237  371.6644
 238  384.0128
 239  470.7241
 240  456.0299
 241  606.0104
 242  313.0109
 243  439.4283
 244  317.1817
 245  196.891
 246  392.3376
 247  294.421
 248  267.4847
 249  -126.2954
 250  350.708
 251  578.3713
 252  484.1011
 253  232.5163
 254  362.6736
 255  243.5595
 256  463.5888
 257  330.2314
 258  514.8834
 259  718.9053
 260  546.7095
 261  538.2419
 262  660.7798
 263  638.3114
 264  265.6028
 265  369.2704
 266  750.3311
 267  805.9296
 268  674.0803
 269  301.0956
 270  108.5043
 271  336.0522
 272  660.7755
 273  284.4593
 274  128.2529
 275  452.8466
 276  403.8422
 277  410.1414
 278  354.5394
 279  400.563
 280  567.1079
 281  620.2428
 282  674.0846
 283  528.9868
 284  311.4443
 285  552.9775
 286  567.9419
 287  506.6621
 288  523.447
 289  374.7391
 290  361.4259
 291  207.7484
 292  55.94574
 293  189.9873
 294  351.6574
 295  253.002
 296  84.43993
 297  380.8997
 298  549.8835
 299  230.3169
 300  255.62
 301  421.0095
 302  431.5178
 303  634.1854
 304  348.5478
 305  513.5234
 306  314.3479
 307  514.8236
 308  520.2215
 309  269.9481
 310  27.6739
 311  89.48987
 312  320.1884
 313  454.5517
 314  499.5228
 315  614.8673
 316  771.5223
 317  924.6646
 318  995.6508
 319  1278.497
 320  1813.943
 321  1858.72
 322  2211.409
 323  2430.048
 324  1804.535
 325  1287.92
 326  791.7319
 327  250.3611
 328  108.3446
 329  65.38067
 330  491.7956
 331  756.0274
 332  671.4688
 333  624.038
 334  496.4621
 335  392.3806
 336  210.0891
 337  151.7942
 338  781.2688
 339  898.6295
 340  562.4382
 341  485.0976
 342  468.4474
 343  392.0139
 344  146.882
 345  233.1757
 346  741.3283
 347  332.5164
 348  345.9067
 349  181.531
 350  303.1539
 351  348.2058
 352  419.8257
 353  472.3974
 354  234.7588
 355  504.4625
 356  210.4286
 357  511.3383
 358  572.739
 359  428.7047
 360  134.6173
 361  389.5602
 362  855.6078
 363  669.268
 364  788.2797
 365  657.4272
 366  688.3171
 367  691.6208
 368  556.6924
 369  126.0959
 370  243.4336
 371  195.7681
 372  854.977
 373  986.6979
 374  732.6438
 375  562.8336
 376  694.2983
 377  388.8693
 378  511.0703
 379  490.3506
 380  673.7649
 381  590.2706
 382  413.3038
 383  453.3486
 384  532.247
 385  418.0504
 386  510.4141
 387  486.4438
 388  599.6117
 389  902.2798
 390  549.4973
 391  206.9305
 392  695.9472
 393  568.1078
 394  369.2816
 395  540.4885
 396  454.9807
 397  403.5689
 398  356.7307
 399  502.5286
 400  321.1257
 401  286.3142
 402  376.2031
 403  157.2661
 404  254.1059
 405  366.9195
 406  152.1303
 407  166.1933
 408  -26.92241
 409  208.849
 410  604.4577
 411  837.3707
 412  464.8492
 413  493.6136
 414  573.1022
 415  486.3126
 416  574.8492
 417  658.9938
 418  697.83
 419  450.5173
 420  100.0882
 421  94.32032
 422  410.5006
 423  410.8785
 424  279.8032
 425  234.6704
 426  254.7183
 427  323.5872
 428  278.7505
 429  105.7106
 430  2.223628
 431  413.9601
 432  608.4291
 433  319.8062
 434  212.4858
 435  154.1639
 436  91.19447
 437  121.3017
 438  295.6764
 439  543.8863
 440  403.7087
 441  157.4092
 442  191.0986
 443  26.90638
 444  237.8349
 445  345.8282
 446  197.7677
 447  300.6172
 448  285.6446
 449  205.4973
 450  488.2752
 451  445.5522
 452  415.5584
 453  280.9948
 454  259.9836
 455  201.8761
 456  501.5919
 457  708.2839
 458  465.5692
 459  846.9758
 460  413.739
 461  297.8409
 462  426.7538
 463  532.431
 464  428.1354
 465  403.8294
 466  561.6282
 467  457.8549
 468  561.9869
 469  450.1731
 470  405.5948
 471  225.2053
 472  421.1124
 473  666.1017
 474  439.0861
 475  647.767
 476  316.845
 477  243.6098
 478  340.1413
 479  399.9981
 480  403.7892
 481  676.8143
 482  807.9078
 483  197.075
 484  464.779
 485  560.0503
 486  419.4072
 487  99.08125
 488  58.33017
 489  12.71932
 490  379.5765
 491  633.6871
 492  437.4134
 493  646.5336
 494  166.626
 495  457.1551
 496  551.7023
 497  613.2745
 498  567.6945
 499  320.2642
 500  755.5925
 501  694.887
 502  628.6389
 503  828.446
 504  756.0082
 505  361.1042
 506  481.5365
 507  192.0487
 508  212.9238
 509  383.0424
 510  249.5585
 511  284.0538
