# Input file       =  1189054427.122775_cleaned.dat
# Candidate        =  PSR_0332+5434
# Telescope        =  AR
# Epoch_topo       =  58006.204237532118
# Epoch_bary       =  N/A
# T_sample         =  0.002
# Data Folded      =  7340032
# Data Avg         =  0.0234448552801041
# Data StdDev      =  2.77357043087204 
# Profile Bins     =  512
# Profile Avg      =  336.074667564946 
# Profile StdDev   =  332.088009293124 
# Reduced chi-sqr  =  1.209
# Prob(Noise)      <  0.000817   (~3.1 sigma)
# P_topo (ms)      =  714.46503493335   +/- 0.000221
# P'_topo (s/s)    =  -0                +/- 1.17e-10
# P''_topo (s/s^2) =  0                 +/- 5.16e-14
# P_bary (ms)      =  N/A
# P'_bary (s/s)    =  N/A
# P''_bary (s/s^2) =  N/A
# P_orb (s)        =  N/A
# asin(i)/c (s)    =  N/A
# eccentricity     =  N/A
# w (rad)          =  N/A
# T_peri           =  N/A
######################################################
   0  323.8513
   1  317.5769
   2  424.9474
   3  37.17565
   4  156.405
   5  16.32264
   6  309.7713
   7  254.88
   8  469.4437
   9  420.0112
  10  493.2324
  11  558.5862
  12  510.8211
  13  570.8664
  14  574.2556
  15  301.1916
  16  361.8152
  17  452.9245
  18  399.3504
  19  678.101
  20  361.0185
  21  210.5055
  22  252.1853
  23  61.84397
  24  283.2395
  25  351.1391
  26  494.8383
  27  596.6633
  28  540.1285
  29  413.2919
  30  -78.39192
  31  266.4569
  32  590.5231
  33  620.9006
  34  687.2663
  35  682.0081
  36  364.3035
  37  536.4589
  38  506.3151
  39  534.6864
  40  408.2729
  41  102.9638
  42  218.5621
  43  631.2092
  44  521.5989
  45  582.6947
  46  562.9398
  47  463.7127
  48  351.63
  49  131.9252
  50  9.642143
  51  -33.06072
  52  678.4016
  53  839.1614
  54  522.2165
  55  520.8318
  56  470.6019
  57  328.0245
  58  317.692
  59  86.18847
  60  80.81016
  61  537.2797
  62  440.1166
  63  647.3472
  64  362.8731
  65  442.5848
  66  503.3053
  67  582.8865
  68  825.1512
  69  272.269
  70  541.426
  71  679.7336
  72  436.4586
  73  85.1804
  74  339.6728
  75  110.4697
  76  348.8264
  77  300.4071
  78  496.7993
  79  530.465
  80  98.34258
  81  11.98159
  82  10.28102
  83  353.4963
  84  403.2254
  85  338.535
  86  613.9354
  87  284.3878
  88  378.9784
  89  543.0278
  90  665.4959
  91  586.9944
  92  518.1112
  93  509.2542
  94  621.3494
  95  258.6464
  96  140.9587
  97  190.5175
  98  175.3651
  99  334.659
 100  350.8986
 101  457.4795
 102  338.6161
 103  224.3804
 104  552.9736
 105  418.9724
 106  413.4767
 107  423.0068
 108  350.4835
 109  278.7869
 110  338.5645
 111  93.87099
 112  253.9703
 113  446.9561
 114  819.0696
 115  654.3507
 116  315.9341
 117  67.87741
 118  -6.106769
 119  66.20209
 120  429.6201
 121  405.7455
 122  96.92023
 123  288.1799
 124  155.8131
 125  122.5258
 126  6.955112
 127  -60.22306
 128  328.8478
 129  382.3782
 130  478.7652
 131  413.1547
 132  -190.8117
 133  -262.8561
 134  -317.1631
 135  -292.1299
 136  -46.21117
 137  133.5228
 138  53.58476
 139  46.20702
 140  9.691531
 141  -36.35979
 142  41.5269
 143  194.0497
 144  116.7453
 145  -84.48582
 146  115.6031
 147  535.4331
 148  310.7785
 149  145.1764
 150  -49.06866
 151  295.8956
 152  377.3026
 153  109.6333
 154  363.5317
 155  425.5508
 156  360.4525
 157  388.4215
 158  89.21548
 159  354.0761
 160  175.5436
 161  -150.06
 162  152.527
 163  395.0539
 164  440.8065
 165  348.5023
 166  421.5601
 167  682.6238
 168  359.505
 169  238.2512
 170  131.1702
 171  444.9955
 172  220.5301
 173  682.6191
 174  688.3075
 175  248.7319
 176  -124.3403
 177  -113.2396
 178  556.9771
 179  415.0598
 180  626.7427
 181  538.2359
 182  191.5405
 183  307.7311
 184  269.1401
 185  289.0771
 186  174.3002
 187  409.7487
 188  144.5503
 189  -30.58683
 190  -58.35435
 191  75.22739
 192  212.5359
 193  59.10228
 194  89.56266
 195  122.0008
 196  356.5967
 197  323.0552
 198  49.25741
 199  -268.3186
 200  -210.9871
 201  149.3163
 202  -203.8941
 203  206.9094
 204  -29.67279
 205  160.4251
 206  115.9368
 207  407.3456
 208  199.1503
 209  454.9072
 210  616.0327
 211  480.5238
 212  249.5525
 213  486.6798
 214  131.6615
 215  -39.40985
 216  186.5781
 217  272.7903
 218  360.0247
 219  -69.73981
 220  45.8252
 221  162.6716
 222  370.5988
 223  530.3576
 224  243.1094
 225  93.66699
 226  366.9225
 227  402.7066
 228  267.5182
 229  70.28021
 230  69.17622
 231  288.9601
 232  474.7403
 233  604.788
 234  563.8083
 235  461.6405
 236  416.0457
 237  572.4987
 238  740.9363
 239  328.7504
 240  95.54134
 241  533.1029
 242  617.076
 243  546.1896
 244  202.2395
 245  138.9413
 246  -199.6537
 247  108.3954
 248  589.7594
 249  607.4244
 250  197.0182
 251  267.8003
 252  457.3256
 253  635.4558
 254  537.7386
 255  22.96672
 256  251.1063
 257  404.0894
 258  223.2984
 259  480.8353
 260  478.5672
 261  353.6226
 262  291.9135
 263  274.6821
 264  485.4706
 265  472.8027
 266  438.2415
 267  612.9622
 268  642.7329
 269  380.0714
 270  462.2046
 271  652.4233
 272  603.2145
 273  521.5629
 274  194.3011
 275  -160.74
 276  -2.158374
 277  255.3855
 278  375.7327
 279  459.1256
 280  296.182
 281  -7.436743
 282  220.3444
 283  263.1887
 284  82.18861
 285  473.2575
 286  463.2074
 287  375.2521
 288  546.2981
 289  432.5484
 290  289.1642
 291  341.0587
 292  429.3712
 293  383.0854
 294  260.7791
 295  545.8922
 296  365.6651
 297  314.3334
 298  233.1229
 299  220.8432
 300  228.934
 301  463.9565
 302  415.6271
 303  576.6049
 304  430.7257
 305  306.843
 306  94.44737
 307  158.0752
 308  347.8058
 309  283.9817
 310  671.4001
 311  885.8388
 312  806.7922
 313  801.3506
 314  872.5651
 315  410.2291
 316  523.5082
 317  993.9802
 318  1054.962
 319  1126.388
 320  1380.837
 321  1741.477
 322  1830.533
 323  1588.239
 324  1198.993
 325  743.863
 326  633.2881
 327  568.7223
 328  404.6805
 329  585.9395
 330  865.7544
 331  881.4832
 332  588.6486
 333  293.9212
 334  565.8045
 335  441.8384
 336  731.0768
 337  745.8794
 338  410.5879
 339  602.5195
 340  756.1536
 341  529.0593
 342  745.4291
 343  480.6411
 344  380.9045
 345  228.8855
 346  267.7947
 347  632.5044
 348  441.0685
 349  267.8147
 350  565.1855
 351  510.9703
 352  581.4821
 353  222.025
 354  272.5043
 355  361.292
 356  194.3717
 357  546.2426
 358  546.2966
 359  127.3401
 360  278.3253
 361  94.87821
 362  -139.72
 363  93.11208
 364  503.6023
 365  257.82
 366  -95.59283
 367  174.0827
 368  343.2822
 369  81.98109
 370  346.2692
 371  484.5638
 372  247.8568
 373  169.6919
 374  98.29515
 375  132.5181
 376  189.6485
 377  222.7822
 378  291.0378
 379  187.8639
 380  -280.5162
 381  -318.5114
 382  -61.11642
 383  139.3126
 384  240.5736
 385  339.5617
 386  327.5473
 387  160.7041
 388  405.2239
 389  441.2211
 390  138.8474
 391  41.73288
 392  275.5268
 393  546.7177
 394  511.3167
 395  577.6974
 396  325.9953
 397  356.1617
 398  484.0387
 399  722.8926
 400  392.1204
 401  422.1456
 402  310.455
 403  299.5629
 404  517.6187
 405  359.267
 406  512.9712
 407  83.72576
 408  364.8827
 409  142.8204
 410  -307.3251
 411  73.27547
 412  304.3152
 413  425.7364
 414  229.0694
 415  207.4144
 416  235.7866
 417  820.8688
 418  696.5535
 419  301.7093
 420  483.593
 421  425.0807
 422  212.4022
 423  87.5354
 424  308.4681
 425  270.6238
 426  437.7423
 427  243.7545
 428  343.4506
 429  182.4169
 430  12.00937
 431  333.2244
 432  282.4187
 433  356.812
 434  590.4394
 435  702.2531
 436  358.4107
 437  263.7398
 438  173.7673
 439  232.1082
 440  305.7102
 441  141.429
 442  197.3331
 443  342.1313
 444  605.5032
 445  330.2422
 446  353.6994
 447  64.68979
 448  308.9774
 449  223.169
 450  116.6886
 451  394.2223
 452  181.7362
 453  271.791
 454  740.4363
 455  625.9861
 456  605.3644
 457  573.4246
 458  321.6973
 459  200.6575
 460  37.11391
 461  338.6376
 462  554.7577
 463  527.1985
 464  181.1633
 465  205.3182
 466  -260.989
 467  1.626402
 468  313.9954
 469  141.5765
 470  126.194
 471  159.281
 472  243.783
 473  492.474
 474  468.7193
 475  609.858
 476  -35.48006
 477  -110.9393
 478  382.2902
 479  204.3684
 480  300.3979
 481  352.8172
 482  359.1253
 483  269.7676
 484  229.8021
 485  133.3871
 486  340.6201
 487  680.4287
 488  653.2176
 489  223.2249
 490  61.01814
 491  505.3857
 492  360.2612
 493  -306.9968
 494  -95.36449
 495  -60.47343
 496  198.8044
 497  346.1771
 498  141.919
 499  468.5434
 500  350.705
 501  294.2303
 502  292.4378
 503  241.231
 504  141.2616
 505  33.98167
 506  -166.8209
 507  -74.47504
 508  -87.21207
 509  371.5856
 510  486.8557
 511  140.0329
