# Input file       =  1189399122.117035_cleaned.dat
# Candidate        =  PSR_0332+5434
# Telescope        =  AR
# Epoch_topo       =  58010.193762928648
# Epoch_bary       =  N/A
# T_sample         =  0.002
# Data Folded      =  7340032
# Data Avg         =  0.0109636602988973
# Data StdDev      =  0.999920204916815
# Profile Bins     =  512
# Profile Avg      =  157.146418875816 
# Profile StdDev   =  119.723482269168 
# Reduced chi-sqr  =  1.431
# Prob(Noise)      <  4.93e-10   (~6.1 sigma)
# P_topo (ms)      =  714.465989236219  +/- 0.000151
# P'_topo (s/s)    =  -0                +/- 7.97e-11
# P''_topo (s/s^2) =  0                 +/- 3.52e-14
# P_bary (ms)      =  N/A
# P'_bary (s/s)    =  N/A
# P''_bary (s/s^2) =  N/A
# P_orb (s)        =  N/A
# asin(i)/c (s)    =  N/A
# eccentricity     =  N/A
# w (rad)          =  N/A
# T_peri           =  N/A
######################################################
   0  263.2771
   1  288.4445
   2  224.9675
   3  104.964
   4  111.6109
   5  19.40634
   6  -103.4772
   7  -7.838994
   8  32.79507
   9  55.42799
  10  111.3898
  11  165.3531
  12  94.22011
  13  257.9352
  14  279.9843
  15  267.3407
  16  192.6585
  17  6.957418
  18  113.4529
  19  95.82712
  20  133.5747
  21  121.7126
  22  164.7923
  23  -10.48746
  24  158.6031
  25  141.7204
  26  82.8128
  27  228.9798
  28  221.3477
  29  156.1604
  30  -8.90863
  31  90.71297
  32  205.3181
  33  184.8437
  34  71.57264
  35  78.07052
  36  136.7007
  37  311.9198
  38  330.5027
  39  117.6817
  40  51.33717
  41  221.9207
  42  315.0634
  43  106.4508
  44  125.5537
  45  297.8489
  46  316.4423
  47  204.2458
  48  174.5288
  49  136.9691
  50  171.0296
  51  87.67835
  52  96.45871
  53  229.9877
  54  181.8033
  55  132.9774
  56  135.9769
  57  121.2804
  58  233.9126
  59  271.5146
  60  323.0569
  61  253.9433
  62  118.2227
  63  206.7195
  64  191.9926
  65  93.9539
  66  163.785
  67  129.2469
  68  140.6446
  69  168.9077
  70  32.54908
  71  145.0833
  72  101.2712
  73  74.44878
  74  174.2485
  75  132.9995
  76  105.8399
  77  128.9651
  78  127.0704
  79  87.0335
  80  186.6153
  81  193.5827
  82  155.4499
  83  109.0137
  84  168.164
  85  116.5162
  86  20.82779
  87  49.23167
  88  94.22195
  89  101.5219
  90  92.61785
  91  9.669884
  92  2.137312
  93  100.1706
  94  161.082
  95  117.9064
  96  -16.98402
  97  160.1644
  98  403.4232
  99  325.3744
 100  101.8369
 101  83.64388
 102  201.6911
 103  177.9302
 104  199.9268
 105  100.4307
 106  85.23202
 107  116.2504
 108  135.962
 109  67.24049
 110  27.99934
 111  122.181
 112  125.1633
 113  37.68415
 114  -42.34842
 115  69.45079
 116  137.0662
 117  250.8091
 118  180.0796
 119  171.9831
 120  224.4924
 121  178.6019
 122  222.1082
 123  296.2654
 124  260.3149
 125  224.3599
 126  274.7844
 127  368.7032
 128  307.075
 129  244.5248
 130  72.63604
 131  144.3911
 132  231.7203
 133  274.9748
 134  193.5988
 135  206.815
 136  101.1358
 137  147.8905
 138  158.3012
 139  266.3833
 140  270.411
 141  302.4374
 142  183.3441
 143  164.273
 144  196.9142
 145  322.9828
 146  231.0296
 147  114.4458
 148  24.96098
 149  104.1677
 150  211.2848
 151  246.5585
 152  167.6336
 153  246.9157
 154  236.4231
 155  119.4141
 156  -44.84989
 157  -14.24888
 158  90.80128
 159  156.6867
 160  178.245
 161  193.588
 162  191.499
 163  52.18942
 164  106.8812
 165  283.1194
 166  236.4375
 167  64.75874
 168  -10.74963
 169  48.17028
 170  112.895
 171  215.5361
 172  240.0427
 173  130.9376
 174  140.9765
 175  203.5461
 176  237.9593
 177  244.8264
 178  114.3736
 179  23.03357
 180  35.37978
 181  89.4124
 182  130.6618
 183  204.0823
 184  80.19136
 185  102.2541
 186  166.1481
 187  214.1824
 188  197.2717
 189  248.9786
 190  142.7769
 191  72.53251
 192  -14.15976
 193  46.15934
 194  -32.93634
 195  -37.99937
 196  246.5144
 197  354.1344
 198  119.4616
 199  253.1216
 200  222.8621
 201  58.28027
 202  66.53742
 203  217.2391
 204  172.7601
 205  73.555
 206  36.92755
 207  89.38708
 208  26.15038
 209  184.9055
 210  240.1646
 211  48.32692
 212  108.8316
 213  187.8379
 214  53.59872
 215  171.0566
 216  92.50883
 217  152.9326
 218  176.0586
 219  201.4706
 220  26.05783
 221  154.957
 222  212.2066
 223  38.69763
 224  53.06993
 225  164.3198
 226  122.6912
 227  140.4434
 228  67.05503
 229  58.55927
 230  38.98723
 231  151.3748
 232  108.0565
 233  85.24411
 234  37.9488
 235  31.54793
 236  -35.43677
 237  -8.399014
 238  33.40183
 239  70.34669
 240  119.6791
 241  -12.13162
 242  75.19479
 243  155.5261
 244  157.5861
 245  66.41976
 246  97.91119
 247  229.198
 248  161.9009
 249  135.9364
 250  149.3383
 251  186.0805
 252  168.8211
 253  177.8008
 254  136.2535
 255  121.4876
 256  212.6548
 257  106.2874
 258  183.2058
 259  205.3594
 260  97.95162
 261  118.5352
 262  70.60135
 263  53.00716
 264  66.24183
 265  122.3252
 266  213.4035
 267  85.14127
 268  138.9046
 269  160.7872
 270  -15.19397
 271  -133.0951
 272  40.18246
 273  123.8941
 274  223.2686
 275  77.47546
 276  194.458
 277  240.1376
 278  271.8004
 279  174.5507
 280  253.2424
 281  98.55202
 282  116.1123
 283  278.4831
 284  192.1778
 285  144.9146
 286  42.10927
 287  45.53813
 288  118.9426
 289  125.9539
 290  174.4045
 291  43.92119
 292  -51.38421
 293  166.0704
 294  189.9706
 295  227.4805
 296  108.0718
 297  129.187
 298  10.8475
 299  53.91033
 300  -45.99176
 301  11.67079
 302  227.2126
 303  239.6647
 304  117.2008
 305  138.589
 306  154.6953
 307  118.2177
 308  123.2039
 309  179.5674
 310  189.6344
 311  91.87804
 312  70.5145
 313  200.5903
 314  285.7467
 315  133.8051
 316  112.1908
 317  132.9466
 318  167.5231
 319  47.31039
 320  26.13337
 321  104.9553
 322  130.1141
 323  203.7489
 324  153.9179
 325  237.0762
 326  153.0927
 327  78.38379
 328  9.97225
 329  55.67516
 330  123.6597
 331  46.4526
 332  272.2074
 333  91.03343
 334  106.9229
 335  197.1128
 336  108.0441
 337  131.4519
 338  117.0205
 339  138.4015
 340  121.7928
 341  74.05604
 342  240.4184
 343  348.4425
 344  163.8468
 345  191.8284
 346  234.9945
 347  155.8138
 348  182.271
 349  117.348
 350  240.2006
 351  151.5092
 352  148.4717
 353  152.6139
 354  250.633
 355  305.8987
 356  340.5747
 357  231.0764
 358  225.5044
 359  247.2381
 360  102.31
 361  27.61534
 362  60.49306
 363  163.7012
 364  217.4923
 365  289.4399
 366  192.4411
 367  162.2981
 368  256.572
 369  243.7179
 370  388.2946
 371  513.5242
 372  641.8192
 373  684.2025
 374  831.8871
 375  777.554
 376  432.6759
 377  486.6647
 378  495.2828
 379  309.3573
 380  189.3849
 381  192.8316
 382  222.9383
 383  219.5073
 384  80.16713
 385  228.7404
 386  279.5564
 387  308.3557
 388  356.0791
 389  253.7641
 390  280.9415
 391  174.4226
 392  132.2796
 393  167.389
 394  207.8328
 395  208.6017
 396  136.6197
 397  182.0291
 398  249.2495
 399  129.4417
 400  -8.684505
 401  159.6985
 402  229.086
 403  177.4601
 404  222.6956
 405  101.0071
 406  165.4831
 407  192.7587
 408  41.21187
 409  35.69491
 410  171.7419
 411  217.7118
 412  223.8377
 413  197.1432
 414  176.087
 415  167.8622
 416  178.0216
 417  203.5863
 418  251.253
 419  290.0758
 420  213.1765
 421  227.5439
 422  220.5644
 423  107.2082
 424  83.94447
 425  177.5408
 426  165.9496
 427  149.8371
 428  158.4845
 429  151.8118
 430  198.3916
 431  192.1169
 432  322.7214
 433  242.1938
 434  93.58041
 435  188.912
 436  239.2835
 437  199.8398
 438  134.4308
 439  70.45374
 440  164.7444
 441  296.2278
 442  214.2831
 443  131.7684
 444  143.7099
 445  201.839
 446  253.6393
 447  224.413
 448  81.01437
 449  168.0996
 450  172.3058
 451  303.4225
 452  282.1851
 453  385.6306
 454  234.5425
 455  129.5926
 456  72.50196
 457  151.4977
 458  226.769
 459  111.6812
 460  253.5744
 461  306.2389
 462  53.49735
 463  44.50488
 464  181.3969
 465  120.5925
 466  39.61437
 467  159.8964
 468  114.6775
 469  77.33966
 470  -2.677952
 471  65.3474
 472  215.5103
 473  92.60365
 474  229.3973
 475  178.0424
 476  18.15246
 477  89.65103
 478  128.8677
 479  255.5622
 480  172.861
 481  191.4913
 482  81.24477
 483  84.78703
 484  174.0143
 485  114.9245
 486  152.3651
 487  253.7278
 488  317.7621
 489  194.743
 490  111.2523
 491  122.9717
 492  -6.359853
 493  223.5814
 494  143.5843
 495  76.58143
 496  108.7039
 497  134.9354
 498  153.699
 499  62.07369
 500  200.7835
 501  164.2269
 502  113.278
 503  106.463
 504  67.11269
 505  107.3024
 506  194.1472
 507  146.5419
 508  88.23965
 509  -27.95426
 510  0.4813225
 511  119.2506
