# Input file       =  1189815021.115329_cleaned.dat
# Candidate        =  PSR_0332+5434
# Telescope        =  AR
# Epoch_topo       =  58015.007408742233
# Epoch_bary       =  N/A
# T_sample         =  0.002
# Data Folded      =  7340032
# Data Avg         =  0.0152525887803807
# Data StdDev      =  2.49572493151702 
# Profile Bins     =  512
# Profile Avg      =  218.066509715564 
# Profile StdDev   =  298.82072401173  
# Reduced chi-sqr  =  1.479
# Prob(Noise)      <  9.47e-12   (~6.7 sigma)
# P_topo (ms)      =  714.467165432214  +/- 0.000336
# P'_topo (s/s)    =  -0                +/- 1.78e-10
# P''_topo (s/s^2) =  0                 +/- 7.84e-14
# P_bary (ms)      =  N/A
# P'_bary (s/s)    =  N/A
# P''_bary (s/s^2) =  N/A
# P_orb (s)        =  N/A
# asin(i)/c (s)    =  N/A
# eccentricity     =  N/A
# w (rad)          =  N/A
# T_peri           =  N/A
######################################################
   0  353.1589
   1  409.8962
   2  341.7829
   3  431.8483
   4  542.5946
   5  82.93584
   6  -5.951725
   7  132.7314
   8  581.2743
   9  431.5677
  10  240.0145
  11  432.3509
  12  424.9331
  13  250.5622
  14  227.0068
  15  0.8773888
  16  3.215204
  17  -90.76111
  18  5.710926
  19  -50.56133
  20  -141.5514
  21  -45.19155
  22  189.8657
  23  115.2258
  24  -16.00924
  25  96.43489
  26  331.2531
  27  64.62441
  28  57.93185
  29  283.1715
  30  440.057
  31  110.7269
  32  -185.4009
  33  -352.2632
  34  72.94462
  35  243.0297
  36  230.8468
  37  161.9829
  38  257.6701
  39  -60.40472
  40  111.4448
  41  13.05182
  42  258.8174
  43  181.9208
  44  82.31583
  45  190.4711
  46  376.0779
  47  333.707
  48  137.2058
  49  202.351
  50  264.0222
  51  -12.15236
  52  -58.56787
  53  140.8064
  54  312.1105
  55  -43.25089
  56  -72.82941
  57  364.7118
  58  192.1129
  59  279.7709
  60  496.3281
  61  99.90838
  62  -76.61705
  63  99.17996
  64  264.494
  65  93.97009
  66  167.0793
  67  300.823
  68  270.2543
  69  130.9864
  70  269.0648
  71  229.0225
  72  -85.12918
  73  295.9174
  74  628.199
  75  689.5522
  76  494.7708
  77  101.799
  78  81.84222
  79  95.18053
  80  -295.7211
  81  17.06523
  82  172.5473
  83  -74.76136
  84  251.5569
  85  89.99053
  86  -84.95577
  87  181.5502
  88  221.9621
  89  288.4378
  90  165.6268
  91  191.57
  92  351.3136
  93  204.5111
  94  246.1434
  95  328.7952
  96  -66.48456
  97  -132.0628
  98  355.8687
  99  -350.455
 100  -95.22134
 101  296.4369
 102  573.3425
 103  358.5887
 104  296.7824
 105  167.4382
 106  147.9571
 107  207.9891
 108  174.9435
 109  -209.705
 110  136.765
 111  244.564
 112  -23.25612
 113  59.83427
 114  147.8737
 115  -54.45468
 116  24.00922
 117  322.8215
 118  119.4924
 119  108.852
 120  123.9216
 121  -60.58474
 122  53.99018
 123  109.0856
 124  104.9207
 125  1.284928
 126  102.2004
 127  238.0565
 128  131.6121
 129  460.6051
 130  229.9679
 131  408.6222
 132  201.9209
 133  369.1238
 134  65.46047
 135  165.4506
 136  138.9727
 137  237.1363
 138  420.0151
 139  293.4036
 140  168.2205
 141  245.5323
 142  260.2358
 143  33.2107
 144  -67.33418
 145  16.59476
 146  126.8465
 147  -97.27905
 148  -195.1442
 149  468.8735
 150  108.7109
 151  -50.85801
 152  -81.16251
 153  140.3582
 154  291.8434
 155  256.9773
 156  355.6662
 157  284.5459
 158  280.1783
 159  260.5557
 160  341.4438
 161  562.4784
 162  456.3582
 163  527.1528
 164  356.5591
 165  257.2899
 166  113.1091
 167  277.7312
 168  419.7608
 169  285.0201
 170  162.5264
 171  468.4847
 172  534.7928
 173  648.5441
 174  625.3564
 175  140.5783
 176  313.9862
 177  458.8004
 178  406.8031
 179  606.2314
 180  516.1348
 181  190.2058
 182  83.91868
 183  29.8316
 184  -119.1453
 185  298.4367
 186  -54.07429
 187  31.19393
 188  36.68349
 189  196.9879
 190  269.8004
 191  71.39249
 192  398.418
 193  488.4959
 194  44.69919
 195  58.98876
 196  294.7633
 197  520.4709
 198  366.8031
 199  330.7291
 200  359.2275
 201  317.9099
 202  336.0683
 203  313.4788
 204  190.6417
 205  369.4709
 206  19.31898
 207  36.25471
 208  306.5752
 209  203.3814
 210  8.975975
 211  17.84135
 212  -43.69299
 213  -14.0455
 214  133.0174
 215  -152.5443
 216  -232.3652
 217  51.38093
 218  337.2995
 219  252.1978
 220  155.9391
 221  -35.40382
 222  45.35013
 223  434.7737
 224  333.3786
 225  219.1198
 226  138.36
 227  189.2587
 228  -134.6386
 229  111.9729
 230  175.446
 231  208.9319
 232  452.3939
 233  466.2823
 234  737.6024
 235  267.4444
 236  280.9123
 237  188.9903
 238  279.2349
 239  721.531
 240  260.2403
 241  465.0941
 242  47.4299
 243  218.311
 244  223.4684
 245  231.0996
 246  66.45414
 247  40.87547
 248  333.3306
 249  390.7308
 250  139.351
 251  -33.45222
 252  382.2429
 253  439.9744
 254  251.9557
 255  39.56521
 256  -90.90477
 257  131.6258
 258  415.9727
 259  352.3578
 260  353.408
 261  287.3387
 262  -172.1781
 263  -220.2554
 264  -58.12767
 265  230.8957
 266  120.5192
 267  370.8206
 268  801.5669
 269  613.3751
 270  250.1187
 271  234.383
 272  457.6572
 273  346.3283
 274  120.376
 275  -106.9714
 276  131.3538
 277  260.282
 278  167.7429
 279  182.8534
 280  249.8827
 281  42.90963
 282  -32.76186
 283  11.90402
 284  7.114286
 285  345.5433
 286  117.7148
 287  226.9464
 288  170.3126
 289  19.6604
 290  232.3087
 291  153.8543
 292  252.8681
 293  358.9404
 294  173.154
 295  262.3855
 296  405.1053
 297  158.4554
 298  41.96845
 299  -33.76569
 300  91.97884
 301  412.3018
 302  311.0511
 303  149.8884
 304  113.1462
 305  127.7456
 306  16.2293
 307  283.3548
 308  375.6529
 309  309.5703
 310  123.3795
 311  583.2557
 312  650.973
 313  548.6606
 314  797.668
 315  765.7512
 316  535.7827
 317  716.787
 318  1378.023
 319  1819.182
 320  1719.345
 321  1828.628
 322  1937.282
 323  1509.379
 324  1012.928
 325  662.4333
 326  605.8754
 327  319.6777
 328  90.74209
 329  -139.1255
 330  -39.09818
 331  389.2296
 332  313.2946
 333  89.68409
 334  338.3284
 335  438.618
 336  347.4922
 337  317.5616
 338  -19.00122
 339  91.06324
 340  139.504
 341  544.5385
 342  768.5533
 343  341.9273
 344  342.0014
 345  321.9783
 346  349.7192
 347  189.9927
 348  361.0019
 349  459.5589
 350  366.2643
 351  94.70917
 352  273.4312
 353  64.9489
 354  -129.7793
 355  21.50683
 356  335.021
 357  205.7731
 358  81.6356
 359  -1.207985
 360  12.74574
 361  -199.6757
 362  89.07085
 363  448.0225
 364  323.4473
 365  288.6898
 366  94.17859
 367  46.95176
 368  257.6931
 369  448.7045
 370  -81.20855
 371  -116.4728
 372  196.4344
 373  474.7586
 374  367.8594
 375  292.945
 376  642.0808
 377  99.24498
 378  -164.4712
 379  -100.2709
 380  242.0468
 381  493.2332
 382  484.0645
 383  69.58025
 384  -371.7859
 385  204.5851
 386  599.7766
 387  220.1559
 388  91.30592
 389  74.21951
 390  340.6501
 391  294.5853
 392  0.3561877
 393  146.9699
 394  157.8773
 395  348.5194
 396  296.542
 397  209.7053
 398  341.7293
 399  282.1341
 400  20.45173
 401  65.91672
 402  281.8918
 403  371.9184
 404  120.8565
 405  293.7287
 406  343.7608
 407  365.3831
 408  179.3436
 409  380.3024
 410  222.9529
 411  223.0826
 412  168.9188
 413  86.42412
 414  257.2117
 415  138.8817
 416  -93.32988
 417  -50.14409
 418  367.6573
 419  494.2427
 420  319.6758
 421  54.95399
 422  397.9498
 423  379.9177
 424  493.0383
 425  57.84891
 426  -336.3576
 427  -178.7856
 428  163.2296
 429  157.2054
 430  -126.7051
 431  -220.1116
 432  196.5521
 433  159.3963
 434  217.0533
 435  256.4669
 436  -202.054
 437  -145.2842
 438  474.2386
 439  388.5956
 440  302.1967
 441  186.7766
 442  347.0905
 443  326.2549
 444  62.97746
 445  33.4068
 446  -174.8273
 447  -113.6805
 448  106.5254
 449  -33.0366
 450  -56.26708
 451  -92.47569
 452  273.4962
 453  -80.58743
 454  37.59337
 455  355.5469
 456  304.6066
 457  111.9961
 458  160.7378
 459  -36.58075
 460  280.56
 461  337.1809
 462  615.9307
 463  645.5098
 464  67.14081
 465  -70.73447
 466  202.857
 467  84.57182
 468  210.6206
 469  -34.65623
 470  24.12374
 471  249.8966
 472  155.0874
 473  243.5679
 474  243.2856
 475  547.0443
 476  -5.337953
 477  -304.1681
 478  52.64753
 479  244.5767
 480  368.7885
 481  341.4311
 482  92.82291
 483  437.2395
 484  493.0022
 485  402.178
 486  326.2843
 487  -78.66502
 488  161.0102
 489  331.9704
 490  496.4261
 491  295.5847
 492  -230.4831
 493  172.4097
 494  179.7714
 495  319.8799
 496  66.36462
 497  92.34714
 498  326.8807
 499  1.367944
 500  -155.8283
 501  64.23605
 502  243.1133
 503  31.89328
 504  82.1088
 505  302.2303
 506  129.2852
 507  -165.5238
 508  292.9207
 509  314.5457
 510  103.6777
 511  173.4057
