# Input file       =  1189455760.115726_cleaned.dat
# Candidate        =  PSR_0332+5434
# Telescope        =  AR
# Epoch_topo       =  58010.849295320906
# Epoch_bary       =  N/A
# T_sample         =  0.002
# Data Folded      =  7208960
# Data Avg         =  0.00745839390753597
# Data StdDev      =  0.999983889478101
# Profile Bins     =  512
# Profile Avg      =  104.9778229864   
# Profile StdDev   =  118.65726413228  
# Reduced chi-sqr  =  1.663
# Prob(Noise)      <  2.89e-19   (~8.9 sigma)
# P_topo (ms)      =  714.465820774889  +/- 0.00024
# P'_topo (s/s)    =  -0                +/- 1.29e-10
# P''_topo (s/s^2) =  0                 +/- 5.8e-14
# P_bary (ms)      =  N/A
# P'_bary (s/s)    =  N/A
# P''_bary (s/s^2) =  N/A
# P_orb (s)        =  N/A
# asin(i)/c (s)    =  N/A
# eccentricity     =  N/A
# w (rad)          =  N/A
# T_peri           =  N/A
######################################################
   0  121.0658
   1  94.2833
   2  4.115461
   3  91.12255
   4  184.7099
   5  205.2314
   6  154.5169
   7  43.44452
   8  -2.982205
   9  84.44382
  10  161.1748
  11  37.58472
  12  119.7511
  13  119.3197
  14  79.56762
  15  68.00282
  16  -6.256855
  17  -14.95969
  18  17.33328
  19  115.8537
  20  71.2566
  21  51.17446
  22  77.32718
  23  53.76602
  24  55.68824
  25  87.99196
  26  22.81943
  27  1.501321
  28  16.93464
  29  14.72532
  30  134.4378
  31  205.3334
  32  210.9561
  33  169.2665
  34  204.5595
  35  266.7342
  36  182.8717
  37  213.9837
  38  147.7531
  39  296.3099
  40  195.5627
  41  20.62193
  42  -22.30432
  43  -82.5145
  44  -5.486432
  45  -23.28838
  46  93.92474
  47  115.0367
  48  29.26429
  49  45.87609
  50  -74.59824
  51  37.05838
  52  50.11432
  53  125.6709
  54  175.9262
  55  89.68279
  56  20.71153
  57  29.60356
  58  89.12959
  59  146.0732
  60  191.7787
  61  226.8645
  62  147.6429
  63  161.2112
  64  60.53825
  65  75.08454
  66  2.498911
  67  109.6493
  68  122.5452
  69  39.6601
  70  64.43837
  71  85.42934
  72  29.21668
  73  -59.68757
  74  59.12955
  75  181.2443
  76  214.8269
  77  140.8037
  78  -11.99305
  79  -8.42395
  80  52.0141
  81  141.3827
  82  139.3158
  83  35.91162
  84  71.11905
  85  209.314
  86  21.7275
  87  47.78255
  88  97.649
  89  49.79983
  90  122.9014
  91  200.4193
  92  247.8757
  93  201.7753
  94  162.4687
  95  134.1778
  96  240.0969
  97  186.4954
  98  72.44743
  99  -2.592015
 100  26.18356
 101  102.1472
 102  88.47287
 103  21.79946
 104  32.50684
 105  7.520025
 106  88.32317
 107  92.95269
 108  114.6279
 109  64.11286
 110  68.01853
 111  95.86954
 112  204.1765
 113  107.0684
 114  76.85423
 115  83.53429
 116  150.635
 117  128.7255
 118  25.18992
 119  38.85366
 120  111.2453
 121  190.5608
 122  140.874
 123  26.76093
 124  -2.291136
 125  43.87387
 126  29.99142
 127  220.6012
 128  157.5723
 129  97.70372
 130  229.2593
 131  157.01
 132  -35.27523
 133  33.52886
 134  83.5736
 135  53.47229
 136  -25.07765
 137  68.04337
 138  9.663164
 139  99.77953
 140  151.7614
 141  169.6047
 142  110.6667
 143  68.4484
 144  190.7443
 145  132.2261
 146  49.74331
 147  86.75371
 148  -36.18145
 149  57.24933
 150  173.8493
 151  120.2103
 152  38.84553
 153  93.4509
 154  105.4565
 155  5.872347
 156  -69.21172
 157  118.5314
 158  128.0063
 159  111.2023
 160  131.545
 161  77.16267
 162  41.53209
 163  56.21707
 164  146.2244
 165  214.2183
 166  305.6836
 167  160.1527
 168  114.7753
 169  95.13137
 170  36.90525
 171  34.21411
 172  105.981
 173  260.1811
 174  173.2672
 175  -12.52812
 176  3.767293
 177  131.9422
 178  113.7318
 179  97.20012
 180  109.9199
 181  273.8652
 182  180.8532
 183  100.1585
 184  56.24826
 185  70.52029
 186  -37.5016
 187  -71.37079
 188  103.2477
 189  113.4475
 190  119.7605
 191  140.9493
 192  67.69599
 193  69.23271
 194  184.0515
 195  168.7803
 196  111.7305
 197  206.2936
 198  204.3377
 199  197.2288
 200  277.6714
 201  165.6144
 202  53.55017
 203  116.1305
 204  -55.80974
 205  -25.59893
 206  -65.45638
 207  94.23711
 208  96.38556
 209  161.6793
 210  151.0656
 211  165.8206
 212  182.6925
 213  -11.99182
 214  -40.85903
 215  52.12056
 216  161.1308
 217  185.9273
 218  192.2194
 219  206.1062
 220  148.5203
 221  33.68439
 222  124.2352
 223  136.6666
 224  119.4333
 225  70.92812
 226  18.75768
 227  -0.6573981
 228  153.702
 229  228.9331
 230  127.8585
 231  18.22012
 232  19.96761
 233  61.93525
 234  61.36619
 235  113.3119
 236  232.877
 237  162.4076
 238  119.9453
 239  6.454115
 240  -10.05491
 241  87.97848
 242  73.26154
 243  77.83783
 244  68.73095
 245  -16.55149
 246  129.5401
 247  115.2916
 248  39.7312
 249  47.66584
 250  43.15571
 251  29.33033
 252  -125.3994
 253  30.99096
 254  84.26509
 255  2.90068
 256  78.83739
 257  32.10263
 258  66.97549
 259  62.24877
 260  91.64162
 261  193.4888
 262  173.5676
 263  52.96206
 264  115.7456
 265  62.29027
 266  -110.3137
 267  9.387602
 268  185.7477
 269  199.8444
 270  66.92288
 271  25.55849
 272  152.2164
 273  205.3975
 274  159.7965
 275  117.4409
 276  79.86014
 277  114.2243
 278  199.9067
 279  68.64513
 280  122.1721
 281  294.2018
 282  430.8203
 283  387.9451
 284  586.3484
 285  806.8333
 286  904.6176
 287  947.3554
 288  824.4187
 289  644.58
 290  294.6263
 291  164.1876
 292  73.95954
 293  149.7003
 294  229.5746
 295  135.2962
 296  198.426
 297  210.3513
 298  168.7449
 299  189.3895
 300  347.0976
 301  188.9267
 302  85.89095
 303  178.2858
 304  204.8162
 305  59.15304
 306  -27.8714
 307  61.93657
 308  17.72655
 309  -24.72934
 310  66.47505
 311  95.6515
 312  42.63418
 313  131.1973
 314  98.26717
 315  34.49704
 316  83.64247
 317  94.61204
 318  45.8091
 319  114.1103
 320  97.7661
 321  -38.36381
 322  -76.46297
 323  31.68656
 324  28.80172
 325  17.46187
 326  25.32523
 327  107.6268
 328  120.5544
 329  122.8146
 330  129.8065
 331  169.8081
 332  172.4597
 333  167.7615
 334  77.08041
 335  62.16729
 336  -13.6226
 337  92.14861
 338  119.1535
 339  72.25845
 340  -24.93139
 341  110.8503
 342  -27.6085
 343  -66.08551
 344  96.05817
 345  155.9808
 346  230.8677
 347  237.6228
 348  70.66087
 349  141.6425
 350  103.5155
 351  184.656
 352  87.2774
 353  -37.61597
 354  -29.71988
 355  48.00848
 356  145.848
 357  73.82764
 358  -36.08098
 359  -39.03875
 360  41.53037
 361  134.8608
 362  91.05228
 363  95.13162
 364  152.9285
 365  77.26765
 366  144.4961
 367  127.4143
 368  143.5
 369  52.7342
 370  183.2116
 371  88.10269
 372  112.7818
 373  90.44939
 374  68.9077
 375  48.75168
 376  105.7587
 377  213.1832
 378  156.6723
 379  215.8291
 380  197.8694
 381  38.80199
 382  -23.98768
 383  -16.17566
 384  69.87527
 385  65.99855
 386  216.5647
 387  126.3785
 388  55.18204
 389  63.04686
 390  136.966
 391  80.39959
 392  66.9173
 393  188.986
 394  117.9772
 395  23.75208
 396  115.8903
 397  102.5405
 398  -41.42088
 399  -29.28504
 400  128.5658
 401  108.5748
 402  -76.0703
 403  -83.57217
 404  107.7156
 405  123.6679
 406  111.1846
 407  -7.751523
 408  -19.46428
 409  6.053612
 410  -30.31033
 411  10.59991
 412  145.567
 413  193.9224
 414  16.37569
 415  126.5333
 416  128.4585
 417  27.01297
 418  38.08284
 419  68.04783
 420  79.16373
 421  32.73567
 422  -13.16019
 423  66.37435
 424  41.93288
 425  -4.407248
 426  44.59513
 427  79.62751
 428  80.97297
 429  -28.43695
 430  40.24609
 431  51.6083
 432  -11.98289
 433  163.1415
 434  266.304
 435  221.604
 436  178.0458
 437  156.3573
 438  55.13906
 439  -38.26888
 440  59.42281
 441  65.80327
 442  105.1442
 443  141.3914
 444  61.36832
 445  93.74864
 446  130.1051
 447  66.00706
 448  23.24428
 449  132.5534
 450  50.30723
 451  16.82349
 452  -57.62847
 453  27.56042
 454  74.02213
 455  211.1245
 456  137.1396
 457  102.4543
 458  62.66263
 459  44.50493
 460  171.2023
 461  66.13395
 462  155.1862
 463  203.8218
 464  114.5507
 465  -20.16383
 466  -10.32953
 467  43.99382
 468  87.52325
 469  95.74071
 470  138.7234
 471  165.2028
 472  16.07005
 473  77.43113
 474  144.3461
 475  208.1113
 476  146.3784
 477  193.1402
 478  261.8191
 479  95.63092
 480  91.7179
 481  144.6692
 482  110.8653
 483  335.1052
 484  303.1186
 485  289.2335
 486  140.4176
 487  18.9703
 488  83.2061
 489  66.14938
 490  -29.06615
 491  -14.63008
 492  73.58186
 493  136.9713
 494  88.25536
 495  50.04306
 496  3.81537
 497  41.13732
 498  83.67567
 499  201.8706
 500  120.4001
 501  233.3968
 502  227.5567
 503  216.4564
 504  179.9114
 505  209.4046
 506  191.23
 507  136.4133
 508  143.6172
 509  121.6094
 510  203.663
 511  224.2389
