# Input file       =  1189470387.118155_cleaned.dat
# Candidate        =  PSR_0332+5434
# Telescope        =  AR
# Epoch_topo       =  58011.018589330495
# Epoch_bary       =  N/A
# T_sample         =  0.002
# Data Folded      =  7340032
# Data Avg         =  0.00349317194816851
# Data StdDev      =  1.00000033422784 
# Profile Bins     =  512
# Profile Avg      =  50.0881403452313 
# Profile StdDev   =  119.73307639488  
# Reduced chi-sqr  =  1.546
# Prob(Noise)      <  2.47e-14   (~7.5 sigma)
# P_topo (ms)      =  714.465883641772  +/- 0.000149
# P'_topo (s/s)    =  -0                +/- 7.87e-11
# P''_topo (s/s^2) =  0                 +/- 3.48e-14
# P_bary (ms)      =  N/A
# P'_bary (s/s)    =  N/A
# P''_bary (s/s^2) =  N/A
# P_orb (s)        =  N/A
# asin(i)/c (s)    =  N/A
# eccentricity     =  N/A
# w (rad)          =  N/A
# T_peri           =  N/A
######################################################
   0  692.9763
   1  574.6853
   2  423.4493
   3  261.6537
   4  124.7229
   5  221.251
   6  63.97919
   7  64.16712
   8  104.8847
   9  98.29574
  10  135.5376
  11  187.0936
  12  249.3737
  13  163.81
  14  81.84211
  15  51.24416
  16  107.4992
  17  69.59691
  18  1.552728
  19  -44.29606
  20  27.00521
  21  -17.67203
  22  -97.728
  23  64.77658
  24  -66.96509
  25  -126.4909
  26  -91.67442
  27  89.80933
  28  -105.0848
  29  -143.5939
  30  37.38457
  31  17.48641
  32  45.75829
  33  102.383
  34  142.784
  35  59.9165
  36  -47.44035
  37  47.07682
  38  61.26514
  39  17.15069
  40  111.4504
  41  105.3629
  42  196.6543
  43  -97.50879
  44  -15.53632
  45  109.1698
  46  89.40487
  47  141.5524
  48  102.3134
  49  -54.43647
  50  -44.36467
  51  -43.02512
  52  43.98758
  53  40.28678
  54  69.93895
  55  214.4709
  56  266.3251
  57  27.8414
  58  -123.3418
  59  22.16429
  60  80.20164
  61  -37.22666
  62  73.19299
  63  31.847
  64  -88.21024
  65  65.62099
  66  98.40436
  67  48.64875
  68  42.43546
  69  33.70227
  70  70.52972
  71  164.852
  72  210.6627
  73  168.9855
  74  190.6663
  75  95.38597
  76  1.827002
  77  122.5799
  78  218.2555
  79  197.7102
  80  180.7357
  81  0.8057982
  82  13.24677
  83  100.5498
  84  276.6642
  85  223.9352
  86  118.8869
  87  150.6156
  88  128.5579
  89  20.14756
  90  101.7649
  91  119.0483
  92  33.05184
  93  29.82814
  94  6.107732
  95  34.9013
  96  13.55626
  97  8.871632
  98  68.82755
  99  78.11557
 100  60.98507
 101  66.4938
 102  102.2257
 103  152.8086
 104  -1.39847
 105  -14.03951
 106  25.78836
 107  -7.66992
 108  1.019816
 109  24.54207
 110  -21.9939
 111  -6.026364
 112  13.94785
 113  25.53076
 114  -27.79824
 115  -0.9652062
 116  135.6615
 117  155.9271
 118  126.7349
 119  130.4458
 120  46.03981
 121  -25.70826
 122  99.0038
 123  -41.40042
 124  -55.73738
 125  -30.56886
 126  123.721
 127  97.04898
 128  169.8539
 129  -4.789311
 130  -212.9026
 131  -98.50453
 132  -105.8096
 133  -9.812077
 134  -133.8265
 135  8.288136
 136  124.4057
 137  70.18579
 138  28.60196
 139  -4.177866
 140  -43.07865
 141  -80.76875
 142  50.23735
 143  -143.0933
 144  -27.90882
 145  43.30156
 146  99.51137
 147  125.3644
 148  -55.75494
 149  -123.1779
 150  10.00302
 151  40.06007
 152  110.7026
 153  113.9745
 154  -79.93959
 155  54.47328
 156  45.66016
 157  15.78467
 158  75.93203
 159  137.0213
 160  163.1038
 161  51.24661
 162  -89.75784
 163  42.95499
 164  -65.24512
 165  -152.6696
 166  68.61566
 167  258.0519
 168  209.5358
 169  38.37275
 170  118.6718
 171  8.128678
 172  -48.56232
 173  -91.4572
 174  -3.749069
 175  104.0695
 176  34.17338
 177  -60.24405
 178  31.11459
 179  155.4384
 180  94.47465
 181  -114.907
 182  -171.9277
 183  79.33168
 184  92.92224
 185  -49.36808
 186  70.23878
 187  128.419
 188  167.0395
 189  -17.71722
 190  38.0738
 191  -24.57915
 192  87.24441
 193  106.955
 194  59.91108
 195  -6.342837
 196  55.23233
 197  207.2027
 198  102.8531
 199  -28.65148
 200  -0.4082611
 201  -19.3645
 202  21.24928
 203  70.53016
 204  62.79906
 205  -5.102748
 206  40.89674
 207  -5.071881
 208  61.19839
 209  -8.859718
 210  -58.63464
 211  15.24606
 212  16.69017
 213  -49.62425
 214  -45.06306
 215  104.7173
 216  144.8296
 217  10.68171
 218  -129.2629
 219  6.885963
 220  3.648762
 221  32.60898
 222  80.15007
 223  -4.985107
 224  72.46498
 225  130.672
 226  9.108974
 227  -5.414349
 228  18.97462
 229  151.5248
 230  82.29769
 231  122.1863
 232  -88.31064
 233  -101.0799
 234  73.14732
 235  90.7668
 236  -25.90876
 237  -65.54597
 238  -20.61995
 239  39.08231
 240  27.15681
 241  28.98048
 242  41.4678
 243  120.8056
 244  3.881281
 245  -98.53079
 246  -52.22959
 247  -67.45528
 248  -50.21199
 249  39.70792
 250  87.73002
 251  51.82945
 252  28.94316
 253  8.697976
 254  214.2336
 255  135.1153
 256  111.2499
 257  62.78135
 258  85.60587
 259  80.78778
 260  -25.6073
 261  -53.76022
 262  0.5407907
 263  77.89448
 264  162.9643
 265  148.9397
 266  200.1321
 267  6.344223
 268  119.6185
 269  136.0001
 270  134.9659
 271  217.9559
 272  61.56043
 273  9.507307
 274  123.4265
 275  9.566605
 276  53.21634
 277  -5.096351
 278  23.00253
 279  -117.2621
 280  -185.2282
 281  15.35506
 282  -15.47313
 283  -39.7734
 284  152.5441
 285  -15.35289
 286  65.18906
 287  184.739
 288  121.5021
 289  35.258
 290  -4.659416
 291  97.45953
 292  38.43395
 293  26.02168
 294  201.4404
 295  182.5528
 296  138.0821
 297  94.09659
 298  31.92941
 299  46.37188
 300  -50.90261
 301  57.96336
 302  33.01942
 303  151.2558
 304  119.1764
 305  60.24581
 306  105.2949
 307  31.06156
 308  93.5771
 309  140.365
 310  199.5445
 311  120.4705
 312  -22.77387
 313  -32.04274
 314  -106.8914
 315  59.12288
 316  25.87357
 317  -72.80902
 318  -14.29506
 319  52.66953
 320  -46.03207
 321  -92.68013
 322  -33.61562
 323  149.8246
 324  57.32305
 325  -42.34932
 326  -54.10743
 327  85.00807
 328  112.1755
 329  -196.4885
 330  -113.8781
 331  -24.21698
 332  -19.34811
 333  63.64736
 334  32.35065
 335  -9.101505
 336  -135.3549
 337  -111.5098
 338  94.91822
 339  63.2296
 340  -33.8984
 341  -53.39185
 342  45.08099
 343  67.76504
 344  26.69174
 345  62.11194
 346  33.99081
 347  6.056217
 348  -2.539306
 349  -15.91438
 350  164.0725
 351  134.9608
 352  58.48664
 353  17.01133
 354  102.1216
 355  124.2866
 356  136.3261
 357  120.4131
 358  -10.89375
 359  54.35513
 360  108.0422
 361  88.17908
 362  12.82782
 363  215.0123
 364  212.9584
 365  -113.6111
 366  8.750546
 367  17.38813
 368  45.20725
 369  39.76336
 370  16.34771
 371  124.3998
 372  47.89041
 373  59.59927
 374  148.0964
 375  76.5209
 376  8.439934
 377  -72.11652
 378  -76.35668
 379  -44.6111
 380  99.16513
 381  84.13219
 382  35.15475
 383  26.19732
 384  206.0853
 385  101.4303
 386  47.2039
 387  28.27924
 388  -22.52037
 389  -61.7867
 390  -7.73931
 391  49.44135
 392  113.159
 393  94.83271
 394  15.21743
 395  61.32831
 396  94.10689
 397  -93.98691
 398  -56.62709
 399  66.94971
 400  -76.72474
 401  9.690116
 402  9.600623
 403  -62.77096
 404  -129.256
 405  97.60838
 406  148.4444
 407  -12.07868
 408  77.14265
 409  268.6367
 410  266.2781
 411  93.48956
 412  48.30327
 413  3.965837
 414  -56.59153
 415  -18.1095
 416  54.50965
 417  129.6312
 418  58.45102
 419  -48.49059
 420  21.57473
 421  32.32364
 422  52.85724
 423  2.504784
 424  36.17965
 425  -13.19041
 426  37.86753
 427  24.37784
 428  38.88287
 429  67.08452
 430  97.80201
 431  159.8439
 432  97.16453
 433  -54.24454
 434  61.57053
 435  131.4048
 436  203.3274
 437  -42.83491
 438  5.945767
 439  -77.7883
 440  -6.214369
 441  -71.77914
 442  40.31555
 443  99.38623
 444  -22.79976
 445  -35.27353
 446  -32.28874
 447  -95.96423
 448  -71.32239
 449  54.74078
 450  -14.38461
 451  -119.6521
 452  20.68753
 453  116.0855
 454  -25.4443
 455  -82.49944
 456  95.89593
 457  95.62479
 458  -1.810717
 459  -118.7641
 460  -73.07875
 461  105.8685
 462  53.84126
 463  -95.85444
 464  -42.40158
 465  1.96517
 466  3.049935
 467  27.60862
 468  89.68892
 469  112.7852
 470  66.44965
 471  66.94632
 472  -105.0623
 473  -44.18227
 474  67.56595
 475  84.36006
 476  -35.75468
 477  -68.37097
 478  81.35371
 479  57.2512
 480  130.6756
 481  18.32887
 482  25.81713
 483  67.18011
 484  60.82283
 485  72.77956
 486  33.9632
 487  59.07827
 488  42.95572
 489  45.34541
 490  123.9657
 491  169.4648
 492  42.79686
 493  77.35393
 494  59.1928
 495  102.5617
 496  124.761
 497  59.26101
 498  69.22136
 499  191.675
 500  20.12873
 501  21.38058
 502  29.18901
 503  103.9626
 504  77.21761
 505  130.9479
 506  148.047
 507  112.9827
 508  264.2257
 509  595.1758
 510  782.1491
 511  832.8593
