# Input file       =  1189226738.107004_cleaned.dat
# Candidate        =  PSR_0332+5434
# Telescope        =  AR
# Epoch_topo       =  58008.198577627358
# Epoch_bary       =  N/A
# T_sample         =  0.002
# Data Folded      =  7340032
# Data Avg         =  0.0231071063462878
# Data StdDev      =  2.9229618683735  
# Profile Bins     =  512
# Profile Avg      =  331.207612960565 
# Profile StdDev   =  349.975099713864 
# Reduced chi-sqr  =  1.390
# Prob(Noise)      <  1.14e-08   (~5.6 sigma)
# P_topo (ms)      =  714.465478386275  +/- 0.000107
# P'_topo (s/s)    =  -0                +/- 5.67e-11
# P''_topo (s/s^2) =  0                 +/- 2.5e-14
# P_bary (ms)      =  N/A
# P'_bary (s/s)    =  N/A
# P''_bary (s/s^2) =  N/A
# P_orb (s)        =  N/A
# asin(i)/c (s)    =  N/A
# eccentricity     =  N/A
# w (rad)          =  N/A
# T_peri           =  N/A
######################################################
   0  290.3965
   1  352.8839
   2  654.9818
   3  480.7653
   4  405.86
   5  456.3547
   6  -53.20271
   7  -190.6036
   8  117.0701
   9  226.6435
  10  269.2564
  11  611.7822
  12  95.92078
  13  403.4106
  14  407.6331
  15  -27.58075
  16  -268.8927
  17  -159.259
  18  324.4473
  19  354.228
  20  264.7632
  21  360.5034
  22  334.7928
  23  125.1354
  24  157.9261
  25  290.6378
  26  421.9806
  27  21.19356
  28  102.9386
  29  330.0619
  30  219.8537
  31  446.6292
  32  -471.4712
  33  -140.4805
  34  311.3183
  35  344.8479
  36  -20.97262
  37  134.4899
  38  249.7022
  39  271.9193
  40  268.7494
  41  406.2714
  42  260.3463
  43  237.2327
  44  299.095
  45  277.5699
  46  291.5063
  47  432.0878
  48  274.1501
  49  -141.5818
  50  520.3151
  51  504.3275
  52  430.7822
  53  89.72704
  54  36.42711
  55  422.1822
  56  353.5701
  57  443.4093
  58  113.9864
  59  233.2547
  60  299.7337
  61  144.2978
  62  640.1669
  63  386.7835
  64  362.6718
  65  426.3932
  66  417.1744
  67  236.1616
  68  186.3654
  69  272.3796
  70  504.859
  71  640.3871
  72  263.952
  73  402.8342
  74  398.9303
  75  -113.258
  76  -27.61113
  77  375.1464
  78  13.89403
  79  -42.33233
  80  94.99214
  81  73.92872
  82  39.58298
  83  340.649
  84  70.68329
  85  -102.0464
  86  246.9816
  87  377.1081
  88  541.7095
  89  493.6031
  90  390.4756
  91  -29.61787
  92  -182.6178
  93  128.9435
  94  356.2672
  95  3.901237
  96  494.3138
  97  552.5914
  98  293.5517
  99  544.757
 100  409.4796
 101  109.6677
 102  143.4834
 103  38.88762
 104  65.75054
 105  80.39812
 106  224.5276
 107  640.8178
 108  627.8326
 109  530.5793
 110  163.7482
 111  236.601
 112  468.5461
 113  422.5518
 114  464.931
 115  265.1494
 116  547.0343
 117  541.3262
 118  346.3239
 119  231.6717
 120  500.3601
 121  232.3024
 122  -259.6196
 123  308.8509
 124  422.3672
 125  678.6111
 126  613.5529
 127  161.6034
 128  196.9954
 129  367.983
 130  263.6545
 131  128.0803
 132  -59.79552
 133  403.0963
 134  526.3784
 135  692.1101
 136  586.7341
 137  373.1984
 138  196.435
 139  347.6205
 140  215.5873
 141  535.238
 142  396.9731
 143  291.5392
 144  307.0551
 145  -185.9167
 146  74.02821
 147  85.12731
 148  -50.00148
 149  3.477855
 150  229.2298
 151  220.4258
 152  -13.93355
 153  231.4537
 154  810.9172
 155  421.0059
 156  392.5652
 157  130.0286
 158  312.352
 159  55.14689
 160  438.6284
 161  589.353
 162  299.3174
 163  203.7958
 164  245.4474
 165  333.2117
 166  349.4888
 167  6.203219
 168  18.79911
 169  -173.2124
 170  277.5426
 171  242.1282
 172  230.7968
 173  541.3422
 174  196.5347
 175  78.42735
 176  52.88656
 177  65.5058
 178  67.36253
 179  346.9871
 180  709.084
 181  200.3709
 182  -222.7949
 183  55.97752
 184  152.9099
 185  162.0957
 186  572.5984
 187  453.002
 188  181.0422
 189  200.833
 190  375.596
 191  570.3523
 192  158.935
 193  22.9747
 194  335.2759
 195  429.8161
 196  384.3631
 197  11.70604
 198  18.69057
 199  429.826
 200  276.5217
 201  120.0477
 202  -13.80252
 203  411.1631
 204  180.6099
 205  382.3816
 206  487.4101
 207  127.1642
 208  512.1785
 209  780.7065
 210  348.174
 211  78.25616
 212  313.3823
 213  -6.701929
 214  241.3333
 215  231.8876
 216  217.2331
 217  320.0219
 218  406.8038
 219  395.9862
 220  471.4387
 221  538.3408
 222  712.1815
 223  271.707
 224  452.4799
 225  296.463
 226  415.7936
 227  532.0101
 228  631.4014
 229  477.267
 230  389.3211
 231  324.4274
 232  133.1749
 233  351.4686
 234  363.0395
 235  248.2769
 236  318.4884
 237  305.4833
 238  260.8148
 239  278.5841
 240  289.3914
 241  472.1533
 242  657.8546
 243  450.0375
 244  -215.9415
 245  -114.2331
 246  236.8081
 247  589.472
 248  459.3455
 249  673.0985
 250  652.89
 251  299.892
 252  161.0706
 253  32.94056
 254  -84.09335
 255  -187.9039
 256  277.8623
 257  231.4931
 258  348.7866
 259  358.299
 260  302.5737
 261  323.6466
 262  432.6843
 263  419.8794
 264  308.0093
 265  535.8182
 266  623.234
 267  745.7846
 268  161.9435
 269  308.6784
 270  629.1459
 271  629.0128
 272  749.6352
 273  940.2946
 274  548.8112
 275  387.3253
 276  753.3009
 277  177.0568
 278  10.33023
 279  289.4612
 280  698.4445
 281  523.6619
 282  88.17186
 283  539.5606
 284  593.9592
 285  598.3728
 286  -32.2404
 287  -71.14137
 288  61.78673
 289  211.0331
 290  173.9916
 291  371.7991
 292  511.9732
 293  81.77885
 294  160.2481
 295  59.77439
 296  238.8536
 297  468.4557
 298  98.60854
 299  23.54953
 300  171.3169
 301  535.359
 302  154.5936
 303  287.1025
 304  540.8938
 305  443.0341
 306  211.3709
 307  486.2696
 308  907.4354
 309  501.1978
 310  269.211
 311  422.3658
 312  317.734
 313  639.5926
 314  693.8716
 315  555.7135
 316  343.0559
 317  634.9453
 318  784.9519
 319  690.1844
 320  1607.635
 321  2189.21
 322  2646.064
 323  2101.427
 324  1535.538
 325  1014.156
 326  1182.033
 327  513.067
 328  388.6005
 329  390.0806
 330  78.96209
 331  -212.5788
 332  290.1048
 333  802.0654
 334  377.0279
 335  704.0829
 336  975.2451
 337  591.1819
 338  520.7698
 339  660.8931
 340  650.6277
 341  292.0011
 342  31.7231
 343  146.1262
 344  540.3868
 345  376.4103
 346  491.2021
 347  471.0061
 348  374.2254
 349  -81.46592
 350  14.99614
 351  745.8826
 352  116.6898
 353  253.8947
 354  186.4272
 355  214.7624
 356  373.4016
 357  307.1302
 358  124.7998
 359  295.1373
 360  544.7125
 361  60.16959
 362  47.51319
 363  351.151
 364  206.4667
 365  90.12563
 366  456.9802
 367  683.1294
 368  182.746
 369  62.47403
 370  -248.3351
 371  46.31362
 372  384.6314
 373  488.8606
 374  257.0193
 375  102.6653
 376  281.0519
 377  457.744
 378  281.7536
 379  137.4521
 380  153.6642
 381  -170.0922
 382  245.7709
 383  227.1154
 384  626.1252
 385  451.6644
 386  341.8849
 387  154.75
 388  114.8522
 389  633.767
 390  257.0922
 391  486.0427
 392  608.7093
 393  855.5781
 394  735.9207
 395  301.046
 396  407.9839
 397  284.8303
 398  572.1231
 399  763.3289
 400  812.5223
 401  293.037
 402  442.8287
 403  780.4556
 404  268.7357
 405  113.4095
 406  621.2924
 407  888.5109
 408  539.9197
 409  364.8486
 410  154.3287
 411  82.76029
 412  -50.46801
 413  -81.11748
 414  345.2503
 415  673.0182
 416  215.2812
 417  -59.74527
 418  272.3547
 419  180.7859
 420  -174.8834
 421  454.2682
 422  760.1627
 423  515.2134
 424  320.7532
 425  207.1243
 426  310.5823
 427  368.4995
 428  289.8881
 429  299.1855
 430  129.2777
 431  894.7328
 432  333.9583
 433  99.86482
 434  325.0833
 435  160.7158
 436  255.489
 437  240.9681
 438  447.8417
 439  159.3889
 440  365.6866
 441  767.3909
 442  566.9559
 443  -159.1501
 444  112.8007
 445  317.616
 446  239.5103
 447  -187.3529
 448  154.7602
 449  1010.662
 450  639.9147
 451  -71.79606
 452  159.9289
 453  40.95886
 454  -115.9678
 455  -236.8292
 456  655.4835
 457  312.4223
 458  -154.7958
 459  248.2545
 460  135.5473
 461  205.0715
 462  561.6437
 463  489.7922
 464  594.119
 465  500.8684
 466  535.2514
 467  521.4457
 468  479.1951
 469  580.8255
 470  595.0489
 471  537.772
 472  219.5192
 473  191.9379
 474  524.3617
 475  698.6208
 476  660.5557
 477  302.4773
 478  254.6011
 479  316.5256
 480  423.7494
 481  277.6642
 482  580.8085
 483  813.1614
 484  306.3546
 485  316.9455
 486  158.8655
 487  -73.32416
 488  110.3249
 489  362.8564
 490  525.2678
 491  461.9245
 492  321.2966
 493  429.103
 494  175.3952
 495  254.6812
 496  429.3297
 497  492.3008
 498  701.2757
 499  619.5953
 500  348.1864
 501  654.5394
 502  -37.53729
 503  21.07963
 504  349.521
 505  -157.0321
 506  29.45252
 507  495.5108
 508  624.8166
 509  7.115178
 510  -107.3642
 511  92.06662
