# Input file       =  1189384196.109106_cleaned.dat
# Candidate        =  PSR_0332+5434
# Telescope        =  AR
# Epoch_topo       =  58010.021008207244
# Epoch_bary       =  N/A
# T_sample         =  0.002
# Data Folded      =  7340032
# Data Avg         =  0.0133819486095585
# Data StdDev      =  0.999961398388818
# Profile Bins     =  512
# Profile Avg      =  191.919555018296 
# Profile StdDev   =  119.72841448865  
# Reduced chi-sqr  =  1.609
# Prob(Noise)      <  6.12e-17   (~8.3 sigma)
# P_topo (ms)      =  714.465606950947  +/- 0.000186
# P'_topo (s/s)    =  -0                +/- 9.84e-11
# P''_topo (s/s^2) =  0                 +/- 4.34e-14
# P_bary (ms)      =  N/A
# P'_bary (s/s)    =  N/A
# P''_bary (s/s^2) =  N/A
# P_orb (s)        =  N/A
# asin(i)/c (s)    =  N/A
# eccentricity     =  N/A
# w (rad)          =  N/A
# T_peri           =  N/A
######################################################
   0  227.6465
   1  262.3888
   2  297.4762
   3  388.9591
   4  215.5233
   5  107.9007
   6  206.3755
   7  204.4015
   8  327.3016
   9  160.7537
  10  219.04
  11  308.2855
  12  173.0351
  13  127.6351
  14  97.68024
  15  226.179
  16  296.5923
  17  315.137
  18  144.6521
  19  221.986
  20  227.4719
  21  311.404
  22  218.0222
  23  243.1248
  24  281.089
  25  174.9595
  26  161.6006
  27  138.2326
  28  147.8264
  29  184.5811
  30  261.3596
  31  188.134
  32  51.07648
  33  176.2592
  34  257.1588
  35  232.1004
  36  214.2002
  37  181.1011
  38  127.4767
  39  28.47608
  40  112.404
  41  252.3311
  42  151.3428
  43  221.5421
  44  252.7011
  45  265.5514
  46  70.535
  47  59.39115
  48  124.9154
  49  198.1832
  50  103.8392
  51  75.07567
  52  42.93138
  53  289.3342
  54  117.8539
  55  211.5537
  56  171.0541
  57  87.78802
  58  139.5029
  59  218.773
  60  301.965
  61  200.8721
  62  103.3335
  63  138.3075
  64  113.6626
  65  57.62957
  66  110.238
  67  93.92416
  68  42.28022
  69  78.87247
  70  287.9929
  71  192.6877
  72  -68.35295
  73  53.15752
  74  209.0202
  75  259.9819
  76  127.5631
  77  250.1419
  78  109.4438
  79  163.6219
  80  96.98741
  81  33.76117
  82  76.28348
  83  139.0584
  84  148.8187
  85  137.9346
  86  227.3258
  87  40.66724
  88  -48.62771
  89  89.56444
  90  72.41321
  91  36.2533
  92  148.2016
  93  113.1809
  94  129.7333
  95  156.0549
  96  96.94594
  97  106.4141
  98  190.4176
  99  238.9685
 100  151.9161
 101  166.5398
 102  95.51689
 103  124.091
 104  154.7925
 105  135.0438
 106  76.22406
 107  252.7263
 108  221.4062
 109  122.109
 110  130.7274
 111  153.9028
 112  10.97726
 113  52.24187
 114  8.413797
 115  -2.38385
 116  39.7656
 117  51.81564
 118  168.8854
 119  150.7387
 120  115.8597
 121  135.9808
 122  165.2642
 123  138.4834
 124  111.0175
 125  78.41093
 126  229.2654
 127  205.5004
 128  141.5409
 129  157.1311
 130  210.1239
 131  348.9633
 132  320.7285
 133  314.7836
 134  176.3359
 135  220.209
 136  319.8878
 137  114.3305
 138  175.4144
 139  84.02635
 140  145.4614
 141  88.29731
 142  104.0257
 143  135.4451
 144  83.93385
 145  261.3282
 146  185.5784
 147  128.2543
 148  201.6519
 149  166.1906
 150  101.3812
 151  61.36003
 152  167.9465
 153  196.179
 154  361.5545
 155  120.9355
 156  17.62871
 157  31.28797
 158  140.4102
 159  212.7708
 160  264.9099
 161  319.9504
 162  176.7671
 163  121.2287
 164  171.6423
 165  102.6094
 166  97.53533
 167  302.6649
 168  288.8828
 169  150.9168
 170  151.5398
 171  282.5565
 172  196.1568
 173  231.1815
 174  196.6602
 175  150.5076
 176  171.7238
 177  123.9908
 178  162.088
 179  52.56347
 180  118.2026
 181  78.66917
 182  59.91996
 183  286.5041
 184  142.7168
 185  63.7938
 186  203.4841
 187  66.46486
 188  105.4361
 189  36.03491
 190  229.8743
 191  276.2139
 192  299.0088
 193  182.4862
 194  246.8174
 195  59.50423
 196  213.4151
 197  116.5025
 198  13.25803
 199  55.75772
 200  122.5716
 201  206.3744
 202  253.8792
 203  284.2388
 204  277.1209
 205  205.1659
 206  100.7651
 207  7.485947
 208  236.453
 209  176.4857
 210  200.9276
 211  115.2276
 212  174.7377
 213  234.7759
 214  122.4296
 215  169.0773
 216  215.2533
 217  273.1526
 218  232.8758
 219  194.3911
 220  248.8412
 221  262.7354
 222  148.3806
 223  205.504
 224  207.0298
 225  163.8783
 226  153.9305
 227  272.6497
 228  328.9485
 229  259.1866
 230  309.9516
 231  262.8667
 232  290.0464
 233  243.7362
 234  300.2811
 235  222.001
 236  150.5067
 237  151.3486
 238  261.6081
 239  231.6529
 240  202.7135
 241  165.1648
 242  263.5737
 243  195.5635
 244  215.329
 245  177.8882
 246  98.25486
 247  56.16205
 248  165.1981
 249  141.6868
 250  159.6193
 251  204.4238
 252  94.68732
 253  42.95289
 254  130.2134
 255  84.60331
 256  162.9804
 257  148.229
 258  99.67599
 259  253.4744
 260  156.002
 261  146.9696
 262  148.9834
 263  239.4964
 264  235.4082
 265  245.4558
 266  188.6257
 267  103.0536
 268  21.54183
 269  127.4558
 270  96.09652
 271  49.92939
 272  124.2417
 273  106.5264
 274  240.6088
 275  118.3148
 276  242.5894
 277  160.6808
 278  157.4624
 279  71.69246
 280  97.8087
 281  237.4775
 282  210.7566
 283  208.4328
 284  219.3863
 285  166.1077
 286  181.5471
 287  183.9861
 288  297.8095
 289  278.7916
 290  188.1967
 291  199.2039
 292  138.7384
 293  96.81338
 294  232.2708
 295  359.1503
 296  260.8137
 297  56.57569
 298  252.0282
 299  319.11
 300  219.1354
 301  119.9519
 302  140.0443
 303  92.90203
 304  227.5755
 305  308.7169
 306  193.2274
 307  170.478
 308  210.9633
 309  127.2423
 310  224.4548
 311  286.0051
 312  139.5646
 313  150.7399
 314  187.6733
 315  185.345
 316  192.6827
 317  120.1064
 318  186.9294
 319  285.7275
 320  284.7302
 321  377.624
 322  239.9486
 323  192.8534
 324  254.4987
 325  266.2597
 326  295.7871
 327  252.7848
 328  153.9488
 329  198.4316
 330  253.6778
 331  123.4445
 332  152.9887
 333  233.3243
 334  169.5172
 335  149.2336
 336  86.12292
 337  75.69715
 338  89.76469
 339  191.8834
 340  201.5764
 341  166.8282
 342  137.6221
 343  155.6224
 344  139.7971
 345  193.8366
 346  179.6595
 347  110.9695
 348  250.4198
 349  342.1534
 350  131.4872
 351  190.8636
 352  188.6029
 353  185.6062
 354  213.794
 355  267.8521
 356  222.2951
 357  185.9441
 358  201.0973
 359  116.5508
 360  234.3069
 361  250.9609
 362  278.7748
 363  114.7336
 364  148.8799
 365  226.6559
 366  176.0185
 367  83.17925
 368  166.2583
 369  137.9146
 370  65.22179
 371  58.39597
 372  140.8059
 373  131.899
 374  100.2247
 375  247.2951
 376  221.6208
 377  209.4132
 378  142.2141
 379  139.3281
 380  174.0796
 381  140.545
 382  352.6372
 383  367.6924
 384  193.6285
 385  173.0154
 386  256.4028
 387  282.8231
 388  136.6216
 389  126.9073
 390  327.5316
 391  330.1478
 392  381.4875
 393  332.0063
 394  241.87
 395  173.1165
 396  213.5696
 397  230.8483
 398  281.667
 399  165.2393
 400  218.9901
 401  187.3063
 402  90.14613
 403  89.41917
 404  100.6946
 405  250.6096
 406  271.9893
 407  103.9951
 408  91.188
 409  -15.23884
 410  223.274
 411  263.5312
 412  48.18314
 413  111.8744
 414  258.6275
 415  268.6223
 416  295.0255
 417  161.1236
 418  179.5819
 419  134.7324
 420  190.2769
 421  257.049
 422  193.9777
 423  321.2593
 424  242.2439
 425  171.4713
 426  176.9582
 427  286.6598
 428  358.6994
 429  296.8181
 430  283.7731
 431  229.3024
 432  229.957
 433  181.675
 434  165.1462
 435  159.1551
 436  315.2639
 437  261.8473
 438  168.6
 439  163.3163
 440  126.2038
 441  261.7121
 442  420.4737
 443  373.1178
 444  514.4896
 445  630.0125
 446  808.9557
 447  816.3209
 448  943.7195
 449  1012.811
 450  777.7256
 451  463.0854
 452  254.3883
 453  171.6812
 454  323.4318
 455  322.2896
 456  202.7413
 457  272.831
 458  203.8292
 459  122.6566
 460  122.7188
 461  245.2703
 462  284.9145
 463  167.3344
 464  191.4824
 465  209.4897
 466  306.3891
 467  308.3185
 468  338.684
 469  146.5656
 470  50.40457
 471  199.4526
 472  245.7064
 473  122.5135
 474  260.4362
 475  186.9587
 476  182.4098
 477  211.9237
 478  195.5743
 479  154.1294
 480  154.9902
 481  226.2761
 482  311.6107
 483  201.5616
 484  152.2015
 485  11.82045
 486  110.3411
 487  246.2422
 488  200.4098
 489  190.9285
 490  159.6407
 491  100.9441
 492  218.8842
 493  62.99794
 494  129.2702
 495  228.4145
 496  242.2786
 497  192.6385
 498  313.0472
 499  393.3212
 500  416.2145
 501  304.6195
 502  96.1651
 503  102.8194
 504  265.6965
 505  338.7757
 506  394.451
 507  292.6927
 508  220.4532
 509  63.76686
 510  54.05796
 511  199.1152
