# Input file       =  1189972712.116665-PSRB0329-2ms-sampling-dd.dat
# Candidate        =  PSR_0332+5434
# Telescope        =  AR
# Epoch_topo       =  58016.832536072507
# Epoch_bary       =  N/A
# T_sample         =  0.002
# Data Folded      =  7208960
# Data Avg         =  4.85986736875402e-09
# Data StdDev      =  33.928144465483  
# Profile Bins     =  512
# Profile Avg      =  -0.0547796775844848
# Profile StdDev   =  4025.88565847805 
# Reduced chi-sqr  =  1.129
# Prob(Noise)      <  0.0227   (~2.0 sigma)
# P_topo (ms)      =  714.467829841967  +/- 0.000278
# P'_topo (s/s)    =  -0                +/- 1.49e-10
# P''_topo (s/s^2) =  0                 +/- 6.7e-14
# P_bary (ms)      =  N/A
# P'_bary (s/s)    =  N/A
# P''_bary (s/s^2) =  N/A
# P_orb (s)        =  N/A
# asin(i)/c (s)    =  N/A
# eccentricity     =  N/A
# w (rad)          =  N/A
# T_peri           =  N/A
######################################################
   0  5691.23
   1  3037.543
   2  -562.8107
   3  -3711.863
   4  -3351.093
   5  -2254.606
   6  -2756.482
   7  -1840.819
   8  -350.1841
   9  -1441.747
  10  -3226.877
  11  -4856.579
  12  -5308.005
  13  -2454.33
  14  890.5959
  15  1727.01
  16  401.6025
  17  -3235.345
  18  -3361.437
  19  -3939.967
  20  -3605.566
  21  -3681.512
  22  -3122.647
  23  -3474.783
  24  -3181.71
  25  -5117.8
  26  -5238.492
  27  -4676.112
  28  -3216.607
  29  -2571.512
  30  -2092.08
  31  -2668.731
  32  -2940.114
  33  -547.4428
  34  196.1324
  35  386.1505
  36  -1039.76
  37  -1582.744
  38  -1499.434
  39  -693.6794
  40  -2267.92
  41  -2231.28
  42  -1869.083
  43  -905.1267
  44  -808.2863
  45  -1326.056
  46  -4511.837
  47  -5596.829
  48  -4940.87
  49  -3642.358
  50  -2379.156
  51  -2789.472
  52  -2464.526
  53  -5684.146
  54  -5354.353
  55  -3599.401
  56  -329.8464
  57  3038.16
  58  3110.506
  59  2047.677
  60  26.13916
  61  3416.232
  62  4136.039
  63  5609.405
  64  3005.306
  65  2279.47
  66  2109.448
  67  2162.291
  68  2569.107
  69  3513.858
  70  2769.796
  71  -476.8347
  72  -1703.545
  73  -3883.274
  74  -3106.711
  75  -2578.498
  76  -2583.999
  77  -3884.816
  78  -5488.952
  79  -6327.952
  80  -5462.11
  81  -4486.014
  82  -3915.694
  83  -2500.17
  84  -2810.425
  85  -3080.586
  86  -3610.33
  87  -4387.306
  88  -4520.785
  89  -2418.824
  90  -505.8961
  91  -554.533
  92  -1347.176
  93  -1791.807
  94  -2048.55
  95  -1996.091
  96  -1724.879
  97  -997.2719
  98  -533.0174
  99  1001.436
 100  195.9227
 101  -284.8848
 102  -1169.584
 103  -1084.318
 104  -1238.905
 105  -643.7919
 106  -1380.517
 107  -2312.116
 108  -1763.01
 109  -2002.135
 110  -2381.992
 111  -4260.009
 112  -4332.746
 113  -5456.096
 114  -4734.703
 115  -3942.125
 116  -2908.661
 117  -1196.731
 118  -305.9411
 119  -810.5262
 120  -2336.409
 121  -1828.52
 122  540.0396
 123  3478.097
 124  5035.673
 125  4517.355
 126  1522.73
 127  211.8745
 128  898.9589
 129  466.0685
 130  764.1895
 131  1239.066
 132  694.8348
 133  541.7148
 134  -298.2944
 135  -167.6694
 136  -1727.038
 137  -1351.023
 138  -1750.077
 139  -364.1344
 140  -600.7563
 141  32.6162
 142  -618.7847
 143  -1759.903
 144  -1632.107
 145  -1814.294
 146  157.7238
 147  -221.0653
 148  1597.598
 149  1307.782
 150  968.7886
 151  1043.674
 152  2181.646
 153  3295.485
 154  2739.266
 155  3469.498
 156  3631.164
 157  5053.262
 158  3718.774
 159  2061.748
 160  2644.653
 161  4893.552
 162  6014.021
 163  3968.911
 164  1665.127
 165  -1511.245
 166  -2983.583
 167  -3877.929
 168  -3460.247
 169  -3492.23
 170  -2198.992
 171  -1565.047
 172  -2251.139
 173  -3606.288
 174  -4214.793
 175  -3848.16
 176  -1936.673
 177  104.0306
 178  675.0073
 179  -506.6061
 180  -2532.6
 181  -3527.615
 182  -2137.668
 183  -1771.269
 184  -912.258
 185  -1263.072
 186  -922.265
 187  18.14326
 188  1828.624
 189  2764.055
 190  3805.95
 191  3415.401
 192  4377.21
 193  3139.495
 194  3043.251
 195  4360.469
 196  4733.4
 197  5099.161
 198  3104.415
 199  3065.118
 200  3897.099
 201  4441.042
 202  3838.252
 203  2417.909
 204  1527.391
 205  222.7494
 206  407.4356
 207  239.7667
 208  141.9286
 209  39.49466
 210  -1054.903
 211  -1317.325
 212  -2175.293
 213  -5647.01
 214  -6904.339
 215  -7432.437
 216  -5140.796
 217  -2841.365
 218  639.134
 219  1180.453
 220  -1699.581
 221  -3126.33
 222  -2649.139
 223  255.6978
 224  1962.699
 225  3495.658
 226  1044.588
 227  -588.8527
 228  -438.8236
 229  1554.134
 230  4831.586
 231  6940.674
 232  5246.958
 233  2773.414
 234  338.1965
 235  1377.268
 236  971.2623
 237  5158.511
 238  7258.934
 239  6630.167
 240  3307.802
 241  -959.9318
 242  -3385.669
 243  -2409.122
 244  -923.7498
 245  -550.1933
 246  -965.9098
 247  -1826.341
 248  -992.5146
 249  -1717.055
 250  -1906.426
 251  -3015.873
 252  -3933.216
 253  -3754.28
 254  -4250.842
 255  -4753.414
 256  -5462.905
 257  -3061.584
 258  -2539.292
 259  -2540.671
 260  -3100.823
 261  -888.4252
 262  -776.4855
 263  738.0804
 264  1553.228
 265  2080.654
 266  1341.138
 267  3080.243
 268  3818.762
 269  3726.142
 270  3331.202
 271  2686.66
 272  2393.513
 273  1083.471
 274  1084.924
 275  2562.153
 276  4346.935
 277  5933.135
 278  6060.103
 279  5292.634
 280  4706.39
 281  4371.147
 282  4706.472
 283  3961.006
 284  2641.152
 285  3559.749
 286  3158.566
 287  4000.911
 288  1982.678
 289  2295.884
 290  2557.404
 291  2945.937
 292  2467.423
 293  117.6787
 294  -266.4085
 295  -110.9198
 296  1787.173
 297  1208.287
 298  2232.988
 299  1365.434
 300  1363.953
 301  206.6765
 302  1825.754
 303  2037.396
 304  3440.533
 305  4439.166
 306  3671.631
 307  4213.328
 308  1216.675
 309  482.5601
 310  -2191.46
 311  -1279.946
 312  -2792.185
 313  -1793.805
 314  -1947.849
 315  -1524.781
 316  -2661.206
 317  -3906.655
 318  -4516.398
 319  -4027.637
 320  -1798.796
 321  -1586.222
 322  -1163.743
 323  -158.6572
 324  302.0866
 325  1969.621
 326  2736.266
 327  3330.073
 328  3735.085
 329  4066.423
 330  3458.066
 331  2866.833
 332  1232.503
 333  1043.87
 334  1583.116
 335  2244.11
 336  1000.566
 337  -786.9779
 338  -1192.137
 339  -2519.343
 340  -2774.545
 341  -3296.597
 342  -3105.32
 343  -3074.337
 344  -2331.493
 345  -938.0884
 346  144.738
 347  1711.576
 348  3679.955
 349  3180.778
 350  2939.305
 351  1414.21
 352  1188.673
 353  645.7777
 354  892.3178
 355  1524.947
 356  1051.794
 357  294.2651
 358  -2286.49
 359  -3635.391
 360  -3923.811
 361  -545.2764
 362  3994.979
 363  5696.614
 364  4331.254
 365  1102.783
 366  -430.9995
 367  79.95406
 368  4197.112
 369  6801.049
 370  7178.397
 371  6310.318
 372  5582.337
 373  5227.767
 374  3827.049
 375  3277.928
 376  3289.154
 377  3438.185
 378  4626.083
 379  3955.346
 380  999.5468
 381  -2009.284
 382  -3819.376
 383  -3940.139
 384  -5483.183
 385  -3907.5
 386  -1773.95
 387  -3072.959
 388  -3108.5
 389  -1372.025
 390  -593.9224
 391  858.1324
 392  1004.116
 393  3861.914
 394  2710.812
 395  4312.729
 396  3473.062
 397  4529.499
 398  3046.787
 399  1443.045
 400  -168.5661
 401  -2279.901
 402  -4029.056
 403  -4904.254
 404  -4267.089
 405  -3597.169
 406  -4602.736
 407  -5286.459
 408  -5212.347
 409  -3715.824
 410  -2538.463
 411  -2536.086
 412  -2531.499
 413  -4209.417
 414  -5146.141
 415  -4254.596
 416  -2800.148
 417  -2393.785
 418  -2249.057
 419  -627.2079
 420  -648.246
 421  -855.3412
 422  -1299.601
 423  772.2391
 424  1814.092
 425  2107.549
 426  3010.385
 427  2854.758
 428  3465.18
 429  6261.418
 430  8685.546
 431  7748.347
 432  5900.524
 433  2237.04
 434  507.8732
 435  759.4579
 436  2157.934
 437  2539.276
 438  1457.369
 439  1252.968
 440  -584.0671
 441  -375.9128
 442  -2143.486
 443  -2538.415
 444  -1497.408
 445  -3001.367
 446  -4478.46
 447  -4554.181
 448  -3031.916
 449  -2678.223
 450  -919.1635
 451  -715.3101
 452  -514.1768
 453  1229.828
 454  4489.999
 455  5745.158
 456  5802.221
 457  4441.122
 458  6934.7
 459  7424.976
 460  8505.715
 461  6494.448
 462  6017.865
 463  5542.695
 464  4760.279
 465  5830.368
 466  3828.426
 467  1636.064
 468  443.3485
 469  408.3195
 470  -639.4182
 471  -1120.181
 472  -1482.681
 473  -992.2365
 474  -2124.538
 475  -3377.373
 476  -4503.5
 477  -4313.986
 478  -3069.867
 479  -1213
 480  -314.3687
 481  -877.721
 482  19.7551
 483  369.8199
 484  -1538.242
 485  -2178.85
 486  -2162.409
 487  -697.837
 488  452.428
 489  1068.443
 490  -666.1194
 491  -2385.959
 492  -2382.714
 493  -1533.042
 494  -463.3759
 495  1108.466
 496  3127.108
 497  2563.113
 498  1959.27
 499  19.09952
 500  -712.6631
 501  -544.1635
 502  -1790.634
 503  -1290.308
 504  -280.5811
 505  787.8452
 506  276.3982
 507  267.3243
 508  -2649.297
 509  -2362.4
 510  905.5825
 511  4618.874
