# Input file       =  1189901180.110496_cleaned.dat
# Candidate        =  PSR_0332+5434
# Telescope        =  AR
# Epoch_topo       =  58016.004619334446
# Epoch_bary       =  N/A
# T_sample         =  0.002
# Data Folded      =  7340032
# Data Avg         =  0.0214104923278292
# Data StdDev      =  2.43663420761904 
# Profile Bins     =  512
# Profile Avg      =  307.129114836153 
# Profile StdDev   =  291.745612217723 
# Reduced chi-sqr  =  1.527
# Prob(Noise)      <  1.4e-13   (~7.3 sigma)
# P_topo (ms)      =  714.46752925878   +/- 0.000173
# P'_topo (s/s)    =  -0                +/- 9.11e-11
# P''_topo (s/s^2) =  0                 +/- 4.02e-14
# P_bary (ms)      =  N/A
# P'_bary (s/s)    =  N/A
# P''_bary (s/s^2) =  N/A
# P_orb (s)        =  N/A
# asin(i)/c (s)    =  N/A
# eccentricity     =  N/A
# w (rad)          =  N/A
# T_peri           =  N/A
######################################################
   0  -145.7637
   1  -238.6158
   2  263.4909
   3  353.2249
   4  87.76061
   5  290.1846
   6  531.4989
   7  599.9044
   8  580.0687
   9  369.9984
  10  477.2907
  11  501.179
  12  155.763
  13  139.9689
  14  153.075
  15  316.5552
  16  193.0708
  17  73.72667
  18  178.33
  19  -18.67602
  20  163.4029
  21  613.3524
  22  622.0566
  23  298.1583
  24  -173.4505
  25  53.38459
  26  451.5655
  27  343.5956
  28  406.1833
  29  602.4636
  30  97.0656
  31  264.1231
  32  207.9926
  33  550.5821
  34  294.5334
  35  244.9274
  36  261.7855
  37  337.5873
  38  187.8209
  39  562.623
  40  755.9357
  41  404.1378
  42  394.4847
  43  461.7434
  44  157.4912
  45  110.5796
  46  315.3698
  47  225.6301
  48  424.9334
  49  226.1961
  50  31.44395
  51  -51.83075
  52  2.689598
  53  382.1605
  54  183.8565
  55  232.8118
  56  195.2305
  57  135.9489
  58  132.1608
  59  264.9204
  60  321.5254
  61  191.9815
  62  208.2198
  63  21.9812
  64  248.516
  65  28.67268
  66  253.777
  67  501.2549
  68  236.1517
  69  376.9209
  70  479.5681
  71  327.7072
  72  478.9612
  73  504.7768
  74  249.1324
  75  48.26417
  76  -53.67686
  77  58.89685
  78  120.537
  79  -185.4163
  80  -76.9379
  81  76.36362
  82  100.2458
  83  250.5151
  84  311.995
  85  24.04826
  86  77.48801
  87  333.9268
  88  271.8875
  89  81.85432
  90  13.19887
  91  421.034
  92  296.0274
  93  32.24035
  94  109.6714
  95  -0.311684
  96  378.6717
  97  299.7562
  98  -88.2503
  99  -3.445953
 100  407.6803
 101  245.0877
 102  300.1112
 103  277.0762
 104  250.8932
 105  455.7336
 106  640.9829
 107  576.6038
 108  516.3878
 109  324.6384
 110  219.4104
 111  290.1002
 112  503.0131
 113  658.2816
 114  240.9738
 115  157.3579
 116  26.00931
 117  -39.67472
 118  326.6619
 119  450.0345
 120  303.2598
 121  102.034
 122  159.8885
 123  207.7137
 124  439.7587
 125  407.9826
 126  310.7796
 127  112.7531
 128  400.812
 129  603.7796
 130  278.5137
 131  215.0235
 132  242.2114
 133  280.655
 134  30.49683
 135  155.0355
 136  538.8553
 137  438.4759
 138  248.9952
 139  52.92523
 140  482.2457
 141  236.2992
 142  256.3737
 143  273.8002
 144  497.6173
 145  699.9686
 146  518.2889
 147  123.4796
 148  116.5896
 149  416.5111
 150  333.371
 151  56.85812
 152  -74.44526
 153  191.6132
 154  -12.6041
 155  -211.9564
 156  201.8188
 157  10.93576
 158  -22.83804
 159  38.49677
 160  237.4714
 161  501.2898
 162  201.2437
 163  244.9823
 164  440.7819
 165  157.7278
 166  -47.8148
 167  -15.34871
 168  303.4621
 169  322.2877
 170  306.4933
 171  266.3996
 172  12.84931
 173  -221.4974
 174  121.9836
 175  123.341
 176  296.5851
 177  176.7242
 178  164.115
 179  184.4227
 180  274.4065
 181  513.2661
 182  476.6372
 183  234.2905
 184  391.5038
 185  42.18
 186  126.6776
 187  318.6309
 188  317.0011
 189  -97.04273
 190  -156.95
 191  35.65411
 192  235.5585
 193  456.2008
 194  278.584
 195  271.345
 196  265.4804
 197  -50.35509
 198  -180.1849
 199  88.58604
 200  105.5116
 201  137.4542
 202  28.40991
 203  75.37147
 204  155.7482
 205  289.0385
 206  253.9174
 207  387.8737
 208  173.1512
 209  233.2304
 210  276.5946
 211  194.6155
 212  388.8074
 213  144.756
 214  34.55377
 215  -0.2422178
 216  -167.3927
 217  50.31935
 218  132.1458
 219  271.2783
 220  379.4806
 221  452.5439
 222  444.6264
 223  371.9298
 224  -60.64606
 225  59.06605
 226  -110.7596
 227  -150.5641
 228  198.701
 229  466.2131
 230  184.2225
 231  384.9379
 232  179.5146
 233  421.7101
 234  313.9213
 235  565.3911
 236  649.309
 237  591.07
 238  580.1069
 239  621.7028
 240  536.9387
 241  428.6887
 242  150.5281
 243  -141.9392
 244  -96.9827
 245  537.0977
 246  604.8044
 247  454.5455
 248  160.4508
 249  169.5387
 250  440.058
 251  178.846
 252  12.92865
 253  92.12833
 254  213.8412
 255  284.2595
 256  8.589554
 257  132.1977
 258  387.8448
 259  649.21
 260  574.4258
 261  3.102458
 262  13.85893
 263  133.3988
 264  411.7419
 265  301.0581
 266  -293.7132
 267  54.02381
 268  178.041
 269  140.7503
 270  -116.5925
 271  -212.9289
 272  -30.93717
 273  115.634
 274  477.4702
 275  344.9105
 276  388.2148
 277  100.1489
 278  217.3961
 279  -191.1865
 280  246.1518
 281  282.3207
 282  249.4316
 283  607.4487
 284  590.6708
 285  302.6937
 286  580.3394
 287  568.464
 288  355.1092
 289  8.028877
 290  243.1766
 291  635.6594
 292  113.7408
 293  41.22146
 294  744.5813
 295  659.6336
 296  575.511
 297  246.029
 298  339.6133
 299  283.4288
 300  484.617
 301  121.265
 302  10.41656
 303  357.1979
 304  235.073
 305  293.8741
 306  423.7349
 307  361.5231
 308  288.8535
 309  437.6117
 310  364.1264
 311  188.6107
 312  134.5332
 313  188.3547
 314  119.2169
 315  413.3828
 316  706.6025
 317  574.0115
 318  17.70343
 319  320.9846
 320  366.3338
 321  334.7424
 322  553.5102
 323  504.3333
 324  442.605
 325  297.8269
 326  366.8493
 327  350.7404
 328  208.0292
 329  398.7703
 330  247.9015
 331  167.0162
 332  368.8677
 333  312.1888
 334  -70.62605
 335  -27.97964
 336  634.3452
 337  520.7025
 338  540.6655
 339  458.2804
 340  206.3705
 341  -111.4399
 342  281.6573
 343  391.5868
 344  -72.26665
 345  115.9469
 346  528.8508
 347  435.1413
 348  198.3107
 349  277.4006
 350  150.9098
 351  342.6571
 352  681.8845
 353  639.5521
 354  446.7092
 355  456.4957
 356  258.9082
 357  349.4857
 358  540.6599
 359  484.7819
 360  812.8026
 361  490.0884
 362  284.3497
 363  78.5386
 364  441.2256
 365  483.27
 366  326.4888
 367  713.0138
 368  300.5535
 369  118.0749
 370  484.9949
 371  579.4286
 372  545.7301
 373  689.6811
 374  1013.03
 375  1529.451
 376  1708.269
 377  2103.838
 378  2205.255
 379  1412.345
 380  822.8194
 381  713.2352
 382  155.7082
 383  404.6443
 384  328.6935
 385  305.4672
 386  563.9431
 387  407.787
 388  250.9855
 389  418.9021
 390  318.9324
 391  199.8692
 392  354.405
 393  479.838
 394  243.5986
 395  397.2297
 396  463.5573
 397  163.8398
 398  -69.34332
 399  384.1289
 400  404.5324
 401  216.2508
 402  408.1977
 403  517.4835
 404  459.7128
 405  542.9409
 406  422.0746
 407  326.6483
 408  158.471
 409  379.104
 410  876.0791
 411  360.6555
 412  186.6496
 413  285.2521
 414  313.2358
 415  243.6072
 416  282.0677
 417  423.1179
 418  241.2551
 419  108.3751
 420  106.502
 421  278.1169
 422  115.0359
 423  269.3104
 424  402.1399
 425  497.3339
 426  283.0186
 427  302.1811
 428  699.0836
 429  678.7657
 430  380.8843
 431  274.8357
 432  351.76
 433  355.3542
 434  618.5424
 435  513.3762
 436  72.96082
 437  -83.17815
 438  288.8239
 439  295.181
 440  -287.2098
 441  -116.1427
 442  496.8101
 443  473.8175
 444  425.4192
 445  474.7713
 446  383.2571
 447  362.8868
 448  833.009
 449  461.2623
 450  133.6049
 451  516.1313
 452  459.2336
 453  210.3831
 454  295.9685
 455  545.5465
 456  425.1353
 457  291.3672
 458  349.013
 459  293.2688
 460  289.3774
 461  528.2562
 462  582.088
 463  390.3548
 464  824.7419
 465  744.6212
 466  550.3373
 467  562.5439
 468  394.7369
 469  305.6246
 470  668.2536
 471  531.0089
 472  620.1711
 473  261.2972
 474  389.0876
 475  409.4548
 476  380.7272
 477  254.1928
 478  308.3353
 479  300.875
 480  87.88209
 481  282.5311
 482  342.8487
 483  493.0706
 484  756.7308
 485  565.9355
 486  433.8796
 487  364.2958
 488  385.9443
 489  182.8991
 490  334.7708
 491  432.6993
 492  517.4903
 493  589.3743
 494  330.9234
 495  105.4247
 496  212.5929
 497  372.5708
 498  246.4002
 499  257.3224
 500  520.7025
 501  838.0593
 502  326.7839
 503  324.4641
 504  460.7076
 505  -171.1345
 506  89.70551
 507  232.1469
 508  214.3367
 509  202.9542
 510  161.3182
 511  458.6652
