# Input file       =  1189470387.118155_cleaned.dat
# Candidate        =  PSR_0332+5434
# Telescope        =  AR
# Epoch_topo       =  58011.018589330495
# Epoch_bary       =  N/A
# T_sample         =  0.002
# Data Folded      =  7340032
# Data Avg         =  0.0102400913362674
# Data StdDev      =  2.52105848114369 
# Profile Bins     =  256
# Profile Avg      =  293.656582429712 
# Profile StdDev   =  426.88600203241  
# Reduced chi-sqr  =  1.658
# Prob(Noise)      <  1.9e-10   (~6.3 sigma)
# P_topo (ms)      =  714.465884503338  +/- 0.000311
# P'_topo (s/s)    =  -0                +/- 1.64e-10
# P''_topo (s/s^2) =  0                 +/- 7.26e-14
# P_bary (ms)      =  N/A
# P'_bary (s/s)    =  N/A
# P''_bary (s/s^2) =  N/A
# P_orb (s)        =  N/A
# asin(i)/c (s)    =  N/A
# eccentricity     =  N/A
# w (rad)          =  N/A
# T_peri           =  N/A
######################################################
   0  122.2959
   1  504.7825
   2  184.9587
   3  779.3736
   4  133.4287
   5  2.294176
   6  283.855
   7  198.983
   8  64.94445
   9  219.6751
  10  116.8786
  11  -53.73304
  12  467.8918
  13  293.681
  14  -200.9325
  15  151.8632
  16  126.893
  17  564.4017
  18  -33.76805
  19  590.8075
  20  440.5563
  21  -360.0244
  22  421.7947
  23  -232.4046
  24  149.0357
  25  198.9745
  26  471.1056
  27  -205.6604
  28  -190.1813
  29  81.43153
  30  411.5217
  31  294.4507
  32  1014.972
  33  353.2428
  34  574.1089
  35  -69.8306
  36  380.1269
  37  720.0698
  38  491.5341
  39  763.8323
  40  963.683
  41  208.3468
  42  253.3859
  43  178.9692
  44  -273.0119
  45  -122.4168
  46  47.25759
  47  350.1494
  48  786.6924
  49  361.4833
  50  397.7778
  51  178.5002
  52  931.6404
  53  551.7535
  54  232.6324
  55  36.33559
  56  518.2713
  57  561.3303
  58  370.1428
  59  724.0767
  60  711.0827
  61  -266.4487
  62  35.0393
  63  -199.6998
  64  67.09605
  65  -396.2586
  66  478.8535
  67  -19.85212
  68  207.8007
  69  -343.892
  70  -178.2266
  71  177.0588
  72  56.02654
  73  -557.5419
  74  523.3585
  75  -95.2075
  76  369.4208
  77  279.0061
  78  172.6907
  79  10.52382
  80  718.8712
  81  168.1309
  82  502.8209
  83  574.3912
  84  114.9547
  85  439.9277
  86  765.2688
  87  -43.75029
  88  112.3812
  89  178.8883
  90  522.783
  91  272.3619
  92  444.9397
  93  -49.48986
  94  -159.1935
  95  472.1237
  96  243.4333
  97  669.1741
  98  186.0453
  99  -252.1361
 100  193.3196
 101  581.2145
 102  317.654
 103  -111.252
 104  180.3978
 105  11.43512
 106  -63.67231
 107  262.6572
 108  305.4285
 109  1171.441
 110  773.1755
 111  121.3471
 112  54.2973
 113  702.379
 114  21.24117
 115  233.3679
 116  178.6464
 117  115.8711
 118  202.1839
 119  369.3378
 120  867.8339
 121  99.55235
 122  604.6924
 123  328.2192
 124  -87.29958
 125  -62.1125
 126  430.2563
 127  -86.91869
 128  -326.7782
 129  107.1594
 130  -353.1823
 131  513.7571
 132  -237.3683
 133  487.905
 134  -364.6883
 135  212.452
 136  -324.781
 137  -41.07561
 138  123.8595
 139  650.6357
 140  321.1637
 141  -374.9633
 142  347.878
 143  -188.1194
 144  379.4248
 145  358.8062
 146  268.5798
 147  274.5423
 148  211.2278
 149  334.9811
 150  683.4237
 151  243.1357
 152  456.2364
 153  290.7371
 154  764.7851
 155  14.00858
 156  394.5063
 157  630.2935
 158  667.4021
 159  2390.051
 160  3961.199
 161  3046.788
 162  1410.69
 163  937.5823
 164  315.2239
 165  523.9816
 166  847.3327
 167  877.4062
 168  237.9096
 169  481.0438
 170  -206.2387
 171  20.48944
 172  92.40575
 173  -432.8822
 174  87.83897
 175  -461.5249
 176  291.0951
 177  450.796
 178  369.1603
 179  136.8778
 180  355.4453
 181  788.6852
 182  -67.91219
 183  285.9561
 184  728.1476
 185  14.12673
 186  -129.3976
 187  202.3841
 188  855.3216
 189  435.3262
 190  8.415733
 191  152.2131
 192  280.7438
 193  67.3446
 194  297.8198
 195  140.8172
 196  665.4105
 197  966.0773
 198  714.9548
 199  513.9099
 200  1131.419
 201  362.3899
 202  702.1509
 203  1249.908
 204  693.601
 205  390.4119
 206  654.2618
 207  173.1514
 208  236.5127
 209  113.798
 210  354.9598
 211  356.9195
 212  708.312
 213  -38.69475
 214  77.29391
 215  193.673
 216  -99.23114
 217  197.1842
 218  49.13493
 219  818.1956
 220  593.8929
 221  94.54665
 222  63.32825
 223  -196.5244
 224  686.7313
 225  218.6381
 226  -661.612
 227  -287.8139
 228  -87.61764
 229  461.4568
 230  114.5218
 231  -268.3188
 232  -266.918
 233  222.3756
 234  600.0593
 235  -443.1585
 236  198.1605
 237  458.8671
 238  83.9801
 239  303.1537
 240  728.3967
 241  377.1177
 242  51.37971
 243  -561.4897
 244  1011.369
 245  577.3228
 246  257.0923
 247  -277.6102
 248  305.6715
 249  -36.25956
 250  587.9223
 251  -480.0452
 252  116.0834
 253  82.74598
 254  590.2311
 255  342.4158
