# Input file       =  1189728850.110648-PSRB0329-2ms-sampling-dd.dat
# Candidate        =  PSR_0332+5434
# Telescope        =  AR
# Epoch_topo       =  58014.010059151020
# Epoch_bary       =  N/A
# T_sample         =  0.002
# Data Folded      =  7340032
# Data Avg         =  -1.08101977406956e-10
# Data StdDev      =  3.20311907530644 
# Profile Bins     =  512
# Profile Avg      =  -0.0237635174957919
# Profile StdDev   =  383.519172762779 
# Reduced chi-sqr  =  0.883
# Prob(Noise)      <  0.973   (~0.0 sigma)
# P_topo (ms)      =  714.466818977931  +/- 0.00029
# P'_topo (s/s)    =  -0                +/- 1.53e-10
# P''_topo (s/s^2) =  0                 +/- 6.76e-14
# P_bary (ms)      =  N/A
# P'_bary (s/s)    =  N/A
# P''_bary (s/s^2) =  N/A
# P_orb (s)        =  N/A
# asin(i)/c (s)    =  N/A
# eccentricity     =  N/A
# w (rad)          =  N/A
# T_peri           =  N/A
######################################################
   0  -462.6365
   1  -298.705
   2  -73.7613
   3  -174.0193
   4  -148.6286
   5  63.25267
   6  177.1081
   7  32.99671
   8  -314.2715
   9  -234.5289
  10  -144.3114
  11  -6.495916
  12  -211.4844
  13  -195.2196
  14  230.9778
  15  0.1773682
  16  -372.9508
  17  -587.0986
  18  -658.926
  19  -686.8488
  20  -489.8562
  21  -196.2538
  22  -36.41042
  23  -246.2033
  24  -26.08537
  25  -73.50637
  26  159.3164
  27  164.8206
  28  294.0495
  29  282.1418
  30  247.1772
  31  59.64486
  32  -392.6068
  33  97.07935
  34  -126.391
  35  -280.824
  36  -195.4923
  37  -433.1541
  38  -122.3353
  39  120.7823
  40  -31.29428
  41  61.95828
  42  -216.538
  43  -182.6984
  44  -50.21611
  45  -7.547182
  46  301.9988
  47  246.8362
  48  -59.42968
  49  276.7726
  50  -67.23457
  51  -123.5668
  52  -182.0883
  53  -145.1428
  54  114.6173
  55  422.5808
  56  450.9572
  57  105.7297
  58  249.6034
  59  88.56929
  60  52.12727
  61  -2.621515
  62  361.0128
  63  179.0232
  64  145.1407
  65  146.3405
  66  -25.29087
  67  -150.2274
  68  -138.9515
  69  258.3092
  70  393.7378
  71  -104.0631
  72  -457.9046
  73  -18.58696
  74  -165.5553
  75  -246.163
  76  15.91911
  77  -335.1536
  78  -406.8372
  79  -138.6521
  80  -174.9643
  81  -132.9843
  82  -4.31427
  83  414.3433
  84  223.2834
  85  82.48681
  86  -271.4432
  87  -238.7436
  88  -327.8683
  89  -422.2855
  90  -192.145
  91  -166.2084
  92  -58.32043
  93  -16.13081
  94  286.8471
  95  9.328566
  96  -454.847
  97  -17.16996
  98  -23.32836
  99  -239.423
 100  -405.4532
 101  -413.7776
 102  -297.0516
 103  -140.6153
 104  -154.0727
 105  -139.6652
 106  -361.8616
 107  -495.3651
 108  38.00497
 109  202.604
 110  -94.902
 111  151.8002
 112  -159.9437
 113  30.00379
 114  -78.29427
 115  432.4865
 116  197.8642
 117  -219.1065
 118  -311.2519
 119  76.66652
 120  -69.01636
 121  -626.0323
 122  -470.8126
 123  -150.2267
 124  3.94403
 125  -242.4094
 126  5.935825
 127  419.7437
 128  173.1209
 129  -295.9803
 130  -397.1668
 131  -229.5849
 132  -101.4921
 133  -387.3854
 134  -104.1542
 135  288.9262
 136  521.5085
 137  71.58951
 138  -72.36129
 139  -112.3755
 140  -162.1019
 141  -129.2374
 142  57.80167
 143  150.2661
 144  296.8237
 145  11.15815
 146  -302.5918
 147  -60.91166
 148  -41.89149
 149  -250.8705
 150  190.0055
 151  239.0457
 152  237.8371
 153  47.13189
 154  379.0249
 155  -37.23579
 156  -33.78392
 157  72.71548
 158  -329.5174
 159  410.3802
 160  127.0927
 161  -176.9389
 162  -116.5552
 163  -302.0472
 164  -222.4067
 165  -136.0999
 166  105.01
 167  -5.91636
 168  163.0492
 169  188.3616
 170  -191.392
 171  26.11643
 172  -282.9437
 173  -500.6957
 174  -384.1671
 175  97.73457
 176  205.3648
 177  -310.406
 178  111.8526
 179  609.3482
 180  398.9591
 181  376.866
 182  605.5875
 183  1056.353
 184  1520.916
 185  1282.038
 186  1336.646
 187  971.5781
 188  411.8763
 189  134.8867
 190  228.4869
 191  -25.71093
 192  -332.7566
 193  109.1541
 194  -71.3036
 195  -58.735
 196  72.95956
 197  77.22865
 198  -43.30462
 199  -24.71306
 200  210.1927
 201  -236.8973
 202  93.15576
 203  131.4511
 204  -124.4683
 205  -423.7353
 206  -63.17705
 207  193.4714
 208  -70.66399
 209  13.10989
 210  -483.565
 211  -558.2224
 212  -317.2961
 213  -261.3549
 214  -148.6149
 215  -195.2158
 216  23.94218
 217  -44.52323
 218  -203.0924
 219  -263.7451
 220  -150.8078
 221  -222.3391
 222  -200.835
 223  94.97524
 224  303.4799
 225  31.34954
 226  -106.8318
 227  -244.8506
 228  -81.15762
 229  -1.514887
 230  188.3558
 231  322.3103
 232  171.884
 233  -71.51302
 234  -22.56737
 235  -61.73816
 236  205.2595
 237  154.1002
 238  332.0873
 239  -84.82277
 240  -159.3159
 241  132.3747
 242  -27.16693
 243  94.27251
 244  161.1483
 245  -80.19884
 246  -98.62405
 247  130.6876
 248  164.3497
 249  -396.6353
 250  -303.1579
 251  64.21712
 252  -259.3222
 253  79.67757
 254  -327.984
 255  -491.704
 256  -204.7973
 257  -70.94026
 258  -263.2693
 259  -317.6802
 260  -322.9029
 261  -150.4357
 262  -330.1245
 263  59.09954
 264  25.64666
 265  270.3982
 266  328.7469
 267  -206.0557
 268  -87.93128
 269  214.9617
 270  -95.82019
 271  201.8456
 272  66.82076
 273  291.663
 274  148.9985
 275  -131.183
 276  -286.7759
 277  -118.1805
 278  21.88223
 279  118.2836
 280  -297.9144
 281  -93.34397
 282  -123.9829
 283  -390.8378
 284  -218.5172
 285  107.6581
 286  136.1055
 287  189.7159
 288  24.06092
 289  195.0666
 290  147.3176
 291  -136.9819
 292  -433.7124
 293  -267.3823
 294  -236.4219
 295  -24.25447
 296  560.1886
 297  307.5597
 298  362.0046
 299  -244.9906
 300  -37.95972
 301  170.2931
 302  -177.5261
 303  -531.9984
 304  -186.1162
 305  -141.4097
 306  35.47433
 307  106.0811
 308  -43.82911
 309  182.7111
 310  5.95324
 311  -314.4575
 312  -174.7216
 313  -142.3279
 314  36.12856
 315  -24.84024
 316  238.4996
 317  325.0853
 318  -116.0091
 319  -415.8428
 320  -189.4677
 321  -196.2527
 322  146.5557
 323  9.30689
 324  -96.81347
 325  111.2186
 326  32.07093
 327  6.380927
 328  -28.78199
 329  246.9794
 330  209.4361
 331  41.15245
 332  -278.6992
 333  -109.4557
 334  257.6714
 335  14.0619
 336  358.9633
 337  250.237
 338  199.2994
 339  -127.0037
 340  57.93986
 341  394.0962
 342  425.9757
 343  49.74337
 344  -190.9281
 345  108.3907
 346  297.7433
 347  15.65428
 348  -309.6712
 349  -334.214
 350  36.32895
 351  59.85359
 352  55.01894
 353  -87.42693
 354  171.9542
 355  583.8834
 356  363.2249
 357  205.5538
 358  340.3964
 359  273.8958
 360  445.5435
 361  222.2361
 362  -68.8365
 363  -463.8572
 364  -289.0818
 365  202.4345
 366  236.6827
 367  337.3055
 368  143.9277
 369  113.7094
 370  99.90384
 371  279.4032
 372  160.622
 373  -120.3836
 374  134.8735
 375  67.94271
 376  87.84285
 377  194.7774
 378  128.8061
 379  62.92812
 380  279.1324
 381  -47.94392
 382  -132.4686
 383  242.8678
 384  530.8667
 385  106.777
 386  -19.04116
 387  -193.2114
 388  -380.7991
 389  -203.2517
 390  329.9243
 391  -121.7076
 392  -164.3778
 393  22.15366
 394  -126.0864
 395  -204.2688
 396  -84.47067
 397  -236.4551
 398  -146.1014
 399  29.6356
 400  82.33838
 401  104.5618
 402  -161.9827
 403  -399.6069
 404  -213.1042
 405  46.62452
 406  331.8064
 407  -41.75038
 408  104.1113
 409  267.4424
 410  59.54092
 411  -115.2916
 412  120.6605
 413  18.61897
 414  -194.4911
 415  221.6712
 416  -64.46867
 417  10.86276
 418  19.36523
 419  251.0958
 420  -74.84645
 421  -7.265151
 422  308.0899
 423  412.9805
 424  -179.3984
 425  -175.7075
 426  208.1894
 427  349.6855
 428  251.0715
 429  -51.22923
 430  -326.6763
 431  -101.7206
 432  -66.58682
 433  -196.5973
 434  -197.8358
 435  71.55155
 436  -81.88879
 437  -48.02122
 438  -10.56415
 439  147.2681
 440  -140.4288
 441  -13.99574
 442  -22.09217
 443  169.6802
 444  255.2346
 445  146.5437
 446  650.7337
 447  109.1195
 448  -193.118
 449  -381.2158
 450  -133.9418
 451  437.662
 452  171.2304
 453  575.0513
 454  173.8271
 455  94.82275
 456  90.51943
 457  -79.84821
 458  7.854793
 459  57.98536
 460  -53.37798
 461  155.1321
 462  361.1028
 463  35.917
 464  -290.2774
 465  -247.8303
 466  273.7074
 467  247.1211
 468  -388.7429
 469  20.92386
 470  287.457
 471  141.71
 472  283.8044
 473  310.7796
 474  33.39658
 475  75.75733
 476  82.60353
 477  -16.90665
 478  -13.14286
 479  121.3553
 480  107.5242
 481  -8.867849
 482  183.7157
 483  122.7067
 484  107.8216
 485  -10.31447
 486  -81.44586
 487  135.5048
 488  -52.72585
 489  30.35407
 490  -19.6327
 491  -5.008074
 492  -187.1997
 493  31.08797
 494  6.554045
 495  -67.91797
 496  -299.2593
 497  -139.5649
 498  -88.16003
 499  -336.4604
 500  -151.8259
 501  38.08202
 502  143.4739
 503  -12.94619
 504  72.66293
 505  195.4765
 506  59.22656
 507  -375.1931
 508  -353.6746
 509  273.4573
 510  307.6241
 511  -60.419
