# Input file       =  1189039511.117748-PSRB0329-2ms-sampling-dd.dat
# Candidate        =  PSR_0332+5434
# Telescope        =  AR
# Epoch_topo       =  58006.031598585047
# Epoch_bary       =  N/A
# T_sample         =  0.002
# Data Folded      =  7340032
# Data Avg         =  -3.20759368474586e-11
# Data StdDev      =  2.8810650600833  
# Profile Bins     =  512
# Profile Avg      =  -0.523015075385286
# Profile StdDev   =  344.958667642784 
# Reduced chi-sqr  =  0.981
# Prob(Noise)      <  0.614   (~0.0 sigma)
# P_topo (ms)      =  714.464664387823  +/- 0.000503
# P'_topo (s/s)    =  -0                +/- 2.66e-10
# P''_topo (s/s^2) =  0                 +/- 1.17e-13
# P_bary (ms)      =  N/A
# P'_bary (s/s)    =  N/A
# P''_bary (s/s^2) =  N/A
# P_orb (s)        =  N/A
# asin(i)/c (s)    =  N/A
# eccentricity     =  N/A
# w (rad)          =  N/A
# T_peri           =  N/A
######################################################
   0  148.5349
   1  181.2129
   2  325.5727
   3  324.1454
   4  60.91611
   5  -164.7723
   6  -14.81843
   7  -1.621499
   8  -154.4339
   9  200.7062
  10  108.1336
  11  116.8038
  12  93.41878
  13  -159.1653
  14  -20.94659
  15  -295.6853
  16  -342.1106
  17  120.2535
  18  24.41815
  19  -194.5025
  20  31.02396
  21  26.71074
  22  -160.8165
  23  -458.1042
  24  -341.6776
  25  311.781
  26  245.1223
  27  -101.0739
  28  -80.39225
  29  -177.9316
  30  15.67269
  31  -82.82212
  32  166.363
  33  -95.99685
  34  -424.7403
  35  -268.0195
  36  -15.51924
  37  -239.9961
  38  -139.976
  39  14.23416
  40  194.2045
  41  -79.54206
  42  -296.8767
  43  -125.0647
  44  -227.6512
  45  28.03621
  46  -12.27179
  47  -275.3309
  48  206.2626
  49  -80.49026
  50  -188.3529
  51  -302.8797
  52  -174.7415
  53  -206.237
  54  -106.7456
  55  -37.04375
  56  129.9994
  57  1.244691
  58  -241.6356
  59  194.6003
  60  486.3961
  61  329.9531
  62  46.69093
  63  -383.7933
  64  -360.7835
  65  3.345504
  66  297.5348
  67  222.0981
  68  -172.6886
  69  158.0527
  70  178.5077
  71  57.82043
  72  138.715
  73  246.7766
  74  235.0708
  75  -37.08501
  76  221.0027
  77  236.3808
  78  257.0132
  79  24.93633
  80  -38.3462
  81  -57.90777
  82  -293.0688
  83  -53.84787
  84  25.79177
  85  186.8832
  86  188.8044
  87  35.82668
  88  -389.1872
  89  -212.6188
  90  -48.45626
  91  -97.48594
  92  117.8845
  93  -313.5034
  94  -201.565
  95  339.8886
  96  104.5173
  97  -286.4594
  98  -252.2955
  99  -382.9412
 100  -108.5567
 101  42.61811
 102  -109.9145
 103  41.02557
 104  -14.61321
 105  -217.509
 106  -183.9657
 107  -126.5357
 108  -159.8034
 109  -39.3702
 110  189.2324
 111  10.20036
 112  -474.9354
 113  67.91511
 114  245.6017
 115  35.48955
 116  -163.1194
 117  -107.2051
 118  224.6968
 119  -33.59381
 120  136.8396
 121  -59.38431
 122  260.9447
 123  -166.4487
 124  -367.5119
 125  -46.20337
 126  -4.066917
 127  -505.2326
 128  -180.7907
 129  275.3069
 130  278.96
 131  152.365
 132  58.04746
 133  55.92886
 134  24.17709
 135  -279.5935
 136  -333.0176
 137  -250.8402
 138  198.1807
 139  200.5147
 140  144.8704
 141  231.4854
 142  191.8271
 143  373.1231
 144  216.7143
 145  11.09497
 146  -157.9472
 147  -138.3193
 148  226.6876
 149  70.26749
 150  -156.3031
 151  -76.12888
 152  -19.35129
 153  57.11864
 154  150.7877
 155  219.715
 156  -6.872614
 157  -1.160273
 158  -73.24635
 159  206.0619
 160  87.98272
 161  293.974
 162  33.17233
 163  -123.959
 164  -38.85014
 165  -180.202
 166  -14.1788
 167  104.074
 168  197.9359
 169  -96.89531
 170  -243.0367
 171  -127.8844
 172  -199.0515
 173  -136.19
 174  205.1822
 175  217.6359
 176  64.75075
 177  144.3085
 178  209.6006
 179  36.34857
 180  106.1565
 181  123.958
 182  174.2694
 183  -60.50141
 184  -575.4042
 185  -561.9776
 186  -281.7081
 187  -345.4548
 188  -277.2441
 189  -191.1243
 190  -14.12855
 191  -152.7258
 192  119.5174
 193  -122.307
 194  -301.4501
 195  -483.3146
 196  -158.0031
 197  147.6551
 198  124.9917
 199  -65.86137
 200  7.421725
 201  -245.6561
 202  -570.2704
 203  -178.5924
 204  31.22466
 205  -163.1575
 206  -146.923
 207  -25.99479
 208  59.53749
 209  -118.9637
 210  -73.27416
 211  -109.3425
 212  -254.8066
 213  -246.9153
 214  -199.3274
 215  -39.23664
 216  196.0497
 217  20.54983
 218  203.7846
 219  367.545
 220  11.46225
 221  -7.265346
 222  -28.24737
 223  -130.9713
 224  -38.43863
 225  -68.94469
 226  -284.4042
 227  -123.5392
 228  41.65094
 229  60.75551
 230  72.85311
 231  159.4246
 232  146.9069
 233  -137.0445
 234  162.1389
 235  367.3715
 236  56.02901
 237  -2.306376
 238  524.3977
 239  390.661
 240  311.9294
 241  161.5965
 242  154.2922
 243  240.9058
 244  72.55716
 245  -50.71105
 246  31.81293
 247  529.5433
 248  527.3851
 249  962.4759
 250  1440.743
 251  1571.135
 252  1349.246
 253  949.6055
 254  451.1599
 255  -148.2615
 256  59.86882
 257  269.2889
 258  7.33591
 259  -235.2803
 260  -284.483
 261  -38.66467
 262  248.3872
 263  250.6866
 264  60.81693
 265  118.6371
 266  -34.88159
 267  -162.466
 268  -115.9044
 269  47.49276
 270  19.67619
 271  -386.6815
 272  -303.4296
 273  -375.9454
 274  -442.5975
 275  -525.5622
 276  -270.2913
 277  183.2935
 278  97.74756
 279  -33.56089
 280  -148.7789
 281  -337.4919
 282  -483.9535
 283  -51.16628
 284  121.41
 285  -84.45654
 286  -128.6863
 287  -14.42635
 288  -82.88947
 289  -141.3329
 290  -518.3259
 291  -374.4588
 292  -190.5839
 293  -70.26199
 294  -61.88308
 295  -23.1018
 296  147.9998
 297  44.8868
 298  -72.56522
 299  11.80452
 300  -58.68296
 301  -391.8257
 302  -210.5339
 303  -24.65152
 304  -325.5076
 305  74.11462
 306  278.017
 307  320.3221
 308  167.7739
 309  10.13415
 310  -376.0367
 311  -362.382
 312  -119.9502
 313  -119.4926
 314  100.0449
 315  66.46384
 316  274.5073
 317  -64.15854
 318  -362.5618
 319  32.95337
 320  65.10934
 321  105.0055
 322  173.5952
 323  -36.33286
 324  -149.8716
 325  -143.3706
 326  -412.1204
 327  -85.27528
 328  -43.25954
 329  -76.7691
 330  -66.77338
 331  -183.7926
 332  80.01615
 333  393.9539
 334  324.2682
 335  310.5145
 336  138.2772
 337  397.8264
 338  357.3581
 339  318.7693
 340  141.6765
 341  139.7707
 342  323.3627
 343  297.4816
 344  216.1261
 345  30.66698
 346  -62.3489
 347  -267.6255
 348  -103.4905
 349  68.34322
 350  102.311
 351  228.6553
 352  87.18086
 353  185.8307
 354  176.9919
 355  -15.04939
 356  -33.01811
 357  50.17447
 358  337.8734
 359  204.2086
 360  190.4593
 361  240.277
 362  484.9167
 363  210.6868
 364  195.1991
 365  202.4849
 366  121.7151
 367  -120.4668
 368  133.0709
 369  68.83247
 370  121.388
 371  160.3474
 372  316.5174
 373  237.4277
 374  329.2216
 375  18.24514
 376  -15.79413
 377  108.3573
 378  308.3395
 379  343.0332
 380  429.0954
 381  35.5754
 382  57.46761
 383  21.89923
 384  235.5979
 385  -53.78194
 386  101.2048
 387  229.556
 388  160.2895
 389  661.0081
 390  452.2482
 391  -67.93533
 392  62.04874
 393  120.4454
 394  -31.01181
 395  -173.5145
 396  12.73992
 397  -196.0154
 398  -407.2304
 399  -116.2899
 400  115.5456
 401  134.3153
 402  18.7243
 403  -147.5779
 404  -207.3021
 405  -118.4478
 406  -161.5423
 407  -277.6192
 408  -1.95649
 409  -86.2021
 410  -55.03512
 411  -272.4677
 412  -406.1812
 413  -374.0445
 414  -234.8573
 415  -183.7508
 416  -342.9837
 417  -345.9908
 418  -91.09613
 419  69.10374
 420  76.60653
 421  149.7218
 422  168.2558
 423  54.45926
 424  37.90035
 425  -195.2633
 426  -388.0473
 427  -383.9275
 428  -400.4349
 429  7.936786
 430  15.28796
 431  127.2757
 432  -200.1806
 433  167.1225
 434  408.6722
 435  293.3026
 436  -76.24467
 437  -228.6477
 438  9.06884
 439  -104.47
 440  86.19144
 441  56.49973
 442  -110.5595
 443  14.37576
 444  -257.1949
 445  -72.39702
 446  25.5115
 447  -58.44554
 448  -161.7399
 449  256.5767
 450  -24.08594
 451  -100.1922
 452  121.9835
 453  287.9988
 454  -80.83506
 455  -294.2648
 456  -197.0789
 457  -36.54655
 458  111.9121
 459  131.3439
 460  247.5568
 461  187.5425
 462  66.12871
 463  -85.65981
 464  -161.1104
 465  178.7026
 466  244.1069
 467  163.6452
 468  249.0124
 469  263.7475
 470  56.93363
 471  -143.6845
 472  -205.9055
 473  -317.9478
 474  109.6392
 475  224.8739
 476  -41.20128
 477  -215.8736
 478  -71.10299
 479  -122.5494
 480  -527.1143
 481  -123.8771
 482  -39.70853
 483  -130.5058
 484  -67.08893
 485  11.48074
 486  208.3511
 487  165.1613
 488  -357.7859
 489  -421.9814
 490  93.03133
 491  -69.33527
 492  -7.55883
 493  129.9465
 494  77.08256
 495  138.6564
 496  -101.2016
 497  -203.3182
 498  -169.3843
 499  -295.91
 500  -441.6889
 501  -252.1562
 502  -118.8433
 503  -209.8678
 504  -373.4117
 505  -304.069
 506  135.8703
 507  -229.224
 508  -485.093
 509  -54.22356
 510  -173.3555
 511  211.6111
