# Input file       =  1189024883.115833_cleaned.dat
# Candidate        =  PSR_0332+5434
# Telescope        =  AR
# Epoch_topo       =  58005.862293007325
# Epoch_bary       =  N/A
# T_sample         =  0.002
# Data Folded      =  7208960
# Data Avg         =  0.0185627646871249
# Data StdDev      =  3.20612649049027 
# Profile Bins     =  512
# Profile Avg      =  261.359052667596 
# Profile StdDev   =  380.43632685138  
# Reduced chi-sqr  =  0.683
# Prob(Noise)      <  1   (~0.0 sigma)
# P_topo (ms)      =  714.464616483575  +/- 0.00134
# P'_topo (s/s)    =  -0                +/- 7.22e-10
# P''_topo (s/s^2) =  0                 +/- 3.24e-13
# P_bary (ms)      =  N/A
# P'_bary (s/s)    =  N/A
# P''_bary (s/s^2) =  N/A
# P_orb (s)        =  N/A
# asin(i)/c (s)    =  N/A
# eccentricity     =  N/A
# w (rad)          =  N/A
# T_peri           =  N/A
######################################################
   0  343.0301
   1  190.3654
   2  314.4918
   3  110.7428
   4  55.83738
   5  182.3231
   6  -174.6345
   7  -242.0516
   8  1.118533
   9  325.6952
  10  295.3476
  11  156.1973
  12  324.7231
  13  141.0165
  14  -109.4398
  15  10.88886
  16  493.9984
  17  512.9138
  18  427.1953
  19  86.75689
  20  214.4496
  21  343.4545
  22  -55.01345
  23  5.89285
  24  109.3896
  25  61.66272
  26  -43.19571
  27  458.2474
  28  296.6313
  29  346.3969
  30  327.7822
  31  299.3871
  32  360.0339
  33  159.6087
  34  374.2867
  35  388.3644
  36  376.1988
  37  290.3292
  38  -86.38106
  39  114.4579
  40  186.4448
  41  120.8922
  42  243.7156
  43  347.0785
  44  349.4865
  45  326.6035
  46  -161.3955
  47  -102.8233
  48  137.119
  49  257.6571
  50  301.5255
  51  270.8432
  52  602.9738
  53  811.4352
  54  884.1283
  55  681.8577
  56  476.3732
  57  262.5177
  58  302.804
  59  540.5309
  60  260.1887
  61  402.9019
  62  301.0202
  63  250.3563
  64  490.0358
  65  528.2656
  66  624.8649
  67  595.6783
  68  349.6132
  69  74.43472
  70  169.7972
  71  272.8259
  72  526.9843
  73  279.6046
  74  170.4915
  75  401.4401
  76  469.1417
  77  559.4385
  78  374.2
  79  272.8206
  80  431.8523
  81  509.494
  82  563.6955
  83  683.6996
  84  625.6521
  85  602.3157
  86  378.4281
  87  270.3924
  88  405.1864
  89  637.8544
  90  298.9629
  91  501.081
  92  240.1635
  93  323.5782
  94  255.636
  95  275.8819
  96  175.5057
  97  454.595
  98  759.8125
  99  762.4276
 100  741.541
 101  557.8964
 102  146.1303
 103  391.8481
 104  172.7152
 105  114.3511
 106  529.5516
 107  460.295
 108  428.658
 109  316.9409
 110  159.6583
 111  473.2484
 112  565.8911
 113  132.7196
 114  -105.1767
 115  291.8519
 116  504.1036
 117  495.514
 118  320.2598
 119  477.4974
 120  755.8453
 121  585.7339
 122  222.8157
 123  169.381
 124  226.6064
 125  154.5478
 126  183.7944
 127  410.3305
 128  484.3146
 129  225.079
 130  168.3615
 131  83.66558
 132  64.32104
 133  494.7764
 134  384.5925
 135  14.39555
 136  221.7289
 137  829.4928
 138  355.5392
 139  121.1629
 140  107.7521
 141  553.3202
 142  477.2048
 143  129.0604
 144  337.8051
 145  262.6008
 146  338.4891
 147  206.5935
 148  213.3959
 149  225.7353
 150  357.1664
 151  327.759
 152  616.8247
 153  543.9471
 154  101.1156
 155  115.7816
 156  100.6619
 157  165.0368
 158  300.4
 159  530.5558
 160  107.6772
 161  446.5246
 162  422.4408
 163  208.1329
 164  441.6685
 165  60.56828
 166  44.49776
 167  177.0472
 168  322.9279
 169  -41.29935
 170  312.3766
 171  415.6466
 172  122.953
 173  239.5782
 174  455.5394
 175  659.3544
 176  130.9188
 177  72.52239
 178  -59.11391
 179  132.671
 180  221.2611
 181  547.3359
 182  386.7768
 183  164.0325
 184  163.9703
 185  132.4406
 186  198.1558
 187  465.997
 188  598.8623
 189  355.759
 190  310.9915
 191  61.02074
 192  288.6263
 193  490.2248
 194  641.8168
 195  401.9243
 196  336.0511
 197  301.3362
 198  177.0387
 199  242.5585
 200  288.2509
 201  223.1553
 202  395.2819
 203  508.0459
 204  297.7845
 205  445.5172
 206  441.0877
 207  345.9774
 208  170.4389
 209  -65.32632
 210  113.1097
 211  337.8283
 212  171.5549
 213  -99.4884
 214  211.9578
 215  494.8465
 216  88.34536
 217  -69.93414
 218  88.16488
 219  24.73846
 220  208.5606
 221  227.5669
 222  148.7843
 223  264.1781
 224  321.5175
 225  28.79716
 226  81.03909
 227  276.0178
 228  517.987
 229  518.0731
 230  449.1612
 231  383.5843
 232  280.9951
 233  302.9095
 234  296.9757
 235  116.3842
 236  512.3572
 237  932.731
 238  470.9463
 239  62.44732
 240  97.75877
 241  218.5098
 242  -73.42129
 243  70.84649
 244  -78.41689
 245  88.95919
 246  55.10033
 247  -113.9026
 248  395.0958
 249  327.2006
 250  8.040003
 251  -33.96662
 252  167.8342
 253  -222.1164
 254  -299.9872
 255  199.8272
 256  300.7101
 257  181.5865
 258  88.30025
 259  316.5367
 260  -209.5713
 261  194.8412
 262  110.8029
 263  284.5941
 264  515.838
 265  344.2005
 266  339.8791
 267  241.0114
 268  46.29066
 269  -75.70573
 270  146.553
 271  160.9715
 272  487.0235
 273  166.1742
 274  37.78731
 275  266.6724
 276  -75.71505
 277  140.4603
 278  74.58169
 279  329.1251
 280  267.5439
 281  222.9449
 282  569.894
 283  374.2938
 284  174.6236
 285  390.8069
 286  642.8445
 287  996.9544
 288  1476.536
 289  1313.205
 290  1235.036
 291  1170.804
 292  563.5385
 293  183.8006
 294  438.0847
 295  157.3975
 296  147.1122
 297  520.3531
 298  476.9973
 299  369.3509
 300  178.0161
 301  449.9822
 302  524.9229
 303  320.5828
 304  106.6162
 305  176.3634
 306  178.2999
 307  82.97347
 308  62.97033
 309  402.4679
 310  341.0061
 311  319.2091
 312  299.824
 313  260.0017
 314  232.5979
 315  167.6886
 316  178.7028
 317  282.2735
 318  195.7021
 319  194.4051
 320  -55.73576
 321  136.567
 322  246.1835
 323  52.79326
 324  360.9669
 325  404.5005
 326  316.2953
 327  -36.99606
 328  184.1364
 329  226.7926
 330  522.1382
 331  263.6966
 332  460.5627
 333  505.6873
 334  45.64154
 335  96.45776
 336  4.73628
 337  -140.6252
 338  234.5091
 339  309.4603
 340  344.547
 341  209.1739
 342  471.2201
 343  294.637
 344  225.2981
 345  -58.00261
 346  140.3951
 347  472.5225
 348  574.8118
 349  428.8666
 350  247.4955
 351  136.9996
 352  208.0428
 353  241.3923
 354  393.3565
 355  96.46573
 356  128.3372
 357  156.9277
 358  58.56173
 359  76.76901
 360  177.0604
 361  270.8389
 362  -29.02974
 363  175.8994
 364  140.8983
 365  143.6723
 366  257.1233
 367  464.0719
 368  550.9153
 369  164.6773
 370  175.4505
 371  277.5738
 372  451.2697
 373  160.2805
 374  -77.91853
 375  -17.52564
 376  224.9985
 377  125.2638
 378  132.5735
 379  300.2972
 380  416.4191
 381  389.0388
 382  281.5357
 383  289.8276
 384  204.2671
 385  -9.620374
 386  -139.0611
 387  -168.0338
 388  9.25279
 389  -182.7543
 390  -199.6461
 391  179.9301
 392  -139.904
 393  -144.6788
 394  -439.4148
 395  -101.6265
 396  410.1436
 397  373.9585
 398  12.554
 399  -67.52825
 400  46.40116
 401  222.8872
 402  264.2887
 403  268.7026
 404  -16.25317
 405  202.6529
 406  473.2646
 407  207.3716
 408  -118.3666
 409  144.2666
 410  135.7282
 411  42.08713
 412  473.2686
 413  594.1583
 414  227.0821
 415  380.1407
 416  424.657
 417  398.3456
 418  221.2625
 419  188.6975
 420  128.9746
 421  224.4717
 422  197.6193
 423  136.6902
 424  402.5959
 425  -22.91616
 426  -111.1667
 427  199.0424
 428  413.5005
 429  247.7969
 430  52.80627
 431  386.1138
 432  136.6887
 433  157.7563
 434  -134.901
 435  119.2825
 436  258.1786
 437  546.6317
 438  429.1424
 439  258.4076
 440  25.81508
 441  223.7814
 442  384.4293
 443  186.7732
 444  542.1985
 445  429.5136
 446  240.0844
 447  179.0955
 448  110.9929
 449  157.6691
 450  241.7424
 451  157.4694
 452  86.95818
 453  53.66026
 454  -130.6841
 455  -223.7589
 456  -49.80921
 457  421.4934
 458  363.5375
 459  554.0418
 460  563.0917
 461  -51.62551
 462  80.17308
 463  239.1048
 464  173.9489
 465  106.1505
 466  49.84881
 467  32.07091
 468  224.4367
 469  327.4353
 470  209.2328
 471  204.7855
 472  185.3916
 473  -98.63964
 474  63.56185
 475  132.4792
 476  53.52703
 477  154.3353
 478  352.215
 479  137.0891
 480  -59.70387
 481  -8.810281
 482  184.4139
 483  652.8567
 484  534.0382
 485  564.5236
 486  673.993
 487  460.772
 488  380.3393
 489  295.9124
 490  311.9303
 491  250.215
 492  283.1715
 493  124.9914
 494  140.0335
 495  128.3789
 496  30.95254
 497  75.4925
 498  131.5154
 499  -10.45465
 500  208.2773
 501  253.0678
 502  111.5981
 503  113.6646
 504  725.886
 505  638.888
 506  561.3312
 507  488.6723
 508  325.1801
 509  482.7531
 510  169.981
 511  322.39
