# Input file       =  1189642711.126697_cleaned.dat
# Candidate        =  PSR_0332+5434
# Telescope        =  AR
# Epoch_topo       =  58013.013080170102
# Epoch_bary       =  N/A
# T_sample         =  0.002
# Data Folded      =  7340032
# Data Avg         =  0.0216198379171796
# Data StdDev      =  2.48429380737745 
# Profile Bins     =  512
# Profile Avg      =  310.309839608499 
# Profile StdDev   =  297.452040809299 
# Reduced chi-sqr  =  1.481
# Prob(Noise)      <  8.26e-12   (~6.7 sigma)
# P_topo (ms)      =  714.466490439581  +/- 0.000195
# P'_topo (s/s)    =  -0                +/- 1.03e-10
# P''_topo (s/s^2) =  0                 +/- 4.53e-14
# P_bary (ms)      =  N/A
# P'_bary (s/s)    =  N/A
# P''_bary (s/s^2) =  N/A
# P_orb (s)        =  N/A
# asin(i)/c (s)    =  N/A
# eccentricity     =  N/A
# w (rad)          =  N/A
# T_peri           =  N/A
######################################################
   0  432.1467
   1  257.3595
   2  340.7725
   3  650.8017
   4  316.5189
   5  -255.1026
   6  -6.102646
   7  64.75136
   8  -46.46196
   9  272.1619
  10  158.3067
  11  304.9846
  12  356.9786
  13  260.9355
  14  219.6182
  15  370.538
  16  440.7109
  17  316.8295
  18  71.4074
  19  130.7787
  20  539.4621
  21  422.782
  22  61.76129
  23  121.3624
  24  175.1938
  25  -72.87034
  26  203.1617
  27  236.5832
  28  206.5426
  29  6.635568
  30  564.8422
  31  568.3254
  32  514.4053
  33  354.1055
  34  462.6718
  35  646.26
  36  565.3469
  37  501.8125
  38  218.3725
  39  421.591
  40  636.273
  41  744.3381
  42  424.4174
  43  -124.4945
  44  118.8893
  45  285.645
  46  233.2343
  47  216.3179
  48  403.086
  49  499.8281
  50  371.2622
  51  194.3893
  52  215.6764
  53  291.5285
  54  541.327
  55  467.6537
  56  418.3141
  57  443.2736
  58  314.3312
  59  239.98
  60  355.8438
  61  144.5856
  62  176.7009
  63  223.4783
  64  108.523
  65  290.6664
  66  387.7955
  67  -59.71435
  68  -35.40325
  69  190.2137
  70  369.7914
  71  449.1354
  72  260.8533
  73  373.9103
  74  276.1617
  75  197.2439
  76  85.68344
  77  -106.9992
  78  112.6261
  79  338.464
  80  411.851
  81  334.723
  82  320.3569
  83  107.5871
  84  234.3847
  85  184.6777
  86  260.8559
  87  381.271
  88  494.8417
  89  456.0825
  90  307.1969
  91  137.8281
  92  287.6682
  93  372.6122
  94  644.4417
  95  435.4825
  96  84.16248
  97  195.5575
  98  156.8875
  99  268.1605
 100  175.2475
 101  333.692
 102  103.9004
 103  61.92382
 104  163.1162
 105  336.4103
 106  555.6367
 107  504.9405
 108  1.130089
 109  -145.3493
 110  286.1928
 111  556.4658
 112  400.4957
 113  454.9969
 114  702.0615
 115  410.6626
 116  131.1481
 117  378.9924
 118  292.8308
 119  428.5727
 120  427.2027
 121  629.9688
 122  502.1353
 123  441.2652
 124  379.6293
 125  349.1834
 126  301.1919
 127  545.1412
 128  121.2567
 129  59.02977
 130  335.1876
 131  359.7885
 132  241.3432
 133  166.2506
 134  94.68533
 135  267.01
 136  246.8018
 137  33.00165
 138  399.2917
 139  561.0502
 140  526.2338
 141  306.5486
 142  88.74548
 143  162.0963
 144  310.1271
 145  316.6364
 146  304.8978
 147  114.9598
 148  193.2009
 149  164.1086
 150  -150.3479
 151  178.4878
 152  638.457
 153  784.7079
 154  518.3254
 155  628.222
 156  527.9156
 157  214.5581
 158  240.7505
 159  361.4398
 160  377.6122
 161  275.4839
 162  280.7657
 163  332.4089
 164  549.5074
 165  491.8096
 166  574.9265
 167  170.2228
 168  -181.3378
 169  427.0707
 170  338.7591
 171  382.8342
 172  286.8234
 173  197.8824
 174  509.6892
 175  408.7182
 176  428.6554
 177  522.6812
 178  550.7291
 179  571.7847
 180  695.5765
 181  548.0967
 182  763.0767
 183  781.086
 184  523.2935
 185  284.8501
 186  476.7184
 187  112.5936
 188  -77.59254
 189  179.5682
 190  64.25909
 191  -25.95655
 192  207.6548
 193  607.2883
 194  463.9976
 195  131.5979
 196  434.0736
 197  538.7861
 198  483.4067
 199  -148.142
 200  64.00962
 201  108.9358
 202  79.29433
 203  217.0389
 204  372.1206
 205  99.72369
 206  97.48832
 207  123.646
 208  188.6813
 209  386.4738
 210  266.9162
 211  268.9475
 212  49.47205
 213  622.1225
 214  279.129
 215  -12.3888
 216  133.5262
 217  467.9652
 218  592.8502
 219  257.3103
 220  154.6503
 221  180.748
 222  196.3656
 223  281.3891
 224  166.4734
 225  259.0954
 226  213.31
 227  182.0562
 228  366.4383
 229  376.549
 230  79.18798
 231  104.2675
 232  -31.96832
 233  -142.6997
 234  82.52359
 235  37.37485
 236  296.0516
 237  25.60386
 238  -209.8416
 239  -160.6482
 240  -406.1031
 241  35.57166
 242  -59.40064
 243  43.64864
 244  502.5704
 245  281.4204
 246  324.755
 247  329.6356
 248  86.41568
 249  237.938
 250  280.7547
 251  -7.741467
 252  349.5345
 253  331.9845
 254  329.4275
 255  422.8394
 256  469.5065
 257  228.0911
 258  193.8103
 259  183.7647
 260  500.0995
 261  318.7841
 262  578.145
 263  298.8707
 264  100.9523
 265  413.4123
 266  622.5259
 267  750.816
 268  447.8531
 269  96.53381
 270  294.2975
 271  32.079
 272  289.6205
 273  504.0457
 274  -18.97736
 275  -78.86358
 276  85.45835
 277  206.4317
 278  197.4979
 279  124.7844
 280  63.4698
 281  304.5293
 282  368.0653
 283  215.3644
 284  74.25768
 285  526.3481
 286  335.6774
 287  183.6066
 288  745.7389
 289  571.1317
 290  162.785
 291  -28.0729
 292  308.2433
 293  242.1048
 294  387.9161
 295  637.8483
 296  576.0313
 297  456.132
 298  780.4332
 299  628.3748
 300  621.6104
 301  847.718
 302  850.7889
 303  699.4184
 304  586.9639
 305  534.871
 306  231.4657
 307  201.9396
 308  552.3074
 309  397.8927
 310  63.64023
 311  39.15773
 312  97.65951
 313  286.2316
 314  585.3174
 315  522.2586
 316  694.0209
 317  746.9989
 318  727.8024
 319  1493.245
 320  1950.402
 321  1835.779
 322  1925.134
 323  1725.835
 324  1151.277
 325  347.1185
 326  180.4274
 327  339.3302
 328  266.3589
 329  165.8338
 330  397.6882
 331  646.9717
 332  519.7225
 333  331.0558
 334  260.6735
 335  602.7689
 336  569.6512
 337  298.3123
 338  112.2214
 339  37.69997
 340  -90.73082
 341  -23.56067
 342  76.35925
 343  275.1773
 344  274.7823
 345  176.2693
 346  -15.03676
 347  -74.38666
 348  306.1977
 349  249.871
 350  113.2966
 351  -106.7904
 352  -3.363961
 353  113.44
 354  164.655
 355  296.3804
 356  349.8626
 357  426.2095
 358  547.2651
 359  636.7881
 360  559.2459
 361  697.7585
 362  827.7761
 363  365.9826
 364  -25.52405
 365  184.3799
 366  128.4131
 367  183.3047
 368  465.5363
 369  542.6985
 370  572.8425
 371  480.4749
 372  184.6257
 373  -140.1231
 374  314.0919
 375  685.036
 376  522.5866
 377  314.7086
 378  275.0157
 379  597.8077
 380  330.2628
 381  224.7299
 382  462.5265
 383  403.3897
 384  395.7405
 385  -157.7192
 386  -170.736
 387  129.4539
 388  128.6445
 389  197.8449
 390  448.612
 391  457.4034
 392  289.3489
 393  239.7446
 394  19.35021
 395  222.8336
 396  424.7986
 397  409.7131
 398  129.8088
 399  91.90617
 400  217.6535
 401  253.0473
 402  337.2747
 403  92.85525
 404  -338.9641
 405  -61.31011
 406  100.5248
 407  131.4284
 408  366.0259
 409  414.2844
 410  337.5174
 411  -106.4411
 412  143.9004
 413  188.0696
 414  219.7206
 415  216.9187
 416  236.3696
 417  165.9741
 418  337.0689
 419  316.6322
 420  49.5701
 421  63.38395
 422  36.33767
 423  358.705
 424  444.72
 425  476.1558
 426  821.3095
 427  693.3705
 428  739.7303
 429  462.7522
 430  459.2517
 431  446.8689
 432  84.90972
 433  -76.36198
 434  13.78534
 435  453.5422
 436  421.7992
 437  147.4436
 438  170.4867
 439  158.8231
 440  279.5926
 441  418.1479
 442  289.9099
 443  18.61549
 444  142.7146
 445  340.8617
 446  433.9
 447  40.15608
 448  306.179
 449  487.8127
 450  237.3217
 451  65.43111
 452  600.7547
 453  688.7437
 454  452.0458
 455  268.1647
 456  342.8241
 457  363.9198
 458  347.8489
 459  511.5714
 460  563.6127
 461  333.9149
 462  288.2125
 463  552.9
 464  328.4989
 465  232.2522
 466  343.9298
 467  83.22537
 468  257.9935
 469  21.81385
 470  385.9346
 471  566.0571
 472  427.3716
 473  340.7657
 474  446.7741
 475  576.3035
 476  503.9542
 477  168.4066
 478  381.7977
 479  342.9796
 480  203.372
 481  555.4974
 482  375.8348
 483  -29.72463
 484  12.38366
 485  371.2574
 486  152.1045
 487  115.6873
 488  77.15193
 489  248.9044
 490  125.1273
 491  151.8213
 492  -6.843978
 493  102.8752
 494  408.6548
 495  401.494
 496  199.4221
 497  606.6429
 498  514.6859
 499  408.9832
 500  90.48528
 501  -94.13461
 502  493.4377
 503  501.5765
 504  -88.15726
 505  213.5163
 506  460.8408
 507  520.3969
 508  80.43012
 509  53.21067
 510  169.0994
 511  476.1888
