# Input file       =  1189541950.11086_cleaned.dat
# Candidate        =  PSR_0332+5434
# Telescope        =  AR
# Epoch_topo       =  58011.846864709027
# Epoch_bary       =  N/A
# T_sample         =  0.002
# Data Folded      =  7143424
# Data Avg         =  0.0126238803696888
# Data StdDev      =  1.00006087428553 
# Profile Bins     =  512
# Profile Avg      =  176.108726389443 
# Profile StdDev   =  118.125774866306 
# Reduced chi-sqr  =  1.515
# Prob(Noise)      <  4.17e-13   (~7.2 sigma)
# P_topo (ms)      =  714.466112011309  +/- 0.000161
# P'_topo (s/s)    =  -0                +/- 8.72e-11
# P''_topo (s/s^2) =  0                 +/- 3.96e-14
# P_bary (ms)      =  N/A
# P'_bary (s/s)    =  N/A
# P''_bary (s/s^2) =  N/A
# P_orb (s)        =  N/A
# asin(i)/c (s)    =  N/A
# eccentricity     =  N/A
# w (rad)          =  N/A
# T_peri           =  N/A
######################################################
   0  116.4021
   1  142.3316
   2  66.88895
   3  190.8808
   4  229.9172
   5  173.6893
   6  318.3429
   7  339.4846
   8  171.9805
   9  10.43572
  10  101.9172
  11  200.7375
  12  246.9375
  13  298.5442
  14  250.5099
  15  133.6134
  16  98.7309
  17  74.61526
  18  25.14203
  19  182.1262
  20  244.557
  21  209.2485
  22  202.8982
  23  161.0542
  24  76.02805
  25  241.7796
  26  339.069
  27  254.1562
  28  237.6144
  29  300.7928
  30  561.3702
  31  824.5675
  32  974.3997
  33  1003.861
  34  656.2119
  35  335.7186
  36  279.3326
  37  216.3939
  38  228.7732
  39  205.2645
  40  146.6538
  41  116.3301
  42  151.1015
  43  16.60042
  44  94.62827
  45  85.68282
  46  93.21949
  47  214.9806
  48  154.123
  49  191.6901
  50  160.9853
  51  125.2827
  52  68.02685
  53  58.76381
  54  95.62373
  55  138.8827
  56  102.8253
  57  74.39859
  58  187.9587
  59  102.4427
  60  184.8035
  61  342.9266
  62  290.8672
  63  222.4747
  64  147.5027
  65  70.83831
  66  3.854417
  67  79.57441
  68  207.6076
  69  300.4483
  70  153.2812
  71  94.22978
  72  25.70783
  73  17.7767
  74  128.7878
  75  218.5059
  76  153.6389
  77  116.6067
  78  241.4732
  79  144.1624
  80  195.1368
  81  226.1018
  82  174.857
  83  91.43119
  84  198.2047
  85  211.1314
  86  80.55083
  87  193.6532
  88  164.0126
  89  330.7212
  90  257.7263
  91  295.1544
  92  196.7038
  93  177.5315
  94  227.7426
  95  203.3583
  96  293.6155
  97  254.8486
  98  250.4332
  99  228.8888
 100  119.5027
 101  143.0776
 102  83.78285
 103  98.28783
 104  160.2688
 105  84.22701
 106  24.80024
 107  74.44553
 108  180.6331
 109  155.0168
 110  87.06813
 111  259.0865
 112  250.185
 113  286.0936
 114  288.653
 115  253.6784
 116  164.78
 117  145.661
 118  196.0092
 119  39.66243
 120  11.99701
 121  9.977692
 122  68.16705
 123  81.38934
 124  70.03638
 125  161.3598
 126  116.6162
 127  101.3773
 128  154.3071
 129  145.5465
 130  43.88071
 131  -35.68511
 132  70.92307
 133  171.924
 134  251.355
 135  336.8477
 136  321.0447
 137  345.142
 138  371.6057
 139  266.4133
 140  143.2035
 141  124.4186
 142  149.5068
 143  202.4671
 144  182.7583
 145  279.6069
 146  216.4102
 147  208.4995
 148  176.0051
 149  218.0468
 150  213.3438
 151  191.5977
 152  93.35828
 153  205.8456
 154  196.9733
 155  180.1166
 156  307.1198
 157  234.349
 158  205.6865
 159  302.3058
 160  257.6521
 161  304.5557
 162  129.0896
 163  238.0453
 164  286.6685
 165  384.4741
 166  375.1008
 167  260.7738
 168  171.8964
 169  150.7208
 170  242.587
 171  153.3077
 172  188.6747
 173  184.5934
 174  78.45547
 175  129.413
 176  227.5191
 177  152.1689
 178  173.8629
 179  198.9451
 180  178.1363
 181  91.76849
 182  46.44859
 183  291.5125
 184  315.9254
 185  253.1396
 186  322.1678
 187  159.6408
 188  20.75091
 189  43.03542
 190  -88.74113
 191  32.70485
 192  101.3051
 193  177.3707
 194  181.3114
 195  161.2771
 196  158.4286
 197  223.8798
 198  99.76099
 199  88.57656
 200  202.2098
 201  224.0717
 202  226.0985
 203  94.38364
 204  155.8868
 205  203.7896
 206  25.44085
 207  135.2884
 208  150.4646
 209  163.2052
 210  199.1276
 211  130.1216
 212  162.7565
 213  216.307
 214  63.93527
 215  88.89815
 216  100.6431
 217  199.3463
 218  180.9545
 219  160.7035
 220  228.1135
 221  230.4783
 222  136.728
 223  107.6961
 224  169.5321
 225  302.4184
 226  249.8932
 227  246.8736
 228  182.7166
 229  206.9564
 230  130.3537
 231  -5.222305
 232  8.235354
 233  151.8622
 234  143.5363
 235  213.0351
 236  258.6851
 237  205.4294
 238  211.7277
 239  242.6983
 240  169.6211
 241  266.2127
 242  194.7375
 243  163.0979
 244  84.84966
 245  62.80724
 246  64.6926
 247  64.6998
 248  -50.22475
 249  -16.93643
 250  106.0795
 251  215.1624
 252  211.7539
 253  175.5879
 254  203.0797
 255  155.3067
 256  92.12201
 257  156.7766
 258  56.76824
 259  85.24631
 260  203.2235
 261  299.0444
 262  291.9795
 263  189.6858
 264  156.3105
 265  58.11212
 266  130.1495
 267  231.5815
 268  274.6
 269  187.4157
 270  117.45
 271  141.4407
 272  114.6677
 273  196.7404
 274  123.0921
 275  -16.25099
 276  33.52221
 277  190.9154
 278  327.9702
 279  180.5837
 280  133.2417
 281  104.1961
 282  119.707
 283  142.6704
 284  120.0764
 285  181.1761
 286  122.902
 287  182.2251
 288  129.8391
 289  191.6199
 290  282.2809
 291  256.8249
 292  229.0031
 293  78.89866
 294  176.9355
 295  291.2696
 296  129.3002
 297  44.22132
 298  89.47081
 299  160.2025
 300  198.0549
 301  171.4314
 302  214.3048
 303  176.2847
 304  205.2002
 305  261.725
 306  190.168
 307  70.49365
 308  298.2813
 309  449.2844
 310  340.2918
 311  307.9494
 312  172.7332
 313  144.2177
 314  133.7726
 315  163.0797
 316  222.8631
 317  171.3579
 318  193.6062
 319  119.3558
 320  26.32332
 321  173.4685
 322  184.2714
 323  138.7011
 324  64.23867
 325  20.2599
 326  52.64268
 327  115.4223
 328  231.3473
 329  195.6561
 330  244.4944
 331  109.727
 332  100.3023
 333  175.4055
 334  74.76424
 335  166.2402
 336  244.5184
 337  167.5636
 338  290.2788
 339  308.6954
 340  97.50142
 341  151.7802
 342  254.8452
 343  199.7958
 344  146.8609
 345  42.48532
 346  -80.95393
 347  13.87297
 348  57.70072
 349  204.0841
 350  241.7425
 351  364.4514
 352  330.5301
 353  202.5784
 354  224.7321
 355  138.8566
 356  86.82743
 357  208.702
 358  171.0476
 359  251.8367
 360  242.6715
 361  208.5933
 362  193.6755
 363  120.1005
 364  190.2224
 365  161.9733
 366  78.41723
 367  133.0448
 368  221.9333
 369  292.8579
 370  194.4776
 371  176.0623
 372  212.6428
 373  275.3766
 374  302.191
 375  131.8874
 376  64.29438
 377  166.1655
 378  346.0828
 379  286.2346
 380  129.8821
 381  201.9483
 382  124.8347
 383  135.8489
 384  127.8604
 385  50.92717
 386  -30.72519
 387  101.1581
 388  32.9595
 389  133.6921
 390  246.8155
 391  225.1401
 392  157.6807
 393  141.4567
 394  129.3561
 395  245.2199
 396  118.6981
 397  97.99505
 398  218.941
 399  173.1384
 400  194.7319
 401  85.79397
 402  45.85658
 403  64.63525
 404  160.337
 405  121.2042
 406  38.585
 407  135.5783
 408  133.2815
 409  123.8702
 410  112.0234
 411  206.3353
 412  312.6544
 413  236.6986
 414  213.5269
 415  106.1723
 416  126.7387
 417  224.0486
 418  155.1893
 419  208.9581
 420  238.0804
 421  243.8772
 422  157.0893
 423  71.91977
 424  267.8521
 425  244.1601
 426  146.1649
 427  134.682
 428  167.7727
 429  325.3318
 430  268.9989
 431  179.6855
 432  159.9177
 433  208.7795
 434  265.3947
 435  318.2032
 436  233.6647
 437  183.8488
 438  92.67968
 439  86.56031
 440  110.0629
 441  178.6144
 442  85.70052
 443  41.85128
 444  144.1738
 445  167.0599
 446  134.7175
 447  99.25768
 448  228.7592
 449  268.9985
 450  101.3641
 451  124.0267
 452  95.67371
 453  17.17477
 454  92.47433
 455  225.3839
 456  70.72989
 457  3.994825
 458  57.45792
 459  153.8862
 460  269.1144
 461  247.4743
 462  234.7689
 463  188.8399
 464  133.6422
 465  200.9024
 466  186.3354
 467  67.58689
 468  168.2767
 469  277.8
 470  130.4958
 471  183.3353
 472  225.2904
 473  157.7427
 474  9.913507
 475  7.914736
 476  -9.853089
 477  165.6235
 478  181.8082
 479  133.6972
 480  217.5501
 481  313.8419
 482  316.3188
 483  183.4093
 484  227.2724
 485  224.6935
 486  277.0673
 487  216.049
 488  66.38952
 489  123.7683
 490  143.7512
 491  215.8582
 492  191.5248
 493  227.473
 494  235.4655
 495  124.7868
 496  289.0947
 497  269.2151
 498  204.6991
 499  178.4502
 500  221.6473
 501  220.5148
 502  257.576
 503  173.6457
 504  244.1173
 505  191.3607
 506  259.2933
 507  208.3373
 508  124.5426
 509  135.2618
 510  96.52526
 511  59.25092
