# Input file       =  1189800420.117078-PSRB0329-2ms-sampling-dd.dat
# Candidate        =  PSR_0332+5434
# Telescope        =  AR
# Epoch_topo       =  58014.838415706923
# Epoch_bary       =  N/A
# T_sample         =  0.002
# Data Folded      =  7208960
# Data Avg         =  -3.99760128512315e-10
# Data StdDev      =  5.6753426426489  
# Profile Bins     =  512
# Profile Avg      =  0.190689021965683
# Profile StdDev   =  673.431480322597 
# Reduced chi-sqr  =  1.033
# Prob(Noise)      <  0.293   (~0.5 sigma)
# P_topo (ms)      =  714.467090555663  +/- 0.000681
# P'_topo (s/s)    =  -0                +/- 3.66e-10
# P''_topo (s/s^2) =  0                 +/- 1.64e-13
# P_bary (ms)      =  N/A
# P'_bary (s/s)    =  N/A
# P''_bary (s/s^2) =  N/A
# P_orb (s)        =  N/A
# asin(i)/c (s)    =  N/A
# eccentricity     =  N/A
# w (rad)          =  N/A
# T_peri           =  N/A
######################################################
   0  -10.32032
   1  -90.36391
   2  -188.1034
   3  -398.0283
   4  -427.8237
   5  -223.4355
   6  -268.3391
   7  -42.25411
   8  -172.3004
   9  22.62278
  10  -395.7506
  11  -454.5628
  12  -335.2657
  13  -127.2894
  14  -525.8232
  15  -518.6105
  16  -753.986
  17  -320.7571
  18  161.6541
  19  -125.5443
  20  -602.7442
  21  -484.0275
  22  -198.9403
  23  -514.2853
  24  -548.3585
  25  -582.3845
  26  -414.6018
  27  -725.7567
  28  -794.2078
  29  -652.6262
  30  -444.2635
  31  -181.8119
  32  -608.2676
  33  -557.9811
  34  -397.9707
  35  -320.2693
  36  -301.97
  37  -518.0193
  38  -456.6028
  39  -294.9778
  40  -150.776
  41  -293.569
  42  -296.0445
  43  -73.87411
  44  -488.5894
  45  -482.1731
  46  -231.5696
  47  297.3618
  48  248.4807
  49  262.2437
  50  139.0714
  51  -48.77594
  52  -448.2327
  53  -538.0054
  54  -214.773
  55  -162.9461
  56  -4.781756
  57  145.5137
  58  101.223
  59  -198.1046
  60  -618.8629
  61  -353.1521
  62  112.7459
  63  48.13273
  64  22.23696
  65  -135.459
  66  -409.9844
  67  -168.6379
  68  -0.1173887
  69  -98.74541
  70  22.79392
  71  -2.402477
  72  336.197
  73  365.6176
  74  185.9353
  75  118.0074
  76  369.3334
  77  -7.570526
  78  -515.8337
  79  -61.16198
  80  -34.10056
  81  -21.1296
  82  134.9299
  83  30.82518
  84  76.78061
  85  39.87099
  86  -135.6172
  87  95.44264
  88  104.6337
  89  -23.89789
  90  -181.6534
  91  -168.8902
  92  -25.13987
  93  -235.7879
  94  -340.4663
  95  -297.9489
  96  -42.33175
  97  94.28384
  98  117.3188
  99  -211.8853
 100  -284.4651
 101  6.603559
 102  34.79306
 103  64.61768
 104  36.9986
 105  323.48
 106  221.7965
 107  -49.94603
 108  139.8616
 109  13.20581
 110  -330.7012
 111  -315.1238
 112  198.0104
 113  -122.6668
 114  -142.8045
 115  40.41888
 116  1.461714
 117  -69.77419
 118  -14.31111
 119  -54.96563
 120  46.24983
 121  -164.6531
 122  -353.7739
 123  -186.183
 124  105.7884
 125  70.2916
 126  -374.6234
 127  -502.1766
 128  -181.8011
 129  236.5352
 130  279.9404
 131  -115.2522
 132  -248.4776
 133  11.68729
 134  -168.5887
 135  -154.5307
 136  -146.7829
 137  -31.18661
 138  322.3663
 139  83.84644
 140  89.82007
 141  -186.2259
 142  -285.3367
 143  -665.973
 144  -668.713
 145  -216.7588
 146  167.0418
 147  162.0811
 148  301.7223
 149  66.44191
 150  -565.1985
 151  -738.0674
 152  -347.122
 153  -119.1569
 154  385.4335
 155  300.0859
 156  202.9799
 157  131.2933
 158  -213.9139
 159  -571.279
 160  -579.3602
 161  -620.66
 162  -503.2523
 163  90.2253
 164  316.7859
 165  130.4203
 166  -258.2127
 167  -652.2625
 168  -854.2383
 169  -326.9627
 170  80.38987
 171  49.49021
 172  104.1291
 173  92.62745
 174  -197.0977
 175  -145.4292
 176  -313.8206
 177  -349.0111
 178  -414.8503
 179  -375.368
 180  -227.0332
 181  -579.3907
 182  -333.5253
 183  -227.4762
 184  -684.7374
 185  -587.5793
 186  -257.1158
 187  -156.4933
 188  -162.6353
 189  -350.5356
 190  -380.0957
 191  -392.0702
 192  -739.8372
 193  -513.5329
 194  -514.6839
 195  -336.2383
 196  -262.7602
 197  -415.0264
 198  -375.6288
 199  -519.965
 200  -362.9315
 201  -383.1432
 202  -581.4845
 203  -743.1902
 204  -359.9686
 205  113.7211
 206  -220.4137
 207  -239.2946
 208  -379.6566
 209  -309.7169
 210  -582.0117
 211  -893.4773
 212  -573.8121
 213  -230.2849
 214  39.28836
 215  -380.7336
 216  26.11202
 217  79.95295
 218  -127.2128
 219  44.46794
 220  -111.1904
 221  -54.01692
 222  133.9192
 223  62.37012
 224  -481.7414
 225  -561.7029
 226  -845.4037
 227  -1001.116
 228  -653.1653
 229  -311.3575
 230  -12.75244
 231  -430.1682
 232  -694.8188
 233  -890.6048
 234  -1031.878
 235  -645.9725
 236  -195.8144
 237  -154.1555
 238  -277.6823
 239  -426.3063
 240  -475.2103
 241  -431.7892
 242  -137.6814
 243  -287.1354
 244  -72.19836
 245  -348.601
 246  -319.3741
 247  -177.6703
 248  1.855036
 249  -15.28567
 250  232.8755
 251  166.0554
 252  30.44053
 253  216.2979
 254  294.0568
 255  -44.86683
 256  -329.0659
 257  -31.02061
 258  106.0523
 259  -185.2592
 260  -168.0378
 261  -279.8477
 262  -125.057
 263  -315.2154
 264  -117.9912
 265  205.3739
 266  516.3196
 267  392.096
 268  26.65791
 269  453.7811
 270  672.2799
 271  285.2826
 272  428.9174
 273  628.7987
 274  478.0236
 275  508.6435
 276  651.6592
 277  433.9838
 278  -6.344633
 279  62.77151
 280  -63.99224
 281  -501.7888
 282  -195.8422
 283  294.1562
 284  -111.2627
 285  -367.9436
 286  -109.3972
 287  -68.88761
 288  -89.77303
 289  6.866951
 290  93.35761
 291  211.8552
 292  180.3564
 293  -306.4683
 294  -286.8564
 295  -136.4651
 296  176.8386
 297  14.1871
 298  413.6807
 299  429.9585
 300  211.0385
 301  44.45469
 302  110.76
 303  51.06639
 304  17.5948
 305  138.9207
 306  448.1288
 307  332.0775
 308  624.9806
 309  190.9778
 310  315.499
 311  356.2093
 312  375.6691
 313  518.1004
 314  276.6296
 315  356.3877
 316  389.6087
 317  382.2596
 318  444.3142
 319  395.3279
 320  715.8253
 321  756.6974
 322  560.2369
 323  327.8285
 324  66.17809
 325  118.7312
 326  44.40111
 327  231.9255
 328  162.0114
 329  210.1619
 330  372.2749
 331  220.6744
 332  140.7828
 333  -21.09258
 334  356.8083
 335  291.4139
 336  263.3107
 337  212.4832
 338  227.5588
 339  445.2979
 340  834.7898
 341  932.1151
 342  544.3236
 343  377.9798
 344  316.6988
 345  486.2085
 346  374.293
 347  11.98543
 348  437.6929
 349  810.3223
 350  753.4971
 351  633.3419
 352  807.4644
 353  619.9048
 354  200.6438
 355  415.0073
 356  536.2397
 357  535.045
 358  125.5781
 359  348.3506
 360  342.024
 361  457.8272
 362  525.302
 363  691.1885
 364  535.6016
 365  522.1465
 366  711.344
 367  400.0235
 368  768.746
 369  521.9144
 370  455.7572
 371  145.638
 372  180.7492
 373  -99.05952
 374  -381.6883
 375  -12.30166
 376  126.3301
 377  356.4579
 378  251.2018
 379  -81.59292
 380  70.21653
 381  -144.3258
 382  -118.1086
 383  -27.7513
 384  178.2295
 385  293.0573
 386  423.3987
 387  388.57
 388  94.58332
 389  63.79575
 390  139.006
 391  72.64442
 392  129.9751
 393  147.1196
 394  182.4199
 395  -104.0791
 396  -92.23827
 397  197.5697
 398  109.6473
 399  -139.6269
 400  -203.2645
 401  -57.66312
 402  -52.11361
 403  476.0167
 404  399.6302
 405  -111.5394
 406  329.648
 407  258.9977
 408  325.7059
 409  439.1963
 410  -215.9326
 411  335.9786
 412  1317.573
 413  -755.3235
 414  1669.229
 415  3772.971
 416  4238.63
 417  1284.813
 418  43.13205
 419  2180.9
 420  2008.386
 421  2181.843
 422  2445.264
 423  1736.226
 424  966.1326
 425  716.2136
 426  226.8974
 427  332.7813
 428  543.8121
 429  301.3699
 430  262.5008
 431  3.469008
 432  -348.9733
 433  210.4445
 434  -133.3192
 435  -230.3907
 436  243.7268
 437  581.2763
 438  646.6871
 439  252.773
 440  -58.36238
 441  -278.5625
 442  -254.2818
 443  85.41893
 444  323.5795
 445  215.0866
 446  122.0872
 447  401.1564
 448  725.9448
 449  536.3486
 450  -2.577943
 451  22.29885
 452  521.2538
 453  505.2847
 454  112.8022
 455  38.59245
 456  279.7149
 457  123.3398
 458  247.1131
 459  244.6041
 460  250.5098
 461  9.941807
 462  60.70424
 463  10.29339
 464  -215.4189
 465  -173.2209
 466  -74.12392
 467  176.8999
 468  -203.4284
 469  -254.882
 470  157.1213
 471  -248.2114
 472  -465.786
 473  -272.9933
 474  -776.2849
 475  -686.0548
 476  -592.7747
 477  -168.7573
 478  -287.7141
 479  -218.1561
 480  -355.7388
 481  -1.609946
 482  -141.9664
 483  -434.5897
 484  -309.0081
 485  -356.338
 486  -394.9502
 487  -348.6895
 488  -317.9666
 489  -439.0385
 490  -465.0091
 491  -639.1881
 492  -286.7785
 493  -51.02022
 494  -239.7843
 495  -192.1375
 496  -206.9659
 497  -176.8077
 498  -427.046
 499  -415.3762
 500  -471.9577
 501  -306.9634
 502  53.17206
 503  -122.6854
 504  -123.779
 505  58.47885
 506  -439.3474
 507  -620.479
 508  -336.9058
 509  -644.3781
 510  -774.4749
 511  -124.9011
