# Input file       =  1189369560.126245_cleaned.dat
# Candidate        =  PSR_0332+5434
# Telescope        =  AR
# Epoch_topo       =  58009.851610257465
# Epoch_bary       =  N/A
# T_sample         =  0.002
# Data Folded      =  7208960
# Data Avg         =  0.00110048993744632
# Data StdDev      =  3.28660335696557 
# Profile Bins     =  512
# Profile Avg      =  15.4929628730612 
# Profile StdDev   =  389.985645497786 
# Reduced chi-sqr  =  1.030
# Prob(Noise)      <  0.308   (~0.5 sigma)
# P_topo (ms)      =  714.465547002094  +/- 0.000122
# P'_topo (s/s)    =  -0                +/- 6.54e-11
# P''_topo (s/s^2) =  0                 +/- 2.94e-14
# P_bary (ms)      =  N/A
# P'_bary (s/s)    =  N/A
# P''_bary (s/s^2) =  N/A
# P_orb (s)        =  N/A
# asin(i)/c (s)    =  N/A
# eccentricity     =  N/A
# w (rad)          =  N/A
# T_peri           =  N/A
######################################################
   0  34.49298
   1  390.3801
   2  197.5213
   3  -111.6038
   4  -24.96105
   5  -181.2666
   6  -214.1463
   7  -256.8961
   8  228.2579
   9  37.42209
  10  187.849
  11  -12.25749
  12  -0.05861773
  13  96.82496
  14  -93.27796
  15  62.00196
  16  -176.8303
  17  -15.37187
  18  -26.38899
  19  -69.93356
  20  122.0765
  21  -6.039006
  22  453.0753
  23  513.6238
  24  -0.7983742
  25  -348.5092
  26  -345.4545
  27  175.5169
  28  485.4865
  29  -113.6557
  30  -63.2958
  31  194.1326
  32  -150.5301
  33  68.83091
  34  222.0838
  35  -34.38742
  36  -205.3107
  37  282.4875
  38  56.0186
  39  -240.8429
  40  138.0424
  41  327.0604
  42  296.803
  43  143.3676
  44  159.4541
  45  -35.45558
  46  51.06238
  47  -150.52
  48  -152.1021
  49  -76.22261
  50  -367.5403
  51  -34.65912
  52  225.6197
  53  194.6873
  54  178.9321
  55  34.17558
  56  71.79545
  57  -233.5701
  58  -144.3962
  59  -277.8972
  60  -300.0246
  61  28.99105
  62  -18.6263
  63  189.683
  64  -52.05613
  65  -266.7323
  66  -292.1778
  67  -290.5629
  68  43.75079
  69  277.588
  70  -47.42807
  71  -71.18884
  72  -79.46483
  73  1.512424
  74  -97.86448
  75  317.2774
  76  -55.21876
  77  270.4477
  78  230.6424
  79  -98.48175
  80  -11.85413
  81  137.6257
  82  497.2238
  83  -361.116
  84  171.5702
  85  622.9879
  86  317.4195
  87  -278.1844
  88  68.65697
  89  279.3151
  90  172.0654
  91  55.17808
  92  42.4435
  93  412.5822
  94  44.73866
  95  -119.3573
  96  -424.4551
  97  -305.394
  98  -310.9997
  99  -93.57069
 100  -16.51847
 101  454.5156
 102  -16.55157
 103  -475.1217
 104  213.7564
 105  387.7482
 106  351.0842
 107  389.4556
 108  -176.7
 109  -248.4739
 110  20.62386
 111  382.7208
 112  243.2598
 113  452.3531
 114  308.0184
 115  131.4865
 116  -176.6999
 117  75.59312
 118  60.01579
 119  -251.0265
 120  -149.6999
 121  -64.24638
 122  -196.4166
 123  -567.3972
 124  -722.2081
 125  -303.1913
 126  92.24327
 127  46.72683
 128  274.6153
 129  218.5892
 130  214.4057
 131  -192.6051
 132  -346.9294
 133  231.3381
 134  195.0286
 135  21.12096
 136  -96.12418
 137  93.70032
 138  31.49046
 139  -543.8762
 140  -341.3881
 141  -263.2198
 142  -292.4254
 143  -77.78075
 144  -132.0044
 145  228.957
 146  212.75
 147  -173.2011
 148  -244.3839
 149  -42.62899
 150  27.90576
 151  70.38342
 152  227.5075
 153  33.70742
 154  -246.9314
 155  -159.6434
 156  -465.7225
 157  -41.6871
 158  69.483
 159  306.4128
 160  250.18
 161  -308.3126
 162  -195.0609
 163  -80.47829
 164  145.4086
 165  -59.80582
 166  51.18148
 167  275.1237
 168  -354.6307
 169  -15.60593
 170  -60.92901
 171  151.5783
 172  32.19579
 173  96.58028
 174  -358.993
 175  -581.3136
 176  -661.4573
 177  -153.1512
 178  68.21
 179  6.609481
 180  -16.56428
 181  77.63264
 182  -107.4896
 183  -304.3967
 184  -259.5458
 185  -73.01438
 186  46.89178
 187  192.6458
 188  182.3075
 189  123.6395
 190  29.41904
 191  34.09831
 192  -236.9922
 193  -176.8687
 194  -276.902
 195  -95.44102
 196  37.28491
 197  108.4875
 198  187.1298
 199  -76.72443
 200  27.46214
 201  109.5671
 202  262.4727
 203  144.639
 204  -186.0336
 205  -9.446754
 206  -229.5427
 207  26.22646
 208  185.6339
 209  168.1355
 210  75.14405
 211  79.58375
 212  112.2
 213  46.17764
 214  64.83322
 215  12.21077
 216  -175.3539
 217  58.83625
 218  -80.94553
 219  -296.2044
 220  -226.7987
 221  -149.2612
 222  -51.99195
 223  -222.8026
 224  -150.2374
 225  313.9136
 226  463.0881
 227  75.61227
 228  79.44598
 229  287.2475
 230  -267.8044
 231  -345.7224
 232  303.5388
 233  693.0408
 234  574.4708
 235  212.8234
 236  143.7915
 237  -329.5747
 238  -153.897
 239  -88.08203
 240  -84.82558
 241  99.30704
 242  60.27489
 243  -12.03123
 244  -127.7094
 245  132.8474
 246  266.8255
 247  -51.73438
 248  -7.251047
 249  98.12812
 250  -53.12516
 251  183.6231
 252  -58.56021
 253  -639.3702
 254  -441.3679
 255  11.39899
 256  29.52694
 257  -352.6522
 258  -117.36
 259  -388.676
 260  -48.24481
 261  -324.8273
 262  -28.95659
 263  -190.0128
 264  -358.7098
 265  -183.2886
 266  -368.9141
 267  -206.8962
 268  -270.3267
 269  -233.4664
 270  140.1957
 271  141.7599
 272  347.704
 273  307.4264
 274  -70.24377
 275  152.9127
 276  -397.3842
 277  -363.1081
 278  -6.153478
 279  138.6429
 280  -51.91724
 281  -166.2288
 282  -151.4203
 283  -269.4144
 284  -297.5435
 285  -255.3165
 286  -124.4468
 287  -257.2184
 288  -66.67171
 289  -18.58178
 290  -115.2515
 291  158.2756
 292  -58.34919
 293  -346.4728
 294  -14.18014
 295  -90.24449
 296  179.851
 297  -25.97674
 298  -96.26283
 299  192.9557
 300  -20.1434
 301  37.6733
 302  113.6144
 303  -97.57869
 304  -116.6166
 305  -193.7052
 306  178.5493
 307  279.7609
 308  43.34064
 309  -42.88215
 310  -82.62566
 311  105.84
 312  111.3562
 313  68.48482
 314  89.35648
 315  352.8382
 316  602.5876
 317  402.4788
 318  810.6508
 319  763.0545
 320  1508.851
 321  1924.137
 322  1744.888
 323  1711.821
 324  1260.378
 325  584.4836
 326  184.1861
 327  -200.772
 328  -165.2204
 329  2.24641
 330  111.3776
 331  127.3015
 332  48.48354
 333  114.9696
 334  346.3062
 335  401.9829
 336  210.1944
 337  -87.96187
 338  -26.07249
 339  -3.410351
 340  506.2696
 341  -130.6083
 342  -282.9256
 343  182.1721
 344  41.92048
 345  -233.0459
 346  -511.2968
 347  -232.7322
 348  -295.2845
 349  -293.969
 350  88.63082
 351  385.4897
 352  199.0233
 353  -49.76527
 354  211.1346
 355  259.5903
 356  317.9695
 357  68.25767
 358  75.6172
 359  -16.81317
 360  -114.6151
 361  233.5095
 362  533.1589
 363  558.0933
 364  241.8568
 365  223.5108
 366  187.4391
 367  -8.083643
 368  -42.62384
 369  211.3567
 370  35.59506
 371  170.7337
 372  80.60271
 373  379.3283
 374  72.37118
 375  -326.03
 376  -374.3103
 377  -443.7068
 378  -221.8987
 379  24.92803
 380  165.5334
 381  258.9546
 382  -131.0554
 383  -28.91655
 384  -32.71754
 385  186.7571
 386  274.1832
 387  6.413181
 388  6.7163
 389  -247.3052
 390  -9.561472
 391  102.624
 392  259.0569
 393  600.0201
 394  43.30046
 395  77.78906
 396  72.87328
 397  -226.2473
 398  -139.6092
 399  197.0156
 400  -64.01115
 401  -316.6408
 402  316.5407
 403  219.9393
 404  23.99773
 405  -68.702
 406  -6.823601
 407  158.4075
 408  -32.06354
 409  194.7343
 410  -3.085642
 411  -211.0414
 412  -61.40899
 413  -99.2197
 414  -3.69233
 415  -80.56603
 416  -103.6533
 417  -24.68301
 418  -304.6331
 419  -302.0379
 420  -271.4269
 421  -128.3423
 422  56.56982
 423  151.3343
 424  94.94775
 425  321.7453
 426  -101.7029
 427  -327.5248
 428  125.5259
 429  231.8985
 430  498.6673
 431  182.0653
 432  -179.7245
 433  -28.7418
 434  -292.2842
 435  -326.3627
 436  443.0092
 437  232.6519
 438  -242.9257
 439  -208.7422
 440  -204.328
 441  -500.2232
 442  -413.717
 443  -171.9635
 444  82.21886
 445  -81.39127
 446  -270.3376
 447  -137.5103
 448  56.38757
 449  62.08711
 450  77.57597
 451  -134.2078
 452  -316.6238
 453  -96.4907
 454  68.73575
 455  -56.12775
 456  -1.141038
 457  242.1868
 458  467.6479
 459  206.4683
 460  422.1405
 461  -84.05801
 462  36.92756
 463  12.92776
 464  108.352
 465  401.0227
 466  -22.05985
 467  -18.04249
 468  -82.74541
 469  -451.6901
 470  -450.176
 471  -198.3106
 472  99.45369
 473  -157.237
 474  -397.0317
 475  -510.4062
 476  -303.2538
 477  170.4091
 478  10.20143
 479  -174.0612
 480  36.02069
 481  79.3177
 482  -13.9135
 483  136.5589
 484  -102.9509
 485  57.20435
 486  286.0006
 487  660.6783
 488  -48.46218
 489  -313.0368
 490  -270.2276
 491  13.43053
 492  316.2956
 493  210.0856
 494  50.43327
 495  -102.8101
 496  137.4725
 497  -90.63319
 498  57.4202
 499  -143.2097
 500  -206.8748
 501  -425.6548
 502  -410.3499
 503  -318.7316
 504  -165.1683
 505  145.8647
 506  466.117
 507  1.094266
 508  34.54136
 509  -104.8909
 510  -91.44773
 511  -216.5826
