# Input file       =  1189384196.109106_cleaned.dat
# Candidate        =  PSR_0332+5434
# Telescope        =  AR
# Epoch_topo       =  58010.021008207244
# Epoch_bary       =  N/A
# T_sample         =  0.002
# Data Folded      =  7340032
# Data Avg         =  0.0325600117274528
# Data StdDev      =  2.57441698127864 
# Profile Bins     =  512
# Profile Avg      =  466.990334480689 
# Profile StdDev   =  308.2427620684   
# Reduced chi-sqr  =  1.515
# Prob(Noise)      <  4.2e-13   (~7.2 sigma)
# P_topo (ms)      =  714.465606878857  +/- 0.000159
# P'_topo (s/s)    =  -0                +/- 8.39e-11
# P''_topo (s/s^2) =  0                 +/- 3.71e-14
# P_bary (ms)      =  N/A
# P'_bary (s/s)    =  N/A
# P''_bary (s/s^2) =  N/A
# P_orb (s)        =  N/A
# asin(i)/c (s)    =  N/A
# eccentricity     =  N/A
# w (rad)          =  N/A
# T_peri           =  N/A
######################################################
   0  560.046
   1  396.1927
   2  405.2333
   3  341.8407
   4  727.7968
   5  756.54
   6  837.4351
   7  670.4568
   8  410.829
   9  810.7536
  10  527.0327
  11  330.3781
  12  341.9698
  13  164.3513
  14  209.5777
  15  139.1769
  16  415.337
  17  189.3695
  18  462.5754
  19  521.8035
  20  354.8145
  21  344.6852
  22  521.2728
  23  235.1083
  24  122.7724
  25  333.286
  26  425.1375
  27  806.5612
  28  768.2031
  29  68.23923
  30  19.23673
  31  102.5012
  32  514.6641
  33  461.261
  34  819.0229
  35  583.6367
  36  355.7463
  37  301.8986
  38  389.4817
  39  187.9437
  40  464.7833
  41  960.2839
  42  494.5337
  43  266.1595
  44  479.8685
  45  596.9254
  46  441.422
  47  596.8738
  48  248.4851
  49  493.8496
  50  308.1507
  51  543.3223
  52  149.4321
  53  127.2497
  54  340.7146
  55  139.952
  56  435.5424
  57  635.4455
  58  6.377931
  59  384.5412
  60  336.5484
  61  205.6269
  62  237.4121
  63  198.9029
  64  679.6255
  65  718.6187
  66  659.2854
  67  532.4341
  68  381.1054
  69  231.0668
  70  485.4608
  71  29.11029
  72  -5.175683
  73  199.0582
  74  447.2017
  75  637.3545
  76  747.9633
  77  758.814
  78  597.1317
  79  366.4726
  80  78.22959
  81  223.3656
  82  617.7681
  83  358.6919
  84  462.587
  85  172.7426
  86  676.1425
  87  389.4362
  88  330.8465
  89  421.8326
  90  593.2794
  91  583.9241
  92  514.2189
  93  525.9348
  94  779.9898
  95  538.1683
  96  304.9106
  97  508.0728
  98  372.9776
  99  408.6934
 100  545.2847
 101  815.2224
 102  730.1772
 103  612.1874
 104  721.8598
 105  563.4545
 106  650.8384
 107  667.2119
 108  731.5278
 109  456.8746
 110  347.083
 111  540.6061
 112  603.7938
 113  556.149
 114  413.2729
 115  524.0095
 116  653.4047
 117  468.8378
 118  544.4792
 119  319.8119
 120  195.5227
 121  286.5527
 122  436.5783
 123  185.7168
 124  431.726
 125  358.6074
 126  111.6141
 127  279.0984
 128  241.4646
 129  239.8681
 130  394.101
 131  253.6833
 132  429.3379
 133  587.848
 134  324.3013
 135  293.6577
 136  411.6649
 137  530.1488
 138  591.8851
 139  585.7664
 140  374.995
 141  158.1124
 142  132.5314
 143  329.6739
 144  -28.75384
 145  312.6507
 146  128.0837
 147  584.6561
 148  364.1494
 149  438.9471
 150  490.1303
 151  376.354
 152  261.5808
 153  46.54254
 154  371.2586
 155  581.3448
 156  553.8621
 157  523.5236
 158  473.0525
 159  359.8587
 160  420.0977
 161  570.4738
 162  746.7289
 163  558.2913
 164  460.93
 165  421.8235
 166  208.4393
 167  408.883
 168  769.4422
 169  854.354
 170  306.095
 171  249.5176
 172  820.1392
 173  696.546
 174  368.0972
 175  265.4903
 176  382.1266
 177  227.9115
 178  837.6785
 179  569.1821
 180  440.4612
 181  434.7727
 182  426.1817
 183  356.6855
 184  673.4191
 185  541.4473
 186  256.4161
 187  393.7432
 188  507.3829
 189  454.9637
 190  490.1754
 191  322.2968
 192  689.5917
 193  657.8899
 194  838.0456
 195  714.0978
 196  406.6919
 197  498.4603
 198  682.3544
 199  623.1272
 200  733.7836
 201  469.1433
 202  327.3633
 203  669.5458
 204  412.5333
 205  369.8987
 206  473.8754
 207  571.6634
 208  392.3034
 209  257.1628
 210  252.9573
 211  141.037
 212  372.3363
 213  444.4394
 214  483.5673
 215  329.2596
 216  397.8029
 217  310.9985
 218  369.0307
 219  447.2754
 220  336.1315
 221  332.5102
 222  909.9264
 223  537.2208
 224  374.3979
 225  480.6684
 226  448.7046
 227  497.4767
 228  510.9574
 229  661.7103
 230  405.1305
 231  614.9777
 232  342.9173
 233  367.5734
 234  599.9067
 235  643.8959
 236  485.0919
 237  191.7764
 238  491.5836
 239  566.5348
 240  287.61
 241  239.7465
 242  464.2375
 243  204.5669
 244  80.11466
 245  160.8383
 246  414.1718
 247  181.3171
 248  419.6429
 249  622.9297
 250  421.9459
 251  411.4827
 252  264.8517
 253  416.5187
 254  253.6633
 255  556.5297
 256  966.4372
 257  702.9467
 258  361.7933
 259  543.1904
 260  669.5349
 261  660.858
 262  178.4768
 263  536.156
 264  880.9369
 265  900.8777
 266  974.4787
 267  650.8075
 268  436.5058
 269  450.5903
 270  599.9928
 271  756.4819
 272  596.8008
 273  420.2016
 274  538.3732
 275  368.0118
 276  208.6047
 277  248.6599
 278  328.6685
 279  797.5468
 280  363.4172
 281  225.3295
 282  -67.32677
 283  139.1229
 284  706.6375
 285  341.0305
 286  27.12163
 287  518.3871
 288  645.4459
 289  754.4152
 290  547.6763
 291  321.4419
 292  418.2564
 293  353.9695
 294  620.1467
 295  566.7787
 296  550.3532
 297  777.3159
 298  489.2376
 299  391.3149
 300  547.0428
 301  820.8851
 302  847.4119
 303  699.6389
 304  669.291
 305  591.052
 306  466.9825
 307  482.3046
 308  317.5858
 309  605.6694
 310  777.9138
 311  447.8688
 312  454.1759
 313  409.7321
 314  469.7044
 315  918.6472
 316  828.5871
 317  1033.63
 318  1350.687
 319  1802.252
 320  2021.435
 321  2070.856
 322  2515.924
 323  2218.393
 324  1518.109
 325  769.996
 326  345.4294
 327  558.0136
 328  951.1728
 329  710.8488
 330  512.8993
 331  654.4763
 332  392.1922
 333  211.5595
 334  464.2985
 335  727.4225
 336  630.1405
 337  310.9154
 338  472.9267
 339  622.212
 340  725.7258
 341  806.4984
 342  658.504
 343  166.0687
 344  247.5593
 345  570.927
 346  453.73
 347  437.4141
 348  732.1016
 349  369.2573
 350  523.0615
 351  556.2642
 352  403.5917
 353  362.7961
 354  323.8408
 355  691.9799
 356  658.1465
 357  403.927
 358  280.3601
 359  17.63838
 360  550.0074
 361  551.8143
 362  473.4979
 363  473.613
 364  295.7258
 365  420.9185
 366  408.9963
 367  177.944
 368  477.7326
 369  621.4591
 370  512.1766
 371  545.1755
 372  968.9595
 373  977.031
 374  1037.474
 375  470.7903
 376  235.1945
 377  448.6784
 378  795.8259
 379  899.3937
 380  828.5317
 381  603.4833
 382  381.6434
 383  89.85772
 384  263.0057
 385  566.1767
 386  587.7855
 387  613.3635
 388  944.2865
 389  822.7693
 390  378.5248
 391  376.3877
 392  435.104
 393  730.5363
 394  646.7462
 395  436.9055
 396  737.9339
 397  621.0853
 398  323.6477
 399  282.0926
 400  360.7
 401  673.8474
 402  902.3877
 403  598.9477
 404  353.0338
 405  550.4832
 406  574.141
 407  671.7034
 408  415.8733
 409  755.6176
 410  589.761
 411  456.7262
 412  408.3415
 413  390.2356
 414  310.6269
 415  581.9911
 416  629.0287
 417  256.1677
 418  182.5611
 419  545.401
 420  642.5643
 421  565.3626
 422  475.6501
 423  418.3718
 424  207.4222
 425  67.44524
 426  424.8274
 427  372.1593
 428  417.4034
 429  662.1261
 430  731.1387
 431  425.3216
 432  52.87844
 433  209.1461
 434  450.9365
 435  322.4048
 436  235.5381
 437  82.19148
 438  444.1571
 439  499.2474
 440  270.4784
 441  549.3209
 442  232.7385
 443  212.1538
 444  390.6343
 445  676.7167
 446  704.8231
 447  297.6291
 448  314.2649
 449  348.254
 450  257.5503
 451  166.4095
 452  316.0357
 453  189.0075
 454  68.46297
 455  401.6621
 456  738.1625
 457  87.12415
 458  -10.9524
 459  293.6491
 460  788.0005
 461  339.4026
 462  537.3544
 463  410.0823
 464  253.4057
 465  378.8838
 466  48.67184
 467  23.75068
 468  167.8884
 469  362.3523
 470  338.6222
 471  513.0411
 472  433.5824
 473  -160.9666
 474  87.76513
 475  245.3674
 476  170.944
 477  215.349
 478  444.1623
 479  301.0783
 480  434.797
 481  262.6202
 482  151.2966
 483  281.4652
 484  635.4433
 485  467.1393
 486  446.4109
 487  355.4577
 488  246.5166
 489  409.8903
 490  305.5985
 491  271.7349
 492  369.2208
 493  726.1056
 494  337.452
 495  315.8463
 496  357.1215
 497  267.2848
 498  -8.896349
 499  169.0551
 500  -63.74717
 501  114.292
 502  99.73624
 503  321.9714
 504  391.4801
 505  329.446
 506  247.9689
 507  471.9403
 508  275.807
 509  381.3063
 510  106.0769
 511  418.1433
