# Input file       =  1189211840.114814_cleaned.dat
# Candidate        =  PSR_0332+5434
# Telescope        =  AR
# Epoch_topo       =  58008.026147162200
# Epoch_bary       =  N/A
# T_sample         =  0.002
# Data Folded      =  7340032
# Data Avg         =  0.00694241963771805
# Data StdDev      =  2.41808109047176 
# Profile Bins     =  256
# Profile Avg      =  198.955862349412 
# Profile StdDev   =  409.449037784074 
# Reduced chi-sqr  =  1.737
# Prob(Noise)      <  2.8e-12   (~6.9 sigma)
# P_topo (ms)      =  714.465102716278  +/- 0.000179
# P'_topo (s/s)    =  -0                +/- 9.44e-11
# P''_topo (s/s^2) =  0                 +/- 4.17e-14
# P_bary (ms)      =  N/A
# P'_bary (s/s)    =  N/A
# P''_bary (s/s^2) =  N/A
# P_orb (s)        =  N/A
# asin(i)/c (s)    =  N/A
# eccentricity     =  N/A
# w (rad)          =  N/A
# T_peri           =  N/A
######################################################
   0  -231.5881
   1  77.35732
   2  229.7398
   3  -168.8953
   4  196.7311
   5  -297.1788
   6  -451.7401
   7  -300.9668
   8  672.9855
   9  94.24332
  10  -84.59956
  11  129.8233
  12  50.84647
  13  104.924
  14  22.33417
  15  -70.99918
  16  -702.9744
  17  -34.63218
  18  -247.633
  19  -227.9817
  20  -29.8077
  21  65.77521
  22  127.6617
  23  -150.6544
  24  789.173
  25  274.9769
  26  29.091
  27  -565.2584
  28  -288.2916
  29  235.3177
  30  73.17014
  31  -155.0237
  32  -223.4846
  33  163.3617
  34  -65.38278
  35  -82.29993
  36  162.6665
  37  125.0164
  38  179.9945
  39  699.2138
  40  -61.04325
  41  -9.953147
  42  385.0409
  43  -469.2862
  44  375.2876
  45  13.96084
  46  -332.7711
  47  40.61938
  48  332.3654
  49  103.2203
  50  467.4862
  51  499.8122
  52  560.3437
  53  507.2241
  54  564.6945
  55  96.75698
  56  -164.7228
  57  602.0406
  58  595.2943
  59  -493.5461
  60  -428.1215
  61  -149.463
  62  731.0808
  63  506.6623
  64  355.1662
  65  860.5162
  66  492.6199
  67  369.518
  68  312.3555
  69  192.4606
  70  -373.6206
  71  561.4338
  72  552.7945
  73  910.1033
  74  778.4899
  75  672.0436
  76  595.6858
  77  615.0881
  78  80.63499
  79  735.7637
  80  -115.6107
  81  502.8462
  82  262.4162
  83  439.7836
  84  -285.9215
  85  73.99351
  86  45.82066
  87  228.0365
  88  240.0968
  89  1044.183
  90  -406.1706
  91  344.3908
  92  184.7071
  93  -232.4538
  94  -333.395
  95  529.3372
  96  7.015804
  97  400.8545
  98  433.5146
  99  673.0464
 100  671.2554
 101  154.7556
 102  697.1694
 103  64.08044
 104  -108.1634
 105  699.1645
 106  299.1209
 107  204.7731
 108  536.8303
 109  587.0087
 110  -51.32035
 111  207.2294
 112  657.6341
 113  382.7108
 114  -314.7101
 115  75.41361
 116  242.7171
 117  879.1105
 118  77.87046
 119  -44.00899
 120  211.1345
 121  144.6976
 122  595.5811
 123  -403.3622
 124  13.78448
 125  87.95168
 126  -9.033761
 127  -103.3743
 128  -136.0716
 129  -395.3037
 130  -653.7023
 131  -338.8928
 132  -827.124
 133  179.3597
 134  -75.28236
 135  -388.6442
 136  72.35747
 137  255.3761
 138  -243.5353
 139  -715.3188
 140  -196.898
 141  430.6303
 142  -287.1165
 143  247.9236
 144  151.8972
 145  447.4528
 146  108.6837
 147  114.5898
 148  20.61679
 149  21.10389
 150  768.0908
 151  165.9635
 152  592.0203
 153  421.0981
 154  -346.0206
 155  469.9221
 156  521.4768
 157  316.4261
 158  995.9269
 159  1706.359
 160  3318.997
 161  3197.391
 162  1575.388
 163  -161.6222
 164  -72.85542
 165  352.0078
 166  -103.4667
 167  325.1927
 168  651.3538
 169  221.1404
 170  537.6934
 171  575.605
 172  163.149
 173  -357.1974
 174  -108.773
 175  161.4986
 176  -218.6361
 177  165.6207
 178  657.3726
 179  558.0037
 180  638.2548
 181  331.2294
 182  -207.5692
 183  -240.9378
 184  646.4723
 185  1029.01
 186  537.6577
 187  -347.5372
 188  51.7017
 189  -38.97141
 190  267.4756
 191  -42.38176
 192  -115.9711
 193  -77.19086
 194  -152.731
 195  -26.46371
 196  -70.04206
 197  -373.4434
 198  -126.3687
 199  -63.19175
 200  194.62
 201  219.4701
 202  381.3747
 203  122.659
 204  -232.0666
 205  -273.0555
 206  368.7927
 207  369.8481
 208  274.4202
 209  462.523
 210  -29.17755
 211  362.1399
 212  84.74473
 213  152.0883
 214  576.7773
 215  526.7473
 216  489.9797
 217  237.9673
 218  281.1623
 219  1185.559
 220  675.312
 221  298.3918
 222  295.3424
 223  156.3899
 224  186.8857
 225  326.9571
 226  415.5272
 227  451.3469
 228  -357.7932
 229  454.3459
 230  146.8185
 231  -344.9935
 232  -345.7162
 233  204.5656
 234  400.7973
 235  -33.10519
 236  673.6951
 237  454.7901
 238  -4.373479
 239  549.6
 240  -281.312
 241  -329.3424
 242  -202.4263
 243  299.5898
 244  136.9838
 245  411.8602
 246  720.7668
 247  -48.43584
 248  -39.02744
 249  219.4135
 250  -169.6035
 251  263.6906
 252  -210.1362
 253  199.2606
 254  343.4274
 255  194.8443
