# Input file       =  1189901180.110496_cleaned.dat
# Candidate        =  PSR_0332+5434
# Telescope        =  AR
# Epoch_topo       =  58016.004619334446
# Epoch_bary       =  N/A
# T_sample         =  0.002
# Data Folded      =  7340032
# Data Avg         =  0.0214104923278292
# Data StdDev      =  2.43663420761904 
# Profile Bins     =  256
# Profile Avg      =  614.258229695071 
# Profile StdDev   =  412.590601561146 
# Reduced chi-sqr  =  1.787
# Prob(Noise)      <  1.62e-13   (~7.3 sigma)
# P_topo (ms)      =  714.467529293733  +/- 0.000288
# P'_topo (s/s)    =  -0                +/- 1.52e-10
# P''_topo (s/s^2) =  0                 +/- 6.7e-14
# P_bary (ms)      =  N/A
# P'_bary (s/s)    =  N/A
# P''_bary (s/s^2) =  N/A
# P_orb (s)        =  N/A
# asin(i)/c (s)    =  N/A
# eccentricity     =  N/A
# w (rad)          =  N/A
# T_peri           =  N/A
######################################################
   0  285.8067
   1  471.1903
   2  490.8583
   3  226.2596
   4  234.9099
   5  837.911
   6  644.6756
   7  795.2018
   8  961.6862
   9  212.391
  10  67.32125
  11  -160.8222
  12  81.56551
  13  386.4601
  14  243.2391
  15  497.7919
  16  284.3539
  17  532.7271
  18  261.1857
  19  133.2453
  20  610.1278
  21  -27.73052
  22  640.9774
  23  576.6793
  24  817.4498
  25  1218.508
  26  727.6755
  27  521.3804
  28  1194.944
  29  343.6279
  30  -13.56089
  31  823.1187
  32  346.4993
  33  415.8241
  34  838.621
  35  395.1147
  36  1065.084
  37  461.7693
  38  501.843
  39  244.897
  40  959.0565
  41  292.3896
  42  701.597
  43  567.3441
  44  1246.389
  45  507.218
  46  627.766
  47  269.384
  48  170.3266
  49  -237.1874
  50  156.9318
  51  45.46168
  52  805.6072
  53  491.4551
  54  498.6075
  55  -20.93807
  56  643.4989
  57  540.3455
  58  -254.675
  59  289.3776
  60  472.9467
  61  370.2644
  62  851.8104
  63  636.9577
  64  348.562
  65  547.8043
  66  92.00739
  67  -16.77998
  68  734.4601
  69  505.7502
  70  93.30981
  71  -2.050517
  72  234.6337
  73  96.29332
  74  486.6395
  75  670.6796
  76  429.4365
  77  467.0276
  78  462.8716
  79  -4.268312
  80  -47.50943
  81  445.2103
  82  837.9564
  83  752.6479
  84  -37.30584
  85  -252.6138
  86  711.8777
  87  568.8785
  88  617.669
  89  945.137
  90  1224.989
  91  1218.525
  92  885.1838
  93  -101.9729
  94  650.2672
  95  951.778
  96  386.9694
  97  504.2882
  98  135.389
  99  505.2395
 100  191.4663
 101  1125.119
 102  417.8283
 103  187.9427
 104  596.0222
 105  -118.6838
 106  292.6541
 107  -353.6974
 108  180.5501
 109  811.4576
 110  441.4223
 111  -16.3282
 112  569.0173
 113  994.5833
 114  818.851
 115  1172.23
 116  244.9376
 117  968.4683
 118  182.7043
 119  1404.974
 120  730.258
 121  680.9085
 122  503.7452
 123  458.9829
 124  573.1814
 125  746.4237
 126  742.2634
 127  469.7678
 128  320.9668
 129  668.548
 130  1168.139
 131  384.1651
 132  732.3726
 133  1048.79
 134  719.7408
 135  697.7917
 136  654.8035
 137  410.8233
 138  632.3093
 139  -60.3045
 140  1132.244
 141  1013.486
 142  27.06871
 143  698.8148
 144  132.0539
 145  875.5488
 146  465.8996
 147  590.4666
 148  1308.964
 149  865.9224
 150  635.3859
 151  1052.404
 152  1227.797
 153  319.0671
 154  975.7803
 155  1110.271
 156  352.9228
 157  1114.499
 158  1296.736
 159  2732.926
 160  3974.389
 161  3280.129
 162  1409.095
 163  617.4127
 164  640.472
 165  891.3665
 166  688.8662
 167  488.7831
 168  858.4781
 169  701.3074
 170  501.6561
 171  435.8539
 172  568.6052
 173  952.147
 174  998.1322
 175  682.7219
 176  665.5351
 177  1109.205
 178  530.6187
 179  503.3609
 180  729.2035
 181  316.2751
 182  439.7993
 183  407.5547
 184  860.9728
 185  636.1804
 186  1361.185
 187  642.2208
 188  735.2436
 189  1073.894
 190  -50.54491
 191  549.3808
 192  -317.3394
 193  982.1807
 194  930.6934
 195  789.6772
 196  1165.394
 197  747.3874
 198  579.7075
 199  930.1703
 200  662.9808
 201  618.9187
 202  908.2463
 203  989.4837
 204  1549.103
 205  1092.708
 206  740.5918
 207  1225.208
 208  783.8665
 209  827.0068
 210  606.2064
 211  573.1611
 212  411.4948
 213  920.1744
 214  1257.095
 215  802.7068
 216  541.4122
 217  820.9349
 218  1095.809
 219  360.8945
 220  598.8965
 221  518.406
 222  1418.446
 223  652.7523
 224  151.5903
 225  383.9861
 226  374.0534
 227  627.6179
 228  -370.3391
 229  659.7508
 230  428.1011
 231  1184.528
 232  871.1072
 233  913.7866
 234  272.9299
 235  524.6011
 236  239.118
 237  124.0478
 238  929.5541
 239  731.3304
 240  -16.8195
 241  764.2225
 242  1011.112
 243  349.1576
 244  818.3571
 245  511.0619
 246  598.5763
 247  879.178
 248  1052.723
 249  840.523
 250  277.37
 251  562.0269
 252  563.7386
 253  -45.19333
 254  461.6144
 255  397.6465
