# Input file       =  1189054427.122775_cleaned.dat
# Candidate        =  PSR_0332+5434
# Telescope        =  AR
# Epoch_topo       =  58006.204237532118
# Epoch_bary       =  N/A
# T_sample         =  0.002
# Data Folded      =  7340032
# Data Avg         =  0.00840088950543252
# Data StdDev      =  0.999843753625151
# Profile Bins     =  512
# Profile Avg      =  120.420203699921 
# Profile StdDev   =  119.714328523883 
# Reduced chi-sqr  =  1.264
# Prob(Noise)      <  4.42e-05   (~3.9 sigma)
# P_topo (ms)      =  714.465035024563  +/- 0.000211
# P'_topo (s/s)    =  -0                +/- 1.11e-10
# P''_topo (s/s^2) =  0                 +/- 4.91e-14
# P_bary (ms)      =  N/A
# P'_bary (s/s)    =  N/A
# P''_bary (s/s^2) =  N/A
# P_orb (s)        =  N/A
# asin(i)/c (s)    =  N/A
# eccentricity     =  N/A
# w (rad)          =  N/A
# T_peri           =  N/A
######################################################
   0  87.54137
   1  81.49544
   2  -62.53999
   3  38.75988
   4  142.2
   5  161.3876
   6  140.2176
   7  120.9843
   8  266.5211
   9  140.9722
  10  89.39905
  11  37.3077
  12  192.7055
  13  97.12066
  14  219.6671
  15  250.4428
  16  105.3761
  17  9.450421
  18  -62.06426
  19  182.6308
  20  177.2026
  21  205.1801
  22  233.2106
  23  71.28979
  24  99.81771
  25  88.33383
  26  110.4094
  27  61.11332
  28  135.9789
  29  75.08128
  30  7.144036
  31  -6.790722
  32  36.2383
  33  75.74113
  34  33.65534
  35  22.85968
  36  39.92435
  37  126.0964
  38  139.9031
  39  29.76364
  40  -71.193
  41  -120.5356
  42  56.79253
  43  -88.0085
  44  49.71386
  45  -27.07472
  46  64.47856
  47  35.53264
  48  117.6363
  49  59.65417
  50  132.5124
  51  202.4177
  52  181.7516
  53  64.53841
  54  179.7752
  55  79.6643
  56  -21.46294
  57  38.52274
  58  88.56006
  59  151.8063
  60  -21.3241
  61  -0.7885039
  62  34.7222
  63  116.4262
  64  190.1178
  65  122.176
  66  25.57632
  67  115.0711
  68  149.0829
  69  116.0054
  70  36.55661
  71  15.2293
  72  100.414
  73  171.0318
  74  235.4907
  75  197.3539
  76  175.4005
  77  161.3132
  78  194.3061
  79  279.3545
  80  125.4878
  81  22.98901
  82  158.1532
  83  225.5673
  84  207.556
  85  74.46347
  86  62.72533
  87  -70.42936
  88  14.22919
  89  203.2319
  90  246.9947
  91  89.76611
  92  96.3652
  93  150.3014
  94  192.9361
  95  215.2098
  96  3.572631
  97  68.10131
  98  161.8118
  99  98.62222
 100  169.7132
 101  171.3357
 102  134.5182
 103  128.0107
 104  118.6992
 105  167.0495
 106  171.771
 107  129.6305
 108  217.3369
 109  228.4392
 110  152.6534
 111  153.5551
 112  226.4531
 113  213.211
 114  207.1511
 115  87.585
 116  -73.37934
 117  -17.30243
 118  79.94571
 119  139.7591
 120  162.2471
 121  120.7369
 122  -5.92857
 123  39.70428
 124  95.45275
 125  30.21947
 126  146.7483
 127  172.6572
 128  130.7642
 129  205.36
 130  186.4666
 131  105.6063
 132  132.37
 133  140.7628
 134  153.0044
 135  98.22054
 136  184.3369
 137  158.3376
 138  90.52197
 139  90.06365
 140  72.03274
 141  87.3371
 142  160.3823
 143  167.084
 144  215.834
 145  148.2497
 146  86.24052
 147  35.47994
 148  37.72483
 149  144.9193
 150  124.2683
 151  234.4621
 152  307.844
 153  297.4355
 154  287.7085
 155  330.9909
 156  180.7784
 157  163.6194
 158  337.8938
 159  387.522
 160  407.3757
 161  489.3732
 162  653.3734
 163  692.9409
 164  622.3825
 165  446.5581
 166  290.4399
 167  242.4507
 168  216.3721
 169  131.7639
 170  183.5931
 171  335.1331
 172  313.2385
 173  238.1818
 174  106.3833
 175  193.6964
 176  147.2514
 177  218.7838
 178  282.442
 179  138.6818
 180  206.1611
 181  284.7904
 182  191.5614
 183  259.4235
 184  175.9772
 185  135.9572
 186  86.62578
 187  74.56821
 188  184.6412
 189  181.2763
 190  90.70435
 191  216.7099
 192  180.3633
 193  212.3342
 194  86.93135
 195  118.8622
 196  152.8637
 197  79.02958
 198  176.6682
 199  245.1261
 200  79.17166
 201  92.25308
 202  70.24164
 203  -69.35013
 204  -11.64345
 205  149.4436
 206  129.6592
 207  -8.803715
 208  63.45886
 209  146.3892
 210  44.86609
 211  100.8618
 212  185.291
 213  104.6028
 214  83.89321
 215  51.51847
 216  53.11555
 217  51.07102
 218  103.3452
 219  123.7776
 220  93.2019
 221  -54.68019
 222  -119.9331
 223  -44.71658
 224  58.83852
 225  87.8008
 226  106.8268
 227  114.7897
 228  67.02629
 229  141.3219
 230  165.5065
 231  75.47371
 232  10.03264
 233  106.313
 234  169.701
 235  186.5484
 236  193.7747
 237  127.0203
 238  102.0615
 239  177.6047
 240  264.8035
 241  145.2044
 242  142.3563
 243  99.84422
 244  87.6643
 245  178.9963
 246  132.3298
 247  184.8772
 248  22.50372
 249  102.6717
 250  60.22901
 251  -120.7792
 252  7.536978
 253  100.3808
 254  162.4893
 255  84.40952
 256  92.27239
 257  67.43346
 258  245.8704
 259  275.1161
 260  110.0487
 261  164.1728
 262  153.0952
 263  86.69458
 264  -6.236222
 265  96.16976
 266  96.27107
 267  175.7233
 268  91.64044
 269  119.0094
 270  81.12174
 271  -25.60187
 272  112.1635
 273  101.3259
 274  143.0245
 275  198.1109
 276  251.1649
 277  123.7269
 278  80.74385
 279  33.0133
 280  66.97746
 281  122.2056
 282  56.31137
 283  63.34644
 284  90.8684
 285  212.3055
 286  134.3298
 287  136.1227
 288  24.11361
 289  86.62997
 290  104.4293
 291  33.68631
 292  146.2794
 293  76.71613
 294  72.83752
 295  245.8063
 296  225.9752
 297  199.3535
 298  203.8
 299  142.2146
 300  78.99469
 301  7.428689
 302  93.18516
 303  183.2496
 304  180.5544
 305  55.9618
 306  71.49856
 307  -88.36397
 308  -27.15392
 309  99.43726
 310  52.55528
 311  31.9283
 312  30.16272
 313  52.86985
 314  164.8439
 315  163.3773
 316  226.1676
 317  -3.495218
 318  -58.61315
 319  117.5315
 320  101.3785
 321  69.44799
 322  122.8362
 323  128.1121
 324  85.94466
 325  88.9894
 326  17.32986
 327  79.88821
 328  218.8247
 329  240.7796
 330  103.7844
 331  26.06385
 332  142.908
 333  168.7491
 334  -80.43578
 335  -49.42051
 336  -6.488613
 337  59.11755
 338  127.9421
 339  45.33974
 340  152.658
 341  143.5
 342  102.2444
 343  86.20494
 344  99.04744
 345  41.60004
 346  -5.126001
 347  -61.7692
 348  -36.25086
 349  -26.89006
 350  111.7054
 351  189.7934
 352  32.16255
 353  96.87707
 354  115.0517
 355  170.5388
 356  6.003748
 357  30.09383
 358  -25.26361
 359  72.97148
 360  100.5543
 361  165.6948
 362  158.3104
 363  169.8775
 364  197.3113
 365  164.8914
 366  192.2839
 367  218.3763
 368  169.1073
 369  114.5047
 370  174.7163
 371  121.48
 372  222.8928
 373  129.3537
 374  54.27505
 375  103.8642
 376  33.64064
 377  95.25588
 378  127.9988
 379  174.9059
 380  220.7661
 381  198.1343
 382  187.5717
 383  -16.90081
 384  84.71827
 385  211.4306
 386  232.9007
 387  206.6002
 388  270.5657
 389  129.3523
 390  197.7695
 391  185.8665
 392  196.7708
 393  168.2696
 394  26.62807
 395  52.88558
 396  229.7455
 397  210.5241
 398  201.179
 399  219.3528
 400  154.1102
 401  136.8
 402  62.16714
 403  -11.02945
 404  -42.31269
 405  219.1615
 406  326.2313
 407  209.1616
 408  176.8034
 409  163.8965
 410  99.25038
 411  97.47184
 412  31.15922
 413  15.50428
 414  202.4751
 415  183.0637
 416  226.8429
 417  144.3616
 418  143.5713
 419  191.9982
 420  181.9819
 421  309.8404
 422  118.5714
 423  173.3999
 424  238.3458
 425  177.0425
 426  20.28328
 427  109.0573
 428  48.0264
 429  115.2662
 430  101.1172
 431  154.2476
 432  201.4273
 433  47.46114
 434  0.1317329
 435  -6.003803
 436  112.6802
 437  160.722
 438  123.7389
 439  228.0448
 440  133.0375
 441  133.44
 442  205.4503
 443  229.309
 444  233.6695
 445  199.6604
 446  198.3623
 447  218.6908
 448  137.073
 449  69.96785
 450  87.29671
 451  47.30618
 452  121.6079
 453  120.9191
 454  154.4572
 455  109.3303
 456  84.50764
 457  179.8343
 458  136.4956
 459  133.2532
 460  134.7235
 461  151.9659
 462  113.2611
 463  120.0456
 464  60.53756
 465  58.98905
 466  160.7542
 467  275.0759
 468  270.9937
 469  119.515
 470  38.90056
 471  -9.862866
 472  4.226914
 473  141.3446
 474  139.5116
 475  49.5394
 476  93.2638
 477  80.30898
 478  46.86825
 479  29.14057
 480  -44.2334
 481  90.55195
 482  122.6394
 483  143.9528
 484  173.7385
 485  -36.00903
 486  -101.7373
 487  -102.419
 488  -98.27068
 489  -12.28179
 490  51.27086
 491  10.40538
 492  18.16908
 493  5.011222
 494  -4.459352
 495  28.98037
 496  73.06583
 497  49.1321
 498  -23.40703
 499  29.33195
 500  187.969
 501  139.6086
 502  70.00315
 503  -4.782424
 504  88.36281
 505  143.8189
 506  25.88473
 507  107.1335
 508  184.4872
 509  132.8336
 510  157.2531
 511  14.36429
