# Input file       =  1189714279.113872_cleaned.dat
# Candidate        =  PSR_0332+5434
# Telescope        =  AR
# Epoch_topo       =  58013.841413355003
# Epoch_bary       =  N/A
# T_sample         =  0.002
# Data Folded      =  7143424
# Data Avg         =  0.0149003593947262
# Data StdDev      =  1.00013939412714 
# Profile Bins     =  512
# Profile Avg      =  207.881711136121 
# Profile StdDev   =  118.13504951885  
# Reduced chi-sqr  =  1.588
# Prob(Noise)      <  4.94e-16   (~8.0 sigma)
# P_topo (ms)      =  714.466746801677  +/- 0.000115
# P'_topo (s/s)    =  -0                +/- 6.25e-11
# P''_topo (s/s^2) =  0                 +/- 2.84e-14
# P_bary (ms)      =  N/A
# P'_bary (s/s)    =  N/A
# P''_bary (s/s^2) =  N/A
# P_orb (s)        =  N/A
# asin(i)/c (s)    =  N/A
# eccentricity     =  N/A
# w (rad)          =  N/A
# T_peri           =  N/A
######################################################
   0  181.9587
   1  151.8033
   2  279.188
   3  326.1469
   4  233.7961
   5  109.7213
   6  68.71771
   7  75.26418
   8  121.0842
   9  153.4456
  10  75.15783
  11  145.6152
  12  115.2699
  13  160.413
  14  147.2706
  15  138.6835
  16  88.74731
  17  -51.52255
  18  -81.84358
  19  127.5343
  20  260.068
  21  303.4077
  22  220.801
  23  153.9986
  24  58.08432
  25  109.779
  26  107.9689
  27  45.57498
  28  27.46794
  29  92.14603
  30  234.1674
  31  162.8049
  32  125.4687
  33  177.8141
  34  213.8766
  35  107.8868
  36  152.4318
  37  255.3993
  38  167.9961
  39  213.6067
  40  158.1533
  41  97.84682
  42  176.3249
  43  261.0463
  44  255.0545
  45  202.4996
  46  51.87128
  47  139.1733
  48  294.8308
  49  352.8316
  50  256.8553
  51  214.6118
  52  103.9902
  53  64.74726
  54  197.8673
  55  326.8326
  56  175.4072
  57  26.2552
  58  87.60765
  59  62.29348
  60  133.3865
  61  141.5018
  62  210.3179
  63  65.33477
  64  15.65229
  65  123.4789
  66  126.6749
  67  75.272
  68  295.4923
  69  303.1972
  70  366.6902
  71  343.4395
  72  250.1751
  73  197.327
  74  242.7625
  75  108.1418
  76  122.085
  77  203.2834
  78  375.9735
  79  261.3667
  80  178.5627
  81  47.3042
  82  43.95855
  83  102.2526
  84  199.5878
  85  116.7857
  86  130.0145
  87  320.3098
  88  295.1346
  89  242.6835
  90  32.54934
  91  103.5815
  92  163.0113
  93  184.2531
  94  164.5251
  95  351.8918
  96  225.3409
  97  166.4906
  98  160.1308
  99  200.3781
 100  197.9825
 101  148.0971
 102  204.5922
 103  93.5865
 104  83.38975
 105  222.593
 106  165.6729
 107  214.102
 108  184.3348
 109  82.87407
 110  48.21333
 111  277.6611
 112  196.446
 113  142.6177
 114  174.4823
 115  186.2199
 116  186.8752
 117  147.2695
 118  262.7914
 119  202.7346
 120  219.9346
 121  262.764
 122  127.7908
 123  158.0168
 124  79.37927
 125  79.43964
 126  139.3729
 127  14.71982
 128  7.299606
 129  138.2535
 130  207.9866
 131  170.9437
 132  180.8571
 133  151.5484
 134  94.50174
 135  171.7245
 136  168.7421
 137  158.2959
 138  86.5684
 139  197.2094
 140  174.1981
 141  224.3227
 142  200.9256
 143  159.9407
 144  271.2116
 145  240.6442
 146  70.89194
 147  140.7431
 148  272.7261
 149  197.6284
 150  239.3403
 151  316.705
 152  243.0415
 153  50.65272
 154  119.5344
 155  246.5158
 156  308.2242
 157  197.0276
 158  78.36467
 159  142.9667
 160  115.081
 161  201.909
 162  150.4447
 163  177.8183
 164  181.4531
 165  184.5885
 166  206.7214
 167  178.4695
 168  236.906
 169  157.4397
 170  118.8928
 171  163.8877
 172  132.2528
 173  153.9385
 174  205.0334
 175  266.7974
 176  217.5026
 177  167.4447
 178  204.58
 179  215.3848
 180  204.1205
 181  224.3686
 182  159.3046
 183  288.3051
 184  320.8818
 185  157.2012
 186  187.7649
 187  274.2748
 188  243.0277
 189  82.35373
 190  169.3386
 191  222.535
 192  198.8778
 193  232.0579
 194  306.3552
 195  215.8017
 196  206.4458
 197  241.204
 198  149.8661
 199  272.183
 200  191.9469
 201  282.3594
 202  227.5489
 203  261.2961
 204  261.1679
 205  233.4713
 206  212.8356
 207  213.4681
 208  166.8379
 209  225.0551
 210  213.0957
 211  410.0961
 212  201.0399
 213  157.9325
 214  217.5818
 215  126.8091
 216  169.4117
 217  160.8417
 218  256.1246
 219  361.8945
 220  361.4467
 221  388.2426
 222  318.8883
 223  188.2951
 224  84.36706
 225  144.6861
 226  117.7826
 227  252.4726
 228  298.8417
 229  278.865
 230  106.1435
 231  137.725
 232  89.14777
 233  91.39654
 234  261.0094
 235  287.9415
 236  241.5835
 237  219.5642
 238  173.6757
 239  223.2753
 240  262.9889
 241  290.4515
 242  318.3995
 243  354.2744
 244  242.8904
 245  143.6849
 246  208.2381
 247  169.0856
 248  261.4677
 249  199.9317
 250  248.209
 251  240.604
 252  401.1697
 253  288.0026
 254  231.4656
 255  145.3909
 256  147.353
 257  275.5758
 258  193.9302
 259  278.7953
 260  302.5298
 261  261.964
 262  264.1958
 263  362.9923
 264  402.715
 265  280.8402
 266  84.81666
 267  121.59
 268  198.7231
 269  174.375
 270  210.9872
 271  125.5216
 272  193.9936
 273  169.7935
 274  131.3482
 275  71.23982
 276  165.6813
 277  221.6998
 278  122.7868
 279  28.88169
 280  110.4187
 281  106.3238
 282  118.8401
 283  217.0561
 284  353.3069
 285  223.4186
 286  113.2191
 287  180.8396
 288  119.9465
 289  311.5256
 290  308.5339
 291  314.1684
 292  281.1599
 293  280.5578
 294  366.8561
 295  365.3721
 296  347.7078
 297  462.4012
 298  462.7796
 299  746.1175
 300  923.5075
 301  980.7567
 302  990.3054
 303  675.9258
 304  247.1134
 305  242.378
 306  162.8963
 307  105.4772
 308  241.5746
 309  318.7344
 310  339.9273
 311  281.1322
 312  309.3272
 313  136.0794
 314  140.089
 315  151.0217
 316  186.6583
 317  323.0742
 318  357.1193
 319  279.6054
 320  243.4325
 321  303.037
 322  244.0201
 323  299.2205
 324  339.9025
 325  421.1918
 326  291.2386
 327  248.7005
 328  169.5209
 329  164.1535
 330  176.6097
 331  179.0793
 332  140.4581
 333  281.4146
 334  379.2311
 335  231.1463
 336  233.4655
 337  150.7536
 338  266.3418
 339  205.8644
 340  186.59
 341  327.2644
 342  416.0874
 343  325.1805
 344  228.8406
 345  191.3813
 346  161.4638
 347  224.8695
 348  176.8129
 349  201.1088
 350  184.4834
 351  163.7665
 352  237.6732
 353  164.8946
 354  54.18648
 355  15.72199
 356  40.27059
 357  202.1658
 358  108.6616
 359  188.4718
 360  272.3864
 361  325.6061
 362  248.9154
 363  153.5211
 364  307.7053
 365  427.336
 366  221.2353
 367  137.9872
 368  101.7159
 369  137.313
 370  212.8223
 371  330.0672
 372  190.547
 373  67.84829
 374  99.11427
 375  176.4497
 376  275.6332
 377  265.6113
 378  324.0071
 379  228.9852
 380  174.1923
 381  175.3348
 382  284.2325
 383  271.6465
 384  121.3308
 385  154.1638
 386  161.1175
 387  119.5804
 388  60.34925
 389  181.1928
 390  280.3516
 391  314.3032
 392  175.1335
 393  110.5351
 394  54.36609
 395  147.0718
 396  158.4997
 397  185.6617
 398  272.48
 399  205.0457
 400  350.5325
 401  330.1868
 402  300.2849
 403  358.4085
 404  200.4414
 405  154.0458
 406  252.8996
 407  160.256
 408  221.1811
 409  344.3564
 410  255.8324
 411  225.1994
 412  245.698
 413  281.3044
 414  95.32927
 415  121.8744
 416  181.0259
 417  194.9073
 418  244.4552
 419  320.9828
 420  321.8726
 421  147.0214
 422  153.7484
 423  65.9815
 424  205.0575
 425  183.7546
 426  172.1206
 427  214.1292
 428  284.55
 429  138.2806
 430  172.9014
 431  306.7647
 432  303.8222
 433  368.6286
 434  388.9115
 435  256.9749
 436  210.2868
 437  237.9673
 438  124.5121
 439  163.8493
 440  336.0622
 441  405.2173
 442  280.1468
 443  295.5869
 444  351.5434
 445  301.965
 446  174.9288
 447  137.3507
 448  318.3437
 449  290.6187
 450  241.6066
 451  229.3097
 452  249.7654
 453  241.2082
 454  124.5297
 455  56.74083
 456  129.3459
 457  130.3175
 458  220.4011
 459  174.2507
 460  145.5008
 461  102.4344
 462  212.1754
 463  305.9894
 464  150.8169
 465  221.6075
 466  260.4396
 467  262.9907
 468  229.9583
 469  100.5714
 470  199.3985
 471  258.9937
 472  188.47
 473  218.791
 474  203.6345
 475  158.3813
 476  238.1626
 477  162.5491
 478  139.4545
 479  237.1832
 480  221.2157
 481  272.0608
 482  261.4671
 483  136.0901
 484  126.7335
 485  249.8395
 486  96.45972
 487  132.9382
 488  82.94619
 489  227.5853
 490  171.8682
 491  128.1304
 492  120.4103
 493  180.9948
 494  252.593
 495  216.8997
 496  167.978
 497  27.92291
 498  129.4869
 499  201.7624
 500  309.6875
 501  242.4716
 502  283.1625
 503  298.1126
 504  261.2668
 505  245.5088
 506  196.14
 507  153.6187
 508  186.7662
 509  136.904
 510  148.9656
 511  162.3891
