# Input file       =  1189470387.118155_cleaned.dat
# Candidate        =  PSR_0332+5434
# Telescope        =  AR
# Epoch_topo       =  58011.018589330495
# Epoch_bary       =  N/A
# T_sample         =  0.002
# Data Folded      =  7340032
# Data Avg         =  0.0102400913362674
# Data StdDev      =  2.52105848114369 
# Profile Bins     =  512
# Profile Avg      =  146.828290543295 
# Profile StdDev   =  301.853986830732 
# Reduced chi-sqr  =  1.477
# Prob(Noise)      <  1.1e-11   (~6.7 sigma)
# P_topo (ms)      =  714.465884456542  +/- 0.000155
# P'_topo (s/s)    =  -0                +/- 8.19e-11
# P''_topo (s/s^2) =  0                 +/- 3.62e-14
# P_bary (ms)      =  N/A
# P'_bary (s/s)    =  N/A
# P''_bary (s/s^2) =  N/A
# P_orb (s)        =  N/A
# asin(i)/c (s)    =  N/A
# eccentricity     =  N/A
# w (rad)          =  N/A
# T_peri           =  N/A
######################################################
   0  421.7448
   1  347.7594
   2  -405.192
   3  54.59454
   4  227.839
   5  300.2658
   6  424.6658
   7  191.1548
   8  -170.4024
   9  -100.649
  10  -31.20946
  11  92.36588
  12  107.4794
  13  244.2953
  14  605.9516
  15  561.6689
  16  -115.3221
  17  -187.3155
  18  189.3255
  19  138.7858
  20  13.8973
  21  244.0328
  22  41.56168
  23  -232.7544
  24  293.1778
  25  160.4479
  26  138.4342
  27  0.601467
  28  139.7796
  29  197.7589
  30  464.2833
  31  510.1777
  32  457.0737
  33  534.8095
  34  185.8644
  35  98.07876
  36  410.824
  37  584.7373
  38  545.6001
  39  355.0761
  40  12.83738
  41  202.5874
  42  492.7274
  43  810.515
  44  442.9147
  45  291.582
  46  401.4488
  47  272.6564
  48  120.7403
  49  355.3081
  50  299.6444
  51  102.5643
  52  72.10352
  53  105.8045
  54  129.7335
  55  43.79221
  56  68.93958
  57  131.458
  58  224.6199
  59  187.8532
  60  167.9085
  61  322.6413
  62  384.9712
  63  -35.27043
  64  -1.351409
  65  66.58112
  66  12.06567
  67  116.1731
  68  77.81175
  69  -26.05953
  70  -74.26658
  71  165.2545
  72  33.1951
  73  12.75026
  74  30.78952
  75  438.0473
  76  380.74
  77  348.2381
  78  247.368
  79  12.60618
  80  79.97388
  81  226.132
  82  -158.7891
  83  -194.8084
  84  -6.341893
  85  383.4426
  86  302.3488
  87  379.4791
  88  -150.3267
  89  -503.412
  90  -161.3544
  91  -246.4437
  92  -40.41018
  93  -354.732
  94  259.7008
  95  272.2929
  96  191.777
  97  98.27292
  98  18.12833
  99  -188.9233
 100  -82.43398
 101  70.12122
 102  -332.6546
 103  91.14329
 104  128.1263
 105  341.3831
 106  259.0712
 107  -181.4129
 108  -258.4701
 109  111.0367
 110  83.46428
 111  350.9746
 112  110.9435
 113  -173.5527
 114  252.5092
 115  143.2673
 116  160.8301
 117  311.1806
 118  414.4106
 119  403.5294
 120  -17.36824
 121  -54.45564
 122  102.3251
 123  -244.1979
 124  -318.4091
 125  380.3843
 126  625.0518
 127  456.7292
 128  125.5603
 129  341.8792
 130  -79.85862
 131  -36.65142
 132  -242.6558
 133  118.9064
 134  184.852
 135  60.59534
 136  -97.45046
 137  213.6201
 138  371.4462
 139  48.0198
 140  -516.8151
 141  -285.2625
 142  389.474
 143  135.4583
 144  -49.43367
 145  218.9793
 146  367.1323
 147  330.1463
 148  16.508
 149  148.8105
 150  -27.40969
 151  246.1803
 152  258.3082
 153  205.962
 154  -19.1637
 155  277.3683
 156  499.2973
 157  189.6689
 158  -53.03027
 159  49.13594
 160  -46.2644
 161  140.5725
 162  139.7182
 163  183.795
 164  19.4875
 165  85.97945
 166  -24.16948
 167  276.0123
 168  -53.23022
 169  -20.62778
 170  135.4806
 171  87.0714
 172  -136.6117
 173  -16.75741
 174  476.9893
 175  344.4657
 176  -43.7726
 177  -319.8616
 178  115.1006
 179  -73.06789
 180  223.165
 181  126.9886
 182  2.400027
 183  357.3493
 184  207.7539
 185  52.83484
 186  -86.69183
 187  235.5595
 188  352.2507
 189  272.1523
 190  171.795
 191  -242.9087
 192  -119.8822
 193  285.2351
 194  138.7621
 195  -140.504
 196  -91.48019
 197  -47.34179
 198  193.2323
 199  105.3105
 200  94.68755
 201  174.8546
 202  296.4509
 203  -35.78915
 204  -167.577
 205  -49.54678
 206  -140.6717
 207  -51.83367
 208  129.7637
 209  264.189
 210  149.1432
 211  15.59133
 212  274.2644
 213  633.9705
 214  383.0141
 215  255.6501
 216  101.0781
 217  337.1625
 218  236.6761
 219  -39.71695
 220  -30.31125
 221  45.8553
 222  329.0349
 223  333.9057
 224  386.0754
 225  436.8675
 226  58.03523
 227  431.8843
 228  331.8967
 229  409.4757
 230  553.0444
 231  25.81883
 232  182.0416
 233  239.0223
 234  17.48211
 235  122.5115
 236  54.68509
 237  77.2702
 238  -342.1539
 239  -304.4915
 240  175.2535
 241  -84.49216
 242  127.5835
 243  403.9991
 244  -48.21417
 245  291.2728
 246  491.2797
 247  276.0377
 248  88.46686
 249  88.32879
 250  307.3916
 251  20.88067
 252  156.6619
 253  519.3615
 254  413.7542
 255  300.5575
 256  253.078
 257  126.8008
 258  107.7656
 259  -84.27135
 260  119.2452
 261  80.03734
 262  433.5644
 263  332.4269
 264  230.2915
 265  231.8182
 266  139.101
 267  274.263
 268  446.6351
 269  518.4954
 270  198.3355
 271  -107.4787
 272  -156.3716
 273  -224.4926
 274  254.8553
 275  -64.30914
 276  -130.9511
 277  4.467938
 278  62.2932
 279  -117.2719
 280  -278.1767
 281  70.72369
 282  403.4217
 283  54.60755
 284  -70.64365
 285  -91.37906
 286  294.0741
 287  124.6643
 288  -460.2075
 289  -104.4012
 290  -78.15833
 291  -0.1969074
 292  174.9835
 293  88.85123
 294  -28.96607
 295  -409.4028
 296  -151.6777
 297  337.4984
 298  187.0014
 299  -116.1003
 300  17.92473
 301  180.5988
 302  190.5024
 303  88.03537
 304  190.2154
 305  107.6615
 306  65.82329
 307  -42.91499
 308  52.3288
 309  418.985
 310  299.5723
 311  76.64428
 312  92.37666
 313  278.1356
 314  223.6788
 315  383.5956
 316  192.8313
 317  -61.2476
 318  173.7926
 319  292.1625
 320  150.8552
 321  130.5967
 322  628.5289
 323  343.0173
 324  -377.601
 325  92.42628
 326  16.55604
 327  89.66766
 328  88.3446
 329  115.2575
 330  405.3463
 331  36.27802
 332  235.2294
 333  275.317
 334  172.9299
 335  75.62192
 336  -121.039
 337  -141.7148
 338  -22.26267
 339  283.4286
 340  189.945
 341  32.04137
 342  207.7347
 343  472.0152
 344  199.8307
 345  129.7478
 346  58.96997
 347  -58.34615
 348  -192.8344
 349  75.21699
 350  116.3062
 351  348.8441
 352  231.1053
 353  35.29187
 354  279.6137
 355  175.581
 356  -278.6067
 357  37.32478
 358  140.4626
 359  -109.0006
 360  118.7228
 361  115.2893
 362  -176.7915
 363  -154.5595
 364  409.142
 365  334.9906
 366  -23.72348
 367  368.0944
 368  793.9646
 369  549.2827
 370  230.2377
 371  118.2841
 372  5.967259
 373  -125.3882
 374  176.42
 375  277.0146
 376  424.0219
 377  37.89481
 378  -14.35535
 379  81.41251
 380  151.9402
 381  146.8577
 382  33.74355
 383  97.78592
 384  17.99783
 385  174.5947
 386  27.59393
 387  184.507
 388  182.6398
 389  394.4861
 390  471.8015
 391  194.4156
 392  -92.06454
 393  196.9021
 394  404.0115
 395  395.5471
 396  -62.89017
 397  -12.55443
 398  -76.58102
 399  23.7838
 400  -83.96124
 401  213.4718
 402  216.7547
 403  -61.44032
 404  -24.21157
 405  -104.1616
 406  -221.4524
 407  -81.99026
 408  186.4193
 409  -57.48468
 410  -291.9562
 411  208.853
 412  302.6766
 413  -89.7826
 414  -149.8728
 415  300.8911
 416  189.6433
 417  -135.4813
 418  -225.2295
 419  -59.79382
 420  266.1924
 421  21.50335
 422  -341.966
 423  -2.16114
 424  -41.10246
 425  78.88349
 426  41.87244
 427  353.937
 428  296.5538
 429  221.3552
 430  104.9761
 431  -301.0261
 432  -76.69851
 433  155.4349
 434  190.6398
 435  -154.9776
 436  -33.95781
 437  168.6405
 438  209.1108
 439  363.6171
 440  -1.433552
 441  130.0814
 442  137.9623
 443  157.1132
 444  117.4828
 445  94.53932
 446  117.9568
 447  113.6643
 448  217.1389
 449  399.7321
 450  287.3898
 451  84.33527
 452  157.8329
 453  200.2552
 454  254.1043
 455  257.8459
 456  35.65125
 457  339.7494
 458  424.6753
 459  -10.80344
 460  26.05219
 461  116.3406
 462  275.13
 463  209.7884
 464  417.2276
 465  349.6834
 466  319.9833
 467  814.2126
 468  1562.038
 469  2021.052
 470  1939.705
 471  1723.635
 472  1330.33
 473  974.5701
 474  445.2124
 475  377.3553
 476  559.9792
 477  89.30484
 478  225.1885
 479  299.5916
 480  223.2834
 481  378.8117
 482  466.2808
 483  570.6855
 484  311.5509
 485  100.1827
 486  136.7973
 487  310.5073
 488  172.4519
 489  -118.9789
 490  -86.59269
 491  121.0851
 492  -97.31936
 493  -85.75742
 494  174.4646
 495  -105.4769
 496  -323.3917
 497  -89.61519
 498  174.5134
 499  -336.4173
 500  -127.4754
 501  188.597
 502  102.0913
 503  138.3027
 504  310.2838
 505  306.1535
 506  69.43156
 507  -112.887
 508  243.7334
 509  157.4334
 510  197.4317
 511  363.4108
