# Input file       =  1189714279.113872_cleaned.dat
# Candidate        =  PSR_0332+5434
# Telescope        =  AR
# Epoch_topo       =  58013.841413355003
# Epoch_bary       =  N/A
# T_sample         =  0.002
# Data Folded      =  7143424
# Data Avg         =  0.0426598844895942
# Data StdDev      =  3.22078174470815 
# Profile Bins     =  1024
# Profile Avg      =  297.587158920678 
# Profile StdDev   =  269.007588904454 
# Reduced chi-sqr  =  0.964
# Prob(Noise)      <  0.788   (~0.0 sigma)
# P_topo (ms)      =  714.466746801677  +/- 9.05e-05
# P'_topo (s/s)    =  -0                +/- 4.91e-11
# P''_topo (s/s^2) =  0                 +/- 2.23e-14
# P_bary (ms)      =  N/A
# P'_bary (s/s)    =  N/A
# P''_bary (s/s^2) =  N/A
# P_orb (s)        =  N/A
# asin(i)/c (s)    =  N/A
# eccentricity     =  N/A
# w (rad)          =  N/A
# T_peri           =  N/A
######################################################
   0  235.5661
   1  236.3254
   2  280.0701
   3  367.0602
   4  466.7451
   5  425.8317
   6  373.0296
   7  340.9771
   8  261.1033
   9  191.674
  10  139.2374
  11  160.519
  12  198.2472
  13  227.3686
  14  335.4998
  15  374.3603
  16  514.9116
  17  571.7659
  18  567.1929
  19  462.9572
  20  441.7494
  21  464.0397
  22  418.5007
  23  384.78
  24  418.251
  25  339.8032
  26  320.2277
  27  346.5984
  28  354.4087
  29  332.1613
  30  214.9347
  31  250.3442
  32  296.9591
  33  323.5624
  34  362.0079
  35  271.9688
  36  304.813
  37  263.0809
  38  271.498
  39  190.9442
  40  263.6832
  41  285.3308
  42  224.2871
  43  280.0395
  44  347.229
  45  429.2493
  46  326.7921
  47  437.2263
  48  419.6667
  49  326.0563
  50  207.4973
  51  291.972
  52  235.8034
  53  96.27646
  54  183.9385
  55  264.7794
  56  222.2012
  57  195.8799
  58  195.9478
  59  175.1542
  60  12.96457
  61  74.80895
  62  169.2004
  63  186.6819
  64  145.3522
  65  219.0242
  66  240.4033
  67  168.473
  68  188.1964
  69  270.6034
  70  282.8314
  71  195.1048
  72  178.7927
  73  156.3811
  74  -0.2633055
  75  -76.52969
  76  -116.923
  77  -35.02197
  78  67.15771
  79  202.6343
  80  284.9834
  81  303.813
  82  413.5112
  83  411.3135
  84  358.664
  85  315.0656
  86  289.6566
  87  253.2096
  88  145.7155
  89  35.14098
  90  103.5362
  91  200.8498
  92  218.6483
  93  162.0283
  94  29.16596
  95  3.979578
  96  -9.425361
  97  -9.82943
  98  11.57039
  99  135.5854
 100  229.011
 101  348.915
 102  349.1943
 103  260.183
 104  149.5363
 105  199.3181
 106  220.5232
 107  340.1627
 108  262.2292
 109  376.6794
 110  227.9379
 111  109.1637
 112  105.1341
 113  293.9328
 114  393.6406
 115  285.0286
 116  235.3753
 117  222.2966
 118  177.6613
 119  270.8043
 120  298.3236
 121  211.42
 122  69.3168
 123  161.8108
 124  242.4463
 125  161.507
 126  211.8302
 127  335.7251
 128  343.9762
 129  253.7468
 130  288.7197
 131  343.7415
 132  175.0919
 133  -0.02755702
 134  82.606
 135  287.4698
 136  380.3217
 137  476.8665
 138  468.5226
 139  484.1823
 140  398.9547
 141  350.3044
 142  321.0991
 143  269.6163
 144  257.4242
 145  208.3933
 146  180.8114
 147  169.8347
 148  253.2645
 149  400.2198
 150  564.8035
 151  474.8209
 152  348.1412
 153  235.7566
 154  114.5915
 155  53.34253
 156  52.4394
 157  136.5591
 158  37.81761
 159  62.68824
 160  172.6417
 161  192.3335
 162  127.7623
 163  191.8492
 164  275.7908
 165  182.8727
 166  114.1117
 167  131.9769
 168  110.257
 169  66.40658
 170  171.5014
 171  275.6897
 172  323.7383
 173  178.2047
 174  186.9409
 175  165.8826
 176  340.0625
 177  409.0449
 178  405.6413
 179  365.6127
 180  452.7498
 181  555.6758
 182  571.9216
 183  413.7257
 184  393.3571
 185  344.8715
 186  324.1523
 187  290.1164
 188  379.3621
 189  353.5666
 190  252.4278
 191  130.4284
 192  177.5372
 193  204.0613
 194  177.5845
 195  324.948
 196  443.3679
 197  492.3372
 198  337.6935
 199  307.5115
 200  236.6421
 201  247.0504
 202  155.7118
 203  100.8662
 204  51.84276
 205  159.3236
 206  183.5698
 207  229.4787
 208  280.7654
 209  395.3158
 210  387.824
 211  193.828
 212  194.5917
 213  293.0991
 214  432.7262
 215  473.9936
 216  428.2054
 217  470.0716
 218  431.6051
 219  378.4453
 220  170.4592
 221  32.69724
 222  105.1818
 223  202.9105
 224  217.2539
 225  228.1859
 226  216.7387
 227  230.635
 228  192.9749
 229  259.0729
 230  444.4775
 231  488.8835
 232  470.4349
 233  294.6579
 234  219.7286
 235  240.5634
 236  286.9575
 237  212.0744
 238  227.6884
 239  249.0374
 240  376.428
 241  214.9093
 242  129.8322
 243  195.4621
 244  274.2187
 245  228.5037
 246  222.159
 247  201.8309
 248  169.0508
 249  170.4072
 250  376.4055
 251  346.5316
 252  246.6366
 253  237.076
 254  335.2523
 255  315.7534
 256  258.4993
 257  267.6778
 258  216.9782
 259  81.58875
 260  19.38667
 261  166.8909
 262  410.188
 263  392.1459
 264  356.1181
 265  260.1717
 266  204.6375
 267  150.6853
 268  219.7123
 269  274.106
 270  287.9515
 271  286.671
 272  307.1536
 273  233.554
 274  243.5468
 275  242.0052
 276  345.0327
 277  375.708
 278  395.434
 279  339.6464
 280  332.0934
 281  409.9769
 282  410.0072
 283  388.0417
 284  303.4597
 285  213.8064
 286  155.0841
 287  164.0312
 288  105.6675
 289  -9.545199
 290  60.58405
 291  174.29
 292  234.6316
 293  148.7266
 294  99.1274
 295  3.022486
 296  49.29108
 297  123.2375
 298  281.3253
 299  313.8411
 300  366.3114
 301  320.727
 302  227.0316
 303  213.1436
 304  185.8787
 305  264.0456
 306  237.2776
 307  174.2346
 308  142.8327
 309  64.98238
 310  159.8253
 311  248.3299
 312  284.4464
 313  265.2466
 314  263.6674
 315  380.5263
 316  243.1922
 317  175.2815
 318  242.542
 319  273.4191
 320  225.9837
 321  156.9621
 322  251.3544
 323  264.0187
 324  273.8109
 325  203.3774
 326  167.0983
 327  197.0223
 328  312.7146
 329  408.5437
 330  385.7491
 331  260.4566
 332  167.6613
 333  142.2303
 334  154.157
 335  346.7908
 336  438.637
 337  457.9364
 338  333.6106
 339  321.5979
 340  311.1792
 341  348.7762
 342  479.2772
 343  456.6409
 344  421.9897
 345  239.6876
 346  167.2143
 347  46.09957
 348  83.4696
 349  255.8494
 350  335.9369
 351  292.8859
 352  291.9851
 353  394.4941
 354  335.2102
 355  203.543
 356  92.10841
 357  115.9711
 358  167.4798
 359  209.3586
 360  199.5321
 361  185.4838
 362  218.8241
 363  290.6568
 364  178.9073
 365  149.8135
 366  183.7868
 367  252.7778
 368  221.9899
 369  201.9512
 370  238.7446
 371  280.6721
 372  245.1566
 373  243.3474
 374  187.9406
 375  255.5973
 376  327.9008
 377  390.8573
 378  330.017
 379  233.6352
 380  232.58
 381  184.1454
 382  148.5765
 383  196.9745
 384  257.08
 385  204.1842
 386  187.4396
 387  232.4286
 388  287.8516
 389  290.4531
 390  321.715
 391  329.5094
 392  239.4897
 393  252.0598
 394  248.6016
 395  283.9258
 396  222.9117
 397  268.9
 398  293.1823
 399  252.437
 400  282.9436
 401  322.1179
 402  427.6901
 403  369.0375
 404  306.6416
 405  204.6702
 406  280.7869
 407  472.5384
 408  521.7526
 409  442.0915
 410  260.9038
 411  289.2621
 412  259.4558
 413  288.5233
 414  357.3085
 415  423.2763
 416  370.4621
 417  320.9807
 418  230.1863
 419  123.892
 420  132.5948
 421  223.8012
 422  269.4112
 423  258.7907
 424  331.2022
 425  316.3062
 426  315.8866
 427  269.6286
 428  423.1386
 429  359.3754
 430  393.5478
 431  294.498
 432  316.4127
 433  303.1822
 434  324.8122
 435  281.0773
 436  162.2562
 437  166.2555
 438  314.7878
 439  350.9763
 440  278.3822
 441  276.5392
 442  361.5813
 443  493.4382
 444  411.5665
 445  346.3799
 446  352.5101
 447  398.3511
 448  470.2512
 449  381.121
 450  331.6024
 451  333.3435
 452  295.1393
 453  222.7681
 454  245.4645
 455  290.1013
 456  239.1657
 457  186.2234
 458  224.9914
 459  326.9658
 460  247.8946
 461  412.3951
 462  630.6438
 463  602.0845
 464  416.5184
 465  222.8003
 466  236.2948
 467  249.3667
 468  262.6789
 469  330.05
 470  172.669
 471  131.7746
 472  175.0589
 473  255.4748
 474  271.5136
 475  198.8765
 476  266.4947
 477  355.9872
 478  405.6365
 479  468.6622
 480  486.8772
 481  546.6473
 482  506.2076
 483  587.9379
 484  472.6263
 485  375.5363
 486  308.235
 487  251.2456
 488  206.4868
 489  64.85772
 490  125.6149
 491  162.1281
 492  98.91796
 493  121.672
 494  227.441
 495  417.7914
 496  459.6342
 497  535.8931
 498  533.3586
 499  395.975
 500  173.2501
 501  79.88184
 502  109.3203
 503  218.9897
 504  198.0101
 505  69.2944
 506  39.91148
 507  179.9777
 508  321.4911
 509  354.5134
 510  405.8852
 511  411.7001
 512  315.6588
 513  367.7452
 514  351.3963
 515  304.8175
 516  210.2423
 517  213.6525
 518  284.7303
 519  276.7325
 520  311.799
 521  276.2247
 522  285.0081
 523  375.349
 524  426.0964
 525  457.015
 526  467.3613
 527  492.3799
 528  436.6918
 529  317.6969
 530  237.8689
 531  261.5159
 532  272.6729
 533  340.8291
 534  264.9634
 535  270.9138
 536  323.3457
 537  371.5682
 538  295.4174
 539  275.6878
 540  370.2228
 541  392.6107
 542  331.2928
 543  382.5276
 544  490.6963
 545  567.9647
 546  432.17
 547  382.6664
 548  391.0989
 549  415.693
 550  308.0984
 551  259.5131
 552  205.1803
 553  311.0162
 554  353.3528
 555  425.1828
 556  260.5872
 557  304.056
 558  322.4955
 559  393.5583
 560  343.8885
 561  358.9036
 562  383.6138
 563  286.7508
 564  314.0303
 565  350.4409
 566  491.6351
 567  539.6035
 568  557.4669
 569  651.8831
 570  525.774
 571  418.1252
 572  257.13
 573  192.1597
 574  185.0788
 575  226.2268
 576  279.3446
 577  266.3799
 578  247.2569
 579  325.5976
 580  341.3182
 581  283.5159
 582  211.3579
 583  175.6678
 584  234.875
 585  269.536
 586  270.7603
 587  174.4303
 588  221.9503
 589  149.6363
 590  122.5742
 591  109.9336
 592  228.1933
 593  320.4664
 594  352.7292
 595  377.2552
 596  307.5316
 597  146.202
 598  40.81775
 599  53.96517
 600  150.2241
 601  191.7482
 602  176.019
 603  153.7742
 604  126.7643
 605  191.1098
 606  266.4416
 607  417.836
 608  464.9137
 609  612.1574
 610  505.4087
 611  295.4787
 612  183.3646
 613  238.3067
 614  352.1711
 615  212.1994
 616  160.9462
 617  166.6401
 618  310.1954
 619  362.8567
 620  359.2519
 621  346.0706
 622  354.9645
 623  409.9093
 624  370.9325
 625  344.7987
 626  354.6416
 627  487.7675
 628  562.5168
 629  623.0027
 630  568.4223
 631  478.1687
 632  399.0057
 633  487.2169
 634  558.1721
 635  500.865
 636  463.9908
 637  554.4935
 638  829.1241
 639  1037.246
 640  1201.298
 641  1144.901
 642  1186.352
 643  1233.611
 644  1377.656
 645  1257.338
 646  1080.413
 647  864.8671
 648  574.7539
 649  310.8652
 650  337.3093
 651  337.099
 652  279.4517
 653  97.20972
 654  138.0182
 655  165.6634
 656  308.3386
 657  301.9518
 658  422.9441
 659  349.4834
 660  467.2259
 661  491.525
 662  453.3909
 663  371.3824
 664  446.9381
 665  440.7312
 666  339.8351
 667  174.8516
 668  224.752
 669  172.551
 670  191.6356
 671  189.3983
 672  257.5939
 673  292.8628
 674  404.6162
 675  544.6562
 676  511.8295
 677  482.3677
 678  420.1015
 679  442.7699
 680  353.3057
 681  359.4181
 682  386.9392
 683  317.4298
 684  305.1064
 685  297.6321
 686  361.155
 687  412.0547
 688  432.5609
 689  426.136
 690  507.3475
 691  546.4249
 692  491.5959
 693  293.8176
 694  288.3614
 695  378.7318
 696  323.0764
 697  270.2837
 698  237.0275
 699  273.4996
 700  207.515
 701  218.8992
 702  278.3938
 703  255.9823
 704  204.3928
 705  209.831
 706  289.7853
 707  401.827
 708  450.3115
 709  496.869
 710  466.9622
 711  327.2156
 712  395.8453
 713  369.8945
 714  275.392
 715  201.3497
 716  332.1553
 717  428.8941
 718  356.7574
 719  261.6448
 720  272.7077
 721  287.03
 722  328.0858
 723  445.0529
 724  532.8978
 725  614.0429
 726  565.6002
 727  422.7643
 728  318.884
 729  322.6867
 730  269.1136
 731  243.4793
 732  143.823
 733  263.9266
 734  320.4063
 735  331.4948
 736  347.6777
 737  254.7886
 738  329.7504
 739  346.471
 740  386.9552
 741  331.1453
 742  289.2568
 743  288.2472
 744  363.2668
 745  424.7848
 746  412.2498
 747  298.3581
 748  149.0894
 749  106.5849
 750  134.6095
 751  44.28158
 752  44.94952
 753  150.6624
 754  307.8416
 755  263.9408
 756  226.5747
 757  218.079
 758  278.6987
 759  259.9188
 760  341.4148
 761  409.4434
 762  480.6476
 763  542.6871
 764  426.1377
 765  269.4376
 766  198.3729
 767  262.8694
 768  419.5887
 769  495.7341
 770  647.1991
 771  602.4978
 772  352.7986
 773  227.8402
 774  193.0724
 775  220.8803
 776  177.5827
 777  286.7225
 778  378.8916
 779  190.7849
 780  191.5473
 781  291.3218
 782  448.369
 783  340.549
 784  332.0085
 785  285.333
 786  198.7004
 787  39.48002
 788  107.6952
 789  116.8287
 790  213.1731
 791  232.5333
 792  333.8623
 793  375.7726
 794  383.0495
 795  383.8566
 796  404.7457
 797  362.091
 798  378.1653
 799  256.42
 800  221.8822
 801  252.0855
 802  256.6636
 803  227.5404
 804  253.5082
 805  462.5229
 806  498.8003
 807  308.4174
 808  214.0728
 809  277.0213
 810  365.0931
 811  342.394
 812  248.3139
 813  185.3505
 814  164.0602
 815  97.59819
 816  18.37396
 817  33.44591
 818  138.5188
 819  314.6109
 820  348.4536
 821  407.8152
 822  434.6201
 823  357.7168
 824  280.1325
 825  283.031
 826  241.6987
 827  136.5224
 828  88.97575
 829  92.13145
 830  125.0353
 831  205.8829
 832  276.3462
 833  147.5827
 834  122.5273
 835  245.7124
 836  423.3188
 837  268.4992
 838  200.1306
 839  312.0617
 840  471.5144
 841  444.7115
 842  466.7755
 843  427.861
 844  429.7354
 845  405.8959
 846  466.8998
 847  500.0461
 848  308.3007
 849  208.8946
 850  138.0409
 851  284.4031
 852  297.4759
 853  304.7581
 854  213.3791
 855  226.2539
 856  225.7694
 857  324.8335
 858  447.1893
 859  511.6421
 860  457.8149
 861  385.5121
 862  375.7474
 863  378.2354
 864  317.6535
 865  369.0988
 866  442.3315
 867  331.0527
 868  160.1103
 869  159.7185
 870  167.6839
 871  159.2022
 872  152.1021
 873  328.1695
 874  360.7983
 875  282.2676
 876  380.3486
 877  426.1295
 878  417.5963
 879  439.8923
 880  443.5985
 881  382.3478
 882  141.1531
 883  189.6271
 884  225.0363
 885  157.9949
 886  87.85187
 887  111.3223
 888  210.1094
 889  325.7986
 890  306.7852
 891  304.7166
 892  191.6562
 893  258.5181
 894  339.5975
 895  379.1909
 896  451.5237
 897  389.6321
 898  297.7305
 899  112.5721
 900  220.588
 901  369.8036
 902  394.5329
 903  355.5419
 904  387.2485
 905  477.1753
 906  504.3371
 907  520.9482
 908  572.9205
 909  533.4907
 910  421.6941
 911  323.0386
 912  280.6634
 913  275.1741
 914  366.3443
 915  286.5397
 916  257.5839
 917  152.8303
 918  196.4395
 919  212.3086
 920  245.8945
 921  342.9436
 922  422.728
 923  456.3827
 924  355.8917
 925  349.8144
 926  371.5568
 927  458.1839
 928  492.7459
 929  481.3161
 930  466.5626
 931  384.741
 932  311.1878
 933  204.8802
 934  129.9929
 935  201.1291
 936  313.7461
 937  399.3264
 938  423.0883
 939  295.521
 940  315.5827
 941  259.3226
 942  293.2691
 943  255.4278
 944  348.0073
 945  401.3927
 946  435.7661
 947  364.4491
 948  380.3471
 949  164.8799
 950  82.19192
 951  59.22085
 952  203.7761
 953  169.2878
 954  153.685
 955  186.1191
 956  341.9601
 957  306.9503
 958  220.4859
 959  219.1346
 960  184.3819
 961  186.3589
 962  164.2819
 963  215.669
 964  205.1243
 965  364.8512
 966  473.4577
 967  448.698
 968  232.2298
 969  232.748
 970  294.3496
 971  351.2405
 972  347.5411
 973  346.4704
 974  324.3032
 975  376.3284
 976  413.0244
 977  320.1334
 978  198.4784
 979  189.8983
 980  270.8247
 981  298.5426
 982  302.1925
 983  311.2303
 984  239.5473
 985  219.3583
 986  257.776
 987  337.6772
 988  322.6154
 989  239.0284
 990  218.4995
 991  314.7387
 992  439.7245
 993  475.952
 994  324.0992
 995  192.7572
 996  175.1816
 997  238.3085
 998  310.1064
 999  364.5722
1000  370.4501
1001  319.7951
1002  316.2579
1003  436.7748
1004  402.5084
1005  314.3914
1006  305.0696
1007  287.4256
1008  202.9858
1009  194.0606
1010  397.9822
1011  345.923
1012  179.6809
1013  116.0259
1014  238.8423
1015  165.0259
1016  157.8452
1017  151.9267
1018  290.4117
1019  262.9227
1020  271.5838
1021  182.9945
1022  162.5194
1023  160.5779
