# Input file       =  1189125652.118063_cleaned.dat
# Candidate        =  PSR_0332+5434
# Telescope        =  AR
# Epoch_topo       =  58007.028600903504
# Epoch_bary       =  N/A
# T_sample         =  0.002
# Data Folded      =  7340032
# Data Avg         =  0.0262136177469594
# Data StdDev      =  2.44136958298929 
# Profile Bins     =  512
# Profile Avg      =  375.910217341454 
# Profile StdDev   =  292.312593089187 
# Reduced chi-sqr  =  1.269
# Prob(Noise)      <  3.37e-05   (~4.0 sigma)
# P_topo (ms)      =  714.46487537908   +/- 0.000143
# P'_topo (s/s)    =  -0                +/- 7.52e-11
# P''_topo (s/s^2) =  0                 +/- 3.32e-14
# P_bary (ms)      =  N/A
# P'_bary (s/s)    =  N/A
# P''_bary (s/s^2) =  N/A
# P_orb (s)        =  N/A
# asin(i)/c (s)    =  N/A
# eccentricity     =  N/A
# w (rad)          =  N/A
# T_peri           =  N/A
######################################################
   0  714.0986
   1  293.4112
   2  -94.81908
   3  446.5192
   4  441.2744
   5  150.4396
   6  83.66206
   7  482.4644
   8  467.7075
   9  190.8242
  10  304.5281
  11  88.37229
  12  -205.5015
  13  -15.73545
  14  229.3636
  15  279.4558
  16  598.9337
  17  773.101
  18  375.0435
  19  164.4158
  20  148.883
  21  235.3338
  22  331.2564
  23  1.059134
  24  -7.664609
  25  271.5272
  26  400.0218
  27  382.0303
  28  201.5076
  29  262.7838
  30  -5.170105
  31  -189.1105
  32  611.4026
  33  601.0486
  34  156.499
  35  277.4842
  36  62.59212
  37  335.69
  38  383.5158
  39  458.062
  40  447.7546
  41  177.8496
  42  248.3992
  43  290.1079
  44  478.2513
  45  622.8183
  46  157.768
  47  355.8891
  48  415.1486
  49  -41.58119
  50  186.0859
  51  354.2922
  52  511.4214
  53  280.6477
  54  257.1935
  55  482.3458
  56  427.5066
  57  429.9063
  58  145.5754
  59  85.90775
  60  -17.57067
  61  406.5551
  62  273.0734
  63  312.5896
  64  383.135
  65  454.2834
  66  381.5674
  67  253.219
  68  130.5722
  69  712.0033
  70  574.6525
  71  625.9519
  72  336.2018
  73  317.0807
  74  406.5188
  75  558.9666
  76  289.7737
  77  153.8429
  78  345.4479
  79  368.9644
  80  568.1947
  81  401.4913
  82  257.2931
  83  321.1097
  84  536.3079
  85  613.834
  86  865.1015
  87  647.3331
  88  510.7755
  89  280.4899
  90  330.0437
  91  222.9378
  92  432.2933
  93  572.5751
  94  278.1461
  95  248.9602
  96  260.8022
  97  182.9523
  98  226.9667
  99  367.224
 100  379.7953
 101  247.8666
 102  181.6441
 103  85.16768
 104  233.5902
 105  645.1463
 106  601.8721
 107  635.4429
 108  449.3174
 109  118.7966
 110  203.0897
 111  371.7061
 112  450.9602
 113  510.7475
 114  268.3312
 115  -102.6584
 116  277.2716
 117  559.0174
 118  748.7704
 119  768.7834
 120  670.3152
 121  432.3556
 122  473.5568
 123  620.8615
 124  529.6137
 125  162.64
 126  357.6389
 127  355.1847
 128  359.6366
 129  566.3561
 130  323.1376
 131  295.1898
 132  394.988
 133  507.5259
 134  418.1467
 135  638.8666
 136  416.1591
 137  541.4876
 138  457.7464
 139  372.8728
 140  492.2988
 141  505.8371
 142  542.9825
 143  457.2468
 144  461.0013
 145  338.0757
 146  242.5854
 147  476.4906
 148  612.8
 149  529.9726
 150  206.0949
 151  295.2896
 152  679.7056
 153  603.4284
 154  738.98
 155  527.3238
 156  683.3651
 157  801.2359
 158  570.3054
 159  492.5535
 160  384.9968
 161  495.6078
 162  643.5001
 163  404.5264
 164  227.0394
 165  332.8246
 166  356.227
 167  253.3853
 168  194.8357
 169  515.2242
 170  503.1916
 171  81.58479
 172  427.9128
 173  296.088
 174  597.0159
 175  656.9448
 176  179.002
 177  159.3436
 178  284.0453
 179  369.4731
 180  218.8281
 181  340.7537
 182  254.2171
 183  17.45284
 184  320.3002
 185  397.0297
 186  261.6525
 187  170.9878
 188  541.7713
 189  629.7536
 190  211.285
 191  391.6402
 192  672.519
 193  776.0649
 194  380.644
 195  406.2187
 196  414.2427
 197  297.8099
 198  87.72771
 199  38.04031
 200  176.94
 201  470.2422
 202  321.5095
 203  150.7383
 204  370.1995
 205  276.1781
 206  244.8128
 207  324.1391
 208  558.4187
 209  425.4971
 210  193.576
 211  143.0071
 212  115.2392
 213  480.6603
 214  545.9733
 215  301.5924
 216  196.8508
 217  260.2615
 218  200.5376
 219  -74.23945
 220  -42.28958
 221  225.3695
 222  299.3333
 223  322.9474
 224  455.5756
 225  396.9797
 226  382.2833
 227  304.6588
 228  571.855
 229  344.9206
 230  198.6808
 231  237.1655
 232  505.5948
 233  514.6636
 234  291.2003
 235  68.34433
 236  120.3337
 237  401.6726
 238  332.0974
 239  183.0095
 240  160.156
 241  320.193
 242  419.2627
 243  543.5731
 244  463.2666
 245  298.7051
 246  -203.1463
 247  -244.5608
 248  305.0967
 249  699.412
 250  420.919
 251  229.7403
 252  236.652
 253  150.696
 254  623.3568
 255  717.3594
 256  525.6089
 257  84.42104
 258  76.59909
 259  369.9045
 260  387.437
 261  391.4324
 262  94.23029
 263  220.9424
 264  656.3433
 265  525.3401
 266  617.9612
 267  310.8311
 268  449.2504
 269  427.7243
 270  409.851
 271  336.3305
 272  309.6699
 273  384.1891
 274  147.4016
 275  334.0247
 276  470.6719
 277  779.8125
 278  814.0582
 279  954.8735
 280  721.3144
 281  416.2684
 282  275.0691
 283  22.03556
 284  189.9334
 285  367.3874
 286  298.6699
 287  370.949
 288  432.7724
 289  654.2449
 290  392.8411
 291  429.4032
 292  699.2651
 293  526.239
 294  482.3827
 295  -44.87572
 296  292.0363
 297  405.2503
 298  622.4375
 299  295.0938
 300  83.13055
 301  320.0984
 302  322.9688
 303  501.3997
 304  494.2784
 305  392.3573
 306  119.2646
 307  436.3852
 308  649.9341
 309  306.6164
 310  197.7996
 311  441.5229
 312  267.4074
 313  445.1108
 314  282.982
 315  292.5747
 316  37.80261
 317  393.1797
 318  790.3639
 319  1391.725
 320  1630.251
 321  1960.208
 322  1984.6
 323  1309.193
 324  1282.757
 325  745.6733
 326  447.5231
 327  212.5398
 328  396.8763
 329  386.5591
 330  230.6742
 331  431.8264
 332  442.3647
 333  249.465
 334  114.7902
 335  655.9923
 336  457.4758
 337  191.3751
 338  467.7403
 339  315.2284
 340  277.5256
 341  303.0212
 342  433.215
 343  299.0333
 344  329.6458
 345  398.4233
 346  395.8253
 347  10.05979
 348  184.2665
 349  267.4261
 350  273.9744
 351  112.2614
 352  149.4673
 353  569.2087
 354  313.8687
 355  261.6966
 356  555.7208
 357  414.6831
 358  412.8445
 359  419.2489
 360  546.4002
 361  334.5128
 362  380.3772
 363  459.8945
 364  610.9661
 365  579.116
 366  432.1358
 367  564.0649
 368  231.5061
 369  253.5186
 370  62.60701
 371  367.5927
 372  299.0934
 373  543.6021
 374  625.3018
 375  618.4453
 376  555.4072
 377  454.0238
 378  200.5931
 379  -93.60979
 380  0.8283405
 381  471.1925
 382  772.4155
 383  747.0203
 384  260.4258
 385  290.4006
 386  339.3528
 387  372.9469
 388  48.02716
 389  422.74
 390  320.8456
 391  111.8808
 392  72.29355
 393  442.9832
 394  682.4764
 395  520.0513
 396  627.2499
 397  629.0293
 398  275.3656
 399  327.3596
 400  356.4236
 401  185.2934
 402  252.6265
 403  345.4496
 404  39.25907
 405  2.616368
 406  357.3905
 407  264.6851
 408  425.1962
 409  563.6297
 410  718.7344
 411  428.7725
 412  -113.828
 413  112.1733
 414  441.203
 415  599.2384
 416  451.7274
 417  -65.55731
 418  28.40891
 419  65.62701
 420  149.0474
 421  423.2396
 422  518.4344
 423  462.6523
 424  675.1628
 425  529.8214
 426  360.0844
 427  492.3367
 428  187.888
 429  396.6232
 430  511.7741
 431  269.9638
 432  17.36265
 433  205.6128
 434  -14.74903
 435  89.8929
 436  342.3419
 437  328.5272
 438  987.0529
 439  676.9772
 440  296.2329
 441  380.2234
 442  599.2213
 443  717.453
 444  482.7584
 445  457.6562
 446  339.751
 447  278.6711
 448  424.0891
 449  559.8816
 450  464.3737
 451  640.0781
 452  695.5843
 453  545.763
 454  405.5316
 455  364.7508
 456  110.9114
 457  572.1137
 458  559.8194
 459  345.0473
 460  459.0194
 461  271.8477
 462  447.8135
 463  263.6092
 464  227.9416
 465  105.2562
 466  244.6288
 467  337.1075
 468  332.4584
 469  403.5057
 470  246.0146
 471  294.2279
 472  184.1161
 473  541.5759
 474  286.8514
 475  159.5484
 476  358.5896
 477  638.9464
 478  563.8475
 479  665.1286
 480  524.6945
 481  520.2692
 482  180.0463
 483  195.8498
 484  556.9678
 485  471.811
 486  288.7153
 487  448.1869
 488  377.1567
 489  406.4016
 490  181.5347
 491  282.6557
 492  182.0153
 493  163.9112
 494  28.40135
 495  56.09959
 496  504.3648
 497  422.9957
 498  580.9713
 499  384.4794
 500  434.3523
 501  384.8918
 502  476.0423
 503  468.8708
 504  512.2343
 505  157.4143
 506  -47.77737
 507  93.4154
 508  305.0188
 509  457.0193
 510  237.7536
 511  432.0237
