# Input file       =  1189399122.117035-PSRB0329-2ms-sampling-dd.dat
# Candidate        =  PSR_0332+5434
# Telescope        =  AR
# Epoch_topo       =  58010.193762928648
# Epoch_bary       =  N/A
# T_sample         =  0.002
# Data Folded      =  7340032
# Data Avg         =  -1.34136565034019e-09
# Data StdDev      =  31.0594491159919 
# Profile Bins     =  512
# Profile Avg      =  0.458813767088585
# Profile StdDev   =  3718.84215084738 
# Reduced chi-sqr  =  0.962
# Prob(Noise)      <  0.725   (~0.0 sigma)
# P_topo (ms)      =  714.465989236219  +/- 0.000519
# P'_topo (s/s)    =  -0                +/- 2.74e-10
# P''_topo (s/s^2) =  0                 +/- 1.21e-13
# P_bary (ms)      =  N/A
# P'_bary (s/s)    =  N/A
# P''_bary (s/s^2) =  N/A
# P_orb (s)        =  N/A
# asin(i)/c (s)    =  N/A
# eccentricity     =  N/A
# w (rad)          =  N/A
# T_peri           =  N/A
######################################################
   0  -2075.995
   1  -2221.726
   2  -2642.806
   3  -2644.312
   4  -2232.205
   5  -1600.775
   6  -2820.754
   7  -3121.186
   8  -3217.898
   9  -3514.867
  10  -2703.837
  11  -2014.436
  12  -1614.469
  13  -1018.295
  14  -1167.534
  15  -2248.018
  16  -2347.212
  17  -2879.461
  18  -2694.145
  19  -2676.786
  20  -2385.907
  21  -2426.783
  22  -2449.147
  23  -3120.342
  24  -2532.826
  25  -2522.804
  26  -2221.806
  27  -1219.028
  28  -738.3975
  29  -778.2016
  30  -570.0452
  31  -241.5196
  32  811.6024
  33  848.0679
  34  519.1802
  35  710.6639
  36  346.1214
  37  1617.462
  38  1174.275
  39  -20.9048
  40  -1374.515
  41  -1683.314
  42  -1762.793
  43  -2521.648
  44  -2282.467
  45  -1552.115
  46  -1463.17
  47  -2206.135
  48  -2602.854
  49  -2626.074
  50  -2291.653
  51  -2276.764
  52  -2089.563
  53  -1868.846
  54  -2098.89
  55  -2522.568
  56  -2739.562
  57  -2777.213
  58  -1843.203
  59  -1818.479
  60  -1553.424
  61  -2014.293
  62  -2519.019
  63  -1596.775
  64  -637.2912
  65  -386.9592
  66  29.39126
  67  -185.2711
  68  -1744.113
  69  -1209.246
  70  -1258.907
  71  -457.6618
  72  -396.4309
  73  -735.6633
  74  -612.7965
  75  -1025.82
  76  -1524.425
  77  -1300.492
  78  -1231.792
  79  -429.6866
  80  1195.09
  81  5819.86
  82  6618.376
  83  7480.57
  84  7057.542
  85  3889.602
  86  610.3377
  87  4632.917
  88  6486.68
  89  7540.748
  90  6578.647
  91  3598.244
  92  1801.097
  93  -943.4095
  94  -1463.95
  95  -2041.878
  96  -2308.699
  97  -1615.362
  98  -1215.093
  99  -1558.244
 100  -1630.642
 101  -1441.314
 102  -957.7305
 103  -1586.226
 104  -2251.361
 105  -2853.511
 106  -2808.946
 107  -2693.434
 108  -1635.791
 109  -1348.758
 110  -1976.508
 111  -2177.935
 112  -2725.62
 113  -3456.751
 114  -3805.493
 115  -3306.973
 116  -2508.989
 117  -1831.738
 118  -2631.724
 119  -2952.252
 120  -3181.753
 121  -3315.604
 122  -3277.123
 123  -2860.959
 124  -2770.392
 125  -2556.796
 126  -2785.561
 127  -2614.405
 128  -2573.403
 129  -2521.066
 130  -2877.436
 131  -2329.926
 132  -2015.178
 133  -1675.115
 134  -1481.692
 135  -461.6907
 136  -44.33486
 137  885.5353
 138  773.365
 139  1157.409
 140  1435.384
 141  3737.393
 142  3019.95
 143  3101.742
 144  3178.049
 145  1756.13
 146  2854.284
 147  1046.32
 148  1253.862
 149  2091.714
 150  2195.894
 151  2379.905
 152  2005.544
 153  1438.758
 154  900.512
 155  3063.3
 156  3424.722
 157  4356.335
 158  5388.906
 159  3592.983
 160  3141.937
 161  2352.227
 162  2642.1
 163  447.9496
 164  1602.879
 165  1976.399
 166  1377.709
 167  446.2581
 168  -383.6521
 169  -1318.85
 170  -1722.885
 171  -1791.039
 172  -1773.444
 173  -1992.786
 174  -1441.495
 175  -420.1881
 176  -120.5303
 177  137.9093
 178  2280.229
 179  3354.577
 180  4747.133
 181  6902.472
 182  3187.979
 183  1836.947
 184  661.4146
 185  4295.347
 186  6996.884
 187  9399.579
 188  13869.42
 189  12204.38
 190  10573.05
 191  6686.416
 192  367.855
 193  1362.08
 194  6457.474
 195  6244.331
 196  6453.639
 197  7075.613
 198  1929.649
 199  614.8884
 200  -534.2729
 201  -963.9813
 202  -1290.587
 203  -1096.019
 204  -2032.203
 205  -1516.664
 206  -1154.82
 207  -449.6855
 208  -1117.245
 209  -1358.814
 210  -1523.818
 211  -2093.359
 212  -1824.949
 213  -1476.063
 214  -2122.542
 215  -1805.845
 216  -1701.713
 217  -1191.651
 218  -779.0897
 219  -246.4943
 220  -1115.906
 221  -1419.68
 222  -690.3704
 223  -383.1374
 224  -120.234
 225  552.6992
 226  187.922
 227  -77.61433
 228  -1173.156
 229  -1298.459
 230  -1997.995
 231  -1001.431
 232  -743.9552
 233  -349.7568
 234  -216.5732
 235  -289.6476
 236  -438.7752
 237  -706.7428
 238  122.4608
 239  -370.6618
 240  -1048.954
 241  895.7331
 242  695.4678
 243  667.9817
 244  -116.5538
 245  -1457.348
 246  -1919.237
 247  -1799.487
 248  -1418.142
 249  -1138.007
 250  -1788.728
 251  -2318.532
 252  -3148.115
 253  -3397.848
 254  -3416.858
 255  -3503.232
 256  -3298.011
 257  -2832.861
 258  -2294.766
 259  -2014.47
 260  -2439.176
 261  -2309.922
 262  -3152.296
 263  -3880.684
 264  -2692.997
 265  -2523.45
 266  -2172.215
 267  -2595.143
 268  -2514.156
 269  -2422.229
 270  -2302.322
 271  -2859.231
 272  -2615.909
 273  -2226.83
 274  -2252.926
 275  -1997.189
 276  -1021.834
 277  -438.6815
 278  675.1607
 279  373.1024
 280  959.0796
 281  427.7374
 282  734.8887
 283  1544.738
 284  419.5732
 285  1151.001
 286  2296.419
 287  2701.183
 288  2325.845
 289  1944.154
 290  -40.35219
 291  -276.0811
 292  -1171.055
 293  -409.8335
 294  -641.829
 295  -1389.38
 296  -899.6973
 297  -890.6149
 298  105.5241
 299  587.8695
 300  -122.3517
 301  -159.9944
 302  471.235
 303  340.4306
 304  700.1141
 305  1712.756
 306  1412.492
 307  1230.512
 308  167.6659
 309  -889.8851
 310  -737.1301
 311  -331.0195
 312  -191.7
 313  357.3539
 314  1047.77
 315  149.5008
 316  660.4808
 317  -56.08997
 318  225.5227
 319  423.3607
 320  808.2741
 321  1464.606
 322  1872.745
 323  2047.897
 324  2904.459
 325  3208.265
 326  3101.197
 327  2969.321
 328  2831.175
 329  2736.175
 330  3257.78
 331  4665.568
 332  6172.304
 333  4755.915
 334  4010.845
 335  3461.227
 336  628.5627
 337  641.6049
 338  349.3804
 339  -47.44711
 340  -644.7842
 341  -1097.293
 342  -666.4664
 343  -996.8543
 344  -1444.285
 345  -1132.325
 346  -1224.603
 347  -1292.686
 348  -1009.857
 349  -1111.083
 350  -1140.016
 351  -1771.516
 352  -1223.211
 353  -204.7311
 354  253.366
 355  169.5406
 356  -273.5939
 357  -1466.894
 358  -1272.312
 359  701.4761
 360  323.9933
 361  -79.66321
 362  -466.9313
 363  -1401.926
 364  -1445.641
 365  -1477.989
 366  -1955.411
 367  -2381.317
 368  -1707.632
 369  -1883.916
 370  -1572.69
 371  -1388.704
 372  -1426.971
 373  -1086.322
 374  -876.7269
 375  -863.6212
 376  -1668.851
 377  -937.0025
 378  -967.5866
 379  -1748.755
 380  -2525.448
 381  -2800.812
 382  -2341.173
 383  -2094.522
 384  -1767.936
 385  -522.4976
 386  -199.1397
 387  110.2608
 388  22.74396
 389  -751.4755
 390  -1212.695
 391  -2620.24
 392  -1477.489
 393  -5.858098
 394  1051.363
 395  978.0965
 396  38.97911
 397  -982.3664
 398  -1004.446
 399  -1160.619
 400  -1189.457
 401  -544.2624
 402  -1028.991
 403  -1205.2
 404  -954.3129
 405  -1312.022
 406  485.4459
 407  1300.331
 408  1226.311
 409  1939.467
 410  3602.675
 411  4754.36
 412  4013.435
 413  4364.959
 414  6497.691
 415  6521.486
 416  5700.411
 417  5251.333
 418  3983.518
 419  3953.784
 420  3401.375
 421  3794.198
 422  3533.578
 423  1831.134
 424  -8.324048
 425  -684.1041
 426  -1734.572
 427  20.4342
 428  1275.304
 429  1826.366
 430  1496.242
 431  258.1927
 432  -832.0546
 433  -2222.533
 434  -2142.947
 435  -1682.979
 436  -1015.67
 437  -982.6081
 438  -1135.451
 439  -685.0027
 440  -999.9462
 441  490.4116
 442  1082.405
 443  3488.853
 444  5410.244
 445  6322.285
 446  6431.01
 447  3748.246
 448  2519.23
 449  2236.708
 450  3629.826
 451  6102.995
 452  5897.663
 453  5151.557
 454  2435.799
 455  847.8184
 456  -896.7406
 457  963.8586
 458  2355.561
 459  3164.05
 460  3205.441
 461  2282.838
 462  498.9598
 463  -267.011
 464  2597.88
 465  3585.542
 466  3394.584
 467  2656.642
 468  1843.82
 469  1889.367
 470  291.445
 471  1599.473
 472  2666.318
 473  2286.819
 474  2403.615
 475  2308.403
 476  559.5273
 477  1347.934
 478  2270.081
 479  3421.3
 480  3304.725
 481  2625.571
 482  992.3785
 483  -1127.244
 484  -849.946
 485  -505.6516
 486  -242.2494
 487  461.9372
 488  -26.51948
 489  -1478.859
 490  -2511.698
 491  -2660.473
 492  -3376.204
 493  -3065.082
 494  -3153.748
 495  -3529.388
 496  -3553.253
 497  -3536.384
 498  -3345.512
 499  -3530.626
 500  -3007.581
 501  -2996.562
 502  -3023.196
 503  -3182.931
 504  -3633.303
 505  -3221.09
 506  -2599.778
 507  -2223.491
 508  -1921.632
 509  -2688.093
 510  -2112.094
 511  -1803.954
