# Input file       =  1189226738.107004-PSRB0329-2ms-sampling-dd.dat
# Candidate        =  PSR_0332+5434
# Telescope        =  AR
# Epoch_topo       =  58008.198577627358
# Epoch_bary       =  N/A
# T_sample         =  0.002
# Data Folded      =  7340032
# Data Avg         =  -1.64829695950978e-10
# Data StdDev      =  5.68949302022032 
# Profile Bins     =  512
# Profile Avg      =  -0.0638920453635943
# Profile StdDev   =  681.220274755397 
# Reduced chi-sqr  =  0.686
# Prob(Noise)      <  1   (~0.0 sigma)
# P_topo (ms)      =  714.465478410971  +/- 8.43e-05
# P'_topo (s/s)    =  -0                +/- 4.45e-11
# P''_topo (s/s^2) =  0                 +/- 1.96e-14
# P_bary (ms)      =  N/A
# P'_bary (s/s)    =  N/A
# P''_bary (s/s^2) =  N/A
# P_orb (s)        =  N/A
# asin(i)/c (s)    =  N/A
# eccentricity     =  N/A
# w (rad)          =  N/A
# T_peri           =  N/A
######################################################
   0  -284.5395
   1  -201.181
   2  -648.1351
   3  -398.938
   4  -400.9829
   5  -42.48574
   6  192.3358
   7  -2.083418
   8  -582.9172
   9  -550.2139
  10  -52.90088
  11  -107.5797
  12  112.4307
  13  104.0311
  14  525.6536
  15  254.5621
  16  -1.376903
  17  -612.7304
  18  -1074.841
  19  -746.7136
  20  -388.6877
  21  -22.12725
  22  52.75937
  23  -395.4061
  24  -514.324
  25  -180.1108
  26  -364.2105
  27  -101.5531
  28  29.39233
  29  3.18692
  30  207.671
  31  -103.887
  32  -248.9383
  33  -302.1087
  34  -373.8817
  35  -540.7175
  36  -329.7918
  37  -75.65005
  38  -438.615
  39  -397.6192
  40  -414.2876
  41  -423.455
  42  -149.0969
  43  -11.75827
  44  -567.026
  45  -208.5507
  46  479.1726
  47  637.6584
  48  343.566
  49  428.195
  50  -123.3707
  51  -753.6788
  52  -490.2016
  53  139.1768
  54  114.9619
  55  252.5496
  56  556.0822
  57  297.2349
  58  131.5951
  59  185.3191
  60  -209.7279
  61  176.1888
  62  474.7656
  63  355.729
  64  243.4265
  65  -92.14657
  66  35.37714
  67  85.22424
  68  -64.93475
  69  -234.7878
  70  -304.7755
  71  283.1127
  72  599.1223
  73  710.1128
  74  532.5855
  75  100.0343
  76  259.0173
  77  479.1812
  78  483.8215
  79  953.8523
  80  810.8012
  81  70.96812
  82  -200.072
  83  -153.2991
  84  271.3501
  85  426.1307
  86  420.0928
  87  60.76398
  88  473.7381
  89  352.2658
  90  72.10876
  91  -428.0797
  92  -202.8775
  93  153.739
  94  657.5731
  95  1020.013
  96  608.2523
  97  202.331
  98  -224.7859
  99  -61.65266
 100  -325.8355
 101  239.099
 102  -89.14808
 103  273.0292
 104  -98.55479
 105  -432.3473
 106  -132.5669
 107  -529.7142
 108  -381.3112
 109  -452.6385
 110  136.6753
 111  156.1865
 112  159.4253
 113  822.5673
 114  753.4003
 115  345.7802
 116  115.6728
 117  -157.3233
 118  -185.1117
 119  -91.04888
 120  451.5862
 121  378.3323
 122  -99.11702
 123  60.6967
 124  128.451
 125  160.9739
 126  -80.17097
 127  -137.5198
 128  8.4235
 129  232.3421
 130  858.524
 131  501.7782
 132  607.6199
 133  370.6789
 134  -252.2182
 135  -277.142
 136  -201.4037
 137  -159.6034
 138  -76.55291
 139  154.4821
 140  337.7786
 141  -499.4412
 142  -656.2936
 143  -251.4281
 144  -65.34031
 145  559.0135
 146  679.4052
 147  -76.65049
 148  55.37926
 149  9.674359
 150  197.8919
 151  26.37137
 152  -191.9137
 153  -143.6298
 154  -44.48083
 155  310.6352
 156  226.1636
 157  -155.7274
 158  144.6949
 159  74.0038
 160  78.70021
 161  -180.4051
 162  45.3103
 163  278.2322
 164  306.6475
 165  513.0433
 166  186.7376
 167  54.1696
 168  236.8438
 169  145.0663
 170  -293.4913
 171  70.99245
 172  74.83405
 173  -194.2473
 174  67.30795
 175  101.7715
 176  11.97895
 177  502.9977
 178  490.0407
 179  530.104
 180  198.169
 181  384.5475
 182  190.3507
 183  -187.1939
 184  201.7309
 185  289.0244
 186  773.4761
 187  382.3583
 188  -39.80164
 189  -130.2734
 190  -38.30965
 191  -145.9426
 192  -216.7095
 193  433.1251
 194  230.3586
 195  167.1639
 196  134.1273
 197  287.3848
 198  119.349
 199  -97.88827
 200  107.9944
 201  290.0214
 202  653.4855
 203  -6.83127
 204  -198.7907
 205  -209.2949
 206  -9.205429
 207  279.9462
 208  277.3696
 209  661.2919
 210  310.548
 211  478.9996
 212  559.6572
 213  179.1412
 214  -194.414
 215  48.26624
 216  365.9891
 217  -6.163147
 218  261.5421
 219  255.5564
 220  -7.345876
 221  113.0445
 222  169.2008
 223  -50.10245
 224  -81.66782
 225  73.17661
 226  381.65
 227  97.41051
 228  -478.1718
 229  -68.54185
 230  4.815121
 231  399.1438
 232  195.1253
 233  275.2162
 234  -343.6573
 235  -13.02902
 236  85.03573
 237  -342.1925
 238  343.1237
 239  504.7406
 240  651.4916
 241  84.61047
 242  453.462
 243  473.3465
 244  411.6834
 245  99.98995
 246  -152.2419
 247  -188.0269
 248  -68.78808
 249  289.1559
 250  -37.30915
 251  462.74
 252  258.4964
 253  -66.60233
 254  83.72752
 255  -381.982
 256  -10.66232
 257  -322.1443
 258  -421.4058
 259  48.35538
 260  535.5556
 261  186.1675
 262  -385.9775
 263  -29.15586
 264  -84.04008
 265  -290.3262
 266  -12.44934
 267  493.9028
 268  504.0404
 269  53.19876
 270  -60.09236
 271  -134.0831
 272  -188.5309
 273  309.8798
 274  220.1216
 275  185.5488
 276  79.89381
 277  625.3307
 278  751.7589
 279  1025.679
 280  1882.301
 281  2496.647
 282  2480.913
 283  1641.53
 284  851.0008
 285  847.4558
 286  866.9617
 287  365.1554
 288  236.8753
 289  -74.77399
 290  -339.2514
 291  -632.3121
 292  -60.00148
 293  317.7574
 294  -70.34682
 295  277.5564
 296  218.9027
 297  -153.7644
 298  190.692
 299  15.03233
 300  -19.80769
 301  -347.869
 302  -185.4831
 303  -213.6454
 304  31.22704
 305  2.44958
 306  46.70078
 307  108.9893
 308  69.70051
 309  -311.987
 310  196.0307
 311  555.7202
 312  -66.55151
 313  99.62959
 314  -291.1682
 315  -333.1246
 316  -179.7916
 317  -213.9958
 318  -209.5235
 319  223.185
 320  98.8664
 321  -91.03336
 322  -206.5701
 323  -212.5583
 324  -711.4319
 325  -301.064
 326  61.37561
 327  -63.20835
 328  -215.1996
 329  -659.6125
 330  -724.8687
 331  -702.1617
 332  -256.941
 333  -395.8451
 334  -367.8805
 335  -158.4412
 336  186.1032
 337  261.1002
 338  -304.7815
 339  -327.6669
 340  -779.1333
 341  -309.9701
 342  147.6754
 343  451.1884
 344  462.0947
 345  97.62608
 346  -77.44365
 347  -457.7098
 348  -233.3773
 349  28.39912
 350  -107.6842
 351  134.1842
 352  439.7345
 353  426.2425
 354  52.01248
 355  -128.5315
 356  -31.47639
 357  -256.5761
 358  37.88808
 359  115.6326
 360  -112.6923
 361  -518.2062
 362  223.6755
 363  127.1846
 364  -731.8927
 365  -538.0073
 366  -91.29817
 367  195.8531
 368  -63.95015
 369  205.737
 370  -163.2431
 371  -410.8206
 372  -623.5645
 373  -536.6899
 374  168.2551
 375  164.7021
 376  -278.1277
 377  15.59307
 378  207.1432
 379  -496.3408
 380  -657.769
 381  124.2365
 382  -70.95405
 383  -24.25107
 384  -300.7152
 385  -427.1555
 386  -309.2157
 387  -431.9173
 388  -351.9034
 389  -706.9952
 390  -247.4828
 391  -23.34758
 392  -605.4116
 393  -121.0988
 394  -155.5621
 395  -456.8583
 396  -586.8406
 397  -415.2629
 398  -570.6084
 399  -558.223
 400  54.9602
 401  417.5515
 402  -162.5977
 403  -448.1938
 404  -61.9184
 405  -387.4314
 406  -860.7411
 407  -1041.704
 408  207.7481
 409  746.3698
 410  -52.63579
 411  111.1057
 412  -272.9011
 413  -635.4791
 414  -1242.062
 415  -655.911
 416  -47.1923
 417  -467.4313
 418  37.17466
 419  61.68447
 420  -229.2525
 421  -156.1791
 422  -30.60031
 423  -125.5906
 424  -179.1844
 425  77.79364
 426  144.057
 427  94.69894
 428  94.24577
 429  232.564
 430  109.8768
 431  -248.0766
 432  -531.3918
 433  -412.308
 434  330.1531
 435  545.3309
 436  171.488
 437  10.14562
 438  31.88797
 439  98.06512
 440  -216.8066
 441  -81.13786
 442  375.4106
 443  99.68926
 444  -224.5197
 445  -245.6928
 446  -727.5094
 447  -838.1405
 448  -624.6334
 449  -119.1501
 450  367.9917
 451  196.6608
 452  282.0418
 453  -97.81504
 454  -569.4904
 455  -178.5409
 456  -178.9034
 457  67.37567
 458  282.8843
 459  214.4506
 460  310.0426
 461  -171.3956
 462  -696.6214
 463  -342.8886
 464  -433
 465  -875.892
 466  14.93057
 467  90.03843
 468  -102.0711
 469  -713.4825
 470  -338.5413
 471  -138.7973
 472  -231.3632
 473  91.07235
 474  402.0709
 475  209.0592
 476  375.6289
 477  98.74329
 478  -404.3531
 479  -747.667
 480  -382.2312
 481  -584.3466
 482  111.935
 483  166.6259
 484  103.2055
 485  531.9584
 486  -279.4582
 487  -836.1463
 488  -1203.99
 489  -510.6685
 490  -181.9005
 491  141.3098
 492  464.0704
 493  252.6992
 494  -288.1368
 495  -410.717
 496  -377.1093
 497  -161.5019
 498  -438.6833
 499  -297.5343
 500  -65.52056
 501  247.4127
 502  105.2348
 503  -270.9138
 504  -663.8857
 505  -239.8034
 506  32.39498
 507  -108.5656
 508  -83.03345
 509  39.04924
 510  -138.0674
 511  15.87504
