# Input file       =  1189470387.118155-PSRB0329-2ms-sampling-dd.dat
# Candidate        =  PSR_0332+5434
# Telescope        =  AR
# Epoch_topo       =  58011.018589330495
# Epoch_bary       =  N/A
# T_sample         =  0.002
# Data Folded      =  7340032
# Data Avg         =  3.7475445335006e-10
# Data StdDev      =  2.98270022254263 
# Profile Bins     =  512
# Profile Avg      =  0.540080788684655
# Profile StdDev   =  357.127754246686 
# Reduced chi-sqr  =  1.107
# Prob(Noise)      <  0.0472   (~1.7 sigma)
# P_topo (ms)      =  714.465884456542  +/- 0.000387
# P'_topo (s/s)    =  -0                +/- 2.04e-10
# P''_topo (s/s^2) =  0                 +/- 9.01e-14
# P_bary (ms)      =  N/A
# P'_bary (s/s)    =  N/A
# P''_bary (s/s^2) =  N/A
# P_orb (s)        =  N/A
# asin(i)/c (s)    =  N/A
# eccentricity     =  N/A
# w (rad)          =  N/A
# T_peri           =  N/A
######################################################
   0  70.62182
   1  34.37915
   2  -737.8667
   3  -302.6852
   4  -171.4603
   5  -85.52597
   6  102.7294
   7  -133.0993
   8  -423.4903
   9  -402.0403
  10  -330.8084
  11  -258.6592
  12  -236.2139
  13  -44.83094
  14  312.3604
  15  272.4886
  16  -399.8507
  17  -459.5316
  18  -127.6137
  19  -188.6454
  20  -343.6895
  21  -52.13812
  22  -190.2213
  23  -459.1346
  24  115.4835
  25  -84.09486
  26  -117.3702
  27  -216.6971
  28  -95.08078
  29  -58.52047
  30  132.8719
  31  291.8281
  32  276.9792
  33  401.4747
  34  -1.180449
  35  -66.29465
  36  260.3019
  37  371.2269
  38  354.3182
  39  88.45979
  40  -171.8192
  41  23.29994
  42  276.759
  43  653.4304
  44  294.9724
  45  284.7901
  46  324.562
  47  83.93932
  48  10.99387
  49  289.5927
  50  195.4055
  51  -36.02993
  52  18.0446
  53  38.63029
  54  24.91101
  55  -122.1646
  56  -80.61767
  57  44.55585
  58  53.51337
  59  99.16072
  60  140.2096
  61  224.28
  62  241.3383
  63  -188.6152
  64  -228.2265
  65  -64.86773
  66  -55.34956
  67  -43.00458
  68  -25.04304
  69  -101.792
  70  -114.7717
  71  134.6603
  72  -47.222
  73  -50.93942
  74  -104.6719
  75  318.3063
  76  226.8467
  77  245.4616
  78  189.8387
  79  -115.0688
  80  -32.94577
  81  79.53105
  82  -194.0627
  83  -291.0465
  84  -84.89662
  85  285.2289
  86  114.1976
  87  224.4881
  88  -387.968
  89  -684.6853
  90  -357.6964
  91  -379.1259
  92  -150.1606
  93  -497.594
  94  -11.8222
  95  3.999827
  96  -46.16531
  97  -100.4321
  98  -132.2511
  99  -315.325
 100  -318.2652
 101  -174.4277
 102  -502.0523
 103  -86.31231
 104  -16.50854
 105  271.1229
 106  145.5912
 107  -225.2642
 108  -393.2461
 109  -8.159625
 110  -43.06783
 111  222.5353
 112  51.55163
 113  -308.5441
 114  141.5243
 115  78.4656
 116  83.92916
 117  214.3354
 118  317.65
 119  439.2857
 120  -100.4614
 121  -163.0955
 122  -14.54703
 123  -315.6359
 124  -347.921
 125  270.8721
 126  597.8395
 127  410.5984
 128  34.37243
 129  195.0286
 130  -209.9856
 131  -182.5605
 132  -391.8839
 133  -18.73261
 134  56.819
 135  -89.03014
 136  -154.7771
 137  155.7655
 138  297.371
 139  42.49934
 140  -489.2274
 141  -305.3407
 142  314.4324
 143  81.85928
 144  -141.5306
 145  106.0368
 146  350.0105
 147  239.6018
 148  -60.25334
 149  137.2493
 150  -158.5923
 151  200.2118
 152  224.5811
 153  97.75034
 154  -131.9693
 155  157.3685
 156  436.5094
 157  101.9028
 158  -63.75811
 159  -16.45329
 160  -85.93737
 161  82.42168
 162  -69.57219
 163  16.03831
 164  -149.0598
 165  -49.59285
 166  -154.3199
 167  206.9532
 168  -132.9524
 169  -113.4419
 170  -0.3340269
 171  -41.27927
 172  -308.1624
 173  -187.4254
 174  303.5619
 175  184.8526
 176  -121.2553
 177  -416.3853
 178  11.79645
 179  -174.5641
 180  65.35557
 181  43.4616
 182  -55.51829
 183  279.0802
 184  24.59417
 185  -84.27869
 186  -172.9527
 187  91.05035
 188  181.7239
 189  100.4267
 190  29.3467
 191  -520.465
 192  -372.0116
 193  119.5041
 194  -29.9639
 195  -287.9916
 196  -280.1153
 197  -282.56
 198  -38.0669
 199  -99.17233
 200  -55.90931
 201  28.62543
 202  164.0356
 203  -170.9517
 204  -172.6735
 205  -45.16085
 206  -77.79711
 207  -59.00341
 208  53.91417
 209  209.5888
 210  162.1037
 211  91.25703
 212  302.1378
 213  642.1968
 214  292.5959
 215  117.5291
 216  -25.79216
 217  200.8836
 218  122.9678
 219  -105.7342
 220  -82.67092
 221  -41.85188
 222  253.7951
 223  263.1786
 224  277.6115
 225  381.1561
 226  10.11394
 227  378.0824
 228  298.885
 229  369.4008
 230  455.5409
 231  -99.30375
 232  63.94656
 233  141.3776
 234  -46.77544
 235  91.88727
 236  8.889501
 237  33.05661
 238  -355.9216
 239  -363.6797
 240  29.63854
 241  -166.9892
 242  23.31439
 243  419.6082
 244  -117.3258
 245  265.1664
 246  440.3832
 247  177.7242
 248  66.12116
 249  30.51247
 250  245.8857
 251  -77.11671
 252  113.3609
 253  445.2803
 254  386.2246
 255  162.9075
 256  45.14096
 257  -98.52932
 258  -93.0325
 259  -206.3306
 260  -20.25282
 261  -33.19708
 262  268.5831
 263  103.6801
 264  65.23301
 265  51.62217
 266  -57.87852
 267  80.24318
 268  323.8799
 269  455.4759
 270  140.2798
 271  -151.875
 272  -269.1458
 273  -376.9164
 274  66.68317
 275  -238.7406
 276  -296.5243
 277  -35.65948
 278  71.33656
 279  -226.6572
 280  -435.5185
 281  -95.64618
 282  273.2279
 283  -149.7384
 284  -261.6401
 285  -215.3756
 286  165.3051
 287  47.01329
 288  -602.0184
 289  -230.2414
 290  -229.3419
 291  -185.6545
 292  -0.7083064
 293  -85.77577
 294  -129.4173
 295  -447.9491
 296  -151.638
 297  155.1447
 298  -18.39761
 299  -256.6966
 300  -86.18462
 301  79.09129
 302  39.83655
 303  55.34624
 304  95.48795
 305  -19.37406
 306  -70.38567
 307  -141.7771
 308  -44.73306
 309  366.073
 310  327.0074
 311  10.39994
 312  -23.99629
 313  92.04683
 314  41.41083
 315  146.7356
 316  -32.82124
 317  -211.9845
 318  12.93884
 319  112.7859
 320  -46.23529
 321  -34.1898
 322  389.6941
 323  -9.534261
 324  -623.6869
 325  -69.89874
 326  -39.10521
 327  -2.496884
 328  -49.42706
 329  -106.5832
 330  172.19
 331  -88.97543
 332  90.57354
 333  150.6263
 334  52.50911
 335  -51.39571
 336  -189.3433
 337  -169.78
 338  -35.90558
 339  224.6489
 340  82.2287
 341  -55.75146
 342  157.2837
 343  392.9528
 344  161.0563
 345  -0.1234896
 346  -98.6132
 347  -213.3806
 348  -377.23
 349  10.5854
 350  15.54883
 351  241.3943
 352  112.1007
 353  -51.80356
 354  242.0891
 355  90.85841
 356  -369.5908
 357  -40.61535
 358  131.3969
 359  -158.8285
 360  25.12981
 361  -63.23712
 362  -365.9786
 363  -210.3756
 364  238.1085
 365  180.4997
 366  -175.1214
 367  242.0808
 368  717.3325
 369  427.9582
 370  230.9977
 371  33.6282
 372  -72.33961
 373  -209.5577
 374  125.3154
 375  210.2977
 376  381.0378
 377  25.63217
 378  -73.34603
 379  15.89443
 380  1.608784
 381  -52.90568
 382  -195.8402
 383  -48.16255
 384  -25.20663
 385  72.02847
 386  -145.6961
 387  20.69532
 388  -25.5842
 389  132.2815
 390  253.7284
 391  48.46385
 392  -252.195
 393  71.21638
 394  285.6435
 395  207.6108
 396  -363.0602
 397  -360.8609
 398  -337.3323
 399  -210.5429
 400  -296.5332
 401  -6.659456
 402  97.58292
 403  -138.1774
 404  -172.6981
 405  -354.7002
 406  -453.3061
 407  -270.5899
 408  -16.31457
 409  -170.9604
 410  -453.0102
 411  94.82912
 412  134.0938
 413  -322.5617
 414  -383.1403
 415  79.42094
 416  -35.75758
 417  -388.2821
 418  -379.7878
 419  -186.6199
 420  34.16996
 421  -260.2353
 422  -518.5774
 423  -152.1595
 424  -199.4673
 425  -20.05967
 426  -80.86458
 427  184.321
 428  100.0474
 429  26.16249
 430  -47.44119
 431  -486.3418
 432  -243.6489
 433  -25.9543
 434  47.2485
 435  -289.0679
 436  -199.223
 437  62.40501
 438  20.51942
 439  218.6127
 440  -193.323
 441  -31.6081
 442  -16.65477
 443  -4.942962
 444  -4.696491
 445  -41.5435
 446  -83.11541
 447  -152.9435
 448  117.1536
 449  273.2013
 450  175.9924
 451  -54.23443
 452  -53.2604
 453  9.313874
 454  100.1793
 455  119.3773
 456  -132.7076
 457  148.7114
 458  240.0878
 459  -188.7748
 460  -152.9039
 461  -98.97633
 462  16.92955
 463  -70.6498
 464  211.3767
 465  123.9742
 466  97.44211
 467  620.3382
 468  1401.568
 469  1838.362
 470  1673.425
 471  1441.077
 472  1116.308
 473  804.0215
 474  287.1409
 475  145.4278
 476  331.0558
 477  -127.8398
 478  38.51227
 479  70.75509
 480  4.273593
 481  172.3768
 482  239.2944
 483  282.582
 484  54.40466
 485  -116.5781
 486  -74.4551
 487  62.1899
 488  -122.2957
 489  -310.4096
 490  -287.7789
 491  -106.066
 492  -300.129
 493  -308.2958
 494  -115.8491
 495  -476.215
 496  -721.6187
 497  -429.9622
 498  -112.1054
 499  -610.3044
 500  -452.0391
 501  -90.57166
 502  -138.1072
 503  -90.55347
 504  68.10862
 505  66.30685
 506  -106.343
 507  -328.1991
 508  38.00484
 509  -17.0962
 510  55.32481
 511  213.021
