# Input file       =  1189972712.116665_cleaned.dat
# Candidate        =  PSR_0332+5434
# Telescope        =  AR
# Epoch_topo       =  58016.832536072507
# Epoch_bary       =  N/A
# T_sample         =  0.002
# Data Folded      =  7143424
# Data Avg         =  0.532359672707099
# Data StdDev      =  15.7744063417948 
# Profile Bins     =  1024
# Profile Avg      =  3713.76793458754 
# Profile StdDev   =  1317.51709763552 
# Reduced chi-sqr  =  0.903
# Prob(Noise)      <  0.988   (~0.0 sigma)
# P_topo (ms)      =  714.46782988093   +/- 0.000153
# P'_topo (s/s)    =  -0                +/- 8.32e-11
# P''_topo (s/s^2) =  0                 +/- 3.77e-14
# P_bary (ms)      =  N/A
# P'_bary (s/s)    =  N/A
# P''_bary (s/s^2) =  N/A
# P_orb (s)        =  N/A
# asin(i)/c (s)    =  N/A
# eccentricity     =  N/A
# w (rad)          =  N/A
# T_peri           =  N/A
######################################################
   0  3860.563
   1  3940.964
   2  4165.534
   3  4250.012
   4  4231.004
   5  3628.986
   6  3319.942
   7  3463.966
   8  3776.054
   9  3147.527
  10  3615.44
  11  3902.887
  12  4310.31
  13  4076.271
  14  4034.679
  15  3803.174
  16  3151.983
  17  3073.449
  18  3009.822
  19  2973.216
  20  2927.436
  21  3415.545
  22  4156.707
  23  3508.423
  24  2663.201
  25  2541.518
  26  2977.08
  27  3274.558
  28  3471.921
  29  3692.395
  30  3624.014
  31  3348.402
  32  3344.459
  33  3621.354
  34  3602.845
  35  3404.045
  36  3562.342
  37  3823.823
  38  3967.475
  39  3751.599
  40  4031.901
  41  4135.891
  42  4049.509
  43  3626.436
  44  3553.907
  45  3931.224
  46  3958.359
  47  3642.41
  48  2990.814
  49  2557.79
  50  3293.492
  51  3447.24
  52  4096.454
  53  3194.384
  54  2899.893
  55  2611.837
  56  2968.491
  57  3666.017
  58  3909.344
  59  4021.946
  60  4220.08
  61  4447.563
  62  4449.084
  63  3760.654
  64  2866.571
  65  2588.808
  66  2512.277
  67  3013.079
  68  3120.741
  69  3089.529
  70  3225.372
  71  3969.905
  72  4695.714
  73  4721.691
  74  4465.41
  75  3866.037
  76  3864.673
  77  3703.268
  78  4054.322
  79  4203.428
  80  4027.865
  81  3929.39
  82  3997.535
  83  4322.548
  84  4047.031
  85  3769.099
  86  3737.495
  87  3514.272
  88  3658.116
  89  3678.264
  90  3423.249
  91  3112.255
  92  3503.812
  93  3606.489
  94  3880.277
  95  4132.147
  96  3921.309
  97  3998.129
  98  4074.992
  99  4520.972
 100  4306.428
 101  3765.953
 102  3253.069
 103  2900.413
 104  2816.395
 105  3073.289
 106  3669.391
 107  3791.745
 108  3906.998
 109  3763.701
 110  4179.488
 111  4033.648
 112  3862.582
 113  4089.005
 114  4247.42
 115  4136.29
 116  4112.816
 117  4971.66
 118  5440.723
 119  5197.774
 120  5033.891
 121  4920.213
 122  4862.167
 123  4569.756
 124  4900.97
 125  4635.126
 126  4408.5
 127  4543.854
 128  4730.638
 129  4711.085
 130  3911.384
 131  3478.5
 132  3336.957
 133  3291.308
 134  3321.032
 135  3843.868
 136  4334.796
 137  3736.833
 138  3703.717
 139  4049.848
 140  4035.569
 141  3545.397
 142  3370.165
 143  3652.574
 144  3986.838
 145  3819.31
 146  4233.774
 147  4510.558
 148  4527.676
 149  4328.916
 150  3677.71
 151  3650.669
 152  3161.365
 153  3191.272
 154  3707.004
 155  3751.044
 156  3874.867
 157  3916.207
 158  3753.427
 159  3469.438
 160  3325.104
 161  2780.803
 162  2940.6
 163  3070.42
 164  3161.102
 165  2933.75
 166  2958.097
 167  3015.833
 168  2899.87
 169  3262.157
 170  3330.881
 171  3499.714
 172  3231.444
 173  3572.916
 174  3756.929
 175  3769.846
 176  3810.11
 177  3622.5
 178  3773.786
 179  2989.423
 180  2653.727
 181  2960.317
 182  3283.578
 183  3052.902
 184  2468.644
 185  2286.033
 186  2082.027
 187  2032.452
 188  2647.232
 189  2712.227
 190  2726.69
 191  2576.268
 192  2437.235
 193  2211.78
 194  2019.892
 195  2298.495
 196  2384.466
 197  3011.728
 198  3022.499
 199  2856.553
 200  2283.037
 201  2489.656
 202  2919.687
 203  3478.342
 204  3325.472
 205  2947.76
 206  2845.155
 207  2956.471
 208  3140.372
 209  3641.01
 210  3788.826
 211  3567.401
 212  4132.458
 213  4451.899
 214  4533.441
 215  4276.403
 216  4261.599
 217  4190.174
 218  3867.985
 219  3900.932
 220  3266.453
 221  3021.962
 222  2962.905
 223  3121.402
 224  3254.793
 225  3122.82
 226  4310.378
 227  4858.153
 228  4701.297
 229  3643.463
 230  3272.825
 231  3570.091
 232  3508.934
 233  3550.089
 234  3186.248
 235  2749.128
 236  2487.758
 237  2799.784
 238  3526.981
 239  3626.503
 240  3647.066
 241  3535.199
 242  3825.153
 243  3785.027
 244  3680.742
 245  3600.664
 246  3248.394
 247  3334.048
 248  3234.013
 249  3038.651
 250  3265.293
 251  3307.078
 252  2930.812
 253  2402.534
 254  2743.974
 255  2945.931
 256  2952.391
 257  3011.664
 258  3792.32
 259  4087.268
 260  4131.082
 261  3636.387
 262  3715.348
 263  3312.986
 264  3479.193
 265  3641.504
 266  3758.501
 267  3646.719
 268  3711.763
 269  3601.717
 270  3658.229
 271  3772.397
 272  4186.712
 273  3956.365
 274  4630.165
 275  4912.975
 276  4998.272
 277  4250.33
 278  3889.511
 279  3918.743
 280  3938.406
 281  4466.257
 282  4329.838
 283  4165.457
 284  3973.728
 285  3866.243
 286  3591.921
 287  3624.851
 288  3678.871
 289  3834.181
 290  4129.206
 291  4256.942
 292  4393.16
 293  4496.278
 294  3557.556
 295  3013.235
 296  3395.735
 297  3909.281
 298  3515.69
 299  3333.079
 300  3588.655
 301  3876.38
 302  3602.96
 303  3512.504
 304  2718.952
 305  2407.042
 306  2209.498
 307  2727.011
 308  3050.966
 309  3221.457
 310  3667.825
 311  3791.511
 312  3723.264
 313  3165.352
 314  3133.894
 315  3656.255
 316  3504.03
 317  3571.317
 318  3554.758
 319  3235.491
 320  2843.51
 321  2800.546
 322  3397.896
 323  3352.581
 324  3058.675
 325  3209.132
 326  3461.036
 327  4049.849
 328  4466.154
 329  4454.794
 330  4534.534
 331  4465.55
 332  3873.007
 333  3478.921
 334  3320.26
 335  3407.789
 336  3805.484
 337  3984.949
 338  4425.106
 339  4214.312
 340  4279.187
 341  4410.127
 342  4070.142
 343  4394.872
 344  4254.93
 345  4412.641
 346  4292.223
 347  4134.781
 348  4430.653
 349  4402.435
 350  4631.995
 351  4183.252
 352  4054.391
 353  4299.469
 354  4501.173
 355  4519.151
 356  4224.525
 357  4353.363
 358  4701.323
 359  4826.052
 360  4646.323
 361  4350.238
 362  4183.669
 363  4059.199
 364  3868.15
 365  4033.76
 366  3672.25
 367  3126.168
 368  2891.946
 369  2742.087
 370  2614.809
 371  2417.717
 372  2434.794
 373  2512.216
 374  2780.759
 375  3240.239
 376  3427.212
 377  3545.092
 378  3778.729
 379  3511.464
 380  3351.022
 381  2827.739
 382  2655.333
 383  3209.852
 384  3176.084
 385  3746.013
 386  3000.748
 387  3310.844
 388  3508.626
 389  4215.579
 390  4280.97
 391  3902.461
 392  3868.525
 393  3813.918
 394  3750.282
 395  3661.172
 396  3707.489
 397  3925.301
 398  3695.365
 399  4019.174
 400  3890.768
 401  3978.046
 402  4259.286
 403  4453.663
 404  4491.681
 405  4129.362
 406  4234.852
 407  4649.854
 408  4649.021
 409  3897.851
 410  3553.917
 411  3490.426
 412  3832.364
 413  3437.068
 414  3189.887
 415  2836.689
 416  3199.285
 417  3618.464
 418  3827.685
 419  3279.128
 420  3516.907
 421  3943.401
 422  4017.736
 423  3833.462
 424  4085.44
 425  4500.816
 426  4373.048
 427  3659.757
 428  3620.772
 429  3855.229
 430  3796.327
 431  3123.005
 432  3247.966
 433  3326.151
 434  3774.623
 435  4313.551
 436  4980.911
 437  5182.117
 438  4870.917
 439  4180.473
 440  4528.849
 441  4826.286
 442  5113.29
 443  4420.129
 444  4406.677
 445  3962.045
 446  3558.042
 447  3379.13
 448  3593.723
 449  3416.99
 450  3516.598
 451  3270.224
 452  3417.278
 453  3798.2
 454  3799.523
 455  3830.431
 456  3703.566
 457  3589.074
 458  3264.756
 459  3039.652
 460  3618.946
 461  3946.822
 462  4114.833
 463  3475.542
 464  3583.899
 465  4479.606
 466  4677.194
 467  4093.816
 468  3157.213
 469  3124.237
 470  3408.513
 471  4015.851
 472  4348.931
 473  4529.812
 474  4319.099
 475  4571.809
 476  4431.284
 477  4402.476
 478  3802.419
 479  3549.461
 480  3532.412
 481  3337.54
 482  3673.652
 483  4017.432
 484  4102.518
 485  3583.947
 486  3759.066
 487  3753.28
 488  3902.015
 489  4067.984
 490  4189.872
 491  3842.2
 492  3859.378
 493  3933.697
 494  4352.348
 495  3771.712
 496  3759.497
 497  3465.227
 498  4058.794
 499  3969.339
 500  4871.697
 501  4929.785
 502  5160.62
 503  4364.164
 504  4102.134
 505  3818.219
 506  3868.6
 507  3672.088
 508  3386.636
 509  3131.732
 510  2841.993
 511  2844.001
 512  3322.14
 513  4104.776
 514  4219.689
 515  3414.63
 516  3355.774
 517  3460.037
 518  3780.436
 519  3893.947
 520  4525.559
 521  5200.301
 522  4956.234
 523  4433.029
 524  4535.815
 525  4549.375
 526  4596.678
 527  4680.163
 528  4708.613
 529  4407.268
 530  4825.74
 531  4851.174
 532  4799.176
 533  4766.479
 534  4778.506
 535  4929.564
 536  4776.974
 537  4664.442
 538  4567.311
 539  4526.272
 540  5267.219
 541  6141.769
 542  5648.031
 543  5218.156
 544  4398.305
 545  4874.629
 546  4846.997
 547  4291.738
 548  4113.067
 549  4009.657
 550  3950.933
 551  4259.428
 552  4371.66
 553  4546.687
 554  4309.653
 555  4193.442
 556  4132.394
 557  3989.414
 558  3738.917
 559  3528.621
 560  3549.691
 561  3609.913
 562  3322.277
 563  3075.58
 564  3201.429
 565  3627.661
 566  3715.553
 567  3440.167
 568  2976.925
 569  2314.244
 570  2231.66
 571  2050.584
 572  1710.689
 573  1739.028
 574  2104.404
 575  2721.487
 576  2928.573
 577  3577.648
 578  3377.016
 579  3465.959
 580  3421.195
 581  3104.3
 582  2386.027
 583  2369.691
 584  2780.207
 585  2907.286
 586  2600.428
 587  2520.713
 588  2793.294
 589  2952.715
 590  2736.989
 591  2679.583
 592  2847.804
 593  3176.187
 594  3161.464
 595  3365.75
 596  3537.976
 597  3725.893
 598  4044.636
 599  3998.567
 600  3779.465
 601  3524.064
 602  3355.923
 603  3497.859
 604  3835.212
 605  3926.238
 606  4118.324
 607  4082.634
 608  4226.263
 609  3903.877
 610  3803.662
 611  3651.145
 612  3681.636
 613  4057.288
 614  4638.98
 615  4740.066
 616  4848.883
 617  4805.878
 618  4617.98
 619  3836.729
 620  3849.386
 621  3384.543
 622  3134.989
 623  3526.51
 624  4390.897
 625  4734.813
 626  4013.719
 627  3540.687
 628  3664.409
 629  4217.222
 630  3760.982
 631  3507.514
 632  3252.819
 633  3484.779
 634  3313.494
 635  3909.541
 636  4525.707
 637  4471.733
 638  3892.961
 639  3611.358
 640  3507.993
 641  3403.178
 642  3444.111
 643  3784.968
 644  4086.632
 645  4172.851
 646  3945.746
 647  3829.356
 648  3809.938
 649  3708.125
 650  3344.415
 651  3499.267
 652  3692.85
 653  3341.576
 654  2660.885
 655  2413.113
 656  2821.235
 657  3334.517
 658  3374.362
 659  3699.355
 660  3847.13
 661  3822.555
 662  3682.073
 663  3685.263
 664  3393.627
 665  3096.992
 666  2865.521
 667  2853.872
 668  2927.096
 669  2596.864
 670  2467.913
 671  2917.044
 672  3529.646
 673  3875.672
 674  3220.817
 675  3126.513
 676  2870.315
 677  2865.154
 678  2967.633
 679  3061.979
 680  2927.825
 681  2373.843
 682  2546.618
 683  2725.857
 684  2818.582
 685  2374.252
 686  2447.585
 687  3158.963
 688  3678.589
 689  4212.168
 690  4260.727
 691  3948.859
 692  4031.032
 693  4033.536
 694  4056.438
 695  3653.479
 696  3167.174
 697  3683.352
 698  3869.268
 699  4092.95
 700  3576.637
 701  3709.849
 702  4262.451
 703  4161.634
 704  4313.33
 705  4072.608
 706  4116.02
 707  3855.336
 708  3973.695
 709  4430.134
 710  4484.576
 711  4902.291
 712  5029.082
 713  5038.181
 714  4019.191
 715  3432.26
 716  3244.071
 717  4005.53
 718  3836.717
 719  4439.935
 720  4269.221
 721  4644.733
 722  4174.655
 723  4427.36
 724  4218.602
 725  4016.822
 726  3419.188
 727  3329.942
 728  3587.705
 729  3926.886
 730  3917.697
 731  3929.691
 732  3970.175
 733  4476.875
 734  4381.221
 735  4023.094
 736  4502.4
 737  4565.179
 738  4637.117
 739  3666.296
 740  4359.04
 741  4396.131
 742  4221.46
 743  3267.363
 744  3416.495
 745  3428.06
 746  3781.386
 747  4172.297
 748  4217.137
 749  3472.368
 750  3264.839
 751  2953.353
 752  3423.719
 753  3488.424
 754  3940.177
 755  3745.489
 756  3597.838
 757  3321.71
 758  3099.002
 759  2814.31
 760  2662.369
 761  2356.561
 762  2506.626
 763  2794.555
 764  2522.603
 765  2626.587
 766  2772.758
 767  3134.351
 768  2838.368
 769  2501.044
 770  2394.145
 771  2191.048
 772  2234.636
 773  2244.909
 774  2435.087
 775  2791.131
 776  2888.212
 777  2608.946
 778  2238.983
 779  2506.195
 780  2711.434
 781  3016.525
 782  3082.983
 783  3242.434
 784  3616.752
 785  3781.925
 786  3727.028
 787  3489.015
 788  3521.423
 789  3487.389
 790  3544.179
 791  3605.918
 792  3424.769
 793  3523.938
 794  3683.439
 795  4336.025
 796  4670.94
 797  4838.284
 798  4737.619
 799  4919.854
 800  5047.412
 801  4999.529
 802  3924.878
 803  3559.907
 804  3582.497
 805  4067.191
 806  4358.762
 807  4535.243
 808  4427.701
 809  4044.127
 810  4050.921
 811  4303.475
 812  4940.625
 813  5363.523
 814  5376.905
 815  5712.098
 816  5241.377
 817  4958.961
 818  4333.965
 819  4356.357
 820  4130.662
 821  3528.354
 822  3850.265
 823  3848.063
 824  4317.514
 825  4128.451
 826  4301.025
 827  4038.255
 828  3799.936
 829  3932.315
 830  3620.11
 831  3851.432
 832  4253.917
 833  4673.116
 834  5074.675
 835  4868.169
 836  4981.76
 837  4426.868
 838  3632.239
 839  3296.403
 840  3040.663
 841  3227.656
 842  3723.542
 843  4634
 844  4725.266
 845  4319.947
 846  3938.511
 847  4059.524
 848  4469.255
 849  4898.407
 850  4752.618
 851  4523.467
 852  4185.17
 853  4199.374
 854  4415.659
 855  4508.422
 856  4864.248
 857  4595.977
 858  4166.201
 859  3968.143
 860  3996.063
 861  4452.091
 862  4383.601
 863  4367.512
 864  4263.563
 865  4905.59
 866  4406.512
 867  4458.019
 868  3789.707
 869  4011.451
 870  4082.138
 871  4144.722
 872  4831.141
 873  4873.725
 874  4931.159
 875  4304.191
 876  4144.949
 877  4076.891
 878  4077.033
 879  4029.261
 880  4216.373
 881  4634.707
 882  4802.541
 883  4888.601
 884  4708.002
 885  5438.457
 886  5755.098
 887  6015.063
 888  5273.779
 889  5337.667
 890  4946.616
 891  4599.267
 892  4634.34
 893  4771.524
 894  4657.282
 895  4195.671
 896  4101.366
 897  4239.461
 898  4158.515
 899  4381.878
 900  4586.271
 901  4679.651
 902  5002.917
 903  5190.173
 904  4911.049
 905  4808.04
 906  4398.064
 907  3962.717
 908  3523.243
 909  3419.017
 910  3503.357
 911  3606.636
 912  3358.973
 913  3457.422
 914  3619.553
 915  3750.548
 916  3534.942
 917  3161.147
 918  3318.383
 919  3258.664
 920  3156.937
 921  2996.519
 922  2918.687
 923  3162.01
 924  2958.66
 925  3054.473
 926  3205.693
 927  3552.455
 928  3113.695
 929  3017.079
 930  3729.497
 931  4265.496
 932  4294.361
 933  3472.973
 934  3397.701
 935  3725.939
 936  3952.501
 937  3841.257
 938  3735.369
 939  3490.258
 940  3661.147
 941  3572.716
 942  3078.297
 943  2668.081
 944  2682.566
 945  2996.688
 946  2854.134
 947  2997.926
 948  3226.78
 949  3215.891
 950  3540.268
 951  3535.968
 952  3206.414
 953  2584.429
 954  2463.313
 955  2366.711
 956  2840.622
 957  3359.953
 958  3346.494
 959  3003.411
 960  2615.348
 961  2664.135
 962  2982.983
 963  3393.555
 964  3132.317
 965  2777.338
 966  2239.266
 967  2523.338
 968  2412.453
 969  2964.892
 970  3063.808
 971  2630.154
 972  2142.071
 973  2143.669
 974  2751.379
 975  2554.699
 976  2533.673
 977  2564.751
 978  2984.713
 979  2987.645
 980  2992.178
 981  3910.773
 982  4057.645
 983  3672.537
 984  2792.525
 985  3032.282
 986  2919.63
 987  2914.327
 988  2828.156
 989  3327.759
 990  3842.032
 991  3749.845
 992  3518.514
 993  2998.36
 994  2620.413
 995  2562.515
 996  3200.119
 997  3670.988
 998  3708.415
 999  3458.256
1000  3581.194
1001  3779.875
1002  3728.286
1003  4082.591
1004  3852.553
1005  3655.186
1006  3612.962
1007  4029.088
1008  4322.387
1009  3762.108
1010  3538.794
1011  3108.385
1012  2895.698
1013  2350.584
1014  2450.864
1015  2837.741
1016  3651.543
1017  4334.657
1018  4202.745
1019  4262.346
1020  4342.173
1021  4324.04
1022  3986.941
1023  3415.305
