# Input file       =  1189054427.122775_cleaned.dat
# Candidate        =  PSR_0332+5434
# Telescope        =  AR
# Epoch_topo       =  58006.204237532118
# Epoch_bary       =  N/A
# T_sample         =  0.002
# Data Folded      =  7340032
# Data Avg         =  0.0234448552801041
# Data StdDev      =  2.77357043087204 
# Profile Bins     =  512
# Profile Avg      =  336.074667616182 
# Profile StdDev   =  332.088009293124 
# Reduced chi-sqr  =  1.215
# Prob(Noise)      <  0.000617   (~3.2 sigma)
# P_topo (ms)      =  714.465035024563  +/- 0.000221
# P'_topo (s/s)    =  -0                +/- 1.17e-10
# P''_topo (s/s^2) =  0                 +/- 5.16e-14
# P_bary (ms)      =  N/A
# P'_bary (s/s)    =  N/A
# P''_bary (s/s^2) =  N/A
# P_orb (s)        =  N/A
# asin(i)/c (s)    =  N/A
# eccentricity     =  N/A
# w (rad)          =  N/A
# T_peri           =  N/A
######################################################
   0  303.4511
   1  259.3743
   2  -166.0577
   3  116.5912
   4  372.0281
   5  432.7487
   6  378.9033
   7  353.5622
   8  731.4296
   9  376.3904
  10  270.4788
  11  79.92656
  12  461.2519
  13  219.624
  14  611.0016
  15  745.918
  16  293.6997
  17  -57.36013
  18  -197.9985
  19  525.6872
  20  440.0769
  21  539.3549
  22  597.8186
  23  232.3386
  24  303.9223
  25  248.241
  26  308.1016
  27  154.2661
  28  384.7136
  29  205.3861
  30  -2.385674
  31  -67.26434
  32  42.0685
  33  197.3143
  34  105.9473
  35  53.84354
  36  126.2506
  37  330.2398
  38  361.6114
  39  68.50056
  40  -199.0445
  41  -319.8247
  42  206.6298
  43  -225.234
  44  199.5525
  45  -49.17834
  46  168.6371
  47  96.18151
  48  403.2996
  49  221.1249
  50  398.5598
  51  594.5607
  52  538.5664
  53  233.6489
  54  504.9341
  55  176.0166
  56  -53.77074
  57  146.7902
  58  266.3196
  59  402.2456
  60  -40.98532
  61  23.46097
  62  118.1642
  63  363.6274
  64  519.5021
  65  307.2907
  66  73.87871
  67  332.89
  68  407.9802
  69  288.1748
  70  102.105
  71  45.68488
  72  268.8899
  73  421.6042
  74  612.74
  75  567.7593
  76  479.6468
  77  419.1111
  78  536.1066
  79  780.7973
  80  367.188
  81  98.83434
  82  450.7138
  83  607.966
  84  597.0474
  85  222.6148
  86  162.434
  87  -168.3227
  88  37.88291
  89  527.845
  90  680.7633
  91  230.1585
  92  214.6696
  93  431.1711
  94  591.2153
  95  628.9899
  96  43.84215
  97  198.9488
  98  434.1754
  99  223.8192
 100  445.4106
 101  487.1147
 102  376.6601
 103  306.2311
 104  259.1637
 105  460.1692
 106  501.0197
 107  388.8692
 108  627.7568
 109  650.0927
 110  407.1953
 111  420.6345
 112  655.9734
 113  592.707
 114  558.6107
 115  251.815
 116  -149.0512
 117  -33.81833
 118  218.8893
 119  369.4799
 120  459.0206
 121  349.1436
 122  1.997141
 123  149.9496
 124  308.7856
 125  61.03926
 126  428.6539
 127  486.7145
 128  373.1294
 129  527.7218
 130  482.3816
 131  286.2979
 132  336.1667
 133  399.7928
 134  401.5895
 135  251.9799
 136  520.7801
 137  436.0464
 138  284.5818
 139  269.9029
 140  203.1489
 141  210.1851
 142  438.7958
 143  420.5436
 144  565.7307
 145  472.4397
 146  311.0519
 147  123.0841
 148  118.3114
 149  344.0753
 150  277.0182
 151  617.2226
 152  865.8502
 153  825.0243
 154  783.1945
 155  908.3719
 156  473.2862
 157  455.4057
 158  930.9182
 159  1058.604
 160  1104.07
 161  1344.625
 162  1715.781
 163  1826.277
 164  1634.003
 165  1232.608
 166  794.8525
 167  642.0885
 168  607.1512
 169  413.8462
 170  525.8421
 171  875.5576
 172  866.0665
 173  675.2082
 174  282.4689
 175  531.2509
 176  470.7682
 177  643.7426
 178  818.2336
 179  418.199
 180  563.0456
 181  778.0015
 182  512.7848
 183  729.5656
 184  529.8766
 185  392.0793
 186  263.1198
 187  245.1557
 188  578.7094
 189  512.2324
 190  223.9532
 191  578.4152
 192  491.5493
 193  597.4504
 194  249.2308
 195  261.2052
 196  358.5611
 197  209.5909
 198  471.5108
 199  599.6119
 200  173.6851
 201  222.9772
 202  180.2044
 203  -167.5547
 204  32.29226
 205  466.4059
 206  350.984
 207  -83.56371
 208  121.3633
 209  354.5556
 210  102.5895
 211  291.087
 212  505.5033
 213  251.2845
 214  193.8469
 215  111.829
 216  150.6386
 217  155.655
 218  214.5716
 219  277.4756
 220  240.233
 221  -212.5972
 222  -367.3255
 223  -108.4176
 224  130.4682
 225  223.8643
 226  339.2269
 227  348.3872
 228  166.0235
 229  344.6845
 230  467.9195
 231  189.164
 232  19.0028
 233  262.9373
 234  496.988
 235  532.2413
 236  547.287
 237  409.4496
 238  306.2259
 239  452.1269
 240  721.0198
 241  432.5469
 242  438.5811
 243  295.8383
 244  295.3999
 245  507.4645
 246  358.1874
 247  536.5657
 248  117.6787
 249  327.7856
 250  196.2066
 251  -290.3851
 252  17.31198
 253  282.4799
 254  441.7446
 255  231.0354
 256  233.9785
 257  201.4817
 258  719.4542
 259  779.3596
 260  311.6414
 261  454.5594
 262  459.0968
 263  272.4341
 264  42.54223
 265  301.3821
 266  256.4039
 267  457.1751
 268  251.3004
 269  336.8342
 270  223.2443
 271  -5.654303
 272  324.0436
 273  253.7928
 274  358.1869
 275  521.8494
 276  745.9408
 277  395.7229
 278  273.1932
 279  177.8596
 280  209.6669
 281  324.1442
 282  152.4581
 283  196.3696
 284  299.1627
 285  610.4775
 286  338.4891
 287  371.615
 288  88.78696
 289  256.0976
 290  275.4595
 291  83.88429
 292  378.5518
 293  232.9835
 294  210.2071
 295  703.8909
 296  655.6415
 297  599.6099
 298  589.8492
 299  358.5186
 300  203.9245
 301  49.87226
 302  288.3635
 303  541.1085
 304  556.7293
 305  190.7206
 306  227.1866
 307  -203.8777
 308  -65.29992
 309  320.2438
 310  171.4391
 311  106.5473
 312  151.4338
 313  192.4128
 314  520.2132
 315  430.2175
 316  648.0723
 317  22.64492
 318  -149.0226
 319  331.2863
 320  273.907
 321  251.2989
 322  372.7136
 323  346.9306
 324  274.9594
 325  262.0005
 326  113.3577
 327  299.3088
 328  640.1163
 329  698.5344
 330  271.6891
 331  55.50515
 332  433.1906
 333  450.3902
 334  -252.3676
 335  -145.5841
 336  -62.42338
 337  154.2084
 338  353.6222
 339  127.8175
 340  439.1418
 341  382.9901
 342  296.8916
 343  284.5161
 344  275.0364
 345  155.0267
 346  42.52347
 347  -176.1294
 348  -85.41022
 349  -90.67719
 350  297.4335
 351  557.4524
 352  133.0616
 353  319.8849
 354  299.8357
 355  445.5707
 356  59.29666
 357  149.0133
 358  18.56789
 359  254.0334
 360  282.0318
 361  436.996
 362  434.334
 363  464.5479
 364  562.7869
 365  503.1035
 366  578.0084
 367  552.849
 368  398.7436
 369  302.274
 370  485.3559
 371  351.6351
 372  677.439
 373  410.045
 374  198.4576
 375  266.7115
 376  71.28826
 377  247.0013
 378  374.8055
 379  458.6602
 380  613.8574
 381  502.7733
 382  498.2508
 383  -71.314
 384  212.8463
 385  556.0066
 386  641.0991
 387  623.6011
 388  757.4006
 389  335.1723
 390  539.6336
 391  515.7516
 392  537.3753
 393  450.0925
 394  114.4357
 395  163.2234
 396  599.4288
 397  555.1912
 398  547.8043
 399  602.0813
 400  462.4674
 401  399.3356
 402  172.47
 403  -4.525645
 404  -75.50385
 405  583.7488
 406  870.8209
 407  554.5542
 408  495.424
 409  496.1138
 410  352.101
 411  335.9518
 412  120.1059
 413  38.17619
 414  508.6971
 415  444.9383
 416  609.1143
 417  401.1336
 418  415.4659
 419  533.0825
 420  505.1338
 421  873.9163
 422  304.9412
 423  509.1436
 424  678.7603
 425  504.3894
 426  57.19029
 427  336.9286
 428  141.8818
 429  314.4023
 430  309.483
 431  460.5976
 432  543.9005
 433  150.7635
 434  40.76898
 435  -24.83755
 436  319.1076
 437  421.0944
 438  310.1972
 439  591.0314
 440  350.8426
 441  330.0855
 442  547.6943
 443  617.2845
 444  630.1068
 445  508.7174
 446  514.7903
 447  599.1376
 448  348.2217
 449  122.5863
 450  201.2979
 451  146.2926
 452  330.8517
 453  336.1215
 454  468.581
 455  338.1675
 456  228.6078
 457  513.5003
 458  452.7773
 459  407.5381
 460  406.3651
 461  378.2734
 462  288.8792
 463  339.2382
 464  150.4515
 465  177.7002
 466  431.5605
 467  753.1979
 468  722.8458
 469  343.7198
 470  103.0518
 471  14.66797
 472  21.05039
 473  392.3899
 474  423.6078
 475  134.46
 476  239.6956
 477  198.0481
 478  110.1625
 479  56.20426
 480  -111.5554
 481  300.5063
 482  392.7324
 483  425.5565
 484  483.6923
 485  -121.8254
 486  -273.2936
 487  -275.1439
 488  -328.4412
 489  -88.73528
 490  130.1654
 491  45.37157
 492  66.66475
 493  -3.583669
 494  -14.21162
 495  20.04554
 496  175.3783
 497  136.1282
 498  -61.20897
 499  41.93592
 500  512.5646
 501  378.8967
 502  155.5845
 503  -49.75578
 504  228.4821
 505  412.4928
 506  133.8733
 507  308.489
 508  458.3379
 509  338.1866
 510  435.4351
 511  85.57401
