# Input file       =  1189987313.102369-PSRB0329-2ms-sampling-dd.dat
# Candidate        =  PSR_0332+5434
# Telescope        =  AR
# Epoch_topo       =  58017.001528962603
# Epoch_bary       =  N/A
# T_sample         =  0.002
# Data Folded      =  7340032
# Data Avg         =  3.02354204698585e-10
# Data StdDev      =  2.81599204717832 
# Profile Bins     =  512
# Profile Avg      =  0.895115933687087
# Profile StdDev   =  337.167278221486 
# Reduced chi-sqr  =  1.550
# Prob(Noise)      <  1.72e-14   (~7.6 sigma)
# P_topo (ms)      =  714.467909581001  +/- 0.000214
# P'_topo (s/s)    =  -0                +/- 1.13e-10
# P''_topo (s/s^2) =  0                 +/- 4.99e-14
# P_bary (ms)      =  N/A
# P'_bary (s/s)    =  N/A
# P''_bary (s/s^2) =  N/A
# P_orb (s)        =  N/A
# asin(i)/c (s)    =  N/A
# eccentricity     =  N/A
# w (rad)          =  N/A
# T_peri           =  N/A
######################################################
   0  -287.0338
   1  -212.1006
   2  -18.14004
   3  -589.3052
   4  -37.38924
   5  -14.92894
   6  -506.4868
   7  -398.8973
   8  -253.5873
   9  -472.3961
  10  -100.3403
  11  -242.8022
  12  -187.8692
  13  -201.0987
  14  7.954156
  15  -14.50752
  16  -34.92409
  17  -245.7591
  18  -524.308
  19  -373.3845
  20  -53.63954
  21  -384.0619
  22  -525.2401
  23  -216.6244
  24  -126.6649
  25  -410.6142
  26  -259.0265
  27  34.10952
  28  52.87075
  29  -164.2171
  30  -393.7268
  31  -689.2975
  32  -282.4383
  33  -205.2707
  34  -384.1277
  35  -577.8118
  36  -572.0544
  37  -308.7183
  38  -329.2928
  39  -351.1534
  40  -391.1537
  41  -213.7972
  42  -272.4253
  43  -238.9476
  44  -73.79319
  45  -52.04573
  46  -231.3192
  47  -234.6969
  48  -40.37944
  49  -248.1959
  50  8.966645
  51  3.899639
  52  -209.8903
  53  -241.2443
  54  -363.2729
  55  -173.2343
  56  -239.9801
  57  -16.70342
  58  -81.34658
  59  -107.4052
  60  -216.2784
  61  -208.3019
  62  -39.46613
  63  47.9475
  64  -183.1531
  65  -266.1392
  66  -210.283
  67  -163.6457
  68  255.2907
  69  -15.8261
  70  -274.2253
  71  -21.29
  72  -181.5794
  73  -385.8369
  74  -383.4839
  75  -1.849735
  76  182.3702
  77  -106.1968
  78  -60.95542
  79  88.95753
  80  -106.4252
  81  -172.1068
  82  1.406264
  83  69.70964
  84  -94.36691
  85  108.058
  86  182.8264
  87  365.4776
  88  71.82774
  89  109.5118
  90  103.539
  91  -155.6374
  92  -222.9483
  93  -182.4107
  94  -147.5084
  95  -63.54134
  96  323.8208
  97  397.4049
  98  43.75089
  99  81.30834
 100  -119.5912
 101  -132.0672
 102  70.78011
 103  189.6843
 104  134.4953
 105  138.9419
 106  35.56074
 107  85.9866
 108  -181.9565
 109  2.200067
 110  397.0225
 111  488.2775
 112  323.4631
 113  284.5782
 114  437.4925
 115  376.6807
 116  337.497
 117  407.0775
 118  373.2393
 119  -59.16641
 120  359.1257
 121  408.425
 122  283.3578
 123  323.3534
 124  477.2911
 125  294.1826
 126  98.51556
 127  -93.26609
 128  -25.46143
 129  -116.0395
 130  -187.8204
 131  299.3844
 132  133.4472
 133  168.9037
 134  -111.5011
 135  209.4474
 136  350.9686
 137  210.1266
 138  172.4026
 139  342.8391
 140  297.9752
 141  400.2415
 142  275.1094
 143  238.8558
 144  137.2768
 145  26.30326
 146  190.6989
 147  293.2229
 148  294.7263
 149  348.836
 150  166.8115
 151  341.608
 152  -171.271
 153  -471.499
 154  -131.4138
 155  81.83427
 156  345.9193
 157  422.5935
 158  306.188
 159  458.0294
 160  794.224
 161  1401.605
 162  1928.341
 163  2059.546
 164  1745.233
 165  1151.832
 166  596.2163
 167  542.2122
 168  610.2196
 169  79.10588
 170  -199.497
 171  -133.4396
 172  127.5515
 173  573.4209
 174  505.372
 175  138.6787
 176  356.3103
 177  493.6454
 178  448.8999
 179  271.3526
 180  400.6544
 181  277.1943
 182  234.9375
 183  21.61101
 184  -172.6435
 185  -20.08569
 186  59.16776
 187  53.4299
 188  130.552
 189  493.6444
 190  247.3971
 191  -170.5552
 192  328.1933
 193  264.6065
 194  -206.2377
 195  -139.1003
 196  232.2365
 197  183.3745
 198  327.2558
 199  192.0113
 200  260.8273
 201  99.9649
 202  46.92122
 203  -115.6493
 204  -92.50185
 205  -33.0713
 206  194.7662
 207  177.8966
 208  276.176
 209  -90.11971
 210  -227.438
 211  125.8217
 212  73.45394
 213  422.8624
 214  791.8934
 215  679.1893
 216  495.9943
 217  176.4127
 218  198.9499
 219  256.5162
 220  8.706895
 221  218.1928
 222  448.0064
 223  234.5513
 224  -20.75155
 225  -106.2047
 226  165.4311
 227  -35.65898
 228  -25.93517
 229  369.6332
 230  498.7043
 231  227.1138
 232  6.96771
 233  73.60545
 234  56.85642
 235  -67.87727
 236  -46.43859
 237  345.0084
 238  164.4923
 239  20.78267
 240  283.0079
 241  144.6447
 242  -39.64832
 243  -62.54277
 244  12.49045
 245  -65.19933
 246  284.4675
 247  481.5906
 248  93.42909
 249  -42.16161
 250  22.0356
 251  224.0489
 252  251.392
 253  -43.16407
 254  -87.47219
 255  -213.4408
 256  3.190037
 257  307.1509
 258  227.1622
 259  285.2938
 260  203.7022
 261  -117.1153
 262  -232.9356
 263  141.822
 264  0.8947453
 265  160.0947
 266  343.5732
 267  199.6967
 268  288.0107
 269  71.21869
 270  -173.2002
 271  314.1424
 272  78.27711
 273  -192.6392
 274  -72.66152
 275  53.31307
 276  162.3429
 277  81.21994
 278  267.9265
 279  240.2829
 280  26.93695
 281  485.8859
 282  322.5518
 283  161.7958
 284  -407.8264
 285  -414.6002
 286  -434.3245
 287  -770.3557
 288  -517.292
 289  157.8566
 290  30.38008
 291  -9.012491
 292  -86.86877
 293  -115.9377
 294  -349.1411
 295  -99.77483
 296  191.4929
 297  97.81483
 298  -224.012
 299  -246.1791
 300  -164.8542
 301  -158.8263
 302  -476.817
 303  -434.4796
 304  -195.2763
 305  -213.2278
 306  -366.4381
 307  -224.3833
 308  -7.558055
 309  -60.54853
 310  -188.2001
 311  -399.5691
 312  -41.62421
 313  -10.6883
 314  218.5431
 315  371.2236
 316  -107.958
 317  -298.0793
 318  -7.748535
 319  116.2912
 320  22.63766
 321  35.92028
 322  215.4982
 323  226.6944
 324  191.1022
 325  -156.9582
 326  -190.1485
 327  -38.34818
 328  213.5969
 329  383.6102
 330  30.72046
 331  60.37791
 332  200.9795
 333  26.77382
 334  219.1606
 335  32.95673
 336  -159.8499
 337  -252.383
 338  39.03243
 339  30.14178
 340  191.0276
 341  12.37259
 342  -28.02834
 343  -124.1958
 344  -134.3906
 345  165.2867
 346  191.6834
 347  208.5939
 348  -78.96142
 349  -7.736009
 350  354.4835
 351  370.2895
 352  295.6177
 353  -219.0037
 354  -61.20655
 355  -69.464
 356  -25.2655
 357  -439.8215
 358  -335.0348
 359  -210.0736
 360  9.774179
 361  -9.223569
 362  -110.3832
 363  138.0389
 364  204.706
 365  -104.4474
 366  -260.6591
 367  -153.8558
 368  -285.8372
 369  -190.6518
 370  -157.0423
 371  -153.1571
 372  -314.7578
 373  -27.54138
 374  -240.2409
 375  -470.2162
 376  -204.4173
 377  -427.559
 378  -391.519
 379  -364.5312
 380  -54.96178
 381  178.4233
 382  -25.29741
 383  -236.7876
 384  -263.2696
 385  10.71676
 386  -267.8432
 387  -264.4146
 388  87.27938
 389  10.29651
 390  -170.5323
 391  -275.4444
 392  -83.31226
 393  -255.6571
 394  -209.2591
 395  -26.65999
 396  -137.1504
 397  -209.5651
 398  13.20274
 399  -138.2046
 400  -245.6728
 401  -222.0543
 402  -231.9675
 403  -317.4737
 404  -73.46583
 405  -175.0492
 406  -12.66361
 407  272.888
 408  110.4828
 409  -625.4452
 410  -398.5428
 411  -60.77544
 412  -378.1482
 413  5.809402
 414  387.0719
 415  14.90357
 416  -158.1029
 417  36.62692
 418  62.11927
 419  -174.1571
 420  -63.0436
 421  51.03255
 422  -156.2305
 423  207.756
 424  146.0876
 425  122.1471
 426  -11.98078
 427  -42.71909
 428  49.59705
 429  -54.86185
 430  192.4976
 431  20.1445
 432  141.5018
 433  57.24063
 434  -350.5381
 435  -408.4703
 436  -358.4204
 437  -144.4418
 438  144.5595
 439  74.87827
 440  440.1541
 441  691.67
 442  476.2225
 443  -77.68208
 444  -305.0179
 445  146.4994
 446  149.1118
 447  -84.96364
 448  188.3192
 449  -208.145
 450  -233.8934
 451  53.94831
 452  23.91518
 453  -128.187
 454  69.04956
 455  86.1401
 456  -55.37493
 457  -156.3131
 458  -369.6364
 459  -336.9706
 460  -624.6004
 461  -264.2419
 462  -24.14972
 463  -287.5945
 464  -648.2158
 465  -406.7143
 466  -33.07506
 467  -105.6638
 468  11.8614
 469  -374.8398
 470  -379.7507
 471  10.16401
 472  -135.2709
 473  -184.9482
 474  -278.2203
 475  -135.9584
 476  85.80524
 477  -236.2149
 478  -274.0699
 479  -55.00505
 480  -202.1651
 481  -101.99
 482  -43.46341
 483  -223.7484
 484  95.85769
 485  -121.9872
 486  83.63629
 487  49.59631
 488  -50.61461
 489  -104.4163
 490  -604.7767
 491  -368.1701
 492  -177.5124
 493  -135.8085
 494  -278.4494
 495  -373.6519
 496  -325.2339
 497  -275.8429
 498  -196.2353
 499  -279.1218
 500  -183.0592
 501  40.76989
 502  -220.1494
 503  -183.4578
 504  -329.5161
 505  -355.6823
 506  -233.649
 507  72.0647
 508  -35.57027
 509  -144.6061
 510  -98.7095
 511  92.62894
