# Input file       =  1189541950.11086_cleaned.dat
# Candidate        =  PSR_0332+5434
# Telescope        =  AR
# Epoch_topo       =  58011.846864709027
# Epoch_bary       =  N/A
# T_sample         =  0.002
# Data Folded      =  7143424
# Data Avg         =  0.0394433798821677
# Data StdDev      =  3.27151065278419 
# Profile Bins     =  256
# Profile Avg      =  1100.54945057886 
# Profile StdDev   =  546.489183395728 
# Reduced chi-sqr  =  1.229
# Prob(Noise)      <  0.00735   (~2.4 sigma)
# P_topo (ms)      =  714.466111866145  +/- 0.000166
# P'_topo (s/s)    =  -0                +/- 9.03e-11
# P''_topo (s/s^2) =  0                 +/- 4.09e-14
# P_bary (ms)      =  N/A
# P'_bary (s/s)    =  N/A
# P''_bary (s/s^2) =  N/A
# P_orb (s)        =  N/A
# asin(i)/c (s)    =  N/A
# eccentricity     =  N/A
# w (rad)          =  N/A
# T_peri           =  N/A
######################################################
   0  965.5754
   1  1657.907
   2  1434.148
   3  1157.296
   4  347.0897
   5  1376.517
   6  1567.322
   7  1467.497
   8  1529.91
   9  1386.703
  10  818.2587
  11  510.822
  12  331.726
  13  833.6977
  14  1575.778
  15  1473.165
  16  863.4511
  17  629.31
  18  1210.615
  19  1659.947
  20  825.6318
  21  607.0555
  22  1628.905
  23  1379.323
  24  899.4247
  25  801.7432
  26  -12.15868
  27  1556.154
  28  900.3102
  29  290.8699
  30  787.9166
  31  1367.556
  32  1060.401
  33  1117.823
  34  902.3376
  35  658.8917
  36  1207.824
  37  384.101
  38  974.7518
  39  931.0452
  40  1026.735
  41  1227.755
  42  945.1578
  43  1872.124
  44  1418.154
  45  878.2079
  46  1218.458
  47  1267.119
  48  1002.957
  49  1170.258
  50  965.4479
  51  446.1945
  52  759.4012
  53  1154.294
  54  928.9711
  55  1183.414
  56  1111.094
  57  1374.516
  58  1415.499
  59  1261.88
  60  1330.986
  61  277.4871
  62  -130.6232
  63  1225.966
  64  2093.567
  65  1163.658
  66  561.3569
  67  943.4742
  68  1403.457
  69  836.4155
  70  779.8262
  71  699.9383
  72  803.7397
  73  1609.807
  74  1061.204
  75  1253.146
  76  548.316
  77  1380.526
  78  1212.7
  79  922.9294
  80  662.3708
  81  206.6448
  82  533.6835
  83  1061.059
  84  1128.901
  85  797.6205
  86  1147.829
  87  1058.084
  88  1150.28
  89  627.9714
  90  1021.039
  91  1089.915
  92  1130.692
  93  871.5193
  94  1499.747
  95  1618.496
  96  1161.996
  97  1282.671
  98  1331.775
  99  1478.47
 100  1277.492
 101  1555.443
 102  1009.065
 103  1609.319
 104  1237.985
 105  1555.22
 106  2009.817
 107  764.6011
 108  295.6595
 109  852.861
 110  688.1006
 111  715.6227
 112  795.2236
 113  1241.773
 114  581.4205
 115  362.9245
 116  755.6484
 117  -117.4452
 118  1038.777
 119  1271.908
 120  855.976
 121  1228.198
 122  1136.542
 123  1444.105
 124  1129.53
 125  640.9725
 126  222.6585
 127  927.8799
 128  1363.475
 129  2110.687
 130  1401.786
 131  1552.469
 132  885.7371
 133  936.1037
 134  1292.109
 135  1017.822
 136  998.8686
 137  1590.094
 138  1467.995
 139  1570.057
 140  1192.51
 141  1468.324
 142  1197.22
 143  820.0835
 144  392.6706
 145  655.4708
 146  1636.465
 147  1362.417
 148  1639.446
 149  590.0134
 150  1340.927
 151  1390.023
 152  369.6132
 153  257.665
 154  1222.221
 155  1447.232
 156  850.6638
 157  1341.563
 158  1220.368
 159  1972.961
 160  4496.46
 161  4313.75
 162  1610.675
 163  1144.207
 164  1260.818
 165  764.0234
 166  269.928
 167  269.685
 168  1185.863
 169  1094.939
 170  714.5892
 171  874.0328
 172  1075.506
 173  810.9676
 174  1003.079
 175  2108.345
 176  1297.229
 177  647.4991
 178  800.1104
 179  1843.678
 180  999.7808
 181  444.5005
 182  1012.551
 183  1442.304
 184  1202.823
 185  1100.287
 186  731.0105
 187  1387.18
 188  1263.832
 189  1772.662
 190  1661.131
 191  1310.04
 192  1287.823
 193  1268.573
 194  765.5184
 195  603.8431
 196  1040.686
 197  638.1037
 198  637.3341
 199  404.8443
 200  1390.713
 201  1471.53
 202  1010.145
 203  1003.025
 204  542.7121
 205  253.9228
 206  348.3513
 207  695.5133
 208  752.2521
 209  675.1846
 210  383.9628
 211  1249.138
 212  1954.541
 213  2253.307
 214  1251.608
 215  787.8029
 216  1132.632
 217  1710.002
 218  1040.292
 219  1635.908
 220  1322.547
 221  1365.109
 222  1361.742
 223  1567.464
 224  1884.665
 225  1435.325
 226  1521.851
 227  2132.354
 228  1757.451
 229  1500.852
 230  1064.324
 231  914.6824
 232  1265.274
 233  1139.672
 234  906.597
 235  426.1107
 236  1491.868
 237  1700.013
 238  1017.423
 239  169.446
 240  283.6079
 241  1155.156
 242  1076.359
 243  741.1392
 244  560.5425
 245  1407.229
 246  1164.769
 247  937.5143
 248  781.8445
 249  950.3834
 250  947.2505
 251  907.0267
 252  635.987
 253  1133.805
 254  1339.348
 255  1495.907
