# Input file       =  1189541950.110860-PSRB0329-2ms-sampling-dd.dat
# Candidate        =  PSR_0332+5434
# Telescope        =  AR
# Epoch_topo       =  58011.846864709027
# Epoch_bary       =  N/A
# T_sample         =  0.002
# Data Folded      =  7208960
# Data Avg         =  -7.14873166082496e-10
# Data StdDev      =  4.89083856389823 
# Profile Bins     =  512
# Profile Avg      =  -0.263951147397127
# Profile StdDev   =  580.342872931379 
# Reduced chi-sqr  =  0.845
# Prob(Noise)      <  0.995   (~0.0 sigma)
# P_topo (ms)      =  714.466111972002  +/- 0.00137
# P'_topo (s/s)    =  -0                +/- 7.37e-10
# P''_topo (s/s^2) =  0                 +/- 3.31e-13
# P_bary (ms)      =  N/A
# P'_bary (s/s)    =  N/A
# P''_bary (s/s^2) =  N/A
# P_orb (s)        =  N/A
# asin(i)/c (s)    =  N/A
# eccentricity     =  N/A
# w (rad)          =  N/A
# T_peri           =  N/A
######################################################
   0  -132.1134
   1  -222.4272
   2  -552.6559
   3  -156.0737
   4  -60.14901
   5  -373.9787
   6  -95.73456
   7  350.0812
   8  116.8739
   9  -355.2781
  10  -400.4958
  11  -231.6672
  12  -238.6688
  13  -140.3154
  14  -535.8939
  15  -751.6497
  16  -644.3925
  17  -704.3685
  18  -803.1238
  19  -398.2164
  20  -309.6311
  21  -345.0644
  22  -324.5456
  23  -608.704
  24  -663.9391
  25  -303.0557
  26  -32.95394
  27  -257.2934
  28  -222.808
  29  -310.3091
  30  541.3061
  31  1119.265
  32  1632.411
  33  1782.055
  34  844.5469
  35  -91.34025
  36  -464.7562
  37  -397.0655
  38  -366.2862
  39  -224.2471
  40  -386.8653
  41  -447.0531
  42  -409.5362
  43  -935.3652
  44  -769.0361
  45  -846.5306
  46  -807.7324
  47  -370.9161
  48  -368.11
  49  -197.381
  50  -292.5784
  51  -448.307
  52  -776.2042
  53  -460.7495
  54  -467.8571
  55  -293.2387
  56  -368.972
  57  -449.235
  58  -194.5653
  59  -487.3942
  60  -124.7505
  61  245.9784
  62  259.4269
  63  14.1612
  64  -83.95166
  65  -157.9321
  66  -322.6953
  67  -214.3923
  68  166.5086
  69  397.8667
  70  89.82395
  71  -210.1499
  72  -356.1834
  73  -581.3407
  74  -226.2661
  75  -170.2534
  76  -171.128
  77  -232.773
  78  -9.128208
  79  -377.7708
  80  -342.3856
  81  -303.6155
  82  -346.7546
  83  -678.0727
  84  -403.8534
  85  -138.1747
  86  -526.251
  87  -154.6424
  88  -366.7376
  89  231.6511
  90  -87.93472
  91  -53.41603
  92  -197.305
  93  -145.6516
  94  -155.5945
  95  -208.1839
  96  121.6068
  97  -47.63706
  98  -104.2604
  99  -236.455
 100  -568.8508
 101  -461.3947
 102  -506.1491
 103  -301.2995
 104  63.8746
 105  -263.1447
 106  -553.3348
 107  -268.1284
 108  -73.2341
 109  -342.4906
 110  -451.6595
 111  -163.8944
 112  -178.7666
 113  -185.4333
 114  -45.42992
 115  10.32405
 116  -110.6301
 117  -239.8407
 118  -283.5845
 119  -591.9986
 120  -606.8085
 121  -443.8033
 122  -409.683
 123  -352.5121
 124  -270.6462
 125  182.9156
 126  10.86461
 127  -43.16608
 128  -181.038
 129  -146.8436
 130  -405.5266
 131  -204.1897
 132  10.65014
 133  191.5139
 134  302.2047
 135  107.6651
 136  243.0744
 137  380.9838
 138  290.0235
 139  16.71679
 140  -172.9757
 141  -272.1279
 142  -206.2383
 143  41.79002
 144  35.04164
 145  332.2678
 146  25.43859
 147  33.35003
 148  -30.85604
 149  128.7175
 150  198.2324
 151  57.72765
 152  -390.3015
 153  -297.7513
 154  -179.5434
 155  -256.4341
 156  261.2468
 157  144.3598
 158  7.928161
 159  147.2212
 160  62.72284
 161  272.0851
 162  -353.4684
 163  63.65799
 164  73.65141
 165  207.3133
 166  175.6302
 167  243.7645
 168  -36.91291
 169  -217.2039
 170  -144.4109
 171  -570.4724
 172  -396.2793
 173  -436.8498
 174  -479.1361
 175  -330.5099
 176  85.41257
 177  -98.94643
 178  -99.73519
 179  -177.25
 180  -489.6584
 181  -584.03
 182  -537.2614
 183  131.6657
 184  264.2124
 185  73.36911
 186  310.2943
 187  4.175009
 188  -235.292
 189  -198.1674
 190  -647.7657
 191  -445.2443
 192  -321.4855
 193  -167.7293
 194  -244.0325
 195  -280.3896
 196  -145.978
 197  -112.5829
 198  -596.7163
 199  -626.8575
 200  -376.9571
 201  -210.044
 202  -11.23411
 203  -5.514602
 204  3.905445
 205  -55.77765
 206  -602.5532
 207  -334.3593
 208  -527.9266
 209  -475.7989
 210  -60.75056
 211  -124.8201
 212  -101.7064
 213  50.90806
 214  -290.2843
 215  -445.0081
 216  -558.7437
 217  -113.8727
 218  -216.6595
 219  -324.4271
 220  -280.2733
 221  -185.4642
 222  -465.7016
 223  -386.5303
 224  -346.7391
 225  -19.81717
 226  42.02054
 227  -58.98168
 228  -225.4984
 229  -193.0238
 230  -207.9307
 231  -573.3519
 232  -579.5282
 233  -156.995
 234  -396.2538
 235  -260.8834
 236  -19.01241
 237  -77.10835
 238  -86.35349
 239  -97.53026
 240  -204.8967
 241  98.49306
 242  -74.92335
 243  -168.8856
 244  -325.4691
 245  -534.7651
 246  -549.1954
 247  -507.624
 248  -825.5569
 249  -492.5358
 250  -99.26865
 251  135.3745
 252  85.83299
 253  -199.5249
 254  -212.3302
 255  -390.5312
 256  -518.1816
 257  -452.4891
 258  -548.4279
 259  -326.1513
 260  -95.7243
 261  12.15106
 262  -197.3982
 263  -336.9871
 264  -649.2756
 265  -894.7029
 266  -468.413
 267  127.4204
 268  296.9821
 269  200.3672
 270  0.5591455
 271  -52.76308
 272  -400.0876
 273  -190.5485
 274  -173.8777
 275  -556.726
 276  -398.7446
 277  20.33185
 278  333.6764
 279  -25.92707
 280  -214.6105
 281  -361.775
 282  -341.5237
 283  -326.6753
 284  -276.9624
 285  -9.411838
 286  95.75114
 287  23.86862
 288  38.42782
 289  30.6495
 290  45.62901
 291  -96.46326
 292  180.7735
 293  82.74968
 294  32.25472
 295  266.6351
 296  -136.8377
 297  -274.6181
 298  -288.1326
 299  40.55271
 300  160.1816
 301  -14.55694
 302  -45.5025
 303  -167.5548
 304  -0.6328042
 305  126.1695
 306  159.8203
 307  177.8597
 308  748.2631
 309  990.8107
 310  569.6987
 311  568.2402
 312  131.0197
 313  50.57616
 314  154.748
 315  248.6826
 316  418.286
 317  423.2975
 318  450.2482
 319  137.4832
 320  -81.5062
 321  5.981081
 322  206.9769
 323  168.5689
 324  -1.242576
 325  0.8924874
 326  257.6284
 327  79.31148
 328  450.5236
 329  449.0445
 330  564.9168
 331  165.5036
 332  282.682
 333  598.2938
 334  134.2396
 335  393.7116
 336  647.8376
 337  642.012
 338  774.5107
 339  794.0133
 340  584.0374
 341  612.177
 342  738.6711
 343  393.3093
 344  205.8973
 345  167.352
 346  -193.7492
 347  -93.37698
 348  -13.07234
 349  532.9044
 350  469.2578
 351  888.4144
 352  613.5683
 353  552.4296
 354  506.1906
 355  521.558
 356  267.7164
 357  499.5209
 358  663.8674
 359  811.7173
 360  722.5213
 361  492.0344
 362  407.6619
 363  256.1967
 364  435.7499
 365  442.0604
 366  247.2358
 367  294.3303
 368  262.1368
 369  668.4061
 370  433.8678
 371  399.7455
 372  611.7801
 373  854.5851
 374  954.4628
 375  486.3503
 376  303.5016
 377  428.6222
 378  927.6667
 379  666.0398
 380  335.8564
 381  487.4563
 382  287.2329
 383  590.7451
 384  505.0031
 385  332.2402
 386  55.66447
 387  250.6899
 388  176.8074
 389  459.3247
 390  696.7422
 391  758.4631
 392  508.5867
 393  387.9123
 394  291.5635
 395  551.3376
 396  134.7108
 397  153.1702
 398  565.2145
 399  558.2834
 400  641.3333
 401  493.471
 402  430.852
 403  417.3643
 404  456.6055
 405  414.9135
 406  340.8389
 407  773.877
 408  848.4684
 409  434.131
 410  331.8186
 411  410.7921
 412  794.1013
 413  568.8402
 414  545.2502
 415  340.1376
 416  388.9735
 417  444.0111
 418  16.12862
 419  275.3197
 420  639.2578
 421  606.7599
 422  382.0561
 423  86.73642
 424  337.1664
 425  379.8109
 426  110.7884
 427  50.1091
 428  279.5401
 429  572.0339
 430  288.4867
 431  212.9921
 432  159.8296
 433  73.05558
 434  56.49362
 435  278.447
 436  243.4523
 437  215.1659
 438  -55.68266
 439  -141.3386
 440  89.42068
 441  459.7055
 442  231.1096
 443  -40.50996
 444  -93.72758
 445  -96.28748
 446  -293.3922
 447  -254.8552
 448  306.9477
 449  391.3682
 450  6.600463
 451  -258.8491
 452  -245.8933
 453  -533.6083
 454  -277.6974
 455  -46.31359
 456  -257.2072
 457  -327.2777
 458  -237.7881
 459  -15.48665
 460  308.7298
 461  187.3445
 462  156.3481
 463  82.16776
 464  160.2649
 465  258.2406
 466  240.7427
 467  -104.3685
 468  15.40495
 469  202.3778
 470  -11.1623
 471  68.72417
 472  160.867
 473  110.4748
 474  -476.006
 475  -443.534
 476  -468.8178
 477  2.954252
 478  120.7021
 479  235.536
 480  430.0247
 481  611.2136
 482  332.6104
 483  -34.18811
 484  446.5764
 485  903.0734
 486  1217.672
 487  1.829574
 488  -450.782
 489  -169.6673
 490  -137.4055
 491  164.2051
 492  -47.99129
 493  -113.7378
 494  -26.94182
 495  -318.0672
 496  144.6058
 497  51.94799
 498  124.8084
 499  130.9718
 500  176.2493
 501  148.0033
 502  121.2255
 503  -101.0545
 504  43.60374
 505  -92.20194
 506  178.4833
 507  30.73036
 508  -26.74515
 509  36.60373
 510  -132.1163
 511  -197.7691
