# Input file       =  1189556553.120852-PSRB0329-2ms-sampling-dd.dat
# Candidate        =  PSR_0332+5434
# Telescope        =  AR
# Epoch_topo       =  58012.015881028383
# Epoch_bary       =  N/A
# T_sample         =  0.002
# Data Folded      =  7340032
# Data Avg         =  1.49455565373045e-10
# Data StdDev      =  3.23075034666464 
# Profile Bins     =  512
# Profile Avg      =  -0.0601613654710454
# Profile StdDev   =  386.827548781447 
# Reduced chi-sqr  =  1.045
# Prob(Noise)      <  0.233   (~0.7 sigma)
# P_topo (ms)      =  714.466178805002  +/- 0.000229
# P'_topo (s/s)    =  -0                +/- 1.21e-10
# P''_topo (s/s^2) =  0                 +/- 5.33e-14
# P_bary (ms)      =  N/A
# P'_bary (s/s)    =  N/A
# P''_bary (s/s^2) =  N/A
# P_orb (s)        =  N/A
# asin(i)/c (s)    =  N/A
# eccentricity     =  N/A
# w (rad)          =  N/A
# T_peri           =  N/A
######################################################
   0  -461.1526
   1  -103.761
   2  475.3046
   3  850.1901
   4  1352.802
   5  1617.92
   6  1577.746
   7  1245.371
   8  721.0688
   9  219.0016
  10  68.50588
  11  48.89827
  12  -223.271
  13  -170.6959
  14  70.71278
  15  106.5918
  16  -166.1304
  17  84.46606
  18  310.7841
  19  -203.6603
  20  -351.2255
  21  -167.0362
  22  -253.9608
  23  -299.8069
  24  -311.8599
  25  21.95031
  26  -69.54757
  27  -420.6014
  28  -101.6752
  29  -165.0161
  30  -322.0261
  31  -184.5015
  32  -149.069
  33  -182.9508
  34  -217.5618
  35  -159.2397
  36  -166.1751
  37  -395.0996
  38  229.9686
  39  -151.6455
  40  -109.5181
  41  -6.412091
  42  -81.72459
  43  -203.6486
  44  -5.45843
  45  172.839
  46  212.7086
  47  -81.83804
  48  71.50729
  49  526.8882
  50  512.6792
  51  146.3234
  52  -90.43518
  53  246.5885
  54  50.14791
  55  -32.91178
  56  84.66061
  57  -82.51284
  58  43.39173
  59  -156.7304
  60  -321.5163
  61  104.643
  62  -124.6753
  63  -556.7421
  64  -551.1692
  65  -224.3071
  66  -172.8916
  67  -140.2769
  68  77.40564
  69  -110.412
  70  -20.51996
  71  -61.4305
  72  -181.3601
  73  -108.0019
  74  333.9912
  75  29.22749
  76  124.9287
  77  230.6187
  78  -48.9798
  79  -77.63686
  80  283.8536
  81  232.8711
  82  121.2851
  83  281.7556
  84  554.1516
  85  422.9884
  86  127.1798
  87  -264.2572
  88  -321.2256
  89  80.70953
  90  48.71558
  91  -10.18899
  92  -163.4601
  93  -481.7065
  94  -542.7971
  95  -432.8746
  96  -450.5602
  97  175.1458
  98  -159.8236
  99  -467.261
 100  -65.96138
 101  -147.7908
 102  -235.5549
 103  -166.9101
 104  -335.4794
 105  -410.8105
 106  -280.4111
 107  153.7272
 108  30.09583
 109  331.2823
 110  -142.2637
 111  -240.0206
 112  -42.56121
 113  -22.38788
 114  -244.9226
 115  74.85611
 116  -44.91721
 117  -64.16274
 118  150.7649
 119  191.7452
 120  -373.598
 121  -399.529
 122  -34.96363
 123  -437.2303
 124  -353.3181
 125  -114.3444
 126  -54.59319
 127  189.3457
 128  57.02765
 129  -37.1093
 130  182.4479
 131  71.68159
 132  -42.73567
 133  -379.3724
 134  18.62401
 135  347.131
 136  -47.72555
 137  -570.0508
 138  -705.0986
 139  -311.4836
 140  -319.5771
 141  -8.594859
 142  -167.9974
 143  -288.9499
 144  95.57623
 145  197.4488
 146  32.12845
 147  -74.34424
 148  -376.4707
 149  -285.0862
 150  -65.27238
 151  -42.59168
 152  10.64794
 153  -156.4531
 154  46.11954
 155  34.34441
 156  -23.3059
 157  -128.5564
 158  -295.5583
 159  -158.2985
 160  -200.924
 161  -17.26543
 162  -8.586616
 163  -539.5937
 164  -507.2542
 165  -40.0689
 166  -120.6853
 167  72.90407
 168  -142.0599
 169  29.48995
 170  -185.487
 171  -175.071
 172  -321.3866
 173  -100.9491
 174  192.4338
 175  -130.4153
 176  70.83015
 177  -181.5494
 178  90.59056
 179  147.5918
 180  -123.3437
 181  -114.1117
 182  15.07692
 183  186.4618
 184  -415.0176
 185  -486.5728
 186  -12.21246
 187  167.6367
 188  257.8236
 189  222.8543
 190  258.0228
 191  -404.6192
 192  -227.2761
 193  69.38704
 194  119.3342
 195  -63.75219
 196  -136.3728
 197  106.8094
 198  139.3629
 199  -191.9366
 200  -338.138
 201  105.7108
 202  149.5401
 203  291.8909
 204  155.4094
 205  -195.5728
 206  283.7789
 207  340.9035
 208  116.46
 209  241.8119
 210  339.1006
 211  -130.5119
 212  46.4478
 213  233.8624
 214  90.33794
 215  133.0592
 216  287.8787
 217  243.4413
 218  518.3366
 219  112.4049
 220  155.5668
 221  48.10288
 222  187.8605
 223  392.2344
 224  534.0475
 225  344.6056
 226  202.8675
 227  142.5274
 228  317.5191
 229  640.5862
 230  209.1947
 231  199.4072
 232  342.0814
 233  438.4127
 234  142.2954
 235  164.1685
 236  281.3565
 237  274.9414
 238  369.0676
 239  148.7525
 240  120.759
 241  115.2687
 242  376.5072
 243  547.2524
 244  378.0899
 245  320.6109
 246  591.5203
 247  800.9373
 248  630.3681
 249  737.1436
 250  136.4459
 251  290.4146
 252  704.6859
 253  575.3458
 254  484.6983
 255  453.5558
 256  464.5967
 257  181.9907
 258  305.0026
 259  178.5928
 260  100.0576
 261  282.7487
 262  38.18976
 263  -108.7009
 264  -115.1732
 265  107.6924
 266  63.80369
 267  -112.8993
 268  -251.294
 269  45.69516
 270  -88.98035
 271  -97.95934
 272  252.6246
 273  222.3704
 274  -188.8444
 275  -43.70689
 276  -242.3214
 277  -64.98872
 278  267.2426
 279  457.6511
 280  291.9366
 281  -116.0092
 282  -141.1598
 283  -34.69778
 284  53.21968
 285  -89.39947
 286  -258.1662
 287  -99.85269
 288  -107.0116
 289  -80.39656
 290  74.80917
 291  306.4377
 292  21.11508
 293  -180.3013
 294  -410.0355
 295  -77.67239
 296  -43.83633
 297  312.5175
 298  145.8127
 299  79.57635
 300  20.72082
 301  -464.7805
 302  -329.4194
 303  -305.7638
 304  9.73683
 305  -240.5232
 306  -234.9513
 307  34.0947
 308  -16.50328
 309  -42.88576
 310  8.241611
 311  122.998
 312  -142.154
 313  160.439
 314  -74.82072
 315  -231.9742
 316  -322.1606
 317  -42.74096
 318  119.5837
 319  -343.1907
 320  -90.76611
 321  -93.29877
 322  -215.9318
 323  -17.88732
 324  255.0725
 325  220.1114
 326  68.28416
 327  48.72567
 328  -58.08199
 329  116.0556
 330  151.3
 331  -20.12607
 332  263.5006
 333  80.37135
 334  157.3716
 335  -161.6109
 336  -134.4816
 337  -206.9476
 338  -260.6886
 339  14.47733
 340  230.0472
 341  230.7802
 342  84.4091
 343  58.97664
 344  524.9199
 345  237.2349
 346  -242.8334
 347  -200.0217
 348  115.6128
 349  89.75474
 350  260.3982
 351  175.8254
 352  -344.3228
 353  -288.7758
 354  552.0455
 355  131.319
 356  -152.0554
 357  -87.53885
 358  -136.245
 359  -74.29808
 360  -268.2437
 361  -417.2809
 362  -653.6387
 363  -590.3123
 364  -9.990605
 365  213.2064
 366  7.252611
 367  -76.50774
 368  -366.3962
 369  -350.6232
 370  -224.8985
 371  -372.1959
 372  -445.7293
 373  -262.1245
 374  -95.33509
 375  -6.065156
 376  7.645902
 377  -146.2607
 378  -150.5802
 379  54.3066
 380  214.0405
 381  82.32193
 382  75.79452
 383  39.49182
 384  -62.50952
 385  105.1803
 386  16.54053
 387  -180.3812
 388  8.815328
 389  402.0651
 390  578.7087
 391  252.6171
 392  -84.46795
 393  -287.0033
 394  -244.748
 395  37.45207
 396  -191.361
 397  104.161
 398  49.94084
 399  267.8141
 400  -62.64938
 401  -383.3166
 402  -454.6464
 403  -138.0587
 404  -51.06334
 405  -292.9898
 406  -489.2085
 407  -130.3545
 408  188.0362
 409  -241.2817
 410  -152.2161
 411  -129.511
 412  -64.78488
 413  122.0423
 414  -102.561
 415  68.69157
 416  21.10444
 417  -18.0353
 418  22.63449
 419  307.8835
 420  -135.286
 421  304.1591
 422  148.4445
 423  -41.35244
 424  135.7641
 425  75.32264
 426  -84.84021
 427  -406.3031
 428  -180.8862
 429  -62.5608
 430  104.978
 431  107.5886
 432  111.8317
 433  64.13833
 434  104.8165
 435  96.17451
 436  -252.7521
 437  -268.3806
 438  -244.7502
 439  -227.6698
 440  -239.5481
 441  -11.80173
 442  282.186
 443  46.61927
 444  -467.4107
 445  -149.9393
 446  -24.15302
 447  39.39061
 448  63.48962
 449  36.84286
 450  121.4559
 451  259.3183
 452  -112.3639
 453  -196.4755
 454  215.6048
 455  252.3349
 456  -3.12412
 457  -1.125587
 458  175.9246
 459  136.7586
 460  58.39794
 461  4.98819
 462  -120.7338
 463  142.8983
 464  -34.75357
 465  197.5836
 466  -128.9224
 467  -240.9882
 468  -461.3878
 469  -474.5435
 470  -588.8428
 471  -171.428
 472  47.86087
 473  -421.6732
 474  357.4174
 475  708.7537
 476  877.4243
 477  167.6488
 478  310.8851
 479  158.2729
 480  -100.1409
 481  -4.33716
 482  -21.26406
 483  -453.7558
 484  -214.2361
 485  312.0693
 486  -133.631
 487  -25.85146
 488  -65.54014
 489  -151.9969
 490  -23.29706
 491  153.2758
 492  -323.922
 493  -278.9118
 494  -415.7461
 495  -537.012
 496  -555.6938
 497  -42.5531
 498  42.18654
 499  438.9844
 500  -296.6284
 501  -183.8888
 502  -315.4351
 503  -231.8983
 504  -39.43267
 505  -167.92
 506  -34.82769
 507  -39.09953
 508  -250.9901
 509  -115.8983
 510  -241.3805
 511  111.7365
