# Input file       =  1189485312.127878_cleaned.dat
# Candidate        =  PSR_0332+5434
# Telescope        =  AR
# Epoch_topo       =  58011.191332498587
# Epoch_bary       =  N/A
# T_sample         =  0.002
# Data Folded      =  7340032
# Data Avg         =  0.02853479127225 
# Data StdDev      =  3.05708585726135 
# Profile Bins     =  256
# Profile Avg      =  818.313014950754 
# Profile StdDev   =  517.650490552718 
# Reduced chi-sqr  =  1.509
# Prob(Noise)      <  2.61e-07   (~5.0 sigma)
# P_topo (ms)      =  714.466269988822  +/- 0.000152
# P'_topo (s/s)    =  -0                +/- 8.04e-11
# P''_topo (s/s^2) =  0                 +/- 3.55e-14
# P_bary (ms)      =  N/A
# P'_bary (s/s)    =  N/A
# P''_bary (s/s^2) =  N/A
# P_orb (s)        =  N/A
# asin(i)/c (s)    =  N/A
# eccentricity     =  N/A
# w (rad)          =  N/A
# T_peri           =  N/A
######################################################
   0  875.8979
   1  1572.228
   2  781.1077
   3  1024.209
   4  1161.171
   5  1236.63
   6  964.0585
   7  1306.73
   8  -89.59232
   9  1014.228
  10  723.1936
  11  783.5127
  12  755.9753
  13  948.7407
  14  118.4098
  15  679.3187
  16  2.628726
  17  1300.414
  18  1935.268
  19  997.8937
  20  326.9082
  21  1155.004
  22  980.5655
  23  538.6754
  24  -172.9074
  25  379.561
  26  766.0381
  27  432.8983
  28  306.1024
  29  228.7576
  30  374.3615
  31  1046.794
  32  1264.38
  33  1423.371
  34  1265.121
  35  704.5948
  36  635.9908
  37  652.0817
  38  1271.697
  39  843.8453
  40  817.0099
  41  1572.729
  42  617.1877
  43  701.7303
  44  1102.757
  45  1480.254
  46  954.9697
  47  908.2888
  48  957.0978
  49  490.8391
  50  509.5034
  51  622.6088
  52  964.0213
  53  953.1874
  54  910.4791
  55  984.1816
  56  859.8042
  57  808.8781
  58  756.1765
  59  688.1091
  60  608.4143
  61  1350.835
  62  1170.047
  63  418.2049
  64  578.9453
  65  953.5092
  66  1118.67
  67  905.9688
  68  1875.733
  69  1924.747
  70  1437.912
  71  699.4831
  72  1603.082
  73  1161.649
  74  1166.385
  75  814.5067
  76  538.8401
  77  391.3082
  78  910.4525
  79  1286.922
  80  806.4026
  81  666.6779
  82  705.5375
  83  835.8339
  84  1295.112
  85  548.8006
  86  666.6726
  87  1358.592
  88  1257.222
  89  1087.745
  90  173.6939
  91  282.7372
  92  1172.695
  93  1097.698
  94  1252.114
  95  1270.724
  96  634.0332
  97  594.0797
  98  208.6784
  99  1094.303
 100  751.8904
 101  1309.577
 102  942.8731
 103  1323.634
 104  916.0787
 105  926.3915
 106  276.1957
 107  512.5391
 108  732.0172
 109  119.398
 110  831.8078
 111  1066.04
 112  623.6056
 113  479.8336
 114  758.4629
 115  -213.5382
 116  925.0884
 117  538.1237
 118  503.9928
 119  213.4777
 120  1109.288
 121  957.2996
 122  742.3475
 123  423.9194
 124  682.2123
 125  878.4077
 126  343.7122
 127  459.7067
 128  1.858735
 129  533.4087
 130  760.6124
 131  910.5533
 132  372.3185
 133  -33.22953
 134  370.8316
 135  -104.5019
 136  1323.962
 137  798.6221
 138  1172.637
 139  889.7505
 140  655.3615
 141  236.3463
 142  517.7349
 143  1237.088
 144  312.3613
 145  827.3633
 146  1013.158
 147  -114.4981
 148  62.26767
 149  70.41392
 150  738.2698
 151  954.7065
 152  643.6204
 153  -505.7889
 154  479.945
 155  233.5483
 156  1057.728
 157  343.8429
 158  1003.991
 159  1953.005
 160  3965.828
 161  4611.671
 162  1937.353
 163  1310.042
 164  214.2725
 165  450.4014
 166  233.2592
 167  1103.438
 168  517.1835
 169  1080.323
 170  467.0877
 171  299.5265
 172  1378.24
 173  369.5684
 174  -53.48948
 175  1234.896
 176  962.2295
 177  1386.453
 178  696.4739
 179  1002.326
 180  763.1299
 181  1311.379
 182  1256.976
 183  407.9463
 184  1080.213
 185  418.8934
 186  625.9447
 187  1046.779
 188  724.9911
 189  -3.087059
 190  642.0752
 191  919.833
 192  898.7253
 193  950.0673
 194  825.7531
 195  737.9206
 196  866.6498
 197  145.365
 198  845.8082
 199  913.1339
 200  472.6749
 201  539.1637
 202  1234.378
 203  517.6337
 204  1081.628
 205  2102.983
 206  825.5379
 207  1178.849
 208  1074.564
 209  648.894
 210  1022.694
 211  1166.452
 212  630.1419
 213  1629.79
 214  847.3251
 215  1116.993
 216  1995.448
 217  1759.332
 218  710.1323
 219  1107.014
 220  464.4281
 221  111.7287
 222  1135.014
 223  -207.5641
 224  633.0577
 225  1016.374
 226  123.1013
 227  775.8041
 228  1070.793
 229  65.90161
 230  483.1299
 231  -194.2926
 232  1220.359
 233  1159.721
 234  747.093
 235  625.5417
 236  1765.042
 237  1467.44
 238  671.709
 239  374.9663
 240  31.5442
 241  -509.6226
 242  686.8531
 243  1004.992
 244  948.4448
 245  887.3823
 246  293.5781
 247  751.4233
 248  801.6011
 249  1186.164
 250  831.2762
 251  809.5998
 252  806.6649
 253  648.0985
 254  378.9777
 255  262.2842
