# Input file       =  1189829930.117989_cleaned.dat
# Candidate        =  PSR_0332+5434
# Telescope        =  AR
# Epoch_topo       =  58015.179966643394
# Epoch_bary       =  N/A
# T_sample         =  0.002
# Data Folded      =  7340032
# Data Avg         =  0.0284420602526683
# Data StdDev      =  3.08460501981225 
# Profile Bins     =  256
# Profile Avg      =  815.410432231674 
# Profile StdDev   =  522.31025761822  
# Reduced chi-sqr  =  1.078
# Prob(Noise)      <  0.188   (~0.9 sigma)
# P_topo (ms)      =  714.46756260016   +/- 0.000468
# P'_topo (s/s)    =  -0                +/- 2.47e-10
# P''_topo (s/s^2) =  0                 +/- 1.09e-13
# P_bary (ms)      =  N/A
# P'_bary (s/s)    =  N/A
# P''_bary (s/s^2) =  N/A
# P_orb (s)        =  N/A
# asin(i)/c (s)    =  N/A
# eccentricity     =  N/A
# w (rad)          =  N/A
# T_peri           =  N/A
######################################################
   0  585.9268
   1  1071.694
   2  646.6321
   3  525.3685
   4  1118.52
   5  524.2361
   6  595.9205
   7  1056.844
   8  965.5399
   9  576.0644
  10  1049.514
  11  1570.473
  12  560.933
  13  565.7805
  14  1298.303
  15  738.5425
  16  792.6451
  17  229.2054
  18  1540.436
  19  1577.99
  20  678.2401
  21  1234.85
  22  943.0665
  23  730.776
  24  662.7672
  25  923.6411
  26  1027.773
  27  939.8414
  28  898.8838
  29  433.077
  30  469.8515
  31  852.1517
  32  1122.082
  33  986.5024
  34  781.9888
  35  1035.056
  36  511.1221
  37  1099.792
  38  1019.515
  39  966.8776
  40  719.9912
  41  682.1254
  42  914.6638
  43  1431.12
  44  1402.117
  45  760.4934
  46  1121.608
  47  1306.128
  48  1262.736
  49  1219.333
  50  174.0612
  51  618.3549
  52  787.6955
  53  751.3558
  54  650.5264
  55  763.2869
  56  221.1883
  57  662.5696
  58  -15.32738
  59  875.9259
  60  238.0154
  61  740.6529
  62  610.3164
  63  841.7766
  64  956.0477
  65  760.4772
  66  230.9689
  67  1152.194
  68  1218.426
  69  738.1064
  70  1027.764
  71  708.0869
  72  480.5662
  73  1322.937
  74  966.2547
  75  1001.139
  76  1014.241
  77  290.2268
  78  152.3155
  79  1081.014
  80  1328.509
  81  837.7933
  82  557.1447
  83  1264.906
  84  1334.997
  85  957.6245
  86  458.5484
  87  520.1599
  88  602.9508
  89  430.9437
  90  1264.842
  91  388.6369
  92  812.2954
  93  522.5731
  94  -133.204
  95  891.2714
  96  1181.522
  97  950.3762
  98  919.5781
  99  1104.277
 100  1057.448
 101  1006.694
 102  232.5001
 103  425.2631
 104  149.0309
 105  1240.21
 106  1855.202
 107  688.6728
 108  2158.959
 109  1234.528
 110  891.8931
 111  907.8083
 112  1073.211
 113  658.6853
 114  829.0054
 115  1213.625
 116  989.5453
 117  760.1577
 118  1130.56
 119  -82.44835
 120  414.4596
 121  641.8722
 122  698.4237
 123  858.761
 124  836.027
 125  968.9172
 126  1282
 127  696.4339
 128  -29.34412
 129  125.9842
 130  718.7942
 131  935.4255
 132  242.014
 133  705.6241
 134  1054.478
 135  1092.362
 136  436.2943
 137  633.4022
 138  176.734
 139  198.8932
 140  581.1497
 141  541.8171
 142  166.1554
 143  129.1874
 144  654.8497
 145  1347.346
 146  1257.013
 147  1349.007
 148  1724.634
 149  937.2371
 150  507.5648
 151  1182.072
 152  642.1704
 153  105.0497
 154  952.8084
 155  838.8708
 156  628.1862
 157  1342.153
 158  1075.743
 159  2903.311
 160  3010.488
 161  3477.878
 162  1438.669
 163  1416.073
 164  1023.019
 165  701.7579
 166  783.457
 167  1225.458
 168  1416.074
 169  659.9492
 170  530.9957
 171  491.5547
 172  -243.4461
 173  793.9415
 174  1113.087
 175  678.9537
 176  273.409
 177  1021.39
 178  -366.5659
 179  739.0771
 180  1234.119
 181  326.3614
 182  903.7619
 183  -47.24927
 184  615.4437
 185  524.205
 186  763.1802
 187  742.462
 188  388.0189
 189  918.5422
 190  704.3104
 191  783.0782
 192  378.9171
 193  480.458
 194  916.3588
 195  -156.9178
 196  270.0557
 197  848.1025
 198  278.4695
 199  843.8834
 200  669.7483
 201  382.8479
 202  1204.075
 203  876.44
 204  873.4332
 205  1206.25
 206  821.0335
 207  952.679
 208  790.0035
 209  -12.84822
 210  651.8999
 211  1166.328
 212  1124.562
 213  781.9841
 214  693.2561
 215  1446.524
 216  906.0915
 217  1012.679
 218  1315.307
 219  594.045
 220  740.5991
 221  1166.56
 222  169.352
 223  462.7983
 224  868.7842
 225  49.11123
 226  836.2531
 227  1019.156
 228  544.1871
 229  1123.779
 230  898.4213
 231  499.4233
 232  765.9556
 233  649.1638
 234  1264.281
 235  1596.977
 236  715.3859
 237  282.7714
 238  404.6508
 239  45.79369
 240  998.5174
 241  459.6249
 242  663.2188
 243  1023.072
 244  312.8739
 245  852.6218
 246  1164.719
 247  1627.578
 248  1051.678
 249  759.3828
 250  592.9921
 251  410.7834
 252  895.3333
 253  435.673
 254  867.278
 255  249.1186
