# Input file       =  1189657632.118036_cleaned.dat
# Candidate        =  PSR_0332+5434
# Telescope        =  AR
# Epoch_topo       =  58013.185776829123
# Epoch_bary       =  N/A
# T_sample         =  0.002
# Data Folded      =  7340032
# Data Avg         =  0.00938967085490177
# Data StdDev      =  1.00003694520621 
# Profile Bins     =  512
# Profile Avg      =  134.663888946404 
# Profile StdDev   =  119.737459938485 
# Reduced chi-sqr  =  1.190
# Prob(Noise)      <  0.00194   (~2.9 sigma)
# P_topo (ms)      =  714.466881811216  +/- 0.000113
# P'_topo (s/s)    =  -0                +/- 5.96e-11
# P''_topo (s/s^2) =  0                 +/- 2.63e-14
# P_bary (ms)      =  N/A
# P'_bary (s/s)    =  N/A
# P''_bary (s/s^2) =  N/A
# P_orb (s)        =  N/A
# asin(i)/c (s)    =  N/A
# eccentricity     =  N/A
# w (rad)          =  N/A
# T_peri           =  N/A
######################################################
   0  181.3498
   1  156.231
   2  147.3162
   3  187.4034
   4  216.3448
   5  207.504
   6  71.08557
   7  2.176606
   8  -18.32059
   9  83.7533
  10  61.11412
  11  47.31173
  12  112.0749
  13  57.74107
  14  111.684
  15  133.969
  16  216.3724
  17  235.4933
  18  130.1979
  19  34.50215
  20  53.49683
  21  53.77845
  22  178.2382
  23  181.1071
  24  152.7357
  25  181.756
  26  171.9318
  27  140.4413
  28  -23.18615
  29  44.26749
  30  184.6012
  31  95.52003
  32  -11.11292
  33  90.05383
  34  288.0236
  35  255.4706
  36  203.106
  37  150.7849
  38  150.0117
  39  184.2756
  40  101.4743
  41  -10.34214
  42  -34.76274
  43  247.9005
  44  167.193
  45  142.3135
  46  153.8344
  47  77.34592
  48  84.85734
  49  146.5384
  50  26.72911
  51  3.661115
  52  49.72678
  53  285.3329
  54  258.348
  55  152.6725
  56  158.0847
  57  118.3626
  58  76.18735
  59  131.2451
  60  87.202
  61  116.1134
  62  -2.439698
  63  107.5408
  64  120.0835
  65  68.91163
  66  119.9186
  67  168.1189
  68  186.3813
  69  36.05041
  70  4.156237
  71  136.5999
  72  -10.23974
  73  -41.60579
  74  -50.47599
  75  15.39228
  76  46.81527
  77  132.2824
  78  177.4364
  79  120.3017
  80  93.26033
  81  79.84702
  82  272.1302
  83  379.2205
  84  102.6602
  85  84.9703
  86  4.725008
  87  269.3119
  88  290.9176
  89  168.6825
  90  133.0597
  91  -9.644045
  92  150.2623
  93  131.5177
  94  76.08095
  95  214.2758
  96  218.5534
  97  273.6709
  98  259.5093
  99  109.773
 100  171.3746
 101  122.6894
 102  -6.637021
 103  28.70392
 104  164.0985
 105  145.1127
 106  119.2923
 107  54.70235
 108  127.8964
 109  227.2623
 110  212.3615
 111  244.4414
 112  183.4225
 113  108.6675
 114  21.99148
 115  153.95
 116  208.2001
 117  126.4247
 118  148.3769
 119  133.5377
 120  242.3261
 121  235.9828
 122  111.8576
 123  154.1162
 124  230.7728
 125  437.8582
 126  507.6254
 127  658.0503
 128  663.3215
 129  652.5775
 130  580.3884
 131  302.1662
 132  211.4056
 133  158.8164
 134  101.1069
 135  132.4082
 136  158.0851
 137  135.0856
 138  130.6425
 139  188.1394
 140  267.7067
 141  336.1147
 142  245.71
 143  174.4075
 144  109.7422
 145  155.5271
 146  72.53518
 147  35.10246
 148  157.3351
 149  245.2421
 150  280.632
 151  375.2922
 152  266.2245
 153  196.7119
 154  107.9845
 155  7.088193
 156  159.2817
 157  120.6686
 158  121.0805
 159  137.3182
 160  47.60839
 161  -49.67036
 162  82.67654
 163  99.63494
 164  51.75744
 165  143.1587
 166  110.6483
 167  28.70038
 168  81.49326
 169  160.2942
 170  213.165
 171  242.8984
 172  143.3749
 173  80.69869
 174  80.72661
 175  -0.05225627
 176  -24.16052
 177  189.6299
 178  59.14854
 179  -35.10697
 180  119.5872
 181  296.9587
 182  259.4596
 183  150.0494
 184  60.85872
 185  33.7141
 186  69.38895
 187  45.14345
 188  96.08344
 189  120.1443
 190  195.9371
 191  202.3638
 192  34.5386
 193  83.9366
 194  207.7754
 195  210.2167
 196  89.8944
 197  71.36461
 198  184.1672
 199  28.93538
 200  61.99475
 201  137.3289
 202  134.2753
 203  75.24033
 204  202.1579
 205  211.8934
 206  100.5986
 207  150.6644
 208  147.3211
 209  135.2616
 210  -61.24023
 211  53.70847
 212  144.1713
 213  337.2375
 214  329.618
 215  124.1763
 216  155.9221
 217  140.7839
 218  31.8573
 219  -16.63678
 220  54.55204
 221  157.8308
 222  198.9195
 223  288.605
 224  261.9623
 225  167.5294
 226  77.30038
 227  133.0159
 228  96.6861
 229  70.72916
 230  92.36842
 231  187.6246
 232  16.9801
 233  143.1698
 234  100.1307
 235  82.79072
 236  -29.65872
 237  126.5823
 238  104.5049
 239  133.2596
 240  103.3068
 241  46.41713
 242  63.09555
 243  82.80396
 244  143.7108
 245  138.8979
 246  157.8126
 247  133.2366
 248  117.3658
 249  187.827
 250  107.367
 251  108.7794
 252  134.1051
 253  138.601
 254  16.42417
 255  35.59729
 256  78.46304
 257  51.78694
 258  144.0296
 259  131.8383
 260  185.8268
 261  100.0045
 262  68.79513
 263  158.1142
 264  138.2207
 265  191.1539
 266  271.8965
 267  172.6942
 268  119.9266
 269  62.18862
 270  52.67835
 271  41.44963
 272  100.6524
 273  177.8101
 274  57.03792
 275  109.0686
 276  221.5069
 277  141.1608
 278  -4.187777
 279  12.43848
 280  31.19854
 281  153.0822
 282  85.49042
 283  115.8757
 284  222.535
 285  221.6935
 286  78.16912
 287  128.3701
 288  -33.54779
 289  4.98894
 290  60.23322
 291  105.3204
 292  -12.84214
 293  202.6406
 294  258.5864
 295  250.006
 296  238.685
 297  19.5049
 298  78.50049
 299  126.4356
 300  144.5486
 301  79.44954
 302  7.138714
 303  33.43074
 304  129.1614
 305  219.8713
 306  223.6507
 307  18.79411
 308  90.89841
 309  197.9655
 310  188.1026
 311  158.9084
 312  179.7495
 313  105.1187
 314  139.6663
 315  148.7962
 316  239.4106
 317  197.0391
 318  46.71125
 319  84.64963
 320  183.1496
 321  222.3081
 322  151.4937
 323  118.1007
 324  82.7201
 325  115.3798
 326  59.30089
 327  97.78657
 328  210.9613
 329  218.7726
 330  121.3652
 331  59.9267
 332  202.3789
 333  139.0659
 334  75.9817
 335  71.14732
 336  153.8607
 337  139.8362
 338  -4.933498
 339  43.15869
 340  6.043992
 341  69.24947
 342  202.7512
 343  157.3469
 344  70.77757
 345  -36.42173
 346  20.35407
 347  69.61108
 348  158.8303
 349  90.49374
 350  185.2517
 351  117.7695
 352  55.95354
 353  58.24952
 354  176.9072
 355  154.2906
 356  169.8281
 357  263.3878
 358  124.6054
 359  105.3496
 360  87.16636
 361  67.83938
 362  223.8388
 363  225.5423
 364  98.83162
 365  32.85568
 366  102.1695
 367  69.97076
 368  172.6895
 369  169.3572
 370  163.2642
 371  235.9314
 372  154.5601
 373  102.3591
 374  267.0667
 375  167.8687
 376  250.3221
 377  202.5128
 378  336.1808
 379  94.15017
 380  -17.66095
 381  188.2742
 382  271.0591
 383  199.4141
 384  81.74016
 385  87.30005
 386  225.2946
 387  188.3961
 388  275.1928
 389  237.9955
 390  139.2727
 391  38.42524
 392  241.702
 393  213.897
 394  188.7573
 395  373.7493
 396  328.1641
 397  211.8948
 398  100.4324
 399  130.9687
 400  76.45613
 401  130.3722
 402  78.80472
 403  276.4394
 404  106.6365
 405  45.62774
 406  39.50234
 407  98.42872
 408  49.90427
 409  121.6126
 410  227.5556
 411  259.6301
 412  113.6715
 413  140.2189
 414  228.9466
 415  171.1478
 416  142.0139
 417  58.30114
 418  114.656
 419  231.4026
 420  139.9661
 421  180.5713
 422  248.5803
 423  181.6144
 424  160.9126
 425  238.4688
 426  242.8
 427  153.7461
 428  99.21986
 429  85.95004
 430  175.059
 431  187.5884
 432  132.327
 433  95.24234
 434  143.1563
 435  74.95854
 436  171.0737
 437  59.87155
 438  -45.6902
 439  -102.5938
 440  14.0471
 441  83.80601
 442  164.101
 443  60.06696
 444  4.029268
 445  170.3117
 446  166.2952
 447  129.9795
 448  87.55402
 449  106.6571
 450  116.189
 451  123.6899
 452  75.85088
 453  205.6665
 454  173.4855
 455  145.5535
 456  158.2554
 457  171.8816
 458  171.1529
 459  205.4639
 460  151.9242
 461  160.7666
 462  181.5859
 463  122.4502
 464  135.2892
 465  31.65035
 466  28.98509
 467  103.9821
 468  150.9682
 469  179.8364
 470  157.8239
 471  67.36718
 472  117.8799
 473  156.27
 474  140.9334
 475  186.0924
 476  220.502
 477  204.6123
 478  68.75978
 479  65.57819
 480  194.8636
 481  126.3301
 482  121.9333
 483  112.3835
 484  178.222
 485  162.3987
 486  52.75534
 487  -8.435265
 488  95.55698
 489  20.90798
 490  -20.65884
 491  96.29145
 492  33.5483
 493  140.1077
 494  116.9668
 495  1.051257
 496  4.594221
 497  161.7721
 498  108.7245
 499  -16.25172
 500  56.84307
 501  230.1839
 502  110.393
 503  62.18345
 504  43.69976
 505  -39.44703
 506  97.16917
 507  269.1368
 508  319.5965
 509  205.9951
 510  246.8502
 511  214.4698
