# Input file       =  1189829930.117989-PSRB0329-2ms-sampling-dd.dat
# Candidate        =  PSR_0332+5434
# Telescope        =  AR
# Epoch_topo       =  58015.179966643394
# Epoch_bary       =  N/A
# T_sample         =  0.002
# Data Folded      =  7340032
# Data Avg         =  -2.02832537778527e-10
# Data StdDev      =  5.62830904367149 
# Profile Bins     =  512
# Profile Avg      =  0.0234930271042005
# Profile StdDev   =  673.8945314656   
# Reduced chi-sqr  =  0.571
# Prob(Noise)      <  1   (~0.0 sigma)
# P_topo (ms)      =  714.467562598487  +/- 0.000145
# P'_topo (s/s)    =  -0                +/- 7.67e-11
# P''_topo (s/s^2) =  0                 +/- 3.39e-14
# P_bary (ms)      =  N/A
# P'_bary (s/s)    =  N/A
# P''_bary (s/s^2) =  N/A
# P_orb (s)        =  N/A
# asin(i)/c (s)    =  N/A
# eccentricity     =  N/A
# w (rad)          =  N/A
# T_peri           =  N/A
######################################################
   0  -554.3759
   1  -392.3051
   2  34.50595
   3  -197.9549
   4  185.6189
   5  -423.5538
   6  -740.1707
   7  -715.803
   8  -441.7891
   9  -334.0064
  10  -286.0786
  11  -318.7613
  12  48.89917
  13  125.1246
  14  -380.5499
  15  -508.9861
  16  -229.1211
  17  -584.2985
  18  -326.8283
  19  -682.9737
  20  -194.0139
  21  203.8541
  22  525.2963
  23  285.1884
  24  -273.2447
  25  -289.7568
  26  -510.4162
  27  -518.1598
  28  -187.7613
  29  -554.7502
  30  -82.65842
  31  204.3311
  32  -21.78529
  33  9.394263
  34  -24.44538
  35  -264.1082
  36  -291.9551
  37  53.93669
  38  -348.1134
  39  -708.4456
  40  -213.1685
  41  -179.5905
  42  -553.179
  43  -404.1311
  44  207.5634
  45  -329.6115
  46  -292.7647
  47  -162.6581
  48  -336.8867
  49  -703.4674
  50  -497.9825
  51  -376.7693
  52  371.5188
  53  1084.957
  54  661.4662
  55  208.2848
  56  -324.5174
  57  18.09001
  58  357.3705
  59  -173.9272
  60  -101.8092
  61  -11.37217
  62  233.0881
  63  174.4688
  64  240.6828
  65  66.04374
  66  -227.5139
  67  -440.0985
  68  -95.07
  69  -28.30246
  70  327.0622
  71  616.1208
  72  83.84287
  73  -127.0004
  74  -179.4762
  75  -447.6891
  76  -185.9618
  77  -110.9829
  78  336.6172
  79  -443.3174
  80  -798.9459
  81  -869.2231
  82  -417.8702
  83  -173.1705
  84  -402.7819
  85  -170.9393
  86  -125.4502
  87  -25.52086
  88  -145.0292
  89  -675.8696
  90  -616.5817
  91  -784.1521
  92  -501.0856
  93  -458.7675
  94  -222.6358
  95  346.8355
  96  -378.9284
  97  -344.9225
  98  -862.9026
  99  -602.5342
 100  -774.5625
 101  -603.546
 102  -172.1631
 103  129.8505
 104  77.58409
 105  -36.05784
 106  -515.5186
 107  -572.1681
 108  -441.2335
 109  -73.66447
 110  -216.1726
 111  -181.7865
 112  121.2515
 113  17.03824
 114  -411.8817
 115  -295.9235
 116  -197.6809
 117  -413.4714
 118  -398.8949
 119  -566.6687
 120  -210.5358
 121  -358.8816
 122  -566.7416
 123  -743.4604
 124  -726.2117
 125  -761.8603
 126  -515.1593
 127  -605.4041
 128  -605.3087
 129  -347.7884
 130  -713.5802
 131  -487.7226
 132  76.96228
 133  -35.7911
 134  162.7248
 135  312.4235
 136  261.3848
 137  371.4409
 138  294.2791
 139  397.6239
 140  49.04796
 141  -12.92798
 142  -73.21171
 143  -84.18771
 144  382.7613
 145  -98.90755
 146  -307.1345
 147  -583.6013
 148  -237.4381
 149  131.0592
 150  224.6348
 151  262.3114
 152  354.022
 153  235.8997
 154  -106.7107
 155  -277.6823
 156  -77.60953
 157  -374.7243
 158  -373.2462
 159  842.7141
 160  814.4249
 161  898.5446
 162  792.0417
 163  1179.907
 164  1190.665
 165  614.794
 166  -49.10903
 167  242.5275
 168  706.7247
 169  516.0425
 170  319.6324
 171  410.6654
 172  -248.017
 173  53.91635
 174  72.09775
 175  169.8895
 176  20.40337
 177  486.256
 178  380.3003
 179  -80.83519
 180  -437.7868
 181  -200.8138
 182  60.12032
 183  25.51183
 184  -34.01628
 185  -402.4741
 186  -511.3358
 187  -510.7718
 188  84.58669
 189  351.1458
 190  -100.7941
 191  -230.1287
 192  -150.0247
 193  -230.2385
 194  -522.3986
 195  -67.19858
 196  -21.35476
 197  -542.9032
 198  -1032.516
 199  -233.2183
 200  -252.9168
 201  350.368
 202  450.4698
 203  94.39541
 204  -270.2119
 205  -145.2243
 206  51.00877
 207  29.76697
 208  -452.1949
 209  -253.6746
 210  237.1603
 211  -70.31927
 212  -221.9924
 213  -52.65056
 214  -417.7798
 215  -6.06636
 216  -2.448379
 217  -367.058
 218  -153.5842
 219  -272.9614
 220  -176.5125
 221  -273.7361
 222  -4.551304
 223  74.91252
 224  -52.5209
 225  -539.1124
 226  -304.0884
 227  -473.4995
 228  -572.7978
 229  -404.4861
 230  -0.8482936
 231  -89.97854
 232  -781.5161
 233  -324.1813
 234  50.83706
 235  467.5104
 236  265.3691
 237  -146.965
 238  -175.6846
 239  -11.30554
 240  450.0233
 241  331.6837
 242  425.8973
 243  55.36913
 244  13.10012
 245  -149.4491
 246  105.7154
 247  304.902
 248  80.23161
 249  159.3425
 250  100.6265
 251  89.66653
 252  111.9072
 253  -265.9338
 254  -370.4608
 255  336.8159
 256  316.7412
 257  -242.629
 258  59.48882
 259  -112.0867
 260  -1212.037
 261  -856.2142
 262  -222.795
 263  -34.61175
 264  380.2657
 265  26.64963
 266  313.8375
 267  416.7688
 268  195.076
 269  -88.42886
 270  75.84916
 271  718.6794
 272  317.1457
 273  317.22
 274  510.8739
 275  758.5401
 276  492.615
 277  701.2368
 278  458.6962
 279  67.98245
 280  -347.656
 281  92.9184
 282  201.9655
 283  478.3745
 284  487.2728
 285  19.1832
 286  -491.2369
 287  -631.1247
 288  80.72693
 289  575.3141
 290  372.0938
 291  113.5214
 292  -154.5685
 293  86.14657
 294  -93.94302
 295  182.5056
 296  128.3882
 297  0.8553376
 298  428.9302
 299  326.6456
 300  379.5421
 301  73.20595
 302  -122.4814
 303  -227.1444
 304  -346.8119
 305  430.5475
 306  220.7036
 307  410.7284
 308  229.9855
 309  531.415
 310  550.5536
 311  678.1808
 312  419.3491
 313  201.7068
 314  69.56793
 315  -186.4174
 316  54.30186
 317  -164.0953
 318  -3.818138
 319  -381.9771
 320  -685.1143
 321  137.6236
 322  281.5524
 323  -126.8164
 324  217.5719
 325  -67.26125
 326  -122.4026
 327  -394.0878
 328  -228.4025
 329  -480.021
 330  120.79
 331  484.0117
 332  123.6828
 333  342.46
 334  166.6572
 335  295.8066
 336  262.6714
 337  126.5134
 338  559.5517
 339  475.7716
 340  178.845
 341  4.144093
 342  63.23092
 343  167.2036
 344  -361.8516
 345  47.89289
 346  167.5023
 347  358.6378
 348  -107.3327
 349  182.3815
 350  457.2947
 351  -70.98429
 352  -418.8183
 353  -231.7417
 354  -229.6341
 355  189.1647
 356  458.9286
 357  464.7253
 358  259.7375
 359  123.7905
 360  -161.1705
 361  -251.8756
 362  344.8787
 363  136.2191
 364  256.3781
 365  266.0562
 366  269.4398
 367  288.139
 368  -12.64843
 369  92.41025
 370  21.58765
 371  248.1842
 372  469.1223
 373  522.7264
 374  856.8022
 375  817.1467
 376  741.3752
 377  385.5561
 378  206.8767
 379  325.192
 380  288.7902
 381  456.9359
 382  344.3613
 383  150.6882
 384  159.6741
 385  412.7307
 386  35.43624
 387  -229.5865
 388  -38.09249
 389  276.5763
 390  284.7317
 391  656.0773
 392  549.0986
 393  -29.22914
 394  -287.3815
 395  -33.79479
 396  76.53436
 397  189.8748
 398  -76.49448
 399  218.2109
 400  109.753
 401  -298.0545
 402  -58.58015
 403  -79.53731
 404  113.1549
 405  -60.91221
 406  379.2892
 407  179.0765
 408  474.0561
 409  485.8468
 410  75.38232
 411  -18.00862
 412  -167.5987
 413  201.9429
 414  -246.4083
 415  -129.2377
 416  130.7414
 417  557.3441
 418  436.9742
 419  -69.96727
 420  280.1088
 421  534.4387
 422  -230.1042
 423  -53.52271
 424  -98.09538
 425  213.5054
 426  16.10046
 427  91.13779
 428  144.1144
 429  43.23198
 430  7.895524
 431  -13.73426
 432  185.446
 433  352.95
 434  80.14281
 435  -268.4568
 436  -285.354
 437  -358.3968
 438  -114.807
 439  182.7526
 440  735.5092
 441  685.077
 442  838.2947
 443  382.5638
 444  -51.90161
 445  216.5854
 446  377.9412
 447  330.5995
 448  436.2389
 449  590.3923
 450  288.9711
 451  419.0717
 452  477.7282
 453  -151.2903
 454  -443.1946
 455  -346.9232
 456  -231.1436
 457  -82.65281
 458  173.1151
 459  611.7876
 460  92.42023
 461  198.3795
 462  -3.459968
 463  -137.9769
 464  -4.934962
 465  -105.2324
 466  -201.4605
 467  -65.95806
 468  464.4291
 469  -471.9634
 470  -361.1384
 471  156.2015
 472  52.89587
 473  159.3445
 474  40.71988
 475  106.0746
 476  284.0498
 477  341.6717
 478  -206.9336
 479  -364.7079
 480  -64.58896
 481  307.572
 482  208.4504
 483  247.1336
 484  156.0868
 485  -201.2462
 486  -574.1375
 487  -161.5201
 488  -84.0033
 489  94.82108
 490  90.11684
 491  204.8388
 492  347.4467
 493  536.4938
 494  312.7382
 495  319.6606
 496  -127.2613
 497  -730.3096
 498  -91.6946
 499  481.9784
 500  653.7721
 501  446.079
 502  246.225
 503  254.8597
 504  -344.6594
 505  -539.373
 506  177.6251
 507  433.3195
 508  -119.7456
 509  -204.7794
 510  -450.0511
 511  -231.9082
