# Input file       =  1189642711.126697-PSRB0329-2ms-sampling-dd.dat
# Candidate        =  PSR_0332+5434
# Telescope        =  AR
# Epoch_topo       =  58013.013080170102
# Epoch_bary       =  N/A
# T_sample         =  0.002
# Data Folded      =  7340032
# Data Avg         =  9.75270364469832e-12
# Data StdDev      =  2.98399098140046 
# Profile Bins     =  512
# Profile Avg      =  0.296788482090809
# Profile StdDev   =  357.282300723964 
# Reduced chi-sqr  =  1.291
# Prob(Noise)      <  9.21e-06   (~4.3 sigma)
# P_topo (ms)      =  714.466490299981  +/- 0.000301
# P'_topo (s/s)    =  -0                +/- 1.59e-10
# P''_topo (s/s^2) =  0                 +/- 7e-14
# P_bary (ms)      =  N/A
# P'_bary (s/s)    =  N/A
# P''_bary (s/s^2) =  N/A
# P_orb (s)        =  N/A
# asin(i)/c (s)    =  N/A
# eccentricity     =  N/A
# w (rad)          =  N/A
# T_peri           =  N/A
######################################################
   0  -236.8589
   1  -170.3377
   2  -129.7393
   3  -370.9629
   4  -358.7606
   5  -304.4725
   6  -598.0419
   7  -662.1949
   8  -166.7645
   9  208.7096
  10  132.0329
  11  70.97274
  12  159.2198
  13  -108.747
  14  -301.9836
  15  -176.7105
  16  -135.799
  17  -220.6183
  18  -348.4865
  19  -245.4777
  20  -103.3624
  21  -61.72347
  22  -106.5033
  23  -160.802
  24  -826.759
  25  -501.8659
  26  -112.3639
  27  -239.9403
  28  -144.2816
  29  -468.1148
  30  -67.58479
  31  -175.8821
  32  -219.8601
  33  -226.7231
  34  -58.31223
  35  -100.5281
  36  128.507
  37  38.79893
  38  165.6791
  39  391.557
  40  275.6617
  41  -99.65858
  42  -102.7318
  43  -54.2016
  44  -527.1742
  45  -268.5738
  46  -272.2815
  47  -257.4292
  48  -269.4773
  49  11.51614
  50  114.9871
  51  -204.7087
  52  -152.6342
  53  115.7282
  54  207.0055
  55  -234.6145
  56  -505.5963
  57  -285.0641
  58  -371.6187
  59  -253.1945
  60  -11.24103
  61  -219.2399
  62  -325.1664
  63  -294.5958
  64  -273.3099
  65  -109.6709
  66  -62.76842
  67  19.17863
  68  -400.2321
  69  20.73615
  70  108.2243
  71  -343.3409
  72  -365.6385
  73  8.211316
  74  249.7498
  75  208.094
  76  -174.0499
  77  -47.0138
  78  -137.6441
  79  41.51761
  80  73.39573
  81  -6.424013
  82  154.2978
  83  -81.47617
  84  195.898
  85  229.7048
  86  5.679706
  87  -149.515
  88  -243.4091
  89  -466.1819
  90  -299.3957
  91  -265.8121
  92  -32.9948
  93  -23.2723
  94  -478.938
  95  -327.0793
  96  -611.3159
  97  -309.6583
  98  -257.2958
  99  -402.1494
 100  90.23827
 101  128.4594
 102  -62.788
 103  11.15215
 104  -99.5769
 105  -224.2811
 106  24.57279
 107  -224.8306
 108  -141.4062
 109  122.362
 110  53.12862
 111  227.2125
 112  330.9768
 113  178.5027
 114  169.7433
 115  -47.2345
 116  311.0011
 117  219.3688
 118  318.6739
 119  323.7522
 120  -171.5543
 121  14.74273
 122  295.1563
 123  490.6699
 124  433.6816
 125  78.80595
 126  130.6797
 127  46.80948
 128  -127.5217
 129  465.6432
 130  -32.88855
 131  -240.0361
 132  -291.4316
 133  -89.36733
 134  -45.58021
 135  -38.26099
 136  -176.2952
 137  -115.0732
 138  105.0812
 139  62.27942
 140  -177.2828
 141  90.18768
 142  209.9259
 143  10.92655
 144  333.4408
 145  614.4612
 146  151.2949
 147  -134.813
 148  17.87889
 149  191.7272
 150  120.3462
 151  331.4066
 152  449.717
 153  188.4957
 154  482.6257
 155  441.1455
 156  327.1418
 157  494.5244
 158  647.0017
 159  577.348
 160  343.5982
 161  331.6484
 162  141.2988
 163  -81.11004
 164  224.1666
 165  255.2943
 166  -81.83876
 167  -173.7383
 168  -93.17804
 169  -30.01184
 170  243.4907
 171  332.3962
 172  247.3922
 173  589.6924
 174  399.2693
 175  881.9453
 176  1567.453
 177  1733.714
 178  1666.568
 179  1816.506
 180  1279.302
 181  610.7452
 182  -33.74097
 183  114.2086
 184  136.8905
 185  -7.458676
 186  3.616709
 187  396.0302
 188  402.6064
 189  68.37591
 190  54.12476
 191  271.3661
 192  594.8653
 193  86.17867
 194  93.68304
 195  -238.8348
 196  -173.654
 197  -274.5211
 198  -42.11183
 199  179.7898
 200  113.4709
 201  39.57703
 202  -93.16096
 203  -330.7388
 204  -18.89257
 205  162.9317
 206  113.0631
 207  -29.07534
 208  -178.4908
 209  77.27321
 210  97.88581
 211  185.8321
 212  309.4938
 213  369.1495
 214  498.6812
 215  720.4523
 216  479.1714
 217  518.5527
 218  694.4146
 219  538.0455
 220  -17.90608
 221  -52.92138
 222  38.71766
 223  -84.18014
 224  215.1292
 225  374.2501
 226  322.585
 227  336.8285
 228  83.96523
 229  -271.3271
 230  -104.3643
 231  344.8142
 232  464.0187
 233  231.521
 234  5.886571
 235  251.3601
 236  218.4368
 237  39.24534
 238  191.8384
 239  300.6308
 240  326.793
 241  -77.25058
 242  -500.2856
 243  -218.2844
 244  -53.71334
 245  -136.0126
 246  138.4859
 247  268.9106
 248  255.5005
 249  53.97761
 250  -49.94226
 251  -65.36788
 252  99.7556
 253  295.2646
 254  5.867288
 255  -203.9251
 256  -63.35703
 257  21.09668
 258  93.33793
 259  -95.49503
 260  -505.0948
 261  -486.4624
 262  -229.8238
 263  -323.7627
 264  -15.74193
 265  57.96264
 266  102.8083
 267  -401.4343
 268  -352.7019
 269  -210.5911
 270  -160.8706
 271  -223.766
 272  42.18076
 273  -121.8154
 274  64.36933
 275  25.19239
 276  -240.1734
 277  -346.1505
 278  -270.1843
 279  -94.86045
 280  131.1678
 281  35.59953
 282  332.8701
 283  347.391
 284  359.5312
 285  151.0231
 286  195.0268
 287  182.8463
 288  -143.3566
 289  -268.4525
 290  -319.2226
 291  -13.81513
 292  510.3844
 293  152.4128
 294  -22.93442
 295  -97.27298
 296  -45.64861
 297  34.90831
 298  92.4064
 299  -213.4539
 300  -185.5093
 301  -32.58286
 302  207.2846
 303  -74.79433
 304  -180.9433
 305  341.8789
 306  162.8694
 307  -93.46823
 308  61.43924
 309  495.9989
 310  227.0175
 311  104.7382
 312  -7.665981
 313  145.8103
 314  67.2634
 315  218.8449
 316  238.0347
 317  37.00404
 318  -23.00745
 319  214.673
 320  333.0279
 321  -74.65858
 322  152.9218
 323  -187.3842
 324  -41.63998
 325  -297.1866
 326  -107.6412
 327  402.1672
 328  224.7646
 329  101.4667
 330  29.59685
 331  235.2526
 332  238.2855
 333  -35.06201
 334  -95.43974
 335  187.9253
 336  -111.4322
 337  153.3395
 338  286.6491
 339  -76.5435
 340  -231.5713
 341  -0.6353477
 342  -3.34827
 343  -185.8308
 344  -210.1064
 345  -129.1025
 346  -158.8527
 347  -75.94501
 348  -297.8944
 349  -281.8017
 350  -189.9284
 351  94.81223
 352  -80.98863
 353  191.0731
 354  292.5691
 355  92.11761
 356  41.07494
 357  -411.1885
 358  -176.7027
 359  200.2224
 360  -355.6578
 361  -368.3798
 362  -1.600273
 363  177.015
 364  -151.2694
 365  -384.795
 366  -241.5938
 367  -44.71619
 368  230.0337
 369  -110.6524
 370  -136.0132
 371  129.7351
 372  171.9364
 373  -423.6993
 374  -478.6197
 375  -267.9351
 376  -315.6451
 377  -177.3405
 378  -102.2461
 379  -175.2474
 380  19.91994
 381  -148.7578
 382  -153.9688
 383  -112.1442
 384  110.7622
 385  8.825214
 386  -111.3777
 387  -212.3401
 388  19.54894
 389  148.4912
 390  -331.1331
 391  -422.831
 392  -177.7164
 393  -369.3774
 394  -221.6612
 395  -124.0347
 396  -69.22752
 397  -468.6261
 398  -131.8235
 399  195.1129
 400  376.5974
 401  365.1987
 402  241.0701
 403  383.5113
 404  278.7347
 405  184.8405
 406  -119.1329
 407  18.51321
 408  269.4463
 409  431.2592
 410  274.5498
 411  -335.785
 412  -408.5499
 413  -179.4341
 414  -148.1384
 415  -94.67793
 416  19.98706
 417  214.2885
 418  220.3307
 419  16.22104
 420  -150.1186
 421  -94.73971
 422  16.7467
 423  344.7259
 424  132.3188
 425  247.4823
 426  103.6045
 427  -29.08973
 428  -16.97082
 429  -13.62386
 430  -104.6669
 431  -34.17665
 432  -138.9071
 433  -249.2394
 434  97.80846
 435  -129.099
 436  -372.7097
 437  -166.7984
 438  -36.91316
 439  234.6756
 440  -121.6557
 441  7.067919
 442  60.08963
 443  15.04619
 444  -142.6925
 445  -387.4724
 446  -368.7873
 447  -118.2117
 448  21.81559
 449  24.46426
 450  21.51855
 451  -211.3998
 452  -291.6664
 453  -295.4128
 454  -196.4554
 455  -89.2268
 456  80.55463
 457  43.22837
 458  -12.80742
 459  -190.3149
 460  -126.5931
 461  -81.98906
 462  136.3657
 463  190.7856
 464  -333.4588
 465  -268.4726
 466  -333.9566
 467  -218.6309
 468  -233.3423
 469  -172.2221
 470  -158.3792
 471  -485.9798
 472  -271.9153
 473  -285.1035
 474  46.83198
 475  135.772
 476  -157.4924
 477  -487.3401
 478  -315.9583
 479  85.84241
 480  -29.73036
 481  -135.1648
 482  173.3326
 483  122.4572
 484  -274.5754
 485  -192.4906
 486  -151.2477
 487  -185.156
 488  -24.48036
 489  7.928545
 490  302.0977
 491  -18.50056
 492  16.56586
 493  -113.5819
 494  -191.5496
 495  98.23127
 496  -73.24226
 497  -400.0675
 498  -195.2713
 499  -116.5529
 500  -127.5959
 501  -293.5098
 502  -268.2701
 503  -333.6229
 504  -121.2721
 505  -377.2421
 506  -183.7109
 507  107.4464
 508  91.88653
 509  19.29338
 510  -262.2791
 511  -338.7816
