# Input file       =  1189987313.102369_cleaned.dat
# Candidate        =  PSR_0332+5434
# Telescope        =  AR
# Epoch_topo       =  58017.001528962603
# Epoch_bary       =  N/A
# T_sample         =  0.002
# Data Folded      =  7340032
# Data Avg         =  0.0248215981939991
# Data StdDev      =  2.43656925856005 
# Profile Bins     =  512
# Profile Avg      =  355.93075460323  
# Profile StdDev   =  291.73783566968  
# Reduced chi-sqr  =  1.547
# Prob(Noise)      <  2.45e-14   (~7.5 sigma)
# P_topo (ms)      =  714.467909581001  +/- 0.000199
# P'_topo (s/s)    =  -0                +/- 1.05e-10
# P''_topo (s/s^2) =  0                 +/- 4.65e-14
# P_bary (ms)      =  N/A
# P'_bary (s/s)    =  N/A
# P''_bary (s/s^2) =  N/A
# P_orb (s)        =  N/A
# asin(i)/c (s)    =  N/A
# eccentricity     =  N/A
# w (rad)          =  N/A
# T_peri           =  N/A
######################################################
   0  295.4525
   1  296.4017
   2  482.4426
   3  -44.91225
   4  536.2974
   5  541.5659
   6  60.13518
   7  124.3142
   8  265.221
   9  75.65685
  10  447.6609
  11  335.7257
  12  358.0146
  13  342.1818
  14  576.6017
  15  529.522
  16  547.6014
  17  279.3276
  18  5.869143
  19  150.9954
  20  447.6855
  21  120.7625
  22  -22.97498
  23  350.1283
  24  386.3158
  25  124.5088
  26  298.1075
  27  557.4074
  28  549.0917
  29  360.6217
  30  201.8463
  31  -53.48553
  32  324.321
  33  383.9395
  34  160.6262
  35  -10.58414
  36  34.03258
  37  219.3185
  38  247.6243
  39  218.9743
  40  90.61744
  41  244.775
  42  176.716
  43  244.0122
  44  383.9052
  45  440.0331
  46  221.5381
  47  146.669
  48  343.4539
  49  60.83378
  50  315.3872
  51  328.0014
  52  138.1062
  53  99.00446
  54  -55.09047
  55  147.7436
  56  88.72078
  57  325.8352
  58  324.3886
  59  370.1116
  60  265.827
  61  181.1941
  62  327.9591
  63  383.4015
  64  208.1431
  65  98.13147
  66  197.6899
  67  263.5771
  68  654.6179
  69  337.3782
  70  101.7096
  71  368.737
  72  190.937
  73  5.667103
  74  -4.721751
  75  393.6228
  76  567.2822
  77  313.7463
  78  335.2289
  79  514.0888
  80  310.8251
  81  190.6413
  82  305.3865
  83  399.6384
  84  219.1591
  85  339.0876
  86  439.9654
  87  698.3575
  88  422.3882
  89  438.1784
  90  469.4309
  91  238.0251
  92  169.2323
  93  252.762
  94  252.5432
  95  384.2289
  96  752.9197
  97  792.5569
  98  367.9832
  99  366.6862
 100  175.7894
 101  264.6757
 102  475.3889
 103  559.2513
 104  513.8694
 105  524.1224
 106  361.0388
 107  323.4569
 108  76.07771
 109  316.632
 110  704.8721
 111  686.3808
 112  555.8468
 113  550.2932
 114  633.3618
 115  555.3453
 116  542.9388
 117  689.4514
 118  671.7554
 119  248.7643
 120  644.6923
 121  688.5021
 122  537.0975
 123  571.7089
 124  681.454
 125  575.7845
 126  399.9997
 127  179.9733
 128  255.4306
 129  153.9543
 130  30.60569
 131  489.7391
 132  431.4213
 133  501.0266
 134  260.7426
 135  582.8618
 136  658.0771
 137  505.3949
 138  481.508
 139  627.3589
 140  474.6546
 141  577.5373
 142  489.7905
 143  421.7543
 144  343.8773
 145  301.6506
 146  486.313
 147  414.5833
 148  373.1757
 149  518.5815
 150  351.8471
 151  597.3755
 152  37.22721
 153  -229.2997
 154  86.2706
 155  301.0531
 156  523.9427
 157  650.3004
 158  598.6301
 159  720.7286
 160  1088.03
 161  1673.792
 162  2207.074
 163  2313.244
 164  2023.086
 165  1389.112
 166  788.8469
 167  792.3185
 168  855.3401
 169  294.0169
 170  19.84609
 171  126.7925
 172  378.363
 173  764.0546
 174  685.7719
 175  336.7989
 176  583.9327
 177  717.5668
 178  599.4161
 179  390.2892
 180  574.2977
 181  428.4279
 182  423.1459
 183  219.8084
 184  70.44181
 185  234.7633
 186  308.5751
 187  285.3873
 188  362.9282
 189  697.1913
 190  449.709
 191  -0.8200108
 192  604.2805
 193  629.9649
 194  188.9555
 195  225.3586
 196  547.4738
 197  512.8635
 198  555.3124
 199  447.2612
 200  534.8967
 201  377.3821
 202  347.1048
 203  217.1162
 204  231.468
 205  207.7412
 206  392.4486
 207  412.7075
 208  531.2069
 209  139.537
 210  25.33236
 211  310.9261
 212  290.5752
 213  620.6468
 214  821.2707
 215  723.8436
 216  553.3038
 217  493.0015
 218  485.7244
 219  466.9506
 220  259.7863
 221  460.0145
 222  681.5925
 223  533.0896
 224  338.0978
 225  291.5281
 226  468.6339
 227  187.7109
 228  167.0359
 229  581.0878
 230  637.8318
 231  427.3413
 232  264.2817
 233  384.2645
 234  354.8842
 235  223.1539
 236  227.8746
 237  603.4524
 238  450.7786
 239  256.0624
 240  506.0452
 241  421.6133
 242  245.6338
 243  183.4208
 244  213.375
 245  154.4236
 246  507.1423
 247  775.6776
 248  387.1274
 249  261.8154
 250  254.0159
 251  354.6241
 252  464.2256
 253  222.69
 254  247.1149
 255  73.49583
 256  220.8092
 257  569.7484
 258  500.1733
 259  520.1412
 260  428.2652
 261  204.8907
 262  98.54624
 263  452.0182
 264  313.8862
 265  472.0045
 266  692.6703
 267  543.1328
 268  594.0964
 269  371.3653
 270  195.7731
 271  656.6207
 272  403.6445
 273  158.3379
 274  236.1306
 275  374.4249
 276  491.5323
 277  447.917
 278  651.0853
 279  585.2748
 280  403.7888
 281  841.6116
 282  674.9443
 283  523.7515
 284  14.92991
 285  -29.03749
 286  -77.68407
 287  -416.1917
 288  -186.3925
 289  396.7728
 290  355.008
 291  370.885
 292  281.485
 293  241.334
 294  58.4109
 295  251.0017
 296  467.1789
 297  370.5278
 298  89.26443
 299  120.4691
 300  228.3752
 301  230.9435
 302  -100.3426
 303  -47.14414
 304  146.6887
 305  134.7029
 306  87.07096
 307  200.1962
 308  360.452
 309  284.936
 310  156.1293
 311  -33.8596
 312  308.4305
 313  341.552
 314  583.2302
 315  745.3121
 316  304.3481
 317  98.05348
 318  380.5691
 319  560.8218
 320  437.106
 321  494.6196
 322  649.3249
 323  561.2532
 324  490.6262
 325  134.1903
 326  130.3062
 327  254.2918
 328  582.5383
 329  731.4545
 330  377.0927
 331  430.2071
 332  587.1897
 333  405.2101
 334  576.6487
 335  424.9354
 336  258.0864
 337  167.4478
 338  390.0157
 339  419.7762
 340  481.1386
 341  298.1483
 342  280.1248
 343  189.0642
 344  166.5182
 345  461.839
 346  581.4615
 347  606.1909
 348  281.364
 349  327.8295
 350  709.4575
 351  702.4555
 352  705.4669
 353  255.7117
 354  319.7568
 355  323.0975
 356  341.6056
 357  -99.30499
 358  53.25512
 359  188.4963
 360  383.8595
 361  380.0969
 362  214.7158
 363  425.3136
 364  505.8526
 365  255.1249
 366  190.6634
 367  251.5437
 368  100.593
 369  185.9099
 370  258.3244
 371  237.1301
 372  20.5574
 373  325.7709
 374  171.1525
 375  12.57429
 376  227.4714
 377  -2.684637
 378  22.28988
 379  27.55218
 380  335.9585
 381  600.9271
 382  391.0919
 383  146.9334
 384  112.7467
 385  368.2975
 386  159.2821
 387  168.1017
 388  563.3579
 389  471.8227
 390  258.1631
 391  123.9678
 392  335.9661
 393  188.999
 394  275.3271
 395  417.8728
 396  207.2601
 397  142.0718
 398  366.2163
 399  254.1103
 400  165.6024
 401  204.2446
 402  182.503
 403  69.09653
 404  312.1999
 405  201.5772
 406  317.3109
 407  615.2291
 408  422.5564
 409  -300.6333
 410  -31.5933
 411  248.8604
 412  -51.53848
 413  334.3029
 414  738.9645
 415  361.395
 416  144.2047
 417  403.5712
 418  414.6619
 419  242.0741
 420  313.9054
 421  406.4814
 422  223.9429
 423  610.2484
 424  515.8375
 425  443.9756
 426  396.0948
 427  282.3441
 428  407.2953
 429  368.5652
 430  560.5571
 431  375.6304
 432  456.8831
 433  446.8374
 434  52.74249
 435  45.93507
 436  129.7214
 437  370.3649
 438  559.8265
 439  413.4765
 440  804.4377
 441  1036.359
 442  825.2652
 443  268.5894
 444  121.8465
 445  535.8956
 446  468.9358
 447  244.7807
 448  589.3061
 449  157.8081
 450  65.265
 451  411.0716
 452  375.7462
 453  189.5513
 454  330.8905
 455  428.5361
 456  352.067
 457  202.2462
 458  -0.5278326
 459  114.0546
 460  -202.114
 461  134.2675
 462  436.3775
 463  163.1524
 464  -207.6662
 465  9.408076
 466  431.0127
 467  355.9683
 468  544.2512
 469  137.6652
 470  113.269
 471  526.551
 472  336.0635
 473  316.3966
 474  228.2005
 475  371.6536
 476  638.7468
 477  263.6017
 478  249.1659
 479  454.566
 480  226.3692
 481  295.8889
 482  404.5542
 483  238.7864
 484  446.8535
 485  213.7063
 486  463.3334
 487  427.7736
 488  342.4294
 489  337.9027
 490  -228.7663
 491  -26.83944
 492  213.9348
 493  334.6334
 494  239.2193
 495  87.66293
 496  149.2919
 497  219.3334
 498  302.0426
 499  97.61784
 500  204.2626
 501  450.7433
 502  222.7628
 503  281.1149
 504  152.2578
 505  137.363
 506  233.2285
 507  513.1403
 508  381.2861
 509  325.331
 510  331.9775
 511  529.0341
