# Input file       =  1189039511.117748_cleaned.dat
# Candidate        =  PSR_0332+5434
# Telescope        =  AR
# Epoch_topo       =  58006.031598585047
# Epoch_bary       =  N/A
# T_sample         =  0.002
# Data Folded      =  7340032
# Data Avg         =  0.00676789840744286
# Data StdDev      =  1.00002786545813 
# Profile Bins     =  512
# Profile Avg      =  96.9829689685735 
# Profile StdDev   =  119.736372792678 
# Reduced chi-sqr  =  1.362
# Prob(Noise)      <  8.52e-08   (~5.2 sigma)
# P_topo (ms)      =  714.464664387823  +/- 0.000213
# P'_topo (s/s)    =  -0                +/- 1.12e-10
# P''_topo (s/s^2) =  0                 +/- 4.95e-14
# P_bary (ms)      =  N/A
# P'_bary (s/s)    =  N/A
# P''_bary (s/s^2) =  N/A
# P_orb (s)        =  N/A
# asin(i)/c (s)    =  N/A
# eccentricity     =  N/A
# w (rad)          =  N/A
# T_peri           =  N/A
######################################################
   0  244.328
   1  251.7552
   2  310.3952
   3  291.5693
   4  140.8634
   5  64.86835
   6  124.7901
   7  157.9819
   8  95.20473
   9  254.5709
  10  237.0604
  11  213.1661
  12  180.5617
  13  80.21239
  14  203.2622
  15  79.73314
  16  49.21452
  17  214.3346
  18  129.8923
  19  37.62828
  20  120.7418
  21  178.357
  22  100.4459
  23  -11.31564
  24  19.78227
  25  283.3603
  26  253.5568
  27  57.80416
  28  81.95029
  29  79.6019
  30  174.8586
  31  133.3756
  32  223.9482
  33  104.7122
  34  -36.15178
  35  40.57275
  36  136.7794
  37  53.49087
  38  71.79618
  39  105.539
  40  165.7107
  41  84.88963
  42  -6.811038
  43  69.56055
  44  38.42703
  45  95.38979
  46  95.96657
  47  -77.41157
  48  106.5326
  49  22.72066
  50  28.35229
  51  -18.82014
  52  13.96166
  53  -3.941446
  54  27.29968
  55  65.53484
  56  143.3773
  57  100.6111
  58  -19.40605
  59  186.4408
  60  289.1012
  61  205.6531
  62  101.0698
  63  -65.12852
  64  -62.70413
  65  88.18603
  66  213.4004
  67  190.0817
  68  41.12751
  69  170.4868
  70  164.9842
  71  88.2421
  72  148.9095
  73  234.3332
  74  220.8479
  75  115.4401
  76  234.1281
  77  204.3497
  78  197.4384
  79  92.8005
  80  73.17011
  81  111.4189
  82  20.03629
  83  98.45692
  84  102.6653
  85  167.6212
  86  203.8683
  87  147.7933
  88  -14.61623
  89  36.53744
  90  98.06924
  91  117.1293
  92  188.0257
  93  -5.870508
  94  52.23521
  95  284.1988
  96  181.6436
  97  16.23735
  98  41.38838
  99  -30.1151
 100  84.2349
 101  178.2547
 102  95.03603
 103  116.1784
 104  81.39339
 105  -3.320553
 106  -14.96893
 107  30.72686
 108  51.58823
 109  98.00654
 110  195.8541
 111  99.75677
 112  -89.10196
 113  138.2247
 114  189.4369
 115  132.3033
 116  60.95837
 117  82.87066
 118  174.3266
 119  77.50541
 120  171.1291
 121  50.02132
 122  181.6629
 123  26.54242
 124  -35.15903
 125  60.96127
 126  80.55672
 127  -143.2596
 128  -3.220114
 129  157.602
 130  176.6925
 131  150.1098
 132  131.6763
 133  96.00159
 134  104.1235
 135  1.668653
 136  -50.11894
 137  -44.00434
 138  153.0349
 139  166.3593
 140  107.4883
 141  116.4373
 142  152.7398
 143  221.458
 144  153.4873
 145  80.37846
 146  12.37488
 147  44.96565
 148  158.3116
 149  117.5568
 150  -4.594315
 151  15.32305
 152  32.97879
 153  81.24178
 154  148.2692
 155  175.6417
 156  78.0433
 157  83.81596
 158  68.4835
 159  157.6073
 160  124.8354
 161  215.2258
 162  83.60953
 163  43.55769
 164  93.16495
 165  79.91538
 166  121.2089
 167  175.5034
 168  222.8755
 169  98.15224
 170  20.49916
 171  69.67361
 172  104.9781
 173  71.57932
 174  174.4155
 175  173.039
 176  145.2206
 177  208.2344
 178  228.6028
 179  175.8831
 180  198.4077
 181  154.8071
 182  141.7348
 183  84.63371
 184  -121.8643
 185  -103.9314
 186  35.61309
 187  8.938164
 188  8.464002
 189  20.15812
 190  127.7983
 191  68.01029
 192  176.0314
 193  83.18848
 194  -2.585537
 195  -104.6239
 196  3.46719
 197  123.454
 198  186.806
 199  113.252
 200  151.9552
 201  26.51605
 202  -110.0347
 203  53.84436
 204  94.196
 205  17.14595
 206  37.37149
 207  63.13407
 208  97.38371
 209  46.6067
 210  52.11557
 211  59.0128
 212  0.7881753
 213  27.6036
 214  24.98301
 215  75.08656
 216  168.5797
 217  64.88136
 218  182.9026
 219  253.0753
 220  93.50487
 221  121.3158
 222  122.7306
 223  51.36073
 224  64.96374
 225  54.88631
 226  -22.68645
 227  66.43335
 228  102.135
 229  90.69226
 230  107.0318
 231  103.7273
 232  133.8464
 233  40.50266
 234  173.5894
 235  249.632
 236  123.186
 237  63.3939
 238  256.8922
 239  217.8799
 240  165.0122
 241  136.7349
 242  177.2907
 243  209.5417
 244  148.3907
 245  101.3279
 246  175.0636
 247  318.8547
 248  308.3162
 249  475.3495
 250  727.8705
 251  774.2201
 252  695.5082
 253  520.2297
 254  280.212
 255  43.21392
 256  141.0462
 257  229.5177
 258  122.6686
 259  38.15255
 260  8.229076
 261  117.6644
 262  191.2247
 263  193.7831
 264  116.5203
 265  147.055
 266  115.7238
 267  89.73683
 268  103.4442
 269  170.6498
 270  110.7266
 271  -54.70273
 272  -28.43879
 273  -53.37047
 274  -57.27989
 275  -86.13861
 276  14.59436
 277  162.01
 278  137.8354
 279  63.86944
 280  59.22363
 281  -27.40584
 282  -106.1962
 283  73.60508
 284  131.1594
 285  92.19252
 286  85.56145
 287  99.83575
 288  67.89413
 289  52.45867
 290  -131.1491
 291  -85.7896
 292  19.3024
 293  54.09533
 294  56.12542
 295  78.75628
 296  173.5154
 297  108.1818
 298  34.97412
 299  83.34212
 300  58.91211
 301  -42.83753
 302  33.20305
 303  106.0309
 304  -34.45041
 305  94.26957
 306  149.3924
 307  169.8515
 308  146.1446
 309  87.02153
 310  -63.09599
 311  -79.62424
 312  12.96883
 313  29.61887
 314  83.39363
 315  69.28333
 316  142.8347
 317  34.67427
 318  -88.91119
 319  90.51099
 320  71.16729
 321  107.238
 322  157.3903
 323  28.75391
 324  11.37424
 325  -27.95767
 326  -118.244
 327  14.61371
 328  73.25275
 329  69.57719
 330  77.53488
 331  7.55692
 332  99.38135
 333  208.3698
 334  194.7053
 335  188.351
 336  95.88864
 337  259.0718
 338  277.3761
 339  199.1926
 340  96.45868
 341  115.1224
 342  198.3179
 343  165.3174
 344  132.661
 345  64.67557
 346  42.3671
 347  -93.52856
 348  -43.5423
 349  85.64339
 350  77.28416
 351  80.76396
 352  30.06711
 353  73.9365
 354  92.12129
 355  34.46379
 356  18.64712
 357  4.787035
 358  112.8985
 359  75.72546
 360  71.46225
 361  128.4229
 362  243.4562
 363  126.5935
 364  126.6279
 365  125.3084
 366  63.02146
 367  9.159697
 368  142.394
 369  115.2505
 370  127.3069
 371  134.2794
 372  198.6807
 373  130.059
 374  156.7814
 375  29.41758
 376  42.14031
 377  112.8035
 378  229.0242
 379  220.272
 380  281.0612
 381  86.31745
 382  97.06249
 383  99.45123
 384  195.4286
 385  93.20181
 386  146.1211
 387  182.7881
 388  129.5784
 389  321.3189
 390  265.391
 391  74.6462
 392  97.34019
 393  104.5295
 394  41.99693
 395  24.00851
 396  104.3305
 397  45.26135
 398  -48.21114
 399  42.12643
 400  147.2033
 401  158.8315
 402  95.0203
 403  -0.7981846
 404  33.86382
 405  68.96632
 406  45.36669
 407  -7.853064
 408  103.9743
 409  72.22184
 410  49.76954
 411  18.63528
 412  -42.07817
 413  -53.89073
 414  -0.4085184
 415  25.44448
 416  -94.11166
 417  -75.02602
 418  34.57723
 419  118.369
 420  151.4736
 421  169.8831
 422  160.8141
 423  94.44244
 424  80.06613
 425  -4.19928
 426  -76.73132
 427  -94.54372
 428  -81.6008
 429  93.23637
 430  107.769
 431  153.1258
 432  -3.132022
 433  109.3854
 434  252.4353
 435  207.005
 436  77.69124
 437  -1.231688
 438  105.4957
 439  53.831
 440  90.63457
 441  58.51548
 442  -6.472903
 443  91.05772
 444  -36.48753
 445  68.3242
 446  123.6503
 447  80.69301
 448  -30.93256
 449  140.7583
 450  49.94419
 451  4.225887
 452  107.7643
 453  179.7269
 454  35.965
 455  0.777249
 456  14.34019
 457  91.89335
 458  128.6261
 459  153.816
 460  176.6535
 461  137.7718
 462  113.9437
 463  31.67507
 464  -2.04427
 465  142.6893
 466  181.6878
 467  138.9523
 468  162.375
 469  181.6236
 470  88.53693
 471  43.27902
 472  26.71533
 473  -17.16533
 474  168.5396
 475  225.1653
 476  127.4361
 477  43.28681
 478  89.36419
 479  73.10332
 480  -74.09602
 481  91.70421
 482  130.3907
 483  54.26321
 484  103.7478
 485  125.5102
 486  224.0664
 487  211.2644
 488  -5.946059
 489  -24.4121
 490  170.7934
 491  95.84995
 492  132.7947
 493  158.3676
 494  181.9037
 495  214.6196
 496  82.23734
 497  20.49733
 498  49.15476
 499  14.29194
 500  -60.28135
 501  12.27018
 502  79.70612
 503  70.30765
 504  0.03965249
 505  -6.071715
 506  186.7165
 507  0.7179189
 508  -96.10583
 509  54.87862
 510  13.30047
 511  200.1967
