# Input file       =  1189916087.11515_cleaned.dat
# Candidate        =  PSR_0332+5434
# Telescope        =  AR
# Epoch_topo       =  58016.177154110534
# Epoch_bary       =  N/A
# T_sample         =  0.002
# Data Folded      =  7340032
# Data Avg         =  0.00832182326050672
# Data StdDev      =  1.00002692641139 
# Profile Bins     =  512
# Profile Avg      =  119.279199096039 
# Profile StdDev   =  119.736260357761 
# Reduced chi-sqr  =  1.130
# Prob(Noise)      <  0.0218   (~2.0 sigma)
# P_topo (ms)      =  714.46792797717   +/- 0.000184
# P'_topo (s/s)    =  -0                +/- 9.73e-11
# P''_topo (s/s^2) =  0                 +/- 4.29e-14
# P_bary (ms)      =  N/A
# P'_bary (s/s)    =  N/A
# P''_bary (s/s^2) =  N/A
# P_orb (s)        =  N/A
# asin(i)/c (s)    =  N/A
# eccentricity     =  N/A
# w (rad)          =  N/A
# T_peri           =  N/A
######################################################
   0  722.7029
   1  522.1131
   2  433.8586
   3  320.0628
   4  191.9047
   5  70.26009
   6  76.76894
   7  156.0626
   8  104.1292
   9  83.96046
  10  119.8773
  11  177.5116
  12  168.615
  13  147.1184
  14  177.5572
  15  124.3605
  16  99.22782
  17  182.0481
  18  180.2922
  19  75.38539
  20  79.51555
  21  127.2831
  22  258.8581
  23  80.50972
  24  -30.47687
  25  -45.88854
  26  103.1527
  27  109.5186
  28  126.9863
  29  102.7524
  30  51.41636
  31  114.022
  32  143.2833
  33  -17.62727
  34  -142.068
  35  36.57685
  36  68.60815
  37  90.53245
  38  132.8569
  39  65.98561
  40  91.58583
  41  242.8056
  42  87.65434
  43  -17.09564
  44  -112.5739
  45  57.87059
  46  21.84308
  47  192.8468
  48  281.5276
  49  229.0509
  50  180.3385
  51  61.62234
  52  -23.75559
  53  48.30371
  54  90.67721
  55  160.4231
  56  286.075
  57  130.7435
  58  142.7207
  59  161.2873
  60  196.715
  61  187.8089
  62  164.1581
  63  176.2104
  64  68.31758
  65  65.01788
  66  127.4373
  67  215.2038
  68  216.8198
  69  176.4353
  70  228.9599
  71  68.19159
  72  -5.940587
  73  -137.2516
  74  -23.6078
  75  198.2589
  76  105.6155
  77  5.336896
  78  -12.42216
  79  80.40806
  80  104.8331
  81  180.3357
  82  233.8842
  83  120.5712
  84  102.4577
  85  159.8739
  86  76.28813
  87  -7.068221
  88  127.2762
  89  105.3782
  90  262.0134
  91  132.0427
  92  109.2935
  93  52.96305
  94  197.8744
  95  103.7356
  96  115.6098
  97  198.6724
  98  94.78819
  99  103.0604
 100  156.3256
 101  208.4698
 102  209.7881
 103  143.9093
 104  142.7148
 105  194.1416
 106  148.071
 107  85.8549
 108  -49.26429
 109  85.41756
 110  187.5013
 111  105.9465
 112  74.08772
 113  -10.15042
 114  -15.8456
 115  22.34674
 116  -26.52708
 117  -15.47942
 118  75.39297
 119  76.50388
 120  202.9918
 121  173.7396
 122  97.34454
 123  257.5081
 124  211.3031
 125  131.5399
 126  98.97584
 127  92.30937
 128  145.8777
 129  160.5413
 130  127.5596
 131  78.04626
 132  91.06984
 133  265.527
 134  228.5007
 135  71.36514
 136  133.0211
 137  171.1928
 138  172.1807
 139  78.78168
 140  22.37031
 141  81.84302
 142  250.2446
 143  212.7303
 144  125.7057
 145  103.0145
 146  149.0206
 147  141.9772
 148  93.63769
 149  192.7198
 150  135.5976
 151  128.2659
 152  160.3109
 153  217.2863
 154  -1.588481
 155  -65.71772
 156  87.23421
 157  137.2066
 158  185.6778
 159  51.17083
 160  -19.0866
 161  42.89797
 162  7.889702
 163  169.0786
 164  221.6587
 165  242.9492
 166  235.3962
 167  2.973722
 168  62.33769
 169  84.05981
 170  77.55569
 171  142.5692
 172  117.9398
 173  30.44903
 174  11.94712
 175  92.72975
 176  184.6202
 177  220.2514
 178  95.56705
 179  26.52391
 180  101.5524
 181  87.3779
 182  67.91438
 183  65.3705
 184  84.93776
 185  80.33487
 186  133.5208
 187  113.4607
 188  60.14388
 189  122.9353
 190  126.3389
 191  110.8987
 192  -18.35667
 193  -51.79977
 194  105.5479
 195  106.8842
 196  93.90788
 197  41.87107
 198  107.4932
 199  181.5243
 200  88.7869
 201  144.371
 202  171.9687
 203  147.8402
 204  155.2486
 205  166.1212
 206  297.1429
 207  166.2377
 208  84.47352
 209  197.8049
 210  173.476
 211  147.4374
 212  63.41382
 213  75.86253
 214  100.7024
 215  117.02
 216  189.1005
 217  129.2958
 218  151.8922
 219  114.8306
 220  60.75323
 221  59.9609
 222  69.12332
 223  162.1424
 224  65.76935
 225  96.83411
 226  141.7022
 227  50.67892
 228  61.90797
 229  80.42665
 230  114.2498
 231  181.6562
 232  134.5324
 233  205.52
 234  143.3318
 235  -66.03262
 236  71.57309
 237  63.53775
 238  -22.29184
 239  -30.01366
 240  71.57803
 241  88.44159
 242  91.47536
 243  179.4915
 244  83.59937
 245  120.3037
 246  80.24624
 247  19.34148
 248  2.117854
 249  77.44247
 250  72.228
 251  133.9228
 252  143.1164
 253  149.8787
 254  95.96555
 255  70.58891
 256  217.5709
 257  267.9445
 258  235.6934
 259  132.4856
 260  73.41661
 261  90.37856
 262  -5.682408
 263  16.28347
 264  -22.76826
 265  -61.08963
 266  111.4913
 267  190.1014
 268  202.4893
 269  125.3642
 270  135.7876
 271  140.9879
 272  210.2376
 273  177.1671
 274  174.0329
 275  123.438
 276  33.2195
 277  187.9525
 278  181.1094
 279  203.9914
 280  122.4768
 281  151.9898
 282  145.7225
 283  68.00337
 284  104.2561
 285  47.34095
 286  10.11217
 287  56.85637
 288  154.6839
 289  170.4592
 290  153.6873
 291  234.3793
 292  58.9995
 293  13.45335
 294  90.40272
 295  207.3974
 296  66.56568
 297  -62.40776
 298  109.674
 299  215.8384
 300  201.6862
 301  70.34559
 302  224.1855
 303  201.6205
 304  39.81637
 305  171.205
 306  111.4139
 307  23.27083
 308  -1.724468
 309  -30.58946
 310  77.36436
 311  27.96398
 312  44.18142
 313  140.82
 314  61.1459
 315  77.47813
 316  120.8658
 317  219.8232
 318  166.2482
 319  59.01566
 320  151.7218
 321  174.7382
 322  221.0824
 323  288.9536
 324  146.9848
 325  111.9664
 326  -8.797612
 327  155.6539
 328  146.9353
 329  85.66142
 330  -13.08924
 331  140.8308
 332  212.516
 333  -13.96789
 334  46.20109
 335  69.65095
 336  90.26847
 337  91.82577
 338  -29.51751
 339  5.106776
 340  131.6792
 341  146.1711
 342  111.4223
 343  86.80038
 344  -5.358133
 345  98.27715
 346  240.5808
 347  158.1601
 348  65.70755
 349  42.65824
 350  109.5445
 351  87.42287
 352  95.12032
 353  27.96902
 354  27.81361
 355  101.7639
 356  68.92064
 357  42.23979
 358  -52.55096
 359  240.647
 360  256.8797
 361  110.2486
 362  202.1584
 363  207.8028
 364  67.73972
 365  195.9303
 366  183.1603
 367  100.2738
 368  141.4784
 369  62.1486
 370  17.86058
 371  141.8748
 372  196.1296
 373  4.773683
 374  -76.16769
 375  88.32172
 376  50.08256
 377  185.1526
 378  118.0426
 379  18.99708
 380  8.774247
 381  112.0168
 382  196.4213
 383  163.5449
 384  10.32958
 385  38.24365
 386  52.5027
 387  98.47258
 388  142.2403
 389  142.0972
 390  199.0069
 391  112.069
 392  119.0022
 393  79.87022
 394  28.7122
 395  176.3444
 396  125.022
 397  96.24588
 398  7.030055
 399  73.94009
 400  125.5173
 401  85.32571
 402  201.064
 403  283.7752
 404  128.1353
 405  123.5717
 406  200.3721
 407  95.32549
 408  92.93274
 409  127.6476
 410  133.7158
 411  75.15672
 412  270.3689
 413  253.9675
 414  231.3697
 415  170.6326
 416  249.4238
 417  220.9385
 418  231.1299
 419  204.7604
 420  88.97414
 421  98.0929
 422  221.3219
 423  241.3401
 424  240.1775
 425  209.7595
 426  110.636
 427  108.4611
 428  85.22061
 429  -95.12711
 430  -42.76794
 431  139.2376
 432  176.6339
 433  254.011
 434  283.8382
 435  206.8013
 436  46.17415
 437  149.6709
 438  126.1539
 439  9.599021
 440  -58.9997
 441  17.16991
 442  75.85526
 443  68.39468
 444  87.381
 445  -12.78034
 446  33.73629
 447  96.08344
 448  86.36049
 449  6.681344
 450  51.40992
 451  219.3819
 452  227.0098
 453  201.8618
 454  129.8064
 455  4.914107
 456  38.30153
 457  41.66396
 458  22.67843
 459  67.50882
 460  52.48324
 461  43.85955
 462  151.1014
 463  191.5902
 464  184.0755
 465  65.89172
 466  29.3362
 467  194.5141
 468  177.9316
 469  54.9929
 470  151.6251
 471  307.7501
 472  270.6653
 473  206.4884
 474  236.0691
 475  113.1447
 476  -38.59171
 477  22.41651
 478  44.78752
 479  117.2726
 480  114.6906
 481  27.18401
 482  177.9231
 483  208.8992
 484  112.6697
 485  79.30611
 486  98.80311
 487  152.0216
 488  152.1647
 489  40.60271
 490  -4.478016
 491  37.60649
 492  106.6105
 493  167.0239
 494  84.76744
 495  133.3752
 496  187.1897
 497  190.9377
 498  134.8758
 499  159.1204
 500  227.7723
 501  128.7881
 502  176.0311
 503  234.7795
 504  217.3654
 505  241.193
 506  334.3923
 507  262.815
 508  269.4241
 509  382.9188
 510  471.5917
 511  638.5993
