# Input file       =  1189743766.114279_cleaned.dat
# Candidate        =  PSR_0332+5434
# Telescope        =  AR
# Epoch_topo       =  58014.182698081931
# Epoch_bary       =  N/A
# T_sample         =  0.002
# Data Folded      =  7340032
# Data Avg         =  0.009155054127758
# Data StdDev      =  1.00003282028199 
# Profile Bins     =  512
# Profile Avg      =  131.211392954647 
# Profile StdDev   =  119.736966048784 
# Reduced chi-sqr  =  1.204
# Prob(Noise)      <  0.00102   (~3.1 sigma)
# P_topo (ms)      =  714.467213002682  +/- 0.000295
# P'_topo (s/s)    =  -0                +/- 1.55e-10
# P''_topo (s/s^2) =  0                 +/- 6.86e-14
# P_bary (ms)      =  N/A
# P'_bary (s/s)    =  N/A
# P''_bary (s/s^2) =  N/A
# P_orb (s)        =  N/A
# asin(i)/c (s)    =  N/A
# eccentricity     =  N/A
# w (rad)          =  N/A
# T_peri           =  N/A
######################################################
   0  24.96826
   1  84.90411
   2  80.4164
   3  62.5282
   4  -5.448945
   5  63.89597
   6  3.40356
   7  76.83251
   8  189.2313
   9  56.0721
  10  26.99409
  11  139.4519
  12  187.2389
  13  129.0271
  14  139.4663
  15  295.9365
  16  209.6383
  17  114.3264
  18  86.89807
  19  207.1292
  20  150.1794
  21  165.604
  22  143.0345
  23  264.2311
  24  241.5273
  25  41.82462
  26  26.84048
  27  -15.17869
  28  -37.09186
  29  148.4142
  30  136.2038
  31  223.1595
  32  75.76076
  33  54.74355
  34  95.47697
  35  149.1559
  36  106.3584
  37  55.3908
  38  163.603
  39  236.713
  40  187.2809
  41  88.11497
  42  89.08141
  43  120.5912
  44  172.0198
  45  88.24432
  46  53.37062
  47  128.8908
  48  98.61887
  49  122.685
  50  163.1127
  51  63.10213
  52  229.8253
  53  254.9635
  54  86.88531
  55  37.65426
  56  243.0737
  57  229.1229
  58  124.1582
  59  58.17532
  60  84.21664
  61  162.3514
  62  224.8002
  63  221.7327
  64  28.98525
  65  96.94054
  66  113.1147
  67  127.9191
  68  143.6103
  69  108.0939
  70  62.99264
  71  7.890178
  72  91.20576
  73  135.877
  74  214.5337
  75  239.995
  76  233.1688
  77  29.78582
  78  -22.75608
  79  87.70974
  80  25.13871
  81  13.59789
  82  140.8772
  83  128.2815
  84  127.5634
  85  16.37132
  86  104.3898
  87  176.5872
  88  111.7333
  89  26.38284
  90  151.8461
  91  33.44678
  92  -78.92072
  93  55.06465
  94  250.7145
  95  196.3034
  96  176.4655
  97  98.89146
  98  203.9545
  99  124.0267
 100  103.7917
 101  89.1788
 102  248.59
 103  270.816
 104  81.2122
 105  64.56507
 106  185.8331
 107  139.3415
 108  103.4552
 109  133.2336
 110  14.41849
 111  73.95168
 112  264.2271
 113  41.30397
 114  167.3556
 115  241.8492
 116  82.39948
 117  136.963
 118  213.3694
 119  122.5011
 120  62.47507
 121  240.497
 122  303.8882
 123  222.0155
 124  167.3733
 125  284.9086
 126  270.2547
 127  371.1668
 128  492.347
 129  581.614
 130  523.9915
 131  557.733
 132  446.9191
 133  344.7412
 134  483.136
 135  335.8284
 136  136.6432
 137  45.35728
 138  187.7927
 139  223.9548
 140  180.3484
 141  157.4353
 142  218.6161
 143  224.165
 144  272.2594
 145  199.4861
 146  146.3767
 147  247.373
 148  112.5537
 149  0.004490552
 150  54.25023
 151  45.08368
 152  51.69573
 153  -4.026422
 154  -33.0435
 155  172.2261
 156  168.5938
 157  60.23213
 158  0.8192181
 159  186.6639
 160  242.3662
 161  233.9655
 162  257.2386
 163  272.5501
 164  189.9646
 165  157.335
 166  177.6824
 167  144.3633
 168  132.0621
 169  194.4969
 170  171.4674
 171  78.33335
 172  17.72635
 173  48.37915
 174  24.53792
 175  237.15
 176  121.1947
 177  42.58565
 178  156.503
 179  150.8151
 180  108.5329
 181  157.7786
 182  78.34367
 183  110.6027
 184  183.4907
 185  170.5391
 186  196.205
 187  181.9061
 188  232.624
 189  171.468
 190  218.7748
 191  183.852
 192  125.6409
 193  16.94556
 194  14.72424
 195  196.7564
 196  262.6624
 197  278.6624
 198  165.9827
 199  83.75239
 200  35.13525
 201  6.284618
 202  -9.100456
 203  111.734
 204  68.36453
 205  -3.888694
 206  113.7951
 207  66.3672
 208  78.26628
 209  197.1664
 210  57.27069
 211  49.60513
 212  106.4472
 213  348.6777
 214  247.7333
 215  91.27812
 216  2.714875
 217  9.482552
 218  92.20406
 219  67.29073
 220  82.53397
 221  123.5738
 222  175.7145
 223  277.3158
 224  191.5454
 225  214.6767
 226  124.7655
 227  195.0556
 228  180.9059
 229  34.80996
 230  77.8186
 231  219.5848
 232  272.7816
 233  151.8202
 234  222.5282
 235  284.4578
 236  349.2458
 237  158.4686
 238  95.54231
 239  -7.325703
 240  -52.23824
 241  38.54712
 242  194.9082
 243  167.9443
 244  56.98035
 245  112.2686
 246  121.0268
 247  112.1769
 248  83.55338
 249  60.49395
 250  264.9696
 251  76.009
 252  13.68822
 253  80.96169
 254  197.1272
 255  74.23272
 256  50.69783
 257  177.2793
 258  181.2174
 259  217.3298
 260  249.2956
 261  93.50847
 262  127.8435
 263  156.6561
 264  131.2129
 265  145.3272
 266  227.2108
 267  313.9877
 268  175.235
 269  164.3303
 270  168.7228
 271  135.6261
 272  200.6548
 273  252.841
 274  276.2797
 275  331.2044
 276  312.6483
 277  300.7969
 278  262.4833
 279  293.4679
 280  134.2373
 281  159.83
 282  189.3479
 283  141.3839
 284  126.5398
 285  155.0022
 286  230.5688
 287  154.9093
 288  137.5447
 289  118.7188
 290  214.8103
 291  24.51486
 292  43.81879
 293  85.07642
 294  136.5793
 295  46.12031
 296  -49.72414
 297  173.0467
 298  112.2256
 299  42.30717
 300  -33.08692
 301  10.55137
 302  21.82863
 303  51.88179
 304  245.6388
 305  147.2474
 306  165.7612
 307  172.9206
 308  82.26036
 309  26.96451
 310  36.75484
 311  113.6286
 312  32.71981
 313  -21.03824
 314  -51.21924
 315  80.67175
 316  -65.5529
 317  98.09249
 318  210.1056
 319  161.9971
 320  140.4714
 321  158.3442
 322  130.451
 323  218.0099
 324  137.3569
 325  157.8504
 326  138.521
 327  214.7412
 328  166.9375
 329  90.74185
 330  170.6646
 331  101.8301
 332  35.91508
 333  70.3427
 334  134.5475
 335  143.7589
 336  95.41888
 337  118.3579
 338  116.4991
 339  262.6708
 340  218.5876
 341  158.0824
 342  233.1823
 343  198.2011
 344  166.3229
 345  209.4689
 346  321.4052
 347  255.22
 348  147.0028
 349  159.7899
 350  42.45037
 351  71.63073
 352  61.7899
 353  128.1964
 354  8.306643
 355  5.947307
 356  76.32404
 357  147.1411
 358  92.88724
 359  137.9089
 360  188.9699
 361  187.3531
 362  115.5078
 363  -70.5835
 364  4.588675
 365  101.2998
 366  68.76434
 367  128.4909
 368  123.7308
 369  160.6173
 370  129.6809
 371  75.7143
 372  43.02367
 373  109.0921
 374  119.0277
 375  60.41845
 376  30.62664
 377  73.92852
 378  156.0906
 379  67.42793
 380  -2.29469
 381  37.81226
 382  33.06306
 383  127.6107
 384  211.2326
 385  264.5953
 386  152.8792
 387  60.24815
 388  12.05655
 389  170.8322
 390  167.5301
 391  129.8119
 392  70.17214
 393  -26.02084
 394  160.8414
 395  144.5367
 396  172.4572
 397  39.22005
 398  29.60039
 399  192.6494
 400  143.4903
 401  96.03872
 402  68.35486
 403  -41.68357
 404  -32.85894
 405  -47.38065
 406  122.0498
 407  97.01015
 408  155.1077
 409  92.95789
 410  -15.48278
 411  -52.05897
 412  -2.08138
 413  15.80994
 414  113.0987
 415  169.1299
 416  137.2235
 417  34.10574
 418  -33.60894
 419  63.78115
 420  140.0683
 421  65.91072
 422  168.3229
 423  219.5002
 424  205.2281
 425  249.6904
 426  235.7904
 427  62.10159
 428  121.0748
 429  106.9493
 430  92.32967
 431  4.387929
 432  -61.09356
 433  -15.5072
 434  -3.123251
 435  122.0365
 436  237.1921
 437  240.7528
 438  161.8504
 439  119.9896
 440  206.6925
 441  273.3524
 442  176.4403
 443  235.6406
 444  204.8549
 445  161.6026
 446  37.49698
 447  -37.30213
 448  -60.04854
 449  156.2243
 450  -14.22504
 451  53.35047
 452  231.3178
 453  25.75544
 454  12.36703
 455  98.22474
 456  175.1926
 457  256.2572
 458  262.5773
 459  186.3508
 460  264.9717
 461  190.4681
 462  129.7191
 463  141.8688
 464  208.1561
 465  238.4994
 466  28.49237
 467  47.69626
 468  120.1281
 469  92.97707
 470  -42.20331
 471  53.12991
 472  81.78706
 473  83.25508
 474  146.5604
 475  80.84003
 476  208.3947
 477  158.683
 478  221.0317
 479  230.4446
 480  216.9939
 481  105.7304
 482  83.59991
 483  163.7029
 484  211.7794
 485  175.3512
 486  170.9447
 487  223.5445
 488  47.28563
 489  42.33219
 490  197.6613
 491  169.6876
 492  43.37278
 493  105.4754
 494  90.08376
 495  165.5014
 496  173.599
 497  77.50114
 498  39.68159
 499  10.9607
 500  59.4685
 501  17.14467
 502  -31.2445
 503  168.3016
 504  37.27781
 505  39.7312
 506  136.811
 507  27.5004
 508  120.1456
 509  157.8732
 510  182.0281
 511  200.125
