# Input file       =  1189485312.127878_cleaned.dat
# Candidate        =  PSR_0332+5434
# Telescope        =  AR
# Epoch_topo       =  58011.191332498587
# Epoch_bary       =  N/A
# T_sample         =  0.002
# Data Folded      =  7340032
# Data Avg         =  0.00929363966856605
# Data StdDev      =  1.00003008393927 
# Profile Bins     =  512
# Profile Avg      =  133.27417969429  
# Profile StdDev   =  119.736638418161 
# Reduced chi-sqr  =  1.371
# Prob(Noise)      <  4.58e-08   (~5.3 sigma)
# P_topo (ms)      =  714.466269100953  +/- 0.000142
# P'_topo (s/s)    =  -0                +/- 7.47e-11
# P''_topo (s/s^2) =  0                 +/- 3.3e-14
# P_bary (ms)      =  N/A
# P'_bary (s/s)    =  N/A
# P''_bary (s/s^2) =  N/A
# P_orb (s)        =  N/A
# asin(i)/c (s)    =  N/A
# eccentricity     =  N/A
# w (rad)          =  N/A
# T_peri           =  N/A
######################################################
   0  773.7831
   1  819.286
   2  500.8488
   3  277.1054
   4  229.671
   5  240.1543
   6  20.02904
   7  41.14553
   8  29.7727
   9  103.971
  10  40.33122
  11  36.61916
  12  154.4846
  13  194.4395
  14  39.62185
  15  112.3953
  16  180.5811
  17  167.123
  18  22.03734
  19  92.7802
  20  64.14854
  21  6.542844
  22  137.1259
  23  240.5822
  24  88.03986
  25  28.18288
  26  10.73246
  27  -72.90866
  28  113.3002
  29  224.6012
  30  232.6855
  31  89.25563
  32  151.128
  33  260.3354
  34  92.28332
  35  116.9276
  36  131.594
  37  153.9456
  38  64.24736
  39  102.3819
  40  179.248
  41  222.0842
  42  170.8715
  43  209.3545
  44  111.0547
  45  48.35169
  46  161.2046
  47  178.7825
  48  101.7694
  49  39.86752
  50  41.1089
  51  115.4386
  52  134.8585
  53  152.1951
  54  110.3001
  55  73.40457
  56  102.7153
  57  -62.53641
  58  47.44904
  59  101.3821
  60  243.1391
  61  113.9998
  62  51.55148
  63  204.2617
  64  206.9884
  65  130.4506
  66  44.84329
  67  133.2544
  68  151.2804
  69  34.52221
  70  158.4007
  71  147.4854
  72  -6.15498
  73  0.8656527
  74  101.5242
  75  156.0226
  76  201.0234
  77  129.2156
  78  101.6186
  79  82.24142
  80  -24.12264
  81  119.007
  82  204.3074
  83  215.1929
  84  169.5431
  85  13.17837
  86  125.0294
  87  166.588
  88  289.8244
  89  320.9233
  90  144.2143
  91  125.3258
  92  151.3661
  93  168.838
  94  251.2974
  95  146.3835
  96  41.95975
  97  115.0229
  98  109.6944
  99  194.6806
 100  143.4532
 101  211.7526
 102  239.028
 103  21.37783
 104  143.869
 105  324.8494
 106  185.715
 107  128.6306
 108  54.34369
 109  253.8735
 110  273.9904
 111  340.7036
 112  318.2858
 113  281.4222
 114  176.3656
 115  99.37941
 116  46.26836
 117  235.7126
 118  241.7608
 119  -20.01161
 120  -21.14505
 121  -5.984138
 122  151.2558
 123  206.2387
 124  -4.160413
 125  -34.77356
 126  -43.36399
 127  118.7
 128  253.5224
 129  77.57131
 130  70.69923
 131  -11.70754
 132  11.81954
 133  150.7458
 134  282.0241
 135  149.4223
 136  20.62883
 137  -8.050774
 138  80.14771
 139  87.38111
 140  -75.91077
 141  -8.298589
 142  120.9293
 143  238.7448
 144  256.7983
 145  169.3697
 146  118.7129
 147  138.3139
 148  59.00533
 149  89.00057
 150  183.3389
 151  338.014
 152  299.6564
 153  210.8859
 154  165.0022
 155  103.1648
 156  76.39429
 157  14.84411
 158  62.68788
 159  -29.62011
 160  -59.04773
 161  -126.115
 162  12.27178
 163  145.3942
 164  124.498
 165  157.99
 166  166.4635
 167  153.712
 168  142.0675
 169  158.3024
 170  70.41212
 171  10.14456
 172  70.13805
 173  156.2429
 174  141.0239
 175  108.7285
 176  194.3046
 177  204.0428
 178  140.1705
 179  113.6319
 180  205.8938
 181  112.8796
 182  62.45917
 183  154.9298
 184  160.4718
 185  86.45839
 186  66.577
 187  89.2748
 188  -16.80182
 189  54.69127
 190  120.6878
 191  157.1557
 192  215.307
 193  307.6589
 194  159.435
 195  133.1106
 196  106.7248
 197  208.2353
 198  93.81549
 199  245.9449
 200  238.5484
 201  186.7632
 202  207.628
 203  139.9837
 204  150.115
 205  241.6612
 206  93.06719
 207  -22.80591
 208  75.76208
 209  211.9013
 210  110.9642
 211  151.7432
 212  154.7315
 213  115.5834
 214  94.66827
 215  129.5848
 216  239.0694
 217  134.369
 218  4.808142
 219  30.19465
 220  120.6401
 221  127.5411
 222  -1.374341
 223  -26.04571
 224  164.113
 225  268.4945
 226  273.0063
 227  369.6995
 228  172.2956
 229  170.8985
 230  82.49848
 231  37.22224
 232  160.3426
 233  212.8584
 234  207.586
 235  130.1885
 236  130.3804
 237  125.1979
 238  -39.63479
 239  -39.98268
 240  96.46879
 241  39.66899
 242  104.9854
 243  169.0676
 244  82.81948
 245  51.41207
 246  76.101
 247  21.35164
 248  47.70436
 249  56.27815
 250  51.88753
 251  82.66869
 252  163.1372
 253  177.8324
 254  266.61
 255  140.3033
 256  205.5417
 257  239.342
 258  237.806
 259  213.7812
 260  115.879
 261  79.30533
 262  207.1664
 263  42.68986
 264  85.26421
 265  135.757
 266  152.6633
 267  272.9263
 268  157.1652
 269  145.9917
 270  135.1125
 271  131.0472
 272  273.9396
 273  320.5936
 274  114.0777
 275  77.81806
 276  145.8773
 277  91.35769
 278  276.0691
 279  152.0931
 280  228.84
 281  261.139
 282  189.3255
 283  176.9067
 284  180.6143
 285  124.1496
 286  169.6774
 287  174.0982
 288  101.1489
 289  86.95276
 290  57.55581
 291  98.42449
 292  154.3642
 293  62.01977
 294  142.2576
 295  121.0206
 296  143.8328
 297  159.4997
 298  129.1028
 299  172.1666
 300  102.1148
 301  187.0507
 302  206.225
 303  102.6935
 304  176.7986
 305  131.6343
 306  46.77088
 307  132.5106
 308  157.6216
 309  100.8848
 310  71.13747
 311  99.70882
 312  205.5066
 313  243.6071
 314  262.0789
 315  129.5582
 316  75.64167
 317  36.35829
 318  167.9887
 319  35.06481
 320  165.4326
 321  179.5962
 322  69.3694
 323  238.4924
 324  177.5235
 325  120.9087
 326  329.393
 327  317.9208
 328  269.9872
 329  349.701
 330  364.1555
 331  209.2176
 332  35.20055
 333  119.9106
 334  293.4333
 335  239.7814
 336  204.6363
 337  188.5371
 338  234.7636
 339  166.5384
 340  132.5358
 341  137.8594
 342  122.2815
 343  72.17047
 344  20.60834
 345  93.08737
 346  72.44077
 347  186.6988
 348  332.5357
 349  173.252
 350  96.21571
 351  156.3991
 352  131.1003
 353  81.30299
 354  105.6671
 355  100.1922
 356  181.2695
 357  89.50283
 358  114.4008
 359  267.5496
 360  182.885
 361  62.12978
 362  43.8302
 363  118.8257
 364  255.3883
 365  159.2994
 366  170.4297
 367  203.9416
 368  220.2787
 369  142.1198
 370  172.4376
 371  -33.39766
 372  -7.859372
 373  67.69429
 374  205.8646
 375  217.2284
 376  78.25185
 377  220.6208
 378  145.2631
 379  240.9997
 380  164.8675
 381  220.0762
 382  232.8198
 383  68.58472
 384  95.90894
 385  118.5244
 386  94.58001
 387  -4.842051
 388  109.5791
 389  202.2239
 390  203.9151
 391  84.53678
 392  76.80498
 393  259.7018
 394  268.6044
 395  84.89366
 396  179.6484
 397  237.7695
 398  193.1521
 399  131.3967
 400  160.44
 401  141.0612
 402  -8.193804
 403  91.16557
 404  107.8843
 405  76.84892
 406  163.0567
 407  149.7728
 408  6.957276
 409  9.594586
 410  130.6393
 411  137.1761
 412  179.7676
 413  177.6339
 414  171.4612
 415  96.16635
 416  55.86238
 417  105.1367
 418  70.79123
 419  177.1716
 420  -41.12985
 421  -30.94311
 422  182.707
 423  141.4556
 424  108.2749
 425  125.244
 426  56.61267
 427  145.7322
 428  -3.550745
 429  55.96704
 430  137.0304
 431  235.8922
 432  210.2079
 433  143.7379
 434  127.9188
 435  159.0934
 436  85.59863
 437  78.52387
 438  71.30621
 439  125.0892
 440  230.8442
 441  147.8207
 442  -32.94954
 443  105.9193
 444  166.9093
 445  54.05891
 446  -71.84531
 447  10.8325
 448  126.8811
 449  89.55872
 450  190.9019
 451  94.48156
 452  56.43147
 453  168.1164
 454  148.8771
 455  53.10736
 456  -96.39433
 457  31.00702
 458  120.7663
 459  77.2754
 460  -3.456593
 461  -17.04737
 462  79.87511
 463  275.7723
 464  238.3736
 465  73.33505
 466  82.65312
 467  219.1998
 468  246.5269
 469  102.0416
 470  97.02985
 471  118.0587
 472  28.71097
 473  48.09674
 474  89.84512
 475  101.3469
 476  167.4135
 477  198.8575
 478  113.0834
 479  42.99718
 480  53.10893
 481  171.4335
 482  164.2704
 483  190.0336
 484  64.83831
 485  -63.61911
 486  -44.11015
 487  14.00988
 488  -47.99969
 489  21.48705
 490  103.5526
 491  135.2263
 492  210.1011
 493  123.6058
 494  195.6288
 495  92.72034
 496  -42.72093
 497  -96.05814
 498  57.38835
 499  85.53478
 500  -13.85804
 501  39.18526
 502  119.6328
 503  187.8561
 504  116.6209
 505  55.46804
 506  108.5681
 507  178.0637
 508  193.1864
 509  364.68
 510  526.4221
 511  718.1553
