# Input file       =  1189541950.11086_cleaned.dat
# Candidate        =  PSR_0332+5434
# Telescope        =  AR
# Epoch_topo       =  58011.846864709027
# Epoch_bary       =  N/A
# T_sample         =  0.002
# Data Folded      =  7143424
# Data Avg         =  0.0394433798821677
# Data StdDev      =  3.27151065278419 
# Profile Bins     =  512
# Profile Avg      =  550.274725217123 
# Profile StdDev   =  386.426207424218 
# Reduced chi-sqr  =  1.041
# Prob(Noise)      <  0.253   (~0.7 sigma)
# P_topo (ms)      =  714.466112011309  +/- 0.000146
# P'_topo (s/s)    =  -0                +/- 7.9e-11
# P''_topo (s/s^2) =  0                 +/- 3.58e-14
# P_bary (ms)      =  N/A
# P'_bary (s/s)    =  N/A
# P''_bary (s/s^2) =  N/A
# P_orb (s)        =  N/A
# asin(i)/c (s)    =  N/A
# eccentricity     =  N/A
# w (rad)          =  N/A
# T_peri           =  N/A
######################################################
   0  323.0294
   1  404.0359
   2  224.709
   3  788.6434
   4  892.9647
   5  580.8437
   6  832.4056
   7  980.4501
   8  586.0015
   9  234.1452
  10  362.7131
  11  628.7562
  12  761.5266
  13  847.8828
  14  466.9767
  15  192.9472
  16  171.1823
  17  176.3713
  18  86.7646
  19  519.9058
  20  746.3495
  21  722.8694
  22  705.7729
  23  495.9435
  24  326.7732
  25  587.2353
  26  799.9443
  27  613.8884
  28  590.2495
  29  667.6058
  30  1464.742
  31  2067.111
  32  2529.227
  33  2527.235
  34  1616.48
  35  850.1224
  36  674.262
  37  554.6221
  38  626.2466
  39  692.9811
  40  523.9581
  41  372.2937
  42  366.6515
  43  43.1522
  44  224.8052
  45  105.4537
  46  180.1998
  47  666.908
  48  537.1974
  49  596.3421
  50  491.6324
  51  486.9578
  52  218.8322
  53  460.6201
  54  432.842
  55  606.2373
  56  443.7126
  57  306.5095
  58  534.9279
  59  299.7158
  60  770.2268
  61  1089.506
  62  1015.146
  63  715.418
  64  514.7773
  65  427.6418
  66  154.2942
  67  264.3857
  68  650.645
  69  1033.624
  70  763.8644
  71  554.9562
  72  390.0768
  73  97.41255
  74  391.6811
  75  469.6798
  76  540.7043
  77  565.4856
  78  905.8949
  79  621.4258
  80  551.4839
  81  563.7484
  82  519.6035
  83  245.7718
  84  526.6272
  85  827.009
  86  550.2727
  87  800.6229
  88  485.3275
  89  975.0573
  90  813.1469
  91  909.9655
  92  728.8757
  93  659.0248
  94  646.9923
  95  546.222
  96  775.705
  97  664.4913
  98  599.1768
  99  502.3569
 100  176.2407
 101  311.7738
 102  289.9621
 103  385.2513
 104  689.5703
 105  418.8793
 106  191.5593
 107  232.4713
 108  401.4966
 109  264.4585
 110  155.2487
 111  656.7872
 112  797.7936
 113  786.8381
 114  651.9702
 115  575.7811
 116  418.9286
 117  392.759
 118  625.5055
 119  321.0131
 120  139.799
 121  55.07446
 122  226.631
 123  116.7507
 124  258.0101
 125  362.8485
 126  312.7446
 127  369.9668
 128  403.4216
 129  425.5804
 130  213.0836
 131  98.65644
 132  332.4185
 133  552.9692
 134  739.3468
 135  952.6739
 136  1024.545
 137  1134.822
 138  1138.495
 139  777.278
 140  391.9376
 141  394.4816
 142  401.6991
 143  560.7027
 144  625.4025
 145  1041.007
 146  648.0338
 147  543.402
 148  492.1643
 149  790.0438
 150  875.3158
 151  726.9844
 152  544.4118
 153  709.3177
 154  645.3339
 155  479.5486
 156  925.8334
 157  809.5806
 158  752.5369
 159  989.145
 160  897.3826
 161  938.2457
 162  424.3687
 163  745.9735
 164  851.7537
 165  1046.695
 166  1085.305
 167  972.3763
 168  739.94
 169  679.9774
 170  824.3065
 171  493.5973
 172  591.2248
 173  542.6028
 174  338.3856
 175  551.5825
 176  722.6997
 177  531.1242
 178  612.5776
 179  543.5508
 180  330.5643
 181  232.7438
 182  185.9372
 183  729.3466
 184  824.6007
 185  744.2669
 186  965.7004
 187  601.2216
 188  372.7956
 189  294.0448
 190  -196.1531
 191  68.90665
 192  279.2094
 193  593.8937
 194  597.7019
 195  560.4171
 196  528.0756
 197  542.7188
 198  82.16555
 199  125.3498
 200  528.3592
 201  643.6509
 202  781.2775
 203  504.0146
 204  652.9922
 205  676.9636
 206  187.5289
 207  432.6119
 208  373.0562
 209  409.5649
 210  543.6236
 211  458.4455
 212  531.1815
 213  608.8185
 214  251.1408
 215  352.0095
 216  298.5666
 217  625.8288
 218  533.877
 219  623.6532
 220  761.3016
 221  864.9603
 222  592.0455
 223  474.3312
 224  517.7571
 225  843.9104
 226  814.5495
 227  801.2177
 228  602.0278
 229  679.4099
 230  457.1743
 231  82.56827
 232  280.594
 233  761.214
 234  617.9534
 235  730.9847
 236  842.6428
 237  733.2545
 238  757.8013
 239  828.5546
 240  663.7823
 241  778.9731
 242  590.6138
 243  481.8428
 244  303.8361
 245  243.7996
 246  272.2918
 247  315.8644
 248  5.891291
 249  280.2578
 250  625.0866
 251  844.6957
 252  736.7567
 253  751.4042
 254  724.5524
 255  524.1226
 256  291.8784
 257  332.3366
 258  307.1182
 259  507.7091
 260  773.0887
 261  910.9855
 262  712.2925
 263  501.5543
 264  275.6475
 265  170.9822
 266  468.3418
 267  776.6448
 268  886.869
 269  780.3046
 270  552.299
 271  556.347
 272  317.9804
 273  487.6833
 274  273.2934
 275  -144.1874
 276  195.4314
 277  637.8459
 278  954.8351
 279  514.2289
 280  312.4379
 281  85.58037
 282  224.9465
 283  359.1151
 284  485.785
 285  717.9375
 286  620.8104
 287  555.3922
 288  472.8797
 289  528.2307
 290  603.4832
 291  426.5255
 292  488.1325
 293  242.1381
 294  442.5548
 295  730.4652
 296  418.757
 297  169.7386
 298  208.5779
 299  433.5026
 300  563.1583
 301  455.2194
 302  494.8409
 303  473.1748
 304  591.1035
 305  700.982
 306  469.0816
 307  241.2423
 308  796.7191
 309  1068.997
 310  751.196
 311  849.4255
 312  542.3463
 313  408.4053
 314  508.4756
 315  580.3709
 316  631.9437
 317  563.1523
 318  690.6779
 319  498.4233
 320  487.1602
 321  615.9584
 322  546.66
 323  551.7877
 324  367.7581
 325  183.6327
 326  272.267
 327  239.7424
 328  593.9399
 329  462.9987
 330  680.7238
 331  391.9563
 332  555.8163
 333  755.9416
 334  364.9385
 335  429.5488
 336  733.4896
 337  591.4465
 338  824.9363
 339  912.2917
 340  410.6192
 341  501.1754
 342  826.8697
 343  753.0837
 344  547.259
 345  337.3284
 346  -160.0193
 347  -121.365
 348  49.70081
 349  563.7419
 350  739.2812
 351  1147.471
 352  939.6234
 353  620.4796
 354  503.0201
 355  328.1315
 356  228.8015
 357  485.5052
 358  488.3954
 359  748.1874
 360  642.3231
 361  451.5575
 362  354.3916
 363  303.743
 364  508.2543
 365  443.0569
 366  216.6699
 367  306.1699
 368  561.3289
 369  876.7227
 370  695.4265
 371  484.4745
 372  586.2368
 373  631.7578
 374  595.7222
 375  310.5276
 376  205.8909
 377  468.614
 378  1005.095
 379  737.9011
 380  410.9872
 381  578.633
 382  328.8138
 383  376.5993
 384  285.1504
 385  210.3106
 386  -3.295904
 387  318.9289
 388  239.5644
 389  471.5452
 390  621.6149
 391  634.0029
 392  486.2935
 393  435.79
 394  333.5441
 395  708.0886
 396  406.7118
 397  415.1422
 398  709.0522
 399  570.2363
 400  558.0688
 401  303.1079
 402  317.1174
 403  424.7818
 404  641.5012
 405  612.2699
 406  452.2278
 407  584.8214
 408  554.7024
 409  365.3315
 410  480.8696
 411  584.6903
 412  981.5493
 413  791.6165
 414  801.6196
 415  573.8532
 416  594.3822
 417  778.4387
 418  452.4842
 419  611.0065
 420  756.7974
 421  794.4276
 422  667.4601
 423  468.6739
 424  872.6172
 425  847.4563
 426  642.5103
 427  477.2939
 428  545.3526
 429  948.343
 430  639.5759
 431  600.4105
 432  662.1081
 433  762.4261
 434  839.296
 435  1116.332
 436  861.6268
 437  553.03
 438  131.1933
 439  67.44079
 440  278.6891
 441  489.3924
 442  349.8405
 443  268.4277
 444  422.8054
 445  403.2094
 446  272.6951
 447  191.2798
 448  693.0677
 449  825.2606
 450  332.4803
 451  280.147
 452  285.3312
 453  47.37449
 454  369.3106
 455  582.5778
 456  106.2433
 457  -141.8204
 458  53.39478
 459  413.3098
 460  682.851
 461  619.7829
 462  620.7091
 463  427.8299
 464  425.9507
 465  638.6442
 466  588.2809
 467  482.2236
 468  708.8944
 469  920.2877
 470  483.8491
 471  539.0695
 472  606.1365
 473  489.0544
 474  73.13538
 475  117.8085
 476  131.2456
 477  499.4841
 478  452.8125
 479  591.7831
 480  836.3036
 481  1079.76
 482  1032.409
 483  600.8845
 484  795.3744
 485  749.2937
 486  802.0103
 487  580.7328
 488  242.7942
 489  511.3365
 490  449.5595
 491  710.8415
 492  568.6979
 493  500.8757
 494  505.694
 495  286.199
 496  791.0682
 497  804.7216
 498  750.9153
 499  622.0219
 500  865.0179
 501  738.969
 502  791.6974
 503  541.107
 504  657.6237
 505  620.144
 506  884.7809
 507  726.8477
 508  389.1699
 509  462.0481
 510  332.0809
 511  118.8745
