# Input file       =  1189197207.127362_cleaned.dat
# Candidate        =  PSR_0332+5434
# Telescope        =  AR
# Epoch_topo       =  58007.856783881507
# Epoch_bary       =  N/A
# T_sample         =  0.002
# Data Folded      =  7208960
# Data Avg         =  0.0619089690608565
# Data StdDev      =  3.48863940497307 
# Profile Bins     =  256
# Profile Avg      =  1743.36363735961 
# Profile StdDev   =  585.42654016173  
# Reduced chi-sqr  =  0.784
# Prob(Noise)      <  0.996   (~0.0 sigma)
# P_topo (ms)      =  714.465049339624  +/- 0.000839
# P'_topo (s/s)    =  -0                +/- 4.51e-10
# P''_topo (s/s^2) =  0                 +/- 2.03e-13
# P_bary (ms)      =  N/A
# P'_bary (s/s)    =  N/A
# P''_bary (s/s^2) =  N/A
# P_orb (s)        =  N/A
# asin(i)/c (s)    =  N/A
# eccentricity     =  N/A
# w (rad)          =  N/A
# T_peri           =  N/A
######################################################
   0  1341.204
   1  1086.538
   2  1855.199
   3  1837.237
   4  1734.525
   5  1274.556
   6  1211.289
   7  2100.516
   8  1727.445
   9  1110.98
  10  1585.599
  11  1855.071
  12  1710.479
  13  1192.626
  14  1418.144
  15  1484.918
  16  1328.553
  17  1179.616
  18  1517.737
  19  1522.778
  20  1916.943
  21  1676.87
  22  2231.139
  23  1546.774
  24  1698.491
  25  1767.255
  26  2027.664
  27  1908.554
  28  1678.195
  29  1565.146
  30  1438.406
  31  1460.937
  32  1987.203
  33  1604.72
  34  1605.526
  35  1933.496
  36  1739.923
  37  961.1245
  38  1528.266
  39  1230.276
  40  1496.461
  41  1604.586
  42  1574.219
  43  1506.135
  44  1922.774
  45  1934.289
  46  1719.922
  47  1959.431
  48  1606.297
  49  1487.038
  50  1322.877
  51  1881.801
  52  1533.959
  53  2341.917
  54  1444.39
  55  1733.413
  56  1429.774
  57  1238.61
  58  1617.596
  59  1326.638
  60  1977.919
  61  1255.119
  62  1860.772
  63  1438.253
  64  1698.683
  65  1806.816
  66  1716.202
  67  1317.391
  68  2080.84
  69  1975.684
  70  1634.4
  71  2225.745
  72  1845.32
  73  1862.638
  74  1411.069
  75  2140.193
  76  2368.553
  77  1473.608
  78  1232.421
  79  2098.001
  80  2305.27
  81  1749.952
  82  1518.327
  83  2102.734
  84  2256.93
  85  1581.389
  86  1056.094
  87  1118.397
  88  1844.928
  89  1601.486
  90  1578.359
  91  1652.679
  92  1711.253
  93  2265.995
  94  1520.044
  95  2120.946
  96  1837.065
  97  1743.777
  98  2050
  99  1640.278
 100  2323.505
 101  2112.46
 102  1525.453
 103  2057.906
 104  2023.236
 105  1957.086
 106  1880.105
 107  2413.616
 108  1821.137
 109  1602.564
 110  2084.313
 111  1764.941
 112  1168.043
 113  1575.512
 114  2520.23
 115  2081.41
 116  1535.277
 117  1275.22
 118  1151.852
 119  1688.579
 120  1452.283
 121  1651.554
 122  1649.395
 123  1567.902
 124  1310.158
 125  1710.323
 126  2025.733
 127  1421.012
 128  1529.522
 129  1157.214
 130  2005.694
 131  1940.7
 132  1496.674
 133  2148.608
 134  2079.765
 135  1707.529
 136  1182.387
 137  1910.924
 138  2107.291
 139  1717.551
 140  1726.547
 141  1581.049
 142  2193.116
 143  2139.985
 144  1530.516
 145  1201.835
 146  2073.316
 147  2060.228
 148  1625.172
 149  1405.82
 150  1917.461
 151  2148.129
 152  2081.339
 153  1757.672
 154  1837.302
 155  1659.262
 156  1955.074
 157  1197.699
 158  2310.253
 159  3498.372
 160  4737.506
 161  4712.395
 162  3087.191
 163  2137.039
 164  2116.454
 165  1491.358
 166  2327.506
 167  2442.955
 168  2049.806
 169  1802.261
 170  1649.81
 171  1961.004
 172  1424.1
 173  2026.638
 174  2187.252
 175  1764.167
 176  1266.801
 177  1623.588
 178  1679.631
 179  1691.556
 180  1873.575
 181  1692.223
 182  1643.257
 183  1916.333
 184  1829.966
 185  2045.056
 186  1983.263
 187  2070.976
 188  1901.28
 189  2025.54
 190  1071.332
 191  1806.574
 192  1352.879
 193  1613.7
 194  1534.216
 195  928.7644
 196  1580.666
 197  1908.823
 198  1843.236
 199  1583.338
 200  1895.643
 201  1262.684
 202  1465.267
 203  1473.629
 204  1564.325
 205  1492.888
 206  1744.115
 207  2067.803
 208  1992.627
 209  1448.88
 210  1930.294
 211  1883.639
 212  1733.098
 213  1881.339
 214  1555.114
 215  1926.553
 216  1592.968
 217  2104.45
 218  1879.453
 219  1834.853
 220  1278.271
 221  1770.994
 222  1859.532
 223  817.3599
 224  1202.286
 225  2211.798
 226  1404.545
 227  1600.879
 228  1903.626
 229  1339.352
 230  1729.668
 231  1957.986
 232  1260.452
 233  1443.71
 234  1383.142
 235  1912.627
 236  2335.339
 237  1510.45
 238  1089.172
 239  1488.09
 240  1362.112
 241  1726.074
 242  1027.971
 243  1081.903
 244  1417.234
 245  1748.637
 246  1488.664
 247  1150.021
 248  1985.938
 249  1296.178
 250  2283.066
 251  2021.393
 252  2053.302
 253  1299.048
 254  1959.663
 255  2612.578
