# Input file       =  1189312948.110782_cleaned.dat
# Candidate        =  PSR_0332+5434
# Telescope        =  AR
# Epoch_topo       =  58009.196378597015
# Epoch_bary       =  N/A
# T_sample         =  0.002
# Data Folded      =  7340032
# Data Avg         =  0.0289055477156321
# Data StdDev      =  3.22897582316692 
# Profile Bins     =  512
# Profile Avg      =  414.516593292185 
# Profile StdDev   =  386.615079694944 
# Reduced chi-sqr  =  1.397
# Prob(Noise)      <  6.93e-09   (~5.7 sigma)
# P_topo (ms)      =  714.465725916905  +/- 0.000144
# P'_topo (s/s)    =  -0                +/- 7.61e-11
# P''_topo (s/s^2) =  0                 +/- 3.36e-14
# P_bary (ms)      =  N/A
# P'_bary (s/s)    =  N/A
# P''_bary (s/s^2) =  N/A
# P_orb (s)        =  N/A
# asin(i)/c (s)    =  N/A
# eccentricity     =  N/A
# w (rad)          =  N/A
# T_peri           =  N/A
######################################################
   0  583.3049
   1  481.9187
   2  253.0641
   3  310.0871
   4  297.5391
   5  -40.67455
   6  53.93058
   7  216.786
   8  373.5375
   9  110.7927
  10  44.44475
  11  253.8738
  12  3.870605
  13  -85.20832
  14  435.1972
  15  449.4753
  16  502.8715
  17  650.1929
  18  647.2318
  19  176.5936
  20  -130.6814
  21  15.91123
  22  478.9516
  23  699.3713
  24  423.3686
  25  479.1203
  26  344.1715
  27  221.143
  28  -10.05824
  29  290.9485
  30  259.2499
  31  717.0031
  32  1111.96
  33  661.8196
  34  391.4263
  35  256.0343
  36  244.4755
  37  442.4698
  38  673.5783
  39  515.6586
  40  376.3569
  41  -131.3486
  42  -67.0726
  43  286.5326
  44  -109.3841
  45  290.9617
  46  697.4222
  47  401.8582
  48  271.7699
  49  342.029
  50  545.1978
  51  600.9413
  52  152.7109
  53  338.7846
  54  483.423
  55  481.1724
  56  288.2073
  57  760.1982
  58  603.6599
  59  615.955
  60  232.3927
  61  54.1615
  62  -70.77343
  63  109.6103
  64  700.2496
  65  516.2925
  66  549.8252
  67  511.7736
  68  388.0126
  69  520.107
  70  624.3126
  71  470.8996
  72  210.0841
  73  213.3044
  74  676.7363
  75  206.388
  76  109.7292
  77  270.2878
  78  489.5604
  79  309.0832
  80  583.1779
  81  351.2201
  82  363.5715
  83  549.4378
  84  449.0143
  85  248.6788
  86  239.2709
  87  252.4208
  88  186.4993
  89  534.0582
  90  726.737
  91  874.8271
  92  678.187
  93  429.0619
  94  177.6552
  95  408.2595
  96  162.2144
  97  273.4158
  98  205.5699
  99  0.271882
 100  375.492
 101  668.5762
 102  610.9952
 103  618.6594
 104  401.1721
 105  301.6785
 106  448.7017
 107  628.041
 108  222.5244
 109  424.7765
 110  710.3322
 111  763.2001
 112  279.2082
 113  212.2402
 114  362.5082
 115  628.5464
 116  368.1574
 117  532.3265
 118  502.9068
 119  518.5948
 120  140.1971
 121  256.3729
 122  236.542
 123  340.2048
 124  702.5989
 125  459.2228
 126  49.32042
 127  190.8168
 128  426.2713
 129  581.0609
 130  454.5634
 131  69.56423
 132  128.9448
 133  441.9615
 134  481.5171
 135  426.5056
 136  599.1294
 137  562.636
 138  624.5219
 139  776.3193
 140  792.8951
 141  355.4413
 142  264.7937
 143  46.30286
 144  -115.2319
 145  395.3292
 146  726.7086
 147  513.7881
 148  670.6154
 149  280.1406
 150  472.856
 151  449.9556
 152  116.9829
 153  -180.5728
 154  348.026
 155  827.8148
 156  426.0619
 157  196.2596
 158  -26.03362
 159  501.1178
 160  943.181
 161  595.5457
 162  416.1759
 163  154.8071
 164  757.1513
 165  633.5472
 166  192.3881
 167  283.0211
 168  305.4174
 169  -67.83149
 170  -83.64211
 171  415.5438
 172  357.4884
 173  217.3678
 174  955.9565
 175  996.6
 176  199.5678
 177  1.314934
 178  383.2308
 179  555.5531
 180  96.63768
 181  162.65
 182  624.4949
 183  607.5991
 184  569.9367
 185  587.1522
 186  1006.511
 187  599.4561
 188  488.066
 189  245.4715
 190  572.7967
 191  653.0156
 192  687.6794
 193  506.9879
 194  233.0894
 195  35.20365
 196  203.4176
 197  765.0804
 198  578.6913
 199  302.5196
 200  308.9158
 201  1178.971
 202  711.9558
 203  272.8973
 204  708.739
 205  576.0602
 206  477.2535
 207  608.9423
 208  338.538
 209  436.4387
 210  0.3105602
 211  575.247
 212  836.2358
 213  459.3882
 214  409.18
 215  278.0698
 216  909.2106
 217  1034.982
 218  438.4911
 219  576.7841
 220  257.043
 221  -49.92606
 222  -606.009
 223  141.8738
 224  499.2199
 225  286.6124
 226  404.7868
 227  246.7368
 228  151.2521
 229  745.8889
 230  664.3712
 231  765.0796
 232  900.0776
 233  779.2974
 234  285.8926
 235  337.2452
 236  515.0869
 237  159.8094
 238  35.10966
 239  729.9382
 240  745.2101
 241  615.2601
 242  -90.08936
 243  85.16943
 244  423.917
 245  127.9773
 246  255.9992
 247  -64.94038
 248  169.0751
 249  703.3464
 250  766.019
 251  1010.545
 252  65.89941
 253  -24.11412
 254  747.4679
 255  836.1822
 256  399.9173
 257  501.6023
 258  78.63197
 259  354.6032
 260  453.9409
 261  360.7038
 262  14.53622
 263  132.6287
 264  228.5697
 265  402.119
 266  311.4797
 267  482.6852
 268  830.3583
 269  552.8827
 270  591.0069
 271  522.6691
 272  16.77832
 273  526.3858
 274  654.9331
 275  941.4279
 276  801.1775
 277  588.5554
 278  483.9899
 279  596.0144
 280  457.9383
 281  311.1826
 282  343.2675
 283  663.612
 284  455.5187
 285  -143.0067
 286  -47.20545
 287  157.5485
 288  557.7188
 289  656.2002
 290  835.7899
 291  469.0526
 292  266.0436
 293  592.548
 294  65.25043
 295  452.8452
 296  871.9572
 297  854.4599
 298  174.2973
 299  319.7172
 300  446.6017
 301  45.83781
 302  286.9498
 303  376.9136
 304  251.2172
 305  121.164
 306  85.57196
 307  115.812
 308  100.1932
 309  87.64301
 310  -84.49105
 311  140.0437
 312  411.4128
 313  630.0932
 314  592.0634
 315  512.1512
 316  73.30366
 317  419.6935
 318  495.4034
 319  457.8129
 320  621.479
 321  250.8903
 322  198.8929
 323  503.8388
 324  152.531
 325  401.5481
 326  99.11655
 327  186.237
 328  47.75614
 329  307.9645
 330  597.3297
 331  860.3569
 332  637.5093
 333  409.8582
 334  291.5334
 335  313.8046
 336  359.0389
 337  700.5029
 338  512.1605
 339  639.8386
 340  613.4424
 341  661.5823
 342  887.6911
 343  680.894
 344  448.0643
 345  444.7586
 346  537.1617
 347  305.1656
 348  194.5297
 349  -50.1931
 350  219.9698
 351  514.9099
 352  632.4886
 353  410.3798
 354  495.6821
 355  449.3962
 356  485.1678
 357  364.5001
 358  334.6368
 359  443.9161
 360  582.3588
 361  752.4197
 362  195.3661
 363  -208.3557
 364  -149.2875
 365  -42.04419
 366  281.8777
 367  796.483
 368  425.5813
 369  576.7291
 370  416.7546
 371  67.74741
 372  -114.9108
 373  -7.52298
 374  -373.9141
 375  -519.0274
 376  -297.5108
 377  -16.68844
 378  -294.7627
 379  -48.85147
 380  -118.3788
 381  199.7949
 382  446.7796
 383  683.5137
 384  340.8946
 385  339.5898
 386  78.67088
 387  250.7703
 388  396.1831
 389  401.3493
 390  212.1974
 391  -42.53823
 392  -112.4197
 393  304.8752
 394  669.4723
 395  544.5553
 396  648.181
 397  717.1789
 398  319.273
 399  378.6716
 400  204.1479
 401  105.9843
 402  300.1381
 403  59.98947
 404  38.99812
 405  654.8046
 406  430.668
 407  295.3296
 408  423.8314
 409  498.8871
 410  411.8466
 411  532.3398
 412  388.8332
 413  333.9304
 414  -67.45043
 415  -105.6573
 416  268.9559
 417  1.569929
 418  262.2034
 419  822.738
 420  460.4753
 421  199.0173
 422  345.1319
 423  602.4061
 424  308.0173
 425  264.4108
 426  461.0299
 427  361.6587
 428  215.5769
 429  302.1432
 430  70.58163
 431  425.0138
 432  829.2744
 433  658.5811
 434  799.0154
 435  798.7919
 436  338.3316
 437  313.6153
 438  683.41
 439  172.2251
 440  -22.97477
 441  351.5759
 442  712.7429
 443  713.2722
 444  350.2141
 445  -109.3575
 446  3.747709
 447  541.4261
 448  728.2648
 449  351.9203
 450  40.86966
 451  31.58903
 452  412.8777
 453  615.2721
 454  335.3463
 455  1056.311
 456  997.6179
 457  906.9958
 458  613.2266
 459  -121.6353
 460  -90.064
 461  386.0491
 462  565.5098
 463  262.4451
 464  468.4737
 465  1005.899
 466  770.045
 467  661.2251
 468  571.2484
 469  724.6675
 470  765.3726
 471  1196.506
 472  2072.109
 473  2365.461
 474  2019.949
 475  2094.88
 476  1771.516
 477  1291.55
 478  805.7081
 479  466.4321
 480  566.1944
 481  112.3437
 482  402.3748
 483  588.0659
 484  740.8347
 485  659.2271
 486  347.64
 487  535.3022
 488  984.3632
 489  1338.322
 490  1252.263
 491  997.4413
 492  309.477
 493  172.0079
 494  -67.69553
 495  181.271
 496  328.6829
 497  152.7988
 498  823.446
 499  962.7347
 500  662.301
 501  441.0768
 502  305.6584
 503  326.4568
 504  555.6371
 505  805.0186
 506  238.8427
 507  26.23558
 508  -65.17144
 509  390.0425
 510  82.56276
 511  458.9132
