# Input file       =  1189728850.110648_cleaned.dat
# Candidate        =  PSR_0332+5434
# Telescope        =  AR
# Epoch_topo       =  58014.010059151020
# Epoch_bary       =  N/A
# T_sample         =  0.002
# Data Folded      =  7340032
# Data Avg         =  0.0323925381536745
# Data StdDev      =  2.62137749136137 
# Profile Bins     =  512
# Profile Avg      =  464.507809634504 
# Profile StdDev   =  313.865486530407 
# Reduced chi-sqr  =  1.230
# Prob(Noise)      <  0.000278   (~3.5 sigma)
# P_topo (ms)      =  714.466818947104  +/- 0.000119
# P'_topo (s/s)    =  -0                +/- 6.28e-11
# P''_topo (s/s^2) =  0                 +/- 2.77e-14
# P_bary (ms)      =  N/A
# P'_bary (s/s)    =  N/A
# P''_bary (s/s^2) =  N/A
# P_orb (s)        =  N/A
# asin(i)/c (s)    =  N/A
# eccentricity     =  N/A
# w (rad)          =  N/A
# T_peri           =  N/A
######################################################
   0  472.0584
   1  570.8151
   2  581.4037
   3  416.501
   4  604.3635
   5  483.6596
   6  300.0867
   7  551.1418
   8  973.1048
   9  622.3041
  10  300.1071
  11  347.6091
  12  144.7332
  13  150.4564
  14  734.7281
  15  498.1756
  16  136.1946
  17  445.8023
  18  443.5029
  19  331.0919
  20  431.2663
  21  345.1548
  22  239.4641
  23  410.1787
  24  478.3078
  25  566.8082
  26  516.0001
  27  89.74202
  28  177.676
  29  346.1021
  30  633.0073
  31  479.9342
  32  338.3501
  33  641.3934
  34  493.6291
  35  366.1371
  36  575.0859
  37  619.2311
  38  263.9561
  39  596.4352
  40  603.4775
  41  467.5135
  42  532.3122
  43  643.5955
  44  603.0955
  45  393.1451
  46  619.4803
  47  883.6342
  48  446.5277
  49  240.476
  50  605.4474
  51  774.7137
  52  832.6702
  53  538.6667
  54  192.0953
  55  303.304
  56  328.0226
  57  308.1914
  58  143.168
  59  434.3486
  60  266.4644
  61  364.8411
  62  321.868
  63  588.178
  64  443.2316
  65  354.3912
  66  389.8937
  67  365.3326
  68  638.5262
  69  395.744
  70  921.5495
  71  724.3567
  72  256.5272
  73  157.93
  74  -0.1718827
  75  717.4183
  76  438.7887
  77  770.9703
  78  663.1381
  79  435.1469
  80  480.0378
  81  329.7389
  82  333.5984
  83  560.3142
  84  345.3914
  85  482.7113
  86  676.197
  87  493.6254
  88  72.41289
  89  113.6
  90  524.2185
  91  825.3791
  92  68.30247
  93  157.4351
  94  607.8848
  95  679.1487
  96  602.6619
  97  937.3236
  98  578.3874
  99  520.3912
 100  521.5413
 101  504.1925
 102  455.8651
 103  484.5572
 104  631.4185
 105  410.3998
 106  576.8418
 107  700.4136
 108  575.5604
 109  536.7306
 110  413.8869
 111  489.6255
 112  424.4719
 113  354.9387
 114  475.9462
 115  510.6098
 116  335.3701
 117  368.2411
 118  663.8886
 119  409.8703
 120  316.3746
 121  233.6478
 122  594.7742
 123  234.4804
 124  279.7654
 125  399.4871
 126  492.5174
 127  399.4069
 128  448.636
 129  499.1295
 130  466.6949
 131  225.0948
 132  74.5144
 133  665.2221
 134  906.847
 135  503.9567
 136  141.7239
 137  265.86
 138  537.813
 139  527.2558
 140  421.1393
 141  530.6388
 142  823.9051
 143  634.0328
 144  429.8318
 145  303.0216
 146  450.0356
 147  482.6385
 148  513.1287
 149  267.2222
 150  683.0203
 151  654.2674
 152  280.2334
 153  26.03533
 154  -8.389248
 155  -9.571881
 156  42.1014
 157  307.5561
 158  470.2484
 159  188.6589
 160  373.3241
 161  387.4268
 162  570.1176
 163  688.2735
 164  707.1177
 165  789.3155
 166  707.3303
 167  728.5593
 168  250.5888
 169  456.4344
 170  521.2429
 171  205.2316
 172  395.4133
 173  242.0434
 174  254.8859
 175  583.0591
 176  490.5843
 177  537.4195
 178  422.429
 179  243.9494
 180  420.1819
 181  432.6705
 182  649.4177
 183  783.3734
 184  389.8239
 185  732.6154
 186  574.0352
 187  319.9183
 188  419.4289
 189  188.416
 190  475.1454
 191  596.6298
 192  844.5304
 193  317.3013
 194  590.7396
 195  561.9992
 196  495.7881
 197  350.2032
 198  577.8568
 199  700.3574
 200  392.4703
 201  556.0079
 202  375.3879
 203  314.5065
 204  232.0296
 205  526.5964
 206  1005.253
 207  519.2564
 208  -10.64362
 209  267.6323
 210  306.7317
 211  170.1433
 212  304.8846
 213  300.5955
 214  23.80805
 215  354.5337
 216  366.8615
 217  437.2108
 218  456.1696
 219  951.4445
 220  743.3027
 221  634.2263
 222  402.4835
 223  331.034
 224  381.6801
 225  53.3649
 226  278.6562
 227  293.7267
 228  404.575
 229  525.9734
 230  628.4493
 231  751.6727
 232  66.61797
 233  321.2652
 234  509.0422
 235  341.3033
 236  151.5277
 237  101.7226
 238  237.3522
 239  423.3056
 240  463.738
 241  385.2811
 242  219.08
 243  38.24391
 244  335.2037
 245  833.4366
 246  451.3527
 247  600.8862
 248  317.4963
 249  380.5146
 250  344.991
 251  776.1437
 252  946.9957
 253  462.2954
 254  254.8961
 255  467.5785
 256  586.4324
 257  -54.36662
 258  -32.15596
 259  181.0375
 260  566.6406
 261  416.5619
 262  350.7211
 263  791.5001
 264  716.1069
 265  402.3119
 266  -23.62729
 267  150.1667
 268  328.5396
 269  143.2585
 270  310.1752
 271  630.2946
 272  908.9482
 273  625.1862
 274  402.9049
 275  369.5045
 276  230.5464
 277  190.6178
 278  426.2376
 279  464.8257
 280  638.4382
 281  537.6574
 282  166.2896
 283  220.8909
 284  547.1138
 285  141.5222
 286  532.3497
 287  684.0135
 288  696.2914
 289  451.3379
 290  679.483
 291  541.3287
 292  241.9653
 293  609.811
 294  136.4476
 295  563.1556
 296  745.2361
 297  160.9006
 298  381.8838
 299  275.8552
 300  207.4006
 301  364.1666
 302  454.3463
 303  606.8241
 304  504.2584
 305  828.2503
 306  446.4764
 307  423.5282
 308  469.6996
 309  104.4613
 310  115.4596
 311  510.2905
 312  915.0522
 313  396.1782
 314  389.3366
 315  1061.246
 316  986.2902
 317  895.2827
 318  1076.274
 319  1474.572
 320  2046.601
 321  1924.673
 322  1897.695
 323  1654.844
 324  1236.291
 325  730.2101
 326  872.9173
 327  723.6502
 328  347.4205
 329  459.7367
 330  462.0607
 331  478.2879
 332  524.7744
 333  562.0586
 334  312.1992
 335  326.1144
 336  528.52
 337  382.5382
 338  458.2098
 339  758.1158
 340  502.8518
 341  292.8896
 342  436.7071
 343  900.5961
 344  567.6086
 345  621.1014
 346  338.4691
 347  -41.11813
 348  187.7073
 349  384.7805
 350  484.3972
 351  383.4299
 352  621.6246
 353  628.9086
 354  439.2809
 355  353.0667
 356  439.9315
 357  449.9219
 358  323.7912
 359  485.8764
 360  741.9281
 361  608.1096
 362  297.375
 363  196.0645
 364  311.7557
 365  366.3924
 366  476.1786
 367  588.4267
 368  605.9448
 369  410.1689
 370  442.1314
 371  315.568
 372  577.7536
 373  672.17
 374  820.5065
 375  595.9055
 376  127.9719
 377  539.4255
 378  415.2502
 379  463.3695
 380  638.0045
 381  473.8517
 382  402.9866
 383  645.8283
 384  629.0256
 385  243.7866
 386  50.59634
 387  431.4109
 388  289.6718
 389  497.9547
 390  408.9546
 391  -23.14048
 392  99.79613
 393  317.9569
 394  259.1491
 395  71.61276
 396  102.6595
 397  369.2681
 398  348.3378
 399  496.623
 400  628.9589
 401  648.3684
 402  792.09
 403  439.5623
 404  217.5354
 405  752.9995
 406  343.0484
 407  662.7978
 408  571.7169
 409  699.6771
 410  708.6264
 411  400.1369
 412  150.444
 413  374.7437
 414  490.4229
 415  813.1895
 416  474.4626
 417  438.9751
 418  547.2219
 419  303.1218
 420  307.4229
 421  589.8019
 422  671.1299
 423  699.8636
 424  689.3475
 425  711.0189
 426  793.5001
 427  481.831
 428  250.1657
 429  277.6859
 430  348.6858
 431  415.8627
 432  997.8152
 433  860.2332
 434  829.0479
 435  469.0396
 436  350.0929
 437  672.4562
 438  493.3402
 439  58.83651
 440  160.7204
 441  341.6167
 442  552.3446
 443  655.2822
 444  556.9314
 445  536.458
 446  707.9247
 447  135.9087
 448  227.659
 449  317.7962
 450  423.4763
 451  419.7743
 452  499.3195
 453  827.7767
 454  537.8193
 455  96.35135
 456  261.5174
 457  331.6185
 458  532.845
 459  494.1313
 460  289.1656
 461  360.9176
 462  357.6617
 463  323.7972
 464  312.7686
 465  563.8369
 466  541.1754
 467  523.9658
 468  160.5544
 469  74.18472
 470  448.3666
 471  338.0099
 472  492.2123
 473  650.207
 474  409.9451
 475  199.4905
 476  99.85748
 477  516.9626
 478  677.6389
 479  475.6394
 480  146.815
 481  255.9236
 482  584.468
 483  388.4461
 484  175.2328
 485  -124.1466
 486  404.0416
 487  452.2061
 488  441.3726
 489  197.284
 490  343.4854
 491  789.4854
 492  742.6789
 493  463.6846
 494  593.5483
 495  584.6851
 496  706.3116
 497  709.4525
 498  414.0444
 499  67.00592
 500  -69.705
 501  375.9848
 502  515.5629
 503  618.8328
 504  511.2326
 505  410.2963
 506  385.8066
 507  533.7047
 508  575.9698
 509  249.3281
 510  452.8582
 511  548.7224
