# Input file       =  1189455760.115726_cleaned.dat
# Candidate        =  PSR_0332+5434
# Telescope        =  AR
# Epoch_topo       =  58010.849295320906
# Epoch_bary       =  N/A
# T_sample         =  0.002
# Data Folded      =  7208960
# Data Avg         =  0.00745839390753597
# Data StdDev      =  0.999983889478101
# Profile Bins     =  512
# Profile Avg      =  104.977809241896 
# Profile StdDev   =  118.65726413228  
# Reduced chi-sqr  =  1.663
# Prob(Noise)      <  2.77e-19   (~8.9 sigma)
# P_topo (ms)      =  714.465819988572  +/- 0.000224
# P'_topo (s/s)    =  -0                +/- 1.2e-10
# P''_topo (s/s^2) =  0                 +/- 5.41e-14
# P_bary (ms)      =  N/A
# P'_bary (s/s)    =  N/A
# P''_bary (s/s^2) =  N/A
# P_orb (s)        =  N/A
# asin(i)/c (s)    =  N/A
# eccentricity     =  N/A
# w (rad)          =  N/A
# T_peri           =  N/A
######################################################
   0  935.1932
   1  823.1541
   2  608.5389
   3  275.5184
   4  146.3891
   5  79.3795
   6  156.1203
   7  236.2305
   8  124.182
   9  214.1643
  10  203.2112
  11  160.2136
  12  204.9118
  13  345.1129
  14  173.1861
  15  89.10055
  16  185.7788
  17  199.3691
  18  40.33461
  19  -22.49035
  20  70.55765
  21  2.917821
  22  -13.96917
  23  72.20015
  24  94.04907
  25  41.21975
  26  137.3998
  27  85.49094
  28  36.38636
  29  91.90923
  30  81.9263
  31  56.44007
  32  114.2917
  33  93.72909
  34  -50.45645
  35  -72.28989
  36  35.56997
  37  27.37106
  38  18.44993
  39  34.71735
  40  107.2114
  41  122.63
  42  123.0369
  43  130.5514
  44  177.8597
  45  168.1131
  46  167.7537
  47  64.61976
  48  59.0229
  49  -10.39876
  50  100.7309
  51  117.6945
  52  61.09129
  53  -20.87726
  54  108.7976
  55  -43.86942
  56  -55.43037
  57  112.4856
  58  162.9742
  59  238.6635
  60  220.5835
  61  66.57405
  62  148.5829
  63  101.4939
  64  192.3021
  65  70.94681
  66  -49.08388
  67  -23.50217
  68  60.46758
  69  148.0504
  70  58.31984
  71  -38.2567
  72  -33.9425
  73  50.71594
  74  138.7446
  75  87.14053
  76  97.5736
  77  152.9664
  78  74.03609
  79  153.1037
  80  124.0887
  81  130.9281
  82  66.9585
  83  182.4894
  84  87.81751
  85  105.9149
  86  91.63174
  87  70.32085
  88  43.35545
  89  122.6128
  90  205.0627
  91  162.3872
  92  225.2821
  93  176.6882
  94  32.98217
  95  -27.90759
  96  -7.915723
  97  63.02868
  98  82.18369
  99  220.8175
 100  114.2864
 101  47.81803
 102  69.8996
 103  141.7529
 104  73.48559
 105  72.28925
 106  198.403
 107  103.8024
 108  21.39892
 109  127.0659
 110  86.65568
 111  -43.44602
 112  -22.11496
 113  137.5886
 114  98.14166
 115  -92.8594
 116  -62.07549
 117  110.3495
 118  131.9539
 119  97.46236
 120  -9.244081
 121  -25.08161
 122  8.906967
 123  -28.61722
 124  12.40212
 125  162.3045
 126  179.4118
 127  15.5071
 128  142.3173
 129  111.0242
 130  29.44877
 131  37.61502
 132  74.78392
 133  74.6237
 134  29.50195
 135  -14.68743
 136  77.44754
 137  19.95775
 138  8.103701
 139  45.79306
 140  87.5463
 141  62.90536
 142  -25.01637
 143  49.77737
 144  43.0736
 145  -8.424315
 146  185.915
 147  270.7585
 148  207.5482
 149  178.5581
 150  149.3345
 151  46.18999
 152  -37.32862
 153  65.08
 154  69.37043
 155  105.6682
 156  139.0539
 157  52.782
 158  102.2948
 159  131.3476
 160  56.39502
 161  32.9954
 162  129.9509
 163  47.83015
 164  8.129726
 165  -59.41437
 166  31.4476
 167  84.62222
 168  215.4964
 169  129.94
 170  101.7213
 171  54.04625
 172  59.64219
 173  172.6095
 174  56.81112
 175  170.5804
 176  196.5109
 177  104.5996
 178  -26.28136
 179  -0.005569939
 180  47.85917
 181  80.77338
 182  102.7299
 183  143.0743
 184  163.3308
 185  2.148029
 186  90.814
 187  151.6831
 188  206.4324
 189  136.0635
 190  213.4734
 191  248.0551
 192  91.21377
 193  92.582
 194  145.9357
 195  123.2701
 196  346.8088
 197  295.3016
 198  278.7229
 199  123.5398
 200  19.53083
 201  92.91566
 202  52.01026
 203  -34.29102
 204  -7.429655
 205  84.842
 206  135.324
 207  83.76044
 208  43.65916
 209  8.291504
 210  38.66411
 211  105.1168
 212  197.979
 213  118.6608
 214  247.1481
 215  215.0267
 216  219.3302
 217  173.8861
 218  218.3845
 219  182.7159
 220  136.0759
 221  140.5536
 222  120.1566
 223  223.712
 224  214.8092
 225  116.8809
 226  78.93849
 227  8.047844
 228  96.45988
 229  195.8631
 230  198.6559
 231  155.795
 232  24.79279
 233  2.697699
 234  93.14597
 235  159.1395
 236  36.49574
 237  124.1334
 238  112.3481
 239  85.86659
 240  61.92992
 241  -12.69766
 242  -16.60702
 243  23.52326
 244  122.522
 245  62.41698
 246  53.22683
 247  80.38624
 248  56.45506
 249  50.31366
 250  92.21338
 251  6.210132
 252  6.303391
 253  14.13656
 254  24.99005
 255  148.7094
 256  205.0811
 257  206.5055
 258  167.5282
 259  224.4932
 260  256.2412
 261  184.3837
 262  199.3156
 263  164.418
 264  297.0037
 265  183.0765
 266  6.760502
 267  -29.5041
 268  -80.66046
 269  1.218199
 270  -24.98843
 271  109.3248
 272  109.374
 273  26.73024
 274  29.68405
 275  -66.58755
 276  40.42868
 277  56.14627
 278  131.908
 279  174.199
 280  81.24446
 281  20.64818
 282  29.55472
 283  100.8621
 284  145.0776
 285  197.7251
 286  221.942
 287  149.0719
 288  155.1981
 289  61.58761
 290  65.91226
 291  2.657134
 292  116.0657
 293  119.1328
 294  39.52847
 295  67.86363
 296  82.72527
 297  18.31641
 298  -54.58537
 299  76.89939
 300  189.9828
 301  207.3573
 302  127.8854
 303  -25.19252
 304  -2.161696
 305  65.34753
 306  139.2089
 307  138.3512
 308  20.14706
 309  94.87868
 310  203.8524
 311  8.253493
 312  57.38672
 313  91.53812
 314  56.29018
 315  132.4173
 316  205.0189
 317  247.1808
 318  195.823
 319  159.89
 320  137.2016
 321  248.3336
 322  174.517
 323  62.74207
 324  -7.606452
 325  35.17839
 326  102.1078
 327  83.77768
 328  22.15566
 329  29.46202
 330  11.69013
 331  92.72597
 332  94.75196
 333  115.1156
 334  62.44593
 335  67.94007
 336  106.572
 337  199.2868
 338  96.22806
 339  77.55976
 340  88.3712
 341  159.0976
 342  112.8337
 343  27.46891
 344  39.55215
 345  124.2887
 346  186.0435
 347  132.5456
 348  19.32196
 349  12.16818
 350  29.31184
 351  47.48201
 352  224.7586
 353  145.6612
 354  110.1091
 355  231.8533
 356  136.0955
 357  -44.72433
 358  48.64354
 359  77.70514
 360  51.15805
 361  -19.4712
 362  66.72945
 363  13.63453
 364  103.0852
 365  159.2521
 366  156.8622
 367  111.6322
 368  69.85846
 369  209.539
 370  108.1803
 371  56.1347
 372  78.47676
 373  -39.48765
 374  74.32106
 375  171.8217
 376  110.58
 377  40.53534
 378  99.38733
 379  98.7976
 380  -2.065148
 381  -59.13671
 382  129.8291
 383  121.5185
 384  111.0445
 385  129.6116
 386  68.34882
 387  44.18847
 388  64.35791
 389  147.4837
 390  227.481
 391  302.9195
 392  151.3635
 393  112.7005
 394  90.38885
 395  25.47697
 396  39.92989
 397  126.9867
 398  267.8828
 399  152.6937
 400  -29.88329
 401  22.61066
 402  130.2059
 403  116.5308
 404  89.53522
 405  125.4478
 406  277.3142
 407  168.476
 408  97.08997
 409  55.53989
 410  68.4007
 411  -53.67268
 412  -60.40655
 413  119.9053
 414  102.1063
 415  131.3358
 416  135.4272
 417  67.47653
 418  71.72218
 419  200.6708
 420  147.8288
 421  119.6527
 422  208.8417
 423  202.0142
 424  199.7917
 425  287.0705
 426  137.296
 427  65.3336
 428  105.2964
 429  -61.44662
 430  -26.52926
 431  -55.57658
 432  98.72279
 433  99.72086
 434  161.5691
 435  154.5938
 436  168.5241
 437  168.664
 438  -21.31688
 439  -39.0928
 440  69.36201
 441  159.8704
 442  191.3759
 443  195.235
 444  203.12
 445  131.1871
 446  39.44105
 447  130.6341
 448  139.7835
 449  112.1268
 450  67.84986
 451  14.56126
 452  1.271418
 453  175.4918
 454  220.7191
 455  119.6057
 456  5.90413
 457  28.54142
 458  58.4114
 459  63.45046
 460  127.9219
 461  228.3166
 462  164.0755
 463  105.8439
 464  1.16207
 465  4.135646
 466  89.48715
 467  71.4759
 468  79.26985
 469  53.43641
 470  -10.42731
 471  141.5548
 472  107.1617
 473  37.71576
 474  51.7351
 475  39.66099
 476  17.76207
 477  -125.3903
 478  49.05016
 479  78.45554
 480  5.137218
 481  80.33547
 482  24.32493
 483  76.27419
 484  54.24734
 485  104.1531
 486  203.9652
 487  157.2711
 488  48.98857
 489  121.8853
 490  45.2302
 491  -111.2489
 492  27.1825
 493  195.2019
 494  186.4261
 495  57.52983
 496  34.51093
 497  165.4935
 498  203.1092
 499  155.4875
 500  114.3199
 501  81.06557
 502  126.3246
 503  190.1569
 504  57.75362
 505  138.5064
 506  310.6611
 507  424.0512
 508  399.9363
 509  617.9102
 510  817.7258
 511  910.728
