# Input file       =  1189916087.11515_cleaned.dat
# Candidate        =  PSR_0332+5434
# Telescope        =  AR
# Epoch_topo       =  58016.177154110534
# Epoch_bary       =  N/A
# T_sample         =  0.002
# Data Folded      =  7340032
# Data Avg         =  0.025014488814382
# Data StdDev      =  3.0090997999518  
# Profile Bins     =  512
# Profile Avg      =  358.563064231132 
# Profile StdDev   =  360.288655808948 
# Reduced chi-sqr  =  1.090
# Prob(Noise)      <  0.0771   (~1.4 sigma)
# P_topo (ms)      =  714.46792921071   +/- 0.00018
# P'_topo (s/s)    =  -0                +/- 9.51e-11
# P''_topo (s/s^2) =  0                 +/- 4.2e-14
# P_bary (ms)      =  N/A
# P'_bary (s/s)    =  N/A
# P''_bary (s/s^2) =  N/A
# P_orb (s)        =  N/A
# asin(i)/c (s)    =  N/A
# eccentricity     =  N/A
# w (rad)          =  N/A
# T_peri           =  N/A
######################################################
   0  321.5438
   1  8.876801
   2  -238.9021
   3  151.8387
   4  412.1712
   5  349.8943
   6  197.6295
   7  125.3948
   8  505.9565
   9  317.4465
  10  390.9048
  11  443.5968
  12  444.4141
  13  410.1163
  14  564.0083
  15  715.1349
  16  641.7158
  17  199.1141
  18  504.5491
  19  549.224
  20  357.9235
  21  295.303
  22  223.0421
  23  391.8997
  24  305.9659
  25  493.9208
  26  318.1316
  27  381.4738
  28  374.7369
  29  277.7254
  30  193.892
  31  153.3109
  32  402.7721
  33  274.9289
  34  183.4542
  35  410.5605
  36  288.4041
  37  92.67216
  38  337.3048
  39  207.7548
  40  484.9214
  41  421.9609
  42  512.0774
  43  627.1608
  44  -65.07229
  45  105.615
  46  330.2424
  47  -4.879778
  48  32.26073
  49  101.3846
  50  214.4823
  51  177.1195
  52  468.916
  53  306.1147
  54  347.0347
  55  342.5922
  56  277.6421
  57  -76.46902
  58  147.2312
  59  191.8189
  60  319.9995
  61  520.7205
  62  432.1667
  63  405.4621
  64  294.4277
  65  558.2812
  66  800.5521
  67  753.7639
  68  526.3101
  69  209.5092
  70  355.1154
  71  98.29972
  72  37.11312
  73  4.880659
  74  -316.7275
  75  238.4687
  76  534.9946
  77  635.2621
  78  391.6839
  79  495.9877
  80  372.558
  81  595.3387
  82  498.96
  83  462.6252
  84  480.0315
  85  79.79072
  86  550.407
  87  532.7139
  88  694.9071
  89  416.913
  90  418.2499
  91  395.6833
  92  246.912
  93  181.2008
  94  211.9615
  95  -19.96929
  96  168.4751
  97  384.499
  98  575.1129
  99  394.2521
 100  695.2817
 101  359.92
 102  61.41705
 103  209.284
 104  537.2944
 105  484.5717
 106  -220.7904
 107  182.0033
 108  459.4984
 109  674.9233
 110  220.5721
 111  586.937
 112  743.8797
 113  59.67955
 114  422.1043
 115  414.6223
 116  199.3854
 117  -30.26423
 118  42.56384
 119  101.7132
 120  194.0006
 121  -13.91529
 122  422.8766
 123  220.8503
 124  244.7649
 125  356.0761
 126  603.7269
 127  641.4506
 128  220.5912
 129  414.0666
 130  468.7329
 131  619.0897
 132  882.4893
 133  569.0998
 134  367.0112
 135  98.76309
 136  265.9475
 137  555.3295
 138  346.7337
 139  127.7757
 140  140.5766
 141  688.0216
 142  56.10352
 143  81.93961
 144  191.4365
 145  266.1243
 146  365.1132
 147  14.42068
 148  -82.10442
 149  236.8845
 150  429.4587
 151  231.9013
 152  351.3282
 153  99.82388
 154  75.35097
 155  700.5182
 156  547.7194
 157  286.0793
 158  110.5495
 159  202.75
 160  362.662
 161  293.0714
 162  220.7009
 163  33.07512
 164  335.3281
 165  287.2641
 166  253.602
 167  -169.4884
 168  423.1416
 169  964.5886
 170  459.7931
 171  479.0037
 172  715.0175
 173  256.5939
 174  468.9065
 175  590.679
 176  344.7519
 177  327.5951
 178  286.4858
 179  23.92734
 180  310.8293
 181  615.6169
 182  232.735
 183  -269.5981
 184  169.7154
 185  165.4981
 186  445.1517
 187  454.6949
 188  120.8469
 189  -0.8751063
 190  241.2744
 191  599.4507
 192  609.793
 193  179.3076
 194  71.89589
 195  212.6026
 196  394.7818
 197  427.9269
 198  434.0886
 199  589.5192
 200  397.3684
 201  269.0448
 202  317.0193
 203  76.41705
 204  444.9424
 205  519.0149
 206  349.0669
 207  159.4984
 208  189.056
 209  376.0885
 210  368.4246
 211  410.1777
 212  924.8279
 213  462.5906
 214  319.2242
 215  584.2643
 216  462.302
 217  221.4328
 218  354.7625
 219  372.0886
 220  252.9672
 221  647.6821
 222  830.9083
 223  822.1404
 224  534.6891
 225  793.7532
 226  729.4993
 227  628.9621
 228  650.132
 229  295.0343
 230  297.3274
 231  614.154
 232  761.0577
 233  723.1757
 234  655.006
 235  456.2939
 236  240.5761
 237  371.8875
 238  -201.1988
 239  -248.684
 240  349.4598
 241  532.6774
 242  765.3989
 243  911.2852
 244  786.4388
 245  246.8691
 246  323.7072
 247  481.6749
 248  156.954
 249  -119.868
 250  37.53188
 251  93.0107
 252  262.5109
 253  234.1172
 254  123.2635
 255  44.06391
 256  210.0992
 257  312.8666
 258  61.07246
 259  69.36176
 260  439.1466
 261  752.1893
 262  716.6741
 263  492.4408
 264  141.6707
 265  46.43182
 266  191.9637
 267  32.02062
 268  228.2938
 269  182.1671
 270  131.2622
 271  288.8602
 272  437.8744
 273  569.5706
 274  326.692
 275  129.8402
 276  472.6511
 277  618.0505
 278  286.9956
 279  309.6244
 280  804.1756
 281  877.8763
 282  606.0249
 283  718.945
 284  445.7793
 285  -81.29472
 286  -15.52952
 287  18.67644
 288  276.9032
 289  356.1294
 290  80.08308
 291  384.743
 292  644.0361
 293  408.1624
 294  170.9526
 295  222.2365
 296  503.0278
 297  518.8477
 298  153.3997
 299  -40.52335
 300  82.6439
 301  133.1437
 302  434.3289
 303  378.3869
 304  445.2473
 305  525.3674
 306  610.6636
 307  506.0889
 308  469.8806
 309  695.947
 310  518.8497
 311  407.5681
 312  755.4459
 313  667.4425
 314  829.4585
 315  885.473
 316  900.8856
 317  709.7464
 318  999.576
 319  1312.832
 320  1632.507
 321  2159.605
 322  1611.541
 323  1318.101
 324  1007.609
 325  687.8484
 326  302.4195
 327  145.4138
 328  344.4181
 329  399.1276
 330  248.2925
 331  292.7458
 332  432.029
 333  493.4733
 334  386.1455
 335  576.8148
 336  461.6739
 337  389.7811
 338  451.3109
 339  645.8066
 340  324.7985
 341  280.0837
 342  325.9445
 343  714.5922
 344  424.8765
 345  26.39192
 346  -143.3101
 347  227.5545
 348  416.2538
 349  285.2711
 350  465.6549
 351  166.1005
 352  307.8785
 353  348.0354
 354  244.6903
 355  -464.4757
 356  -85.02393
 357  102.5531
 358  284.8424
 359  426.8011
 360  232.2632
 361  131.5218
 362  627.2576
 363  378.1801
 364  4.366766
 365  -299.6584
 366  10.7197
 367  158.7267
 368  369.6683
 369  896.0122
 370  633.8192
 371  575.8835
 372  207.7048
 373  -62.17239
 374  -9.990684
 375  254.6631
 376  293.1906
 377  880.9824
 378  468.3331
 379  397.0734
 380  406.4191
 381  640.2946
 382  531.142
 383  530.3087
 384  594.7476
 385  308.6366
 386  77.20472
 387  266.5956
 388  564.1916
 389  660.8155
 390  535.0447
 391  690.9898
 392  327.8751
 393  31.67555
 394  -338.5298
 395  -329.6571
 396  444.4586
 397  430.7961
 398  96.90701
 399  -73.8873
 400  115.3022
 401  326.5681
 402  445.8156
 403  641.5438
 404  496.8887
 405  169.6069
 406  461.0807
 407  401.2852
 408  -28.10981
 409  284.8769
 410  246.0521
 411  715.1547
 412  562.6335
 413  304.1549
 414  99.53337
 415  465.7501
 416  392.4631
 417  221.5939
 418  532.6811
 419  439.4392
 420  313.4595
 421  438.2408
 422  571.024
 423  724.4536
 424  565.3787
 425  340.4152
 426  543.7314
 427  427.429
 428  308.9866
 429  -85.28776
 430  68.10529
 431  605.1918
 432  404.2683
 433  180.7457
 434  85.48468
 435  -224.3577
 436  130.5521
 437  -160.1152
 438  -90.72754
 439  164.4468
 440  205.2494
 441  446.1117
 442  573.7123
 443  282.6486
 444  637.5676
 445  678.6361
 446  236.743
 447  350.8587
 448  201.6391
 449  397.2585
 450  440.9808
 451  448.3666
 452  343.6024
 453  143.7106
 454  610.9514
 455  748.6876
 456  347.1531
 457  249.6367
 458  469.5558
 459  449.9001
 460  293.5692
 461  172.9419
 462  94.22336
 463  615.4321
 464  705.7831
 465  445.6238
 466  294.542
 467  408.0658
 468  447.4209
 469  276.9649
 470  526.3724
 471  447.2212
 472  394.2455
 473  541.577
 474  693.0436
 475  283.8828
 476  -275.502
 477  228.6961
 478  392.0195
 479  503.1141
 480  242.8105
 481  -25.32199
 482  69.83902
 483  108.0605
 484  421.3489
 485  673.3255
 486  706.2418
 487  749.83
 488  215.9774
 489  27.36792
 490  372.5751
 491  143.5893
 492  450.131
 493  492.2502
 494  224.4236
 495  -36.49252
 496  286.7656
 497  450.6017
 498  688.2213
 499  437.7486
 500  136.8017
 501  329.8574
 502  313.3151
 503  237.153
 504  129.1161
 505  299.241
 506  243.8592
 507  366.3952
 508  403.416
 509  190.0961
 510  316.5401
 511  294.1298
