# Input file       =  1189642711.126697_cleaned.dat
# Candidate        =  PSR_0332+5434
# Telescope        =  AR
# Epoch_topo       =  58013.013080170102
# Epoch_bary       =  N/A
# T_sample         =  0.002
# Data Folded      =  7340032
# Data Avg         =  0.0088411373013685
# Data StdDev      =  1.00002674104639 
# Profile Bins     =  512
# Profile Avg      =  126.885072888035 
# Profile StdDev   =  119.736238163446 
# Reduced chi-sqr  =  1.517
# Prob(Noise)      <  3.57e-13   (~7.2 sigma)
# P_topo (ms)      =  714.466490299981  +/- 0.00019
# P'_topo (s/s)    =  -0                +/- 1e-10
# P''_topo (s/s^2) =  0                 +/- 4.42e-14
# P_bary (ms)      =  N/A
# P'_bary (s/s)    =  N/A
# P''_bary (s/s^2) =  N/A
# P_orb (s)        =  N/A
# asin(i)/c (s)    =  N/A
# eccentricity     =  N/A
# w (rad)          =  N/A
# T_peri           =  N/A
######################################################
   0  124.4865
   1  134.4252
   2  176.1017
   3  68.66132
   4  87.85734
   5  133.016
   6  12.27964
   7  19.27999
   8  189.2543
   9  336.3597
  10  297.4362
  11  252.8829
  12  271.5128
  13  163.3563
  14  84.16895
  15  164.0407
  16  163.9843
  17  131.0237
  18  70.93168
  19  113.7213
  20  175.7802
  21  214.0154
  22  199.925
  23  158.841
  24  -95.28365
  25  61.59524
  26  208.1129
  27  121.3504
  28  169.4633
  29  38.97379
  30  173.2206
  31  174.1524
  32  168.5475
  33  163.7253
  34  223.3735
  35  198.5235
  36  282.493
  37  244.4776
  38  268.273
  39  344.8985
  40  275.8464
  41  127.7311
  42  153.9999
  43  127.7337
  44  -36.07829
  45  48.13727
  46  46.815
  47  3.064322
  48  20.08702
  49  205.9355
  50  214.7048
  51  68.43008
  52  109.2071
  53  231.5185
  54  241.3364
  55  39.58569
  56  -65.43001
  57  50.48113
  58  29.52346
  59  68.23206
  60  139.4188
  61  67.03107
  62  23.37308
  63  78.44672
  64  56.72573
  65  129.5321
  66  101.0046
  67  158.6581
  68  0.2131057
  69  186.2057
  70  211.8874
  71  19.46781
  72  2.61591
  73  150.2192
  74  243.9387
  75  210.4855
  76  45.83535
  77  72.66348
  78  44.22557
  79  132.0416
  80  117.2886
  81  62.79477
  82  123.5427
  83  46.56663
  84  130.4232
  85  163.1295
  86  91.83277
  87  32.75171
  88  16.21923
  89  -60.72187
  90  34.55894
  91  14.19411
  92  102.2948
  93  92.14158
  94  -89.71435
  95  -21.18799
  96  -160.1015
  97  -47.72326
  98  -3.750505
  99  -51.96355
 100  153.239
 101  181.5592
 102  122.2281
 103  148.4279
 104  87.28967
 105  41.8504
 106  125.165
 107  14.43023
 108  36.91298
 109  156.4106
 110  107.6851
 111  168.9813
 112  210.7299
 113  98.08566
 114  94.52466
 115  15.56345
 116  180.0975
 117  153.0165
 118  176.3722
 119  194.1897
 120  41.00673
 121  115.9938
 122  212.4819
 123  272.4579
 124  224.1509
 125  76.19515
 126  96.84335
 127  84.47184
 128  29.38052
 129  246.8418
 130  82.46266
 131  -18.04427
 132  -10.668
 133  50.29581
 134  71.34976
 135  85.4314
 136  30.77162
 137  74.36177
 138  140.6867
 139  141.7941
 140  34.79969
 141  172.0856
 142  188.7996
 143  52.03243
 144  162.2985
 145  309.9675
 146  143.8292
 147  2.968624
 148  70.74352
 149  120.416
 150  93.75073
 151  192.808
 152  267.5675
 153  162.9908
 154  275.908
 155  248.3938
 156  214.9481
 157  269.2283
 158  323.7347
 159  299.9394
 160  244.2303
 161  237.2384
 162  136.5967
 163  51.21334
 164  168.6736
 165  199.0643
 166  46.86662
 167  18.13046
 168  81.42352
 169  64.92261
 170  172.0713
 171  257.234
 172  233.3624
 173  333.1286
 174  271.8025
 175  505.3092
 176  757.8236
 177  786.7874
 178  715.7792
 179  789.9853
 180  590.1592
 181  294.9222
 182  52.24389
 183  111.8658
 184  146.7543
 185  92.80621
 186  121.7229
 187  254.8324
 188  258.5794
 189  143.8615
 190  121.7087
 191  172.543
 192  305.2344
 193  107.3278
 194  126.3314
 195  1.072215
 196  16.00945
 197  -56.78189
 198  13.06625
 199  130.3779
 200  136.7522
 201  72.43114
 202  8.791025
 203  -69.66148
 204  66.58289
 205  110.6398
 206  68.24685
 207  10.92418
 208  -30.31264
 209  55.10816
 210  43.34434
 211  95.62656
 212  128.6209
 213  161.811
 214  181.3543
 215  256.2426
 216  228.0915
 217  231.1865
 218  325.3929
 219  250.7996
 220  24.38977
 221  30.59872
 222  85.81084
 223  58.13209
 224  151.8891
 225  238.5258
 226  222.7201
 227  216.1837
 228  122.4857
 229  -33.65862
 230  34.24236
 231  226.0265
 232  241.0451
 233  133.0887
 234  69.22182
 235  221.2465
 236  177.096
 237  101.7714
 238  138.3991
 239  181.7594
 240  180.0779
 241  38.9882
 242  -102.5591
 243  30.77188
 244  75.20395
 245  47.50653
 246  177.0653
 247  195.3958
 248  167.7751
 249  96.28056
 250  55.54832
 251  27.03418
 252  131.1404
 253  207.6926
 254  115.0285
 255  67.17294
 256  98.81105
 257  90.8977
 258  136.3227
 259  109.8333
 260  -74.12423
 261  -88.47235
 262  45.31282
 263  24.80719
 264  155.7386
 265  154.4463
 266  155.2774
 267  -19.54245
 268  -1.988472
 269  81.81414
 270  124.5297
 271  57.8132
 272  116.7131
 273  43.44101
 274  118.2644
 275  134.7103
 276  68.16473
 277  19.89359
 278  30.3207
 279  71.13622
 280  180.1946
 281  153.581
 282  313.3828
 283  302.2866
 284  309.1473
 285  206.5591
 286  141.679
 287  193.5707
 288  90.42908
 289  -17.52917
 290  -49.39745
 291  133.1094
 292  213.1404
 293  103.6757
 294  44.20091
 295  68.58515
 296  90.7902
 297  174.0517
 298  189.9418
 299  22.01927
 300  31.41113
 301  92.52919
 302  169.7124
 303  62.3143
 304  14.49271
 305  187.9396
 306  152.6846
 307  70.06417
 308  141.219
 309  324.303
 310  202.5627
 311  132.3645
 312  77.72384
 313  154.5624
 314  116.3065
 315  170.2328
 316  210.5529
 317  152.9393
 318  94.95991
 319  158.8335
 320  206.2743
 321  66.34409
 322  161.9466
 323  50.09946
 324  117.2117
 325  35.83861
 326  68.51951
 327  233.8224
 328  198.4998
 329  128.7711
 330  120.4098
 331  226.1538
 332  243.074
 333  102.1048
 334  50.23331
 335  177.3879
 336  55.77907
 337  203.7645
 338  230.8018
 339  61.60344
 340  -14.43421
 341  110.8764
 342  106.1294
 343  27.39244
 344  39.68798
 345  77.99917
 346  56.89108
 347  73.55701
 348  -1.607205
 349  43.61329
 350  113.549
 351  214.0569
 352  96.21038
 353  202.6425
 354  259.1284
 355  176.2446
 356  126.4088
 357  -43.38679
 358  63.13763
 359  241.7436
 360  17.93643
 361  0.9920048
 362  146.1588
 363  237.8601
 364  109.9529
 365  5.783526
 366  47.92035
 367  128.9619
 368  214.173
 369  132.3333
 370  126.704
 371  240.1768
 372  241.7825
 373  -72.11092
 374  -56.07617
 375  40.39638
 376  -27.35387
 377  49.97487
 378  114.8393
 379  77.68303
 380  170.9899
 381  101.9153
 382  85.33137
 383  114.0839
 384  223.9132
 385  128.7553
 386  65.00491
 387  18.70411
 388  147.4277
 389  207.7716
 390  50.31658
 391  16.46732
 392  102.7278
 393  1.038594
 394  49.30238
 395  101.3613
 396  133.237
 397  18.20557
 398  153.179
 399  213.7835
 400  219.7593
 401  174.8929
 402  169.5148
 403  229.2624
 404  253.5254
 405  251.0143
 406  118.3427
 407  109.8447
 408  229.2165
 409  315.9913
 410  256.1495
 411  28.21711
 412  2.896794
 413  97.17638
 414  116.1557
 415  93.52565
 416  136.7384
 417  195.1454
 418  208.3887
 419  128.7169
 420  70.66869
 421  127.7852
 422  145.3356
 423  226.3914
 424  153.0271
 425  205.392
 426  140.924
 427  105.6702
 428  135.9008
 429  109.8507
 430  61.79305
 431  118.5911
 432  84.67749
 433  19.14823
 434  146.9563
 435  37.54917
 436  -48.45625
 437  54.53391
 438  107.0037
 439  228.0208
 440  112.3835
 441  133.2687
 442  116.6794
 443  86.99671
 444  59.08712
 445  -6.977363
 446  0.7220727
 447  116.5566
 448  157.9688
 449  145.0813
 450  162.0431
 451  78.31971
 452  77.00568
 453  73.24124
 454  94.30794
 455  130.4454
 456  182.2815
 457  193.9093
 458  149.6401
 459  59.19969
 460  110.7427
 461  116.1784
 462  202.2785
 463  237.1627
 464  48.40821
 465  86.28363
 466  67.46201
 467  108.3176
 468  74.98024
 469  102.2699
 470  103.5079
 471  -18.54308
 472  69.60593
 473  91.39933
 474  229.6688
 475  226.5374
 476  82.90504
 477  -81.69449
 478  50.11457
 479  240.7388
 480  205.9731
 481  155.6554
 482  243.747
 483  242.3833
 484  101.4355
 485  108.2827
 486  153.7754
 487  149.9571
 488  189.7159
 489  188.3272
 490  299.409
 491  174.7903
 492  165.5939
 493  122.0117
 494  126.368
 495  226.023
 496  142.3023
 497  -9.669371
 498  74.15125
 499  140.3124
 500  132.5113
 501  58.78846
 502  64.54753
 503  53.67352
 504  132.0029
 505  23.4868
 506  116.12
 507  242.7236
 508  216.3147
 509  183.6512
 510  56.00108
 511  25.48722
