# Input file       =  1189283375.118279_cleaned.dat
# Candidate        =  PSR_0332+5434
# Telescope        =  AR
# Epoch_topo       =  58008.854098591190
# Epoch_bary       =  N/A
# T_sample         =  0.002
# Data Folded      =  7208960
# Data Avg         =  0.0273056616972007
# Data StdDev      =  1.00015980543161 
# Profile Bins     =  512
# Profile Avg      =  384.466761731334 
# Profile StdDev   =  118.678138174333 
# Reduced chi-sqr  =  1.626
# Prob(Noise)      <  1.2e-17   (~8.5 sigma)
# P_topo (ms)      =  714.465289912423  +/- 0.000205
# P'_topo (s/s)    =  -0                +/- 1.1e-10
# P''_topo (s/s^2) =  0                 +/- 4.94e-14
# P_bary (ms)      =  N/A
# P'_bary (s/s)    =  N/A
# P''_bary (s/s^2) =  N/A
# P_orb (s)        =  N/A
# asin(i)/c (s)    =  N/A
# eccentricity     =  N/A
# w (rad)          =  N/A
# T_peri           =  N/A
######################################################
   0  441.3206
   1  380.7994
   2  358.4909
   3  379.4277
   4  297.111
   5  242.7445
   6  295.2696
   7  428.807
   8  405.9204
   9  384.0924
  10  484.5046
  11  507.9898
  12  404.927
  13  349.3414
  14  377.3384
  15  448.1165
  16  556.2054
  17  516.8472
  18  487.176
  19  483.1688
  20  478.0692
  21  304.7916
  22  325.6951
  23  392.2343
  24  502.3175
  25  384.9475
  26  216.6325
  27  271.7341
  28  288.0287
  29  308.929
  30  323.964
  31  357.1271
  32  338.8143
  33  339.7326
  34  275.4835
  35  259.3499
  36  333.0096
  37  342.5685
  38  482.6515
  39  376.409
  40  384.8607
  41  394.5471
  42  380.7216
  43  299.9268
  44  325.9807
  45  317.4717
  46  327.6726
  47  336.5746
  48  393.9012
  49  268.6544
  50  261.3937
  51  370.4737
  52  365.8732
  53  378.7541
  54  273.4177
  55  235.1574
  56  224.4604
  57  270.5323
  58  443.1861
  59  341.3409
  60  325.3779
  61  323.2999
  62  435.6694
  63  409.6358
  64  345.8026
  65  418.2542
  66  360.4605
  67  504.0345
  68  352.7261
  69  368.6313
  70  289.286
  71  364.5781
  72  420.2468
  73  300.4962
  74  338.8631
  75  373.2642
  76  261.0032
  77  420.1227
  78  476.3826
  79  362.1362
  80  269.182
  81  351.893
  82  520.2169
  83  581.7593
  84  540.4681
  85  353.2488
  86  436.6335
  87  453.5651
  88  313.4918
  89  255.9426
  90  282.7225
  91  311.633
  92  380.8778
  93  529.7135
  94  550.5526
  95  471.0942
  96  440.9122
  97  414.6362
  98  317.2552
  99  308.9311
 100  376.0063
 101  361.3905
 102  375.6428
 103  457.6519
 104  341.9561
 105  167.032
 106  265.9
 107  396.3473
 108  554.7108
 109  427.4956
 110  349.8743
 111  308.6549
 112  268.9748
 113  310.331
 114  270.3405
 115  325.1803
 116  499.7339
 117  482.9397
 118  406.6621
 119  429.1426
 120  348.0182
 121  155.0888
 122  327.2102
 123  412.1343
 124  518.6245
 125  301.2459
 126  337.2842
 127  476.6201
 128  454.1378
 129  389.7255
 130  231.7976
 131  383.3812
 132  410.5443
 133  429.7539
 134  446.0974
 135  473.0268
 136  453.2897
 137  557.1196
 138  463.8766
 139  355.4444
 140  378.942
 141  369.4018
 142  440.5807
 143  502.0869
 144  509.5517
 145  361.7513
 146  414.2141
 147  521.7953
 148  463.7814
 149  403.0026
 150  446.8051
 151  414.3049
 152  411.6027
 153  471.6585
 154  426.5979
 155  298.1381
 156  263.1369
 157  363.2342
 158  461.884
 159  486.9941
 160  291.2428
 161  415.9855
 162  384.7949
 163  273.3886
 164  155.059
 165  164.0662
 166  379.8004
 167  403.365
 168  427.859
 169  378.4838
 170  345.7243
 171  454.7862
 172  530.1064
 173  458.9136
 174  464.0186
 175  417.0474
 176  360.3186
 177  324.253
 178  423.25
 179  457.3623
 180  430.3102
 181  519.4358
 182  442.5385
 183  333.7994
 184  472.3589
 185  426.7119
 186  328.2331
 187  389.3425
 188  466.246
 189  245.1542
 190  191.3602
 191  366.7006
 192  397.4381
 193  273.7885
 194  322.8399
 195  413.8795
 196  441.7505
 197  358.3228
 198  216.02
 199  354.0887
 200  419.5836
 201  349.4038
 202  264.1859
 203  418.0836
 204  314.0811
 205  144.2207
 206  548.9637
 207  436.6096
 208  283.4247
 209  338.524
 210  368.2715
 211  283.8541
 212  254.5821
 213  284.7957
 214  388.0017
 215  234.9113
 216  210.7204
 217  436.4604
 218  535.1574
 219  475.8123
 220  346.6525
 221  266.4061
 222  204.5248
 223  340.3059
 224  318.9038
 225  316.3482
 226  301.2602
 227  305.5744
 228  374.8957
 229  392.0141
 230  365.265
 231  366.0035
 232  415.9601
 233  446.2849
 234  390.6817
 235  371.0805
 236  410.4147
 237  273.6895
 238  296.7361
 239  396.1622
 240  305.3614
 241  305.2147
 242  293.7682
 243  383.2756
 244  342.0073
 245  351.3324
 246  370.419
 247  303.2235
 248  382.4509
 249  424.6309
 250  370.0281
 251  507.5729
 252  433.282
 253  487.9295
 254  339.1064
 255  152.7839
 256  226.5026
 257  369.6418
 258  254.5087
 259  274.1027
 260  391.9377
 261  376.3614
 262  272.282
 263  230.6198
 264  372.7224
 265  312.9149
 266  330.3496
 267  387.9724
 268  444.2684
 269  585.8087
 270  482.3518
 271  446.7109
 272  523.4048
 273  403.3444
 274  298.3825
 275  235.6782
 276  425.659
 277  325.0849
 278  355.898
 279  388.0388
 280  501.016
 281  582.8347
 282  421.8379
 283  433.6169
 284  351.1451
 285  331.5019
 286  403.1084
 287  353.822
 288  520.1207
 289  530.6511
 290  454.9611
 291  254.5658
 292  348.999
 293  378.2331
 294  296.5069
 295  359.2943
 296  423.6794
 297  518.5666
 298  403.7056
 299  326.2838
 300  338.3956
 301  441.9745
 302  440.1478
 303  408.4593
 304  444.5779
 305  472.3952
 306  520.8626
 307  423.6693
 308  361.5287
 309  333.1725
 310  409.9992
 311  374.5335
 312  363.2348
 313  298.1379
 314  388.4477
 315  401.1615
 316  397.2506
 317  460.5267
 318  496.5442
 319  412.9318
 320  423.6669
 321  396.1017
 322  491.2931
 323  564.8204
 324  503.0814
 325  475.1083
 326  418.3931
 327  372.0521
 328  447.8613
 329  455.3542
 330  319.126
 331  292.7664
 332  242.1345
 333  218.4644
 334  164.3624
 335  226.9241
 336  381.5023
 337  242.9324
 338  325.0642
 339  257.5178
 340  272.8508
 341  398.6481
 342  539.0776
 343  470.942
 344  372.2764
 345  376.385
 346  439.5224
 347  340.0528
 348  413.6073
 349  357.5263
 350  349.7658
 351  478.9352
 352  582.298
 353  555.2093
 354  629.1528
 355  552.11
 356  563.7607
 357  705.2711
 358  936.2387
 359  1010.875
 360  1169.216
 361  1094.815
 362  913.087
 363  755.248
 364  669.8305
 365  404.3885
 366  339.9354
 367  389.5313
 368  477.6153
 369  443.8768
 370  356.4221
 371  309.2939
 372  404.5345
 373  335.526
 374  346.2216
 375  526.8811
 376  528.4315
 377  422.4539
 378  363.4027
 379  268.7522
 380  328.0848
 381  492.4961
 382  502.6341
 383  343.9892
 384  412.1832
 385  370.7943
 386  287.4135
 387  312.1732
 388  451.9007
 389  345.3114
 390  382.7338
 391  356.7359
 392  294.3025
 393  366.4495
 394  331.1625
 395  305.7943
 396  306.7405
 397  278.6364
 398  316.8355
 399  374.7029
 400  402.0367
 401  400.8691
 402  377.3796
 403  516.8577
 404  380.7989
 405  355.783
 406  496.9089
 407  408.2914
 408  309.337
 409  255.0122
 410  328.2141
 411  313.5217
 412  360.5935
 413  251.4709
 414  386.5405
 415  339.1396
 416  372.2598
 417  415.481
 418  426.0349
 419  278.982
 420  373.4278
 421  407.5835
 422  363.6467
 423  329.3027
 424  273.406
 425  334.6114
 426  388.1561
 427  273.0265
 428  387.8531
 429  407.1581
 430  418.2377
 431  375.1028
 432  330.9554
 433  366.3004
 434  304.5899
 435  475.5153
 436  332.5593
 437  305.629
 438  503.3776
 439  444.6454
 440  391.8294
 441  322.6244
 442  357.5802
 443  313.145
 444  391.8717
 445  379.8276
 446  491.2649
 447  427.6746
 448  357.8411
 449  360.4587
 450  259.7682
 451  383.9151
 452  493.3477
 453  402.2119
 454  334.1463
 455  290.2909
 456  462.6682
 457  492.821
 458  485.9552
 459  405.01
 460  369.8755
 461  293.6955
 462  313.839
 463  336.1622
 464  477.5676
 465  504.1525
 466  412.6223
 467  507.9016
 468  499.3878
 469  411.406
 470  398.5917
 471  314.5446
 472  426.7959
 473  418.742
 474  403.9366
 475  368.0002
 476  362.4131
 477  237.2722
 478  252.2742
 479  298.0772
 480  273.5388
 481  289.5814
 482  222.5361
 483  420.6964
 484  361.2547
 485  261.6512
 486  179.8259
 487  272.524
 488  400.0536
 489  537.6519
 490  609.8303
 491  410.1942
 492  385.7068
 493  349.6754
 494  259.0569
 495  307.7467
 496  355.6189
 497  399.3153
 498  426.4435
 499  361.9762
 500  309.3622
 501  247.0523
 502  368.2803
 503  278.6412
 504  259.4984
 505  295.1524
 506  332.709
 507  383.0399
 508  407.3897
 509  218.9736
 510  211.5149
 511  414.6793
