# Input file       =  1189571473.122714_cleaned.dat
# Candidate        =  PSR_0332+5434
# Telescope        =  AR
# Epoch_topo       =  58012.188566235120
# Epoch_bary       =  N/A
# T_sample         =  0.002
# Data Folded      =  7340032
# Data Avg         =  0.0102569048392552
# Data StdDev      =  1.00002597263002 
# Profile Bins     =  512
# Profile Avg      =  146.87681511278  
# Profile StdDev   =  119.736146158621 
# Reduced chi-sqr  =  1.319
# Prob(Noise)      <  1.59e-06   (~4.7 sigma)
# P_topo (ms)      =  714.466567411401  +/- 0.000121
# P'_topo (s/s)    =  -0                +/- 6.39e-11
# P''_topo (s/s^2) =  0                 +/- 2.82e-14
# P_bary (ms)      =  N/A
# P'_bary (s/s)    =  N/A
# P''_bary (s/s^2) =  N/A
# P_orb (s)        =  N/A
# asin(i)/c (s)    =  N/A
# eccentricity     =  N/A
# w (rad)          =  N/A
# T_peri           =  N/A
######################################################
   0  254.1831
   1  244.6171
   2  61.60892
   3  -23.00658
   4  -29.45874
   5  156.6095
   6  114.7501
   7  14.01501
   8  -18.56099
   9  9.275587
  10  80.00241
  11  238.6857
  12  167.1024
  13  148.1138
  14  146.0895
  15  122.418
  16  54.9637
  17  90.64588
  18  153.1263
  19  95.32508
  20  205.4464
  21  107.7532
  22  111.8659
  23  49.7067
  24  118.0374
  25  208.6869
  26  231.9308
  27  109.8346
  28  166.9767
  29  174.5905
  30  245.6421
  31  174.7603
  32  91.1784
  33  27.08834
  34  67.44117
  35  109.6254
  36  195.2679
  37  279.0868
  38  239.4423
  39  168.9864
  40  113.0272
  41  172.5507
  42  247.9718
  43  104.5281
  44  123.4396
  45  183.8486
  46  274.319
  47  199.1352
  48  213.2328
  49  177.4674
  50  194.9764
  51  266.6313
  52  174.9184
  53  55.83615
  54  91.71579
  55  117.2672
  56  145.855
  57  191.66
  58  98.24654
  59  127.1953
  60  81.67043
  61  -93.93786
  62  -104.1562
  63  133.2025
  64  282.7988
  65  43.45913
  66  38.68758
  67  114.4654
  68  69.69573
  69  150.5446
  70  192.6767
  71  70.45934
  72  -23.24321
  73  -9.128107
  74  -7.25492
  75  87.34394
  76  163.0677
  77  104.7506
  78  64.75967
  79  203.445
  80  163.3181
  81  275.1938
  82  146.6828
  83  73.80282
  84  24.11414
  85  82.35069
  86  116.2576
  87  58.29318
  88  115.8154
  89  191.8752
  90  100.5941
  91  76.11646
  92  82.07987
  93  68.8554
  94  146.7067
  95  29.2011
  96  84.15211
  97  -12.92607
  98  54.89594
  99  148.1775
 100  127.1871
 101  31.59789
 102  29.08206
 103  170.3119
 104  154.4501
 105  116.4709
 106  77.4859
 107  210.9086
 108  148.5048
 109  140.719
 110  257.8563
 111  276.5304
 112  190.1021
 113  143.8734
 114  254.5053
 115  168.569
 116  87.88182
 117  273.3723
 118  134.8981
 119  224.4285
 120  307.9992
 121  238.468
 122  277.838
 123  128.7654
 124  210.7942
 125  170.2854
 126  151.9414
 127  187.2026
 128  134.8694
 129  288.3007
 130  390.5536
 131  138.5855
 132  193.7609
 133  91.92458
 134  301.9017
 135  251.2838
 136  219.28
 137  268.6241
 138  383.6007
 139  127.5075
 140  142.2913
 141  203.4394
 142  249.8956
 143  257.6011
 144  99.11694
 145  226.3449
 146  515.8497
 147  777.0612
 148  744.5486
 149  500.8975
 150  538.3428
 151  508.4048
 152  202.4763
 153  99.80112
 154  141.3934
 155  211.7166
 156  229.8105
 157  313.8379
 158  206.1516
 159  185.2177
 160  51.16484
 161  198.4955
 162  193.682
 163  254.662
 164  157.7034
 165  34.85068
 166  -10.66341
 167  -37.62275
 168  21.76157
 169  97.70628
 170  69.50007
 171  148.7744
 172  119.2974
 173  149.2885
 174  177.4123
 175  189.7148
 176  233.5928
 177  294.122
 178  309.5511
 179  244.0975
 180  94.02406
 181  59.57716
 182  61.80031
 183  81.58297
 184  28.80825
 185  105.3055
 186  42.17768
 187  79.51845
 188  178.4517
 189  97.28726
 190  50.28971
 191  138.3647
 192  108.9374
 193  71.6691
 194  33.07295
 195  13.53107
 196  58.43419
 197  200.2278
 198  270.9958
 199  181.3755
 200  154.0513
 201  275.5451
 202  143.6683
 203  68.50725
 204  205.164
 205  226.3456
 206  162.5579
 207  144.2325
 208  96.8505
 209  108.9887
 210  363.733
 211  312.1477
 212  115.7602
 213  62.93662
 214  42.83528
 215  122.5613
 216  46.86176
 217  244.3199
 218  324.277
 219  241.6505
 220  185.7231
 221  106.2302
 222  186.8351
 223  284.3747
 224  305.4981
 225  218.8399
 226  440.9642
 227  317.689
 228  248.2294
 229  255.8658
 230  172.6922
 231  81.06413
 232  -16.57262
 233  -0.9593108
 234  100.9613
 235  135.6194
 236  172.4142
 237  237.3245
 238  175.0482
 239  109.6614
 240  177.7481
 241  195.5173
 242  145.8652
 243  108.29
 244  97.52902
 245  175.7839
 246  170.3288
 247  98.62097
 248  188.3715
 249  81.96948
 250  80.60806
 251  49.86678
 252  135.4599
 253  382.8427
 254  355.3858
 255  232.8514
 256  180.6509
 257  216.1653
 258  252.3667
 259  271.9803
 260  314.4863
 261  314.7353
 262  229.4765
 263  -33.97591
 264  -45.46631
 265  -2.520073
 266  193.1105
 267  191.2964
 268  16.25176
 269  7.856335
 270  59.74079
 271  95.52435
 272  19.94265
 273  96.42537
 274  154.0178
 275  -17.0099
 276  51.58624
 277  102.3315
 278  78.75745
 279  230.4385
 280  224.959
 281  179.6237
 282  166.7636
 283  153.4781
 284  125.3463
 285  221.0898
 286  88.06783
 287  38.62029
 288  23.48499
 289  126.8032
 290  155.484
 291  98.44467
 292  101.6215
 293  40.78038
 294  71.55036
 295  154.2776
 296  100.3087
 297  170.6429
 298  107.8779
 299  107.6009
 300  304.622
 301  255.8826
 302  153.4981
 303  233.8118
 304  204.6138
 305  235.0127
 306  207.8649
 307  102.2119
 308  185.5128
 309  120.8075
 310  86.23123
 311  61.05228
 312  184.7415
 313  270.9169
 314  172.1099
 315  140.6643
 316  55.80952
 317  96.25947
 318  167.2745
 319  218.6476
 320  122.7793
 321  207.5438
 322  153.9053
 323  251.2175
 324  150.2563
 325  172.9088
 326  168.4289
 327  122.2742
 328  173.1857
 329  52.39935
 330  73.33008
 331  131.9568
 332  27.05762
 333  74.56206
 334  93.78728
 335  183.4858
 336  144.7124
 337  80.53488
 338  269.1243
 339  312.7373
 340  143.3391
 341  131.2229
 342  121.5011
 343  222.7602
 344  229.5358
 345  253.1579
 346  225.6434
 347  95.33162
 348  138.2923
 349  95.33039
 350  46.10359
 351  120.9374
 352  252.4337
 353  141.9868
 354  171.9276
 355  251.7284
 356  211.4462
 357  121.8536
 358  264.5646
 359  93.07389
 360  -5.502581
 361  82.17456
 362  271.729
 363  140.0612
 364  257.3406
 365  368.0706
 366  292.5263
 367  128.8041
 368  72.149
 369  77.16161
 370  98.43299
 371  228.4706
 372  279.0493
 373  126.6723
 374  0.5627825
 375  66.67625
 376  159.9424
 377  30.38565
 378  90.05083
 379  124.5427
 380  93.86024
 381  -9.102797
 382  -41.93946
 383  24.47647
 384  118.7532
 385  148.5193
 386  72.08035
 387  31.59459
 388  151.4088
 389  97.7486
 390  58.54713
 391  19.75711
 392  125.8821
 393  104.4938
 394  108.5522
 395  183.6836
 396  206.8994
 397  213.8071
 398  65.07803
 399  -33.3881
 400  118.816
 401  149.7003
 402  215.9008
 403  220.6154
 404  126.1348
 405  96.91626
 406  136.3865
 407  58.40202
 408  116.0428
 409  73.80348
 410  181.7398
 411  149.7887
 412  45.50933
 413  269.579
 414  307.9109
 415  167.0901
 416  222.2032
 417  140.4622
 418  38.48556
 419  144.5563
 420  85.29449
 421  92.54665
 422  209.1134
 423  195.7657
 424  223.6692
 425  184.5637
 426  180.0598
 427  248.8288
 428  179.9279
 429  173.654
 430  171.9123
 431  265.4073
 432  269.1664
 433  131.8507
 434  126.1822
 435  239.441
 436  112.8547
 437  106.1134
 438  24.38859
 439  43.52687
 440  122.1241
 441  177.5604
 442  -7.264138
 443  -47.7997
 444  70.50331
 445  161.9637
 446  212.9257
 447  215.5905
 448  212.0094
 449  211.4872
 450  220.4372
 451  68.02363
 452  43.14837
 453  137.2326
 454  140.7882
 455  102.1293
 456  13.67612
 457  75.66928
 458  -20.24752
 459  54.80893
 460  61.54804
 461  85.90897
 462  72.92807
 463  187.8982
 464  92.4197
 465  50.93346
 466  45.47295
 467  106.7787
 468  185.5956
 469  162.4864
 470  161.2142
 471  135.9588
 472  139.8837
 473  132.415
 474  101.3107
 475  6.333922
 476  161.5458
 477  133.0898
 478  76.9668
 479  88.45592
 480  25.66829
 481  56.98709
 482  35.01982
 483  5.958199
 484  140.7022
 485  137.9488
 486  144.2219
 487  137.9934
 488  186.3135
 489  117.4734
 490  -10.52423
 491  25.76041
 492  115.4812
 493  269.2376
 494  235.3966
 495  90.91799
 496  160.3192
 497  243.2245
 498  160.8167
 499  -30.12818
 500  32.28725
 501  127.1296
 502  206.9605
 503  256.0768
 504  236.5347
 505  170.5221
 506  129.8112
 507  144.8863
 508  126.8788
 509  31.14723
 510  112.4965
 511  185.2579
