# Input file       =  1189024883.115833_cleaned.dat
# Candidate        =  PSR_0332+5434
# Telescope        =  AR
# Epoch_topo       =  58005.862293007325
# Epoch_bary       =  N/A
# T_sample         =  0.002
# Data Folded      =  7208960
# Data Avg         =  0.0185627646871249
# Data StdDev      =  3.20612649049027 
# Profile Bins     =  512
# Profile Avg      =  261.359052657702 
# Profile StdDev   =  380.43632685138  
# Reduced chi-sqr  =  0.683
# Prob(Noise)      <  1   (~0.0 sigma)
# P_topo (ms)      =  714.464616376091  +/- 0.00135
# P'_topo (s/s)    =  -0                +/- 7.23e-10
# P''_topo (s/s^2) =  0                 +/- 3.25e-13
# P_bary (ms)      =  N/A
# P'_bary (s/s)    =  N/A
# P''_bary (s/s^2) =  N/A
# P_orb (s)        =  N/A
# asin(i)/c (s)    =  N/A
# eccentricity     =  N/A
# w (rad)          =  N/A
# T_peri           =  N/A
######################################################
   0  -17.00627
   1  24.53607
   2  -67.53008
   3  502.3176
   4  608.4332
   5  545.0772
   6  627.907
   7  602.6912
   8  413.1159
   9  335.7407
  10  327.7562
  11  254.7803
  12  286.5162
  13  212.7719
  14  98.86298
  15  150.0868
  16  92.88911
  17  12.81026
  18  183.3969
  19  31.90305
  20  55.87319
  21  232.7226
  22  221.5621
  23  71.4798
  24  338.2946
  25  806.5861
  26  507.9771
  27  641.4464
  28  330.0492
  29  427.9671
  30  394.732
  31  96.18623
  32  475.1508
  33  181.9438
  34  287.2997
  35  251.035
  36  21.73647
  37  131.0661
  38  80.01321
  39  -261.6323
  40  -149.6965
  41  143.8664
  42  354.8439
  43  226.3985
  44  199.8355
  45  357.8368
  46  -54.06149
  47  -72.36107
  48  166.1845
  49  584.4326
  50  488.2501
  51  262.6054
  52  115.9492
  53  255.9691
  54  269.1646
  55  -166.0357
  56  176.9012
  57  43.36163
  58  -6.354258
  59  128.5137
  60  465.6635
  61  277.1288
  62  382.4503
  63  272.785
  64  379.0713
  65  223.5611
  66  247.2065
  67  367.3103
  68  425.7231
  69  323.8154
  70  198.6838
  71  -135.8631
  72  253.7126
  73  98.01012
  74  123.9739
  75  389.0857
  76  282.0886
  77  416.7746
  78  81.07668
  79  -187.9801
  80  23.98962
  81  228.9688
  82  270.3608
  83  259.2993
  84  384.4556
  85  702.2794
  86  863.9354
  87  790.707
  88  610.086
  89  409.1823
  90  212.0184
  91  477.2029
  92  393.64
  93  296.6945
  94  401.2252
  95  240.3877
  96  327.4593
  97  573.844
  98  485.1994
  99  728.3799
 100  475.0529
 101  205.3539
 102  96.62235
 103  165.7616
 104  433.4757
 105  439.2529
 106  185.5562
 107  252.0402
 108  486.0822
 109  489.2806
 110  514.9849
 111  281.6353
 112  331.9707
 113  483.8432
 114  544.4907
 115  615.0019
 116  662.6515
 117  630.909
 118  474.2529
 119  358.8475
 120  241.6034
 121  630.9145
 122  439.5883
 123  407.1107
 124  420.6112
 125  194.6874
 126  349.4426
 127  206.4581
 128  306.0988
 129  178.4901
 130  674.9346
 131  723.8638
 132  776.064
 133  696.2421
 134  372.5995
 135  242.3468
 136  337.8677
 137  83.0563
 138  241.8083
 139  588.7075
 140  355.4851
 141  503.7365
 142  142.4004
 143  339.7221
 144  470.5818
 145  500.6383
 146  -81.94193
 147  53.36203
 148  475.1034
 149  454.2587
 150  481.2267
 151  252.2724
 152  686.9594
 153  741.4879
 154  416.0826
 155  140.0486
 156  173.8764
 157  233.4505
 158  126.9931
 159  289.9141
 160  469.7995
 161  388.5538
 162  200.4868
 163  116.0957
 164  40.3571
 165  226.7751
 166  549.9126
 167  255.9832
 168  -113.35
 169  624.7
 170  631.7814
 171  296.5847
 172  2.369472
 173  333.3881
 174  584.1312
 175  291.9536
 176  155.2922
 177  400.4474
 178  228.2284
 179  343.0218
 180  125.6904
 181  250.3895
 182  294.3999
 183  360.3837
 184  415.9468
 185  678.9292
 186  314.3994
 187  45.75476
 188  125.7108
 189  171.9259
 190  159.033
 191  485.9876
 192  265.549
 193  237.2013
 194  483.3442
 195  345.4596
 196  267.371
 197  404.7379
 198  -59.61985
 199  131.9066
 200  235.9509
 201  191.1744
 202  33.59214
 203  440.4413
 204  299.3877
 205  72.85236
 206  339.4182
 207  570.0235
 208  507.1796
 209  -16.87824
 210  120.0089
 211  -106.4734
 212  268.8715
 213  319.1676
 214  552.0457
 215  251.0953
 216  135.558
 217  196.9528
 218  106.963
 219  329.4232
 220  557.8335
 221  519.9848
 222  326.1622
 223  186.2931
 224  133.0024
 225  357.269
 226  639.7761
 227  513.0259
 228  380.5867
 229  286.5671
 230  285.5344
 231  169.5923
 232  280.7272
 233  248.698
 234  265.6378
 235  493.4617
 236  418.1877
 237  309.6718
 238  487.134
 239  380.2596
 240  301.9972
 241  38.22976
 242  -43.4435
 243  247.8354
 244  334.3869
 245  -10.68429
 246  10.63663
 247  371.0287
 248  435.5257
 249  -114.7767
 250  33.66625
 251  45.22966
 252  86.93122
 253  233.8919
 254  165.2805
 255  190.6787
 256  320.7885
 257  211.5431
 258  8.341437
 259  147.7825
 260  395.3995
 261  520.5837
 262  512.0625
 263  422.58
 264  357.0157
 265  248.3955
 266  347.4219
 267  177.9804
 268  223.2044
 269  774.864
 270  825.0093
 271  220.1073
 272  7.411122
 273  192.9668
 274  58.10544
 275  38.22073
 276  -30.49594
 277  38.55989
 278  94.06054
 279  -15.89922
 280  25.34386
 281  462.512
 282  214.456
 283  -93.04594
 284  76.7139
 285  25.12333
 286  -343.3458
 287  -92.77223
 288  319.1243
 289  219.1556
 290  117.2198
 291  228.2503
 292  98.65156
 293  -103.3559
 294  218.6441
 295  161.6026
 296  374.8109
 297  539.2112
 298  249.4201
 299  383.784
 300  117.6186
 301  -42.3819
 302  4.47313
 303  158.8457
 304  323.6648
 305  429.0578
 306  13.37079
 307  190.4709
 308  119.7461
 309  -16.93833
 310  92.74713
 311  165.8905
 312  335.3388
 313  228.0136
 314  388.6682
 315  563.0577
 316  212.0236
 317  219.415
 318  530.8721
 319  723.562
 320  1267.082
 321  1464.366
 322  1240.342
 323  1274.857
 324  981.5623
 325  225.1236
 326  344.3176
 327  351.1081
 328  110.9669
 329  298.963
 330  523.3915
 331  450.3699
 332  249.432
 333  299.4102
 334  489.6565
 335  487.6441
 336  143.5496
 337  184.8998
 338  178.1434
 339  149.1499
 340  37.45797
 341  142.3475
 342  531.6379
 343  206.8475
 344  400.4348
 345  220.8602
 346  255.4949
 347  237.6598
 348  110.1964
 349  260.8833
 350  220.9015
 351  252.1552
 352  71.69682
 353  -28.21982
 354  229.3041
 355  144.4061
 356  162.1783
 357  431.3882
 358  386.7263
 359  142.4082
 360  36.00769
 361  165.5845
 362  419.8795
 363  432.45
 364  326.0069
 365  512.9012
 366  339.3423
 367  -92.74756
 368  185.2363
 369  -168.1382
 370  44.25855
 371  279.001
 372  389.381
 373  238.2226
 374  311.5112
 375  412.6847
 376  263.2892
 377  127.206
 378  -45.21762
 379  307.2139
 380  508.6906
 381  574.6053
 382  337.4248
 383  198.2059
 384  146.8849
 385  168.6367
 386  375.9171
 387  279.18
 388  65.72623
 389  169.5152
 390  104.9798
 391  58.05357
 392  77.86573
 393  298.0555
 394  58.91272
 395  122.578
 396  140.0731
 397  166.859
 398  130.452
 399  345.4241
 400  563.2681
 401  395.1022
 402  119.7214
 403  227.4093
 404  358.7529
 405  406.1219
 406  6.449498
 407  -69.53985
 408  70.50461
 409  244.2516
 410  71.59727
 411  211.9062
 412  357.1418
 413  385.7972
 414  374.113
 415  254.7383
 416  340.1081
 417  38.23858
 418  -43.07871
 419  -210.7462
 420  -41.03936
 421  -47.53923
 422  -245.842
 423  -44.66432
 424  140.4152
 425  -237.6865
 426  -170.9033
 427  -469.1227
 428  215.9692
 429  431.0995
 430  205.4247
 431  -67.9386
 432  -36.47792
 433  179.8475
 434  199.8885
 435  364.0577
 436  60.43171
 437  55.78762
 438  312.2065
 439  480.8683
 440  -22.4099
 441  -22.33823
 442  195.3694
 443  50.50636
 444  172.1115
 445  653.69
 446  399.0716
 447  269.3809
 448  414.3444
 449  414.1594
 450  314.8446
 451  222.8483
 452  141.2599
 453  183.1779
 454  208.7617
 455  148.8793
 456  265.2432
 457  294.0963
 458  -154.7894
 459  -26.1462
 460  407.8068
 461  288.2167
 462  211.114
 463  119.0635
 464  379.8599
 465  80.1363
 466  44.9388
 467  -47.55793
 468  150.6692
 469  432.612
 470  493.9766
 471  391.1089
 472  117.9057
 473  57.2973
 474  377.9545
 475  252.5913
 476  326.0922
 477  556.0315
 478  309.224
 479  235.0276
 480  131.6488
 481  126.8867
 482  231.959
 483  201.2775
 484  78.36814
 485  70.33132
 486  -4.840177
 487  -160.0146
 488  -232.2904
 489  192.355
 490  436.6553
 491  365.1458
 492  695.3849
 493  257.8483
 494  -32.07369
 495  127.2057
 496  268.3343
 497  111.9696
 498  137.6124
 499  8.553475
 500  55.06776
 501  306.1998
 502  264.44
 503  190.2537
 504  285.6008
 505  -20.783
 506  17.00624
 507  73.13405
 508  127.7839
 509  4.674014
 510  261.6306
 511  320.9466
