# Input file       =  1189987313.102369_cleaned.dat
# Candidate        =  PSR_0332+5434
# Telescope        =  AR
# Epoch_topo       =  58017.001528962603
# Epoch_bary       =  N/A
# T_sample         =  0.002
# Data Folded      =  7340032
# Data Avg         =  0.0248215981939991
# Data StdDev      =  2.43656925856005 
# Profile Bins     =  512
# Profile Avg      =  355.930754515434 
# Profile StdDev   =  291.73783566968  
# Reduced chi-sqr  =  1.548
# Prob(Noise)      <  2.23e-14   (~7.5 sigma)
# P_topo (ms)      =  714.467909761589  +/- 0.000195
# P'_topo (s/s)    =  -0                +/- 1.03e-10
# P''_topo (s/s^2) =  0                 +/- 4.54e-14
# P_bary (ms)      =  N/A
# P'_bary (s/s)    =  N/A
# P''_bary (s/s^2) =  N/A
# P_orb (s)        =  N/A
# asin(i)/c (s)    =  N/A
# eccentricity     =  N/A
# w (rad)          =  N/A
# T_peri           =  N/A
######################################################
   0  269.8159
   1  292.9581
   2  428.0391
   3  5.572827
   4  15.50464
   5  53.20861
   6  382.8255
   7  358.5967
   8  345.588
   9  262.5461
  10  512.8209
  11  394.8391
  12  131.5518
  13  274.673
  14  154.5372
  15  138.7444
  16  268.6125
  17  262.8011
  18  97.55494
  19  113.6003
  20  337.953
  21  32.29369
  22  133.2893
  23  154.8651
  24  -60.76301
  25  12.07384
  26  179.9821
  27  510.2197
  28  550.7691
  29  255.0736
  30  94.65031
  31  274.2798
  32  305.7927
  33  37.97211
  34  446.6121
  35  522.9526
  36  392.1498
  37  115.6832
  38  240.2206
  39  284.8248
  40  172.0721
  41  394.2644
  42  349.7539
  43  72.5881
  44  333.4881
  45  302.9022
  46  241.5612
  47  124.6713
  48  260.3262
  49  52.2887
  50  221.9568
  51  250.5862
  52  233.81
  53  458.9006
  54  645.1685
  55  11.27771
  56  -285.5995
  57  260.971
  58  24.10379
  59  85.60624
  60  612.2197
  61  638.298
  62  113.7894
  63  336.8428
  64  401.8194
  65  352.2395
  66  190.8005
  67  427.726
  68  241.1047
  69  405.6843
  70  646.6782
  71  436.3668
  72  455.4478
  73  282.7834
  74  384.7259
  75  358.6556
  76  521.4888
  77  453.6893
  78  379.5435
  79  549.6392
  80  210.304
  81  -7.760607
  82  102.5992
  83  225.2177
  84  533.4691
  85  433.6893
  86  582.4238
  87  1025.065
  88  934.9822
  89  570.4141
  90  18.9529
  91  426.4543
  92  561.2971
  93  273.5829
  94  430.952
  95  460.8271
  96  -18.80227
  97  254.233
  98  473.9906
  99  200.9548
 100  290.797
 101  338.3562
 102  422.1861
 103  283.7968
 104  79.76765
 105  59.25351
 106  -11.82095
 107  -172.6752
 108  427.029
 109  305.8729
 110  -58.35138
 111  -172.733
 112  269.1202
 113  427.3344
 114  427.3284
 115  445.6111
 116  -81.84414
 117  463.3493
 118  433.1106
 119  327.4998
 120  267.4229
 121  231.1856
 122  601.9379
 123  452.525
 124  160.1315
 125  405.4424
 126  369.5726
 127  184.3444
 128  459.0763
 129  278.6751
 130  401.0099
 131  284.2749
 132  284.6699
 133  482.3903
 134  359.6638
 135  423.8043
 136  -15.79832
 137  -208.2803
 138  144.9457
 139  274.7071
 140  347.1126
 141  112.8423
 142  94.11423
 143  211.5782
 144  257.3259
 145  236.732
 146  73.10539
 147  432.9691
 148  309.7369
 149  253.7408
 150  201.0658
 151  151.1656
 152  137.6991
 153  401.9924
 154  491.7315
 155  328.351
 156  311.6021
 157  459.8191
 158  427.2628
 159  200.5147
 160  516.3926
 161  147.5424
 162  167.4923
 163  685.3362
 164  249.0547
 165  54.08993
 166  232.5575
 167  150.146
 168  233.8011
 169  484.8202
 170  280.3549
 171  349.5003
 172  508.532
 173  559.5555
 174  542.7215
 175  399.4268
 176  97.81376
 177  23.38762
 178  370.7316
 179  338.9758
 180  -50.25051
 181  165.1524
 182  447.6931
 183  217.3042
 184  174.6628
 185  419.5522
 186  645.0889
 187  366.123
 188  367.3322
 189  -20.46795
 190  142.0042
 191  437.9253
 192  217.331
 193  60.61262
 194  -14.46452
 195  137.9738
 196  256.7948
 197  262.5419
 198  135.3501
 199  167.6556
 200  218.2564
 201  145.4304
 202  357.6004
 203  431.4194
 204  368.8081
 205  93.38416
 206  329.9063
 207  155.5645
 208  159.1571
 209  359.5188
 210  235.8476
 211  131.8801
 212  -3.069678
 213  29.2694
 214  119.7458
 215  208.2528
 216  335.2164
 217  377.1427
 218  330.2847
 219  188.0808
 220  270.6799
 221  337.8171
 222  375.0286
 223  57.48605
 224  209.7816
 225  144.3651
 226  538.7891
 227  535.1617
 228  108.912
 229  269.4157
 230  327.8652
 231  62.69556
 232  -47.6519
 233  168.3135
 234  584.2849
 235  408.4135
 236  286.3211
 237  450.8852
 238  469.3205
 239  201.2573
 240  256.7844
 241  359.8358
 242  315.3842
 243  181.6889
 244  439.0403
 245  567.502
 246  643.0392
 247  350.6794
 248  501.7568
 249  355.2424
 250  145.0712
 251  243.8138
 252  213.0439
 253  305.0992
 254  574.1279
 255  895.4915
 256  499.6746
 257  385.0233
 258  243.7288
 259  240.1951
 260  338.7421
 261  596.9096
 262  460.9745
 263  566.8931
 264  438.0495
 265  323.2793
 266  230.0657
 267  84.5729
 268  581.2346
 269  723.5914
 270  616.1208
 271  574.9026
 272  577.8197
 273  618.7354
 274  507.671
 275  635.5192
 276  740.1732
 277  407.4061
 278  388.8209
 279  750.9924
 280  595.8456
 281  499.0297
 282  691.8181
 283  591.6523
 284  513.6224
 285  248.5867
 286  183.3181
 287  292.9105
 288  -16.12764
 289  311.2914
 290  501.1616
 291  436.9753
 292  406.1597
 293  369.7423
 294  705.1912
 295  560.6622
 296  411.2163
 297  654.0109
 298  495.9221
 299  565.7195
 300  500.1102
 301  462.3624
 302  386.1407
 303  295.7837
 304  400.8902
 305  493.4312
 306  333.5727
 307  541.8541
 308  322.2738
 309  571.6722
 310  282.4212
 311  -119.6983
 312  -134.141
 313  262.772
 314  396.5454
 315  612.2704
 316  634.5267
 317  564.5396
 318  963.0297
 319  1366.897
 320  2030.514
 321  2284.741
 322  2237.865
 323  1688.237
 324  1034.442
 325  698.7778
 326  893.0626
 327  574.6077
 328  74.96377
 329  23.21593
 330  260.9039
 331  593.642
 332  838.3482
 333  436.7026
 334  434.4048
 335  704.5662
 336  698.1514
 337  441.8989
 338  458.3724
 339  524.7765
 340  361.0606
 341  390.3413
 342  89.69644
 343  169.0219
 344  288.0225
 345  292.3587
 346  302.2825
 347  550.2614
 348  678.2204
 349  104.7896
 350  240.4386
 351  804.4648
 352  299.8482
 353  212.815
 354  342.7021
 355  601.8849
 356  492.2253
 357  520.9847
 358  488.3727
 359  433.203
 360  411.5344
 361  254.7573
 362  261.6714
 363  161.0942
 364  303.1256
 365  430.5681
 366  481.236
 367  384.0984
 368  -31.62193
 369  221.8911
 370  314.9859
 371  397.611
 372  803.9337
 373  753.9894
 374  658.2668
 375  462.3382
 376  501.9021
 377  478.6624
 378  398.2301
 379  300.2108
 380  642.1063
 381  575.2949
 382  457.0952
 383  228.8027
 384  472.3396
 385  313.8014
 386  110.9416
 387  364.279
 388  664.06
 389  570.3851
 390  313.7031
 391  319.9107
 392  378.1499
 393  302.3759
 394  157.8363
 395  469.4589
 396  563.0216
 397  316.9707
 398  349.1848
 399  507.769
 400  330.143
 401  180.8838
 402  225.3641
 403  156.5284
 404  262.1473
 405  758.7515
 406  562.4224
 407  279.1042
 408  249.1541
 409  303.6843
 410  476.3506
 411  315.2232
 412  244.8947
 413  153.7078
 414  80.80982
 415  474.7045
 416  517.7782
 417  507.2885
 418  482.8894
 419  311.6597
 420  100.2433
 421  294.9005
 422  453.628
 423  280.5716
 424  692.1794
 425  596.1678
 426  590.7657
 427  508.5745
 428  193.8569
 429  387.5639
 430  663.4529
 431  153.8395
 432  236.2424
 433  312.8467
 434  449.7495
 435  482.0067
 436  509.5381
 437  713.5852
 438  386.3563
 439  650.9703
 440  789.261
 441  621.4218
 442  238.8052
 443  -28.46027
 444  -40.88547
 445  -259.6387
 446  -437.1572
 447  257.1843
 448  377.2119
 449  369.3353
 450  286.6966
 451  267.0564
 452  161.0338
 453  129.0276
 454  396.5873
 455  481.097
 456  156.409
 457  99.98753
 458  155.1909
 459  278.8698
 460  24.65696
 461  -127.2906
 462  77.46502
 463  168.7938
 464  100.7653
 465  99.47445
 466  341.7216
 467  309.602
 468  275.3298
 469  3.292655
 470  119.4439
 471  386.9357
 472  378.9631
 473  777.3113
 474  516.64
 475  130.7892
 476  257.2352
 477  505.247
 478  536.3194
 479  398.5482
 480  587.5745
 481  634.2909
 482  506.3566
 483  338.9869
 484  62.0801
 485  200.689
 486  403.6061
 487  717.2164
 488  556.3549
 489  341.6518
 490  567.3239
 491  498.0707
 492  478.3618
 493  546.0321
 494  290.5357
 495  212.436
 496  236.6699
 497  476.695
 498  397.0721
 499  414.1377
 500  287.6065
 501  235.337
 502  176.2249
 503  233.253
 504  604.9783
 505  570.1642
 506  531.5751
 507  174.7747
 508  607.1944
 509  676.7407
 510  752.2476
 511  431.174
