# Input file       =  1189972712.116665_cleaned.dat
# Candidate        =  PSR_0332+5434
# Telescope        =  AR
# Epoch_topo       =  58016.832536072507
# Epoch_bary       =  N/A
# T_sample         =  0.002
# Data Folded      =  7143424
# Data Avg         =  0.0206942292503692
# Data StdDev      =  1.00028399356806 
# Profile Bins     =  512
# Profile Avg      =  288.752096508478 
# Profile StdDev   =  118.152129400129 
# Reduced chi-sqr  =  1.603
# Prob(Noise)      <  1.1e-16   (~8.2 sigma)
# P_topo (ms)      =  714.467828731325  +/- 0.000214
# P'_topo (s/s)    =  -0                +/- 1.16e-10
# P''_topo (s/s^2) =  0                 +/- 5.27e-14
# P_bary (ms)      =  N/A
# P'_bary (s/s)    =  N/A
# P''_bary (s/s^2) =  N/A
# P_orb (s)        =  N/A
# asin(i)/c (s)    =  N/A
# eccentricity     =  N/A
# w (rad)          =  N/A
# T_peri           =  N/A
######################################################
   0  989.8901
   1  999.2904
   2  819.2328
   3  473.7852
   4  345.0827
   5  372.978
   6  292.445
   7  287.0667
   8  228.9606
   9  133.353
  10  18.20736
  11  195.2861
  12  374.6516
  13  376.1838
  14  286.5848
  15  287.4499
  16  267.2067
  17  253.1348
  18  350.9106
  19  405.9818
  20  364.7052
  21  382.512
  22  307.2444
  23  341.1659
  24  319.565
  25  324.5806
  26  379.315
  27  226.7376
  28  286.8163
  29  266.3566
  30  250.6894
  31  347.9096
  32  392.549
  33  267.5999
  34  156.5829
  35  308.604
  36  350.2589
  37  387.9345
  38  355.2279
  39  381.4824
  40  333.4312
  41  161.0884
  42  195.8957
  43  299.3911
  44  297.1675
  45  288.4376
  46  362.0935
  47  397.2227
  48  177.5794
  49  141.908
  50  295.6234
  51  378.8346
  52  382.2763
  53  361.5076
  54  298.1146
  55  198.3063
  56  210.8774
  57  247.5707
  58  124.9562
  59  214.7967
  60  299.2941
  61  218.231
  62  248.6399
  63  135.4019
  64  252.3666
  65  205.7646
  66  274.6281
  67  329.191
  68  239.7859
  69  186.0774
  70  291.6189
  71  424.7321
  72  247.0811
  73  211.9171
  74  306.8199
  75  305.6089
  76  278.2077
  77  158.0888
  78  303.6
  79  324.7592
  80  172.6833
  81  161.8419
  82  210.3075
  83  156.7644
  84  188.4937
  85  284.9592
  86  374.2857
  87  317.6805
  88  97.22353
  89  106.6969
  90  188.0333
  91  113.4194
  92  273.3195
  93  351.3242
  94  243.6488
  95  276.0831
  96  318.3289
  97  328.8834
  98  268.5066
  99  295.2948
 100  413.1646
 101  463.4559
 102  467.3234
 103  470.922
 104  312.5043
 105  213.0392
 106  149.8362
 107  172.916
 108  225.3526
 109  366.7995
 110  164.2388
 111  161.3809
 112  286.563
 113  383.4004
 114  418.0923
 115  360.2088
 116  339.5897
 117  199.2526
 118  84.83974
 119  297.3451
 120  387.9326
 121  293.695
 122  306.523
 123  347.7527
 124  355.7507
 125  262.1764
 126  305.5354
 127  427.9262
 128  412.0845
 129  265.4174
 130  338.1029
 131  306.2448
 132  279.3807
 133  318.6757
 134  328.985
 135  419.4302
 136  322.4818
 137  191.9872
 138  267.2724
 139  243.7587
 140  228.199
 141  273.3719
 142  320.9992
 143  330.9146
 144  286.1824
 145  263.4879
 146  251.9275
 147  293.6432
 148  338.3831
 149  281.502
 150  189.657
 151  169.8331
 152  250.5156
 153  310.3523
 154  282.071
 155  262.0547
 156  298.9707
 157  281.1561
 158  307.8995
 159  250.491
 160  401.0732
 161  416.2402
 162  367.3346
 163  325.7979
 164  288.835
 165  159.8482
 166  238.4146
 167  298.1649
 168  211.0696
 169  264.9997
 170  276.7895
 171  260.0315
 172  302.1397
 173  298.1466
 174  315.6595
 175  209.8923
 176  198.2437
 177  233.7077
 178  251.3777
 179  273.4965
 180  266.7491
 181  214.9409
 182  375.7115
 183  391.9718
 184  284.2757
 185  254.2115
 186  396.2151
 187  401.9097
 188  362.341
 189  344.2788
 190  358.1271
 191  349.1948
 192  300.2085
 193  251.0381
 194  305.0623
 195  285.3659
 196  175.9903
 197  133.8991
 198  194.4584
 199  283.266
 200  332.1174
 201  250.1687
 202  298.404
 203  182.2644
 204  298.3621
 205  426.0437
 206  416.8257
 207  297.1354
 208  213.3604
 209  297.2096
 210  417.5805
 211  405.4094
 212  300.2177
 213  257.0818
 214  184.0771
 215  169.9429
 216  264.8618
 217  305.9293
 218  126.1328
 219  186.4845
 220  247.3789
 221  346.4647
 222  329.3835
 223  290.9211
 224  150.0317
 225  142.1407
 226  175.3373
 227  209.8111
 228  254.7518
 229  202.9447
 230  307.6656
 231  167.8728
 232  362.2977
 233  439.7163
 234  334.1693
 235  338.5856
 236  362.5801
 237  292.5944
 238  309.5557
 239  429.2095
 240  409.9496
 241  339.94
 242  214.5457
 243  216.004
 244  220.5034
 245  299.3628
 246  323.1845
 247  67.05231
 248  263.9681
 249  414.673
 250  325.049
 251  383.0786
 252  351.4167
 253  304.4091
 254  274.5107
 255  227.6015
 256  110.0689
 257  192.29
 258  343.32
 259  289.2672
 260  194.9668
 261  312.1231
 262  275.1123
 263  313.029
 264  281.2062
 265  406.759
 266  308.4189
 267  247.7349
 268  239.57
 269  265.1081
 270  303.1008
 271  265.1422
 272  130.8888
 273  185.7217
 274  268.6315
 275  293.7782
 276  288.4046
 277  283.032
 278  259.2982
 279  238.2191
 280  277.5017
 281  260.1785
 282  222.8434
 283  213.4284
 284  249.9921
 285  317.5206
 286  328.5185
 287  265.4301
 288  178.5845
 289  130.8907
 290  252.219
 291  371.6545
 292  349.9475
 293  251.3302
 294  249.9417
 295  331.5948
 296  386.6004
 297  455.65
 298  369.1187
 299  366.6188
 300  314.6439
 301  395.0666
 302  376.1061
 303  189.0747
 304  389.129
 305  265.8324
 306  176.3613
 307  298.7644
 308  218.2635
 309  212.9246
 310  250.6012
 311  276.947
 312  315.3853
 313  322.2562
 314  217.0526
 315  245.6563
 316  193.5953
 317  237.1889
 318  319.1682
 319  182.4941
 320  355.6306
 321  370.4967
 322  398.0368
 323  368.7853
 324  384.8025
 325  373.7681
 326  236.609
 327  266.5866
 328  355.5022
 329  258.8045
 330  349.102
 331  362.9015
 332  347.8074
 333  286.1483
 334  269.1977
 335  191.6148
 336  345.1118
 337  418.3814
 338  207.6149
 339  170.3148
 340  197.108
 341  184.657
 342  236.0778
 343  164.7715
 344  199.8418
 345  294.7223
 346  415.502
 347  267.6276
 348  140.5697
 349  246.1695
 350  281.071
 351  315.6971
 352  419.649
 353  470.4303
 354  412.8225
 355  382.6518
 356  433.7244
 357  280.1844
 358  224.0296
 359  278.3585
 360  358.3199
 361  287.2491
 362  229.6861
 363  335.9037
 364  356.3592
 365  374.0086
 366  281.4666
 367  394.696
 368  450.8549
 369  448.8787
 370  337.3932
 371  233.0965
 372  328.6319
 373  357.4289
 374  268.2615
 375  223.5316
 376  195.2905
 377  216.4173
 378  220.8632
 379  318.8171
 380  433.3564
 381  447.6922
 382  231.6514
 383  237.694
 384  264.966
 385  220.9963
 386  163.7637
 387  254.0488
 388  224.4972
 389  200.3404
 390  234.6852
 391  171.2947
 392  241.7525
 393  309.1465
 394  387.92
 395  278.1988
 396  242.7411
 397  362.0972
 398  384.5052
 399  297.2937
 400  179.471
 401  291.7763
 402  350.5385
 403  261.4337
 404  363.9583
 405  214.6029
 406  250.892
 407  179.7565
 408  212.1242
 409  512.9928
 410  388.7931
 411  186.1202
 412  151.7182
 413  284.6412
 414  301.4094
 415  280.1116
 416  87.09387
 417  129.0265
 418  136.1617
 419  221.0523
 420  387.0381
 421  341.7898
 422  299.5801
 423  202.7045
 424  310.6619
 425  241.5156
 426  277.5268
 427  237.7108
 428  296.4275
 429  339.5479
 430  246.7507
 431  307.6703
 432  231.4184
 433  111.0401
 434  227.348
 435  326.0582
 436  269.7068
 437  315.3634
 438  295.2196
 439  280.2934
 440  364.5287
 441  242.9312
 442  318.962
 443  246.3889
 444  152.4512
 445  160.8467
 446  155.6651
 447  335.5626
 448  264.191
 449  156.91
 450  234.6745
 451  348.2743
 452  408.7293
 453  358.356
 454  363.3
 455  189.4514
 456  84.83033
 457  123.3419
 458  180.209
 459  213.8712
 460  225.8954
 461  243.5306
 462  241.803
 463  339.5628
 464  235.101
 465  236.3501
 466  253.1669
 467  306.054
 468  323.0911
 469  312.5103
 470  231.4751
 471  282.8416
 472  224.8823
 473  185.0232
 474  391.0223
 475  285.0871
 476  249.3068
 477  193.5533
 478  155.7553
 479  104.9504
 480  275.8595
 481  309.0057
 482  244.5429
 483  259.4939
 484  210.8114
 485  96.85442
 486  138.9268
 487  145.9076
 488  205.6574
 489  220.1855
 490  283.7437
 491  360.4287
 492  344.8638
 493  353.4417
 494  389.4288
 495  261.3065
 496  143.8118
 497  223.587
 498  324.8938
 499  208.8182
 500  206.3021
 501  181.9816
 502  289.0765
 503  397.0794
 504  366.697
 505  372.735
 506  490.3255
 507  513.4081
 508  609.0441
 509  779.707
 510  877.2802
 511  1038.549
