# Input file       =  1189384196.109106_cleaned.dat
# Candidate        =  PSR_0332+5434
# Telescope        =  AR
# Epoch_topo       =  58010.021008207244
# Epoch_bary       =  N/A
# T_sample         =  0.002
# Data Folded      =  7340032
# Data Avg         =  0.0325600117274528
# Data StdDev      =  2.57441698127864 
# Profile Bins     =  512
# Profile Avg      =  466.990334585895 
# Profile StdDev   =  308.2427620684   
# Reduced chi-sqr  =  1.515
# Prob(Noise)      <  4.23e-13   (~7.2 sigma)
# P_topo (ms)      =  714.465606950947  +/- 0.00016
# P'_topo (s/s)    =  -0                +/- 8.44e-11
# P''_topo (s/s^2) =  0                 +/- 3.73e-14
# P_bary (ms)      =  N/A
# P'_bary (s/s)    =  N/A
# P''_bary (s/s^2) =  N/A
# P_orb (s)        =  N/A
# asin(i)/c (s)    =  N/A
# eccentricity     =  N/A
# w (rad)          =  N/A
# T_peri           =  N/A
######################################################
   0  544.9708
   1  622.7615
   2  727.7343
   3  962.6927
   4  571.1402
   5  263.0477
   6  532.7787
   7  500.8615
   8  842.8701
   9  407.2379
  10  597.0557
  11  762.7287
  12  408.9441
  13  316.0504
  14  242.9336
  15  587.1059
  16  768.8327
  17  831.1696
  18  378.5968
  19  498.9474
  20  542.3616
  21  710.5878
  22  453.0597
  23  560.8648
  24  711.8685
  25  478.5125
  26  460.0647
  27  413.4323
  28  344.941
  29  418.8724
  30  690.2479
  31  469.3482
  32  100.8789
  33  396.3558
  34  629.7578
  35  604.9731
  36  517.0579
  37  415.9402
  38  342.1721
  39  82.54006
  40  231.264
  41  522.1035
  42  286.1133
  43  562.6083
  44  680.6904
  45  652.8704
  46  155.2244
  47  145.4231
  48  327.5015
  49  465.6725
  50  209.2614
  51  198.4324
  52  105.2098
  53  694.8788
  54  225.6438
  55  503.0224
  56  391.0664
  57  170.984
  58  308.2133
  59  532.9725
  60  755.481
  61  491.2309
  62  246.0383
  63  343.9643
  64  329.0837
  65  186.1027
  66  278.3835
  67  246.5149
  68  101.2748
  69  160.2989
  70  685.0845
  71  493.6044
  72  -133.6239
  73  170.1909
  74  560.5298
  75  630.9438
  76  304.3873
  77  616.9682
  78  225.7035
  79  392.019
  80  205.567
  81  -10.97918
  82  98.40654
  83  277.8403
  84  379.3258
  85  370.2815
  86  566.6188
  87  90.81357
  88  -131.7304
  89  254.2321
  90  207.3027
  91  121.7747
  92  416.8264
  93  340.2379
  94  395.411
  95  376.0417
  96  170.4718
  97  169.1988
  98  456.9223
  99  607.3843
 100  413.6876
 101  444.0425
 102  245.0041
 103  345.3827
 104  379.4349
 105  313.8957
 106  238.0483
 107  626.7876
 108  529.6747
 109  297.5008
 110  306.036
 111  414.6106
 112  14.73868
 113  144.7688
 114  20.48981
 115  9.09394
 116  142.3613
 117  161.0323
 118  391.79
 119  366.6355
 120  287.2559
 121  374.0009
 122  384.63
 123  310.0451
 124  267.9741
 125  181.8234
 126  570.1188
 127  488.3907
 128  340.2909
 129  363.8979
 130  486.9617
 131  829.7007
 132  819.5466
 133  812.0161
 134  457.9455
 135  580.4286
 136  798.4552
 137  251.7276
 138  450.7468
 139  172.9547
 140  263.2097
 141  138.1482
 142  237.6864
 143  384.0767
 144  220.627
 145  642.5533
 146  387.4091
 147  271.777
 148  482.9324
 149  373.3322
 150  192.031
 151  190.9922
 152  441.531
 153  520.8849
 154  966.9666
 155  312.7441
 156  8.108672
 157  15.67168
 158  333.2409
 159  523.424
 160  619.7191
 161  779.4386
 162  438.8439
 163  264.135
 164  418.7245
 165  246.9506
 166  255.0733
 167  823.5841
 168  752.7101
 169  316.7989
 170  302.8145
 171  628.5818
 172  463.9849
 173  569.9961
 174  439.2091
 175  339.0174
 176  421.1717
 177  380.2676
 178  417.7095
 179  67.28231
 180  288.1376
 181  239.5011
 182  169.507
 183  685.8991
 184  257.9729
 185  128.0602
 186  508.7005
 187  187.242
 188  293.4387
 189  67.12681
 190  523.8049
 191  681.8092
 192  777.3937
 193  466.1677
 194  593.6571
 195  138.3018
 196  518.5016
 197  226.9378
 198  -66.65348
 199  108.2926
 200  341.5804
 201  578.6865
 202  668.3138
 203  755.8452
 204  663.519
 205  490.7096
 206  262.207
 207  5.606525
 208  591.4236
 209  426.5034
 210  490.7811
 211  243.5266
 212  418.9244
 213  606.4023
 214  277.9681
 215  379.2429
 216  492.1989
 217  629.2454
 218  560.3496
 219  468.507
 220  659.5085
 221  714.3058
 222  341.9992
 223  458.5296
 224  436.3654
 225  401.007
 226  425.3385
 227  716.794
 228  810.5663
 229  576.1827
 230  736.5619
 231  581.037
 232  678.6201
 233  616.2009
 234  756.7509
 235  561.6425
 236  404.2887
 237  387.5592
 238  614.5474
 239  549.0845
 240  528.9023
 241  428.7331
 242  653.9419
 243  535.8931
 244  530.3817
 245  437.705
 246  224.7404
 247  199.0252
 248  413.895
 249  306.814
 250  301.9249
 251  433.1803
 252  190.3097
 253  123.3844
 254  329.7414
 255  213.8708
 256  358.3739
 257  354.6698
 258  226.4922
 259  636.4288
 260  366.221
 261  335.0698
 262  308.3151
 263  524.6042
 264  560.0574
 265  602.2111
 266  463.9565
 267  249.905
 268  107.0773
 269  297.8511
 270  164.2074
 271  60.63081
 272  289.7905
 273  276.8958
 274  611.7325
 275  266.5916
 276  552.9661
 277  402.21
 278  358.2352
 279  118.2491
 280  157.566
 281  566.7215
 282  554.2657
 283  519.0947
 284  534.5299
 285  362.7901
 286  412.1201
 287  413.6948
 288  709.684
 289  676.4901
 290  492.2441
 291  495.2505
 292  308.2239
 293  242.0461
 294  600.249
 295  864.5828
 296  639.8572
 297  119.9064
 298  631.1717
 299  798.6364
 300  526.376
 301  255.464
 302  370.7511
 303  211.818
 304  548.0818
 305  772.5175
 306  460.4738
 307  433.4147
 308  500.2336
 309  315.8191
 310  513.9501
 311  685.8198
 312  325.6274
 313  341.9246
 314  466.4124
 315  479.7312
 316  486.6242
 317  356.6922
 318  489.7892
 319  717.3979
 320  697.1132
 321  901.71
 322  520.4028
 323  420.0172
 324  618.7847
 325  630.9249
 326  682.7231
 327  589.6602
 328  376.4118
 329  493.0205
 330  614.9543
 331  314.586
 332  374.5241
 333  617.2427
 334  453.9009
 335  364.9207
 336  214.642
 337  194.8643
 338  214.0612
 339  463.9344
 340  449.3816
 341  427.7715
 342  346.0187
 343  381.6328
 344  333.7359
 345  422.6799
 346  405.6243
 347  259.4526
 348  628.3351
 349  856.8434
 350  306.9896
 351  477.7515
 352  471.9643
 353  460.6979
 354  503.6983
 355  605.7411
 356  523.6578
 357  488.2143
 358  520.3105
 359  271.0753
 360  533.4485
 361  603.9036
 362  678.3815
 363  228.2993
 364  338.3113
 365  557.2012
 366  460.8379
 367  180.8558
 368  419.2604
 369  339.414
 370  123.9903
 371  74.21899
 372  327.452
 373  316.3604
 374  238.9622
 375  603.6671
 376  493.2295
 377  409.1265
 378  312.1074
 379  348.0369
 380  372.3052
 381  300.8148
 382  867.2263
 383  874.2614
 384  461.8987
 385  410.2417
 386  615.3906
 387  746.6926
 388  364.0758
 389  261.9028
 390  807.3615
 391  875.4315
 392  1014.134
 393  823.1674
 394  526.5272
 395  411.3396
 396  525.9026
 397  638.8247
 398  765.3896
 399  421.4093
 400  540.4382
 401  457.1248
 402  233.8471
 403  233.528
 404  252.9163
 405  598.095
 406  655.4641
 407  200.3689
 408  140.6901
 409  -113.9015
 410  495.7768
 411  637.4042
 412  50.12166
 413  255.1532
 414  655.8702
 415  683.8546
 416  737.9886
 417  362.187
 418  415.76
 419  320.3676
 420  481.0723
 421  645.0514
 422  460.6183
 423  767.2775
 424  611.1248
 425  446.1992
 426  422.508
 427  706.5116
 428  896.1661
 429  727.4223
 430  700.2018
 431  600.7715
 432  556.391
 433  447.9046
 434  389.0781
 435  394.7524
 436  795.1575
 437  638.6095
 438  410.0205
 439  455.5975
 440  381.0358
 441  669.1745
 442  974.0895
 443  844.0901
 444  1264.099
 445  1529.534
 446  1985.193
 447  1978.555
 448  2318.723
 449  2469.721
 450  1869.12
 451  1091
 452  547.1577
 453  372.4905
 454  825.3434
 455  859.0746
 456  501.0816
 457  639.4843
 458  523.7162
 459  261.916
 460  288.147
 461  653.8265
 462  768.0661
 463  377.0619
 464  431.3977
 465  478.0335
 466  726.3298
 467  710.8264
 468  822.63
 469  392.1635
 470  120.3337
 471  461.2476
 472  579.9915
 473  341.3642
 474  712.4481
 475  498.5891
 476  452.8799
 477  521.4116
 478  496.3693
 479  364.3758
 480  314.3552
 481  481.7388
 482  764.2535
 483  494.3353
 484  401.6096
 485  19.73658
 486  245.6076
 487  651.3671
 488  500.2422
 489  488.8226
 490  431.9272
 491  242.4059
 492  573.1572
 493  159.6157
 494  351.3177
 495  574.9811
 496  556.9028
 497  472.7804
 498  777.2419
 499  1010.012
 500  1051.745
 501  806.1683
 502  247.0694
 503  307.2466
 504  667.5037
 505  852.8039
 506  956.5525
 507  643.3557
 508  518.6895
 509  170.368
 510  115.848
 511  520.04
