# Input file       =  1189312948.110782_cleaned.dat
# Candidate        =  PSR_0332+5434
# Telescope        =  AR
# Epoch_topo       =  58009.196378597015
# Epoch_bary       =  N/A
# T_sample         =  0.002
# Data Folded      =  7340032
# Data Avg         =  0.0087696844626375
# Data StdDev      =  1.00002303379882 
# Profile Bins     =  512
# Profile Avg      =  125.78926404616  
# Profile StdDev   =  119.735794283438 
# Reduced chi-sqr  =  1.507
# Prob(Noise)      <  8.33e-13   (~7.1 sigma)
# P_topo (ms)      =  714.465725916905  +/- 0.000136
# P'_topo (s/s)    =  -0                +/- 7.2e-11
# P''_topo (s/s^2) =  0                 +/- 3.18e-14
# P_bary (ms)      =  N/A
# P'_bary (s/s)    =  N/A
# P''_bary (s/s^2) =  N/A
# P_orb (s)        =  N/A
# asin(i)/c (s)    =  N/A
# eccentricity     =  N/A
# w (rad)          =  N/A
# T_peri           =  N/A
######################################################
   0  181.0621
   1  150.9507
   2  81.35388
   3  82.82286
   4  81.80746
   5  3.884767
   6  9.727478
   7  38.32312
   8  110.7466
   9  18.77013
  10  9.270607
  11  57.11579
  12  -7.128494
  13  -47.81966
  14  119.2445
  15  123.2451
  16  124.3454
  17  191.1078
  18  189.4785
  19  58.67728
  20  -24.4301
  21  -6.667441
  22  146.1835
  23  220.7145
  24  163.0038
  25  166.159
  26  100.0892
  27  80.28397
  28  20.95983
  29  93.25468
  30  51.39135
  31  187.3668
  32  313.9644
  33  185.696
  34  117.4124
  35  100.1777
  36  79.30314
  37  131.8282
  38  209.5502
  39  163.385
  40  119.7555
  41  -45.59319
  42  -34.50562
  43  96.59195
  44  -34.21557
  45  65.2395
  46  202.2027
  47  110.2092
  48  63.69027
  49  95.03516
  50  171.1853
  51  181.5114
  52  41.54858
  53  112.7462
  54  150.5126
  55  160.9034
  56  81.13419
  57  240.9975
  58  195.5627
  59  188.2133
  60  65.88153
  61  3.325204
  62  -40.53222
  63  21.16357
  64  213.1685
  65  171.4636
  66  181.3566
  67  145.2347
  68  130.9444
  69  194.4335
  70  225.327
  71  118.7375
  72  40.61477
  73  80.02901
  74  201.2761
  75  47.93227
  76  42.38749
  77  84.86816
  78  159.5338
  79  84.73895
  80  158.1166
  81  88.28711
  82  133.0472
  83  177.0318
  84  133.034
  85  73.31846
  86  42.104
  87  19.66634
  88  25.56506
  89  166.6613
  90  232.0368
  91  277.4005
  92  197.4509
  93  126.5123
  94  58.20943
  95  130.6498
  96  58.02082
  97  94.90096
  98  79.75203
  99  -3.555223
 100  128.4196
 101  215.9051
 102  198.7161
 103  209.4548
 104  134.0657
 105  85.6645
 106  123.3828
 107  197.4608
 108  67.18218
 109  131.8058
 110  245.3559
 111  254.9561
 112  86.64223
 113  57.67889
 114  101.4151
 115  187.3562
 116  103.224
 117  134.9275
 118  117.9127
 119  137.0702
 120  37.18865
 121  90.9024
 122  69.14177
 123  112.1699
 124  214.513
 125  131.3431
 126  3.239211
 127  41.67159
 128  93.63377
 129  162.454
 130  125.0052
 131  23.7272
 132  -5.915311
 133  141.3129
 134  149.0321
 135  111.4454
 136  167.3482
 137  159.1972
 138  214.0267
 139  247.6999
 140  249.4115
 141  100.2131
 142  83.88098
 143  18.62543
 144  -16.32123
 145  140.7323
 146  218.4266
 147  162.0726
 148  221.8974
 149  73.38825
 150  129.6014
 151  148.5313
 152  58.24412
 153  -42.53109
 154  93.23196
 155  246.0262
 156  144.8158
 157  66.27197
 158  16.16595
 159  155.8387
 160  284.1112
 161  179.4964
 162  118.7352
 163  46.10028
 164  223.2228
 165  174.2053
 166  59.99342
 167  68.41296
 168  92.02909
 169  -13.19694
 170  -38.75665
 171  138.3838
 172  107.7016
 173  66.82073
 174  280.7216
 175  288.4128
 176  83.38845
 177  14.83996
 178  117.0574
 179  162.3297
 180  47.33002
 181  77.72063
 182  200.2862
 183  188.8617
 184  201.084
 185  185.9929
 186  297.4713
 187  189.3377
 188  166.0879
 189  89.49152
 190  196.3368
 191  200.9219
 192  191.4455
 193  139.8057
 194  61.78318
 195  7.849767
 196  58.16307
 197  240.6641
 198  175.3258
 199  96.37553
 200  91.23169
 201  351.5561
 202  216.2079
 203  81.7678
 204  216.0353
 205  183.4671
 206  173.9597
 207  216.2671
 208  113.8216
 209  122.6051
 210  -11.86247
 211  168.1626
 212  271.2312
 213  156.3468
 214  135.1104
 215  69.06311
 216  270.8361
 217  336.1188
 218  139.983
 219  168.676
 220  91.10589
 221  -16.12836
 222  -209.2475
 223  47.97916
 224  174.2367
 225  99.77271
 226  119.0569
 227  59.13141
 228  31.76447
 229  220.1863
 230  212.5515
 231  246.7025
 232  298.7552
 233  244.4282
 234  102.1639
 235  115.2844
 236  142.3656
 237  19.57034
 238  0.6282195
 239  233.3676
 240  236.0004
 241  219.0652
 242  -19.23833
 243  39.35999
 244  156.7223
 245  41.59554
 246  74.15491
 247  -24.96475
 248  65.01653
 249  221.5998
 250  243.0895
 251  337.014
 252  50.21264
 253  19.26096
 254  213.2328
 255  246.7735
 256  96.14669
 257  128.9598
 258  27.00694
 259  117.5357
 260  128.5942
 261  112.1992
 262  11.02896
 263  36.75951
 264  70.34323
 265  98.87974
 266  79.54318
 267  160.9268
 268  264.5564
 269  155.045
 270  160.459
 271  139.8385
 272  -0.5178325
 273  167.7324
 274  187.6434
 275  282.9142
 276  221.6764
 277  171.861
 278  141.7408
 279  177.7343
 280  142.9277
 281  103.8701
 282  76.22197
 283  182.6531
 284  126.5796
 285  -63.991
 286  -4.953487
 287  44.4979
 288  161.6976
 289  196.7341
 290  238.86
 291  125.5212
 292  59.83378
 293  159.2092
 294  6.869695
 295  152.5909
 296  288.3112
 297  261.591
 298  40.00746
 299  87.0322
 300  122.3048
 301  -13.63491
 302  66.36323
 303  127.7128
 304  67.65843
 305  38.37109
 306  43.48817
 307  39.05376
 308  37.36683
 309  22.66409
 310  -28.0004
 311  35.83994
 312  127.4923
 313  215.1895
 314  204.8165
 315  165.7218
 316  37.23106
 317  133.4701
 318  116.3419
 319  104.9647
 320  185.4371
 321  84.41807
 322  82.34625
 323  167.0393
 324  34.60837
 325  115.8977
 326  30.74368
 327  50.25858
 328  5.811455
 329  82.26812
 330  186.629
 331  258.2161
 332  181.8317
 333  119.649
 334  93.41819
 335  105.7816
 336  92.76527
 337  186.0879
 338  123.197
 339  183.044
 340  167.973
 341  192.9646
 342  251.9559
 343  195.5151
 344  102.5916
 345  89.06282
 346  134.6524
 347  104.8985
 348  49.03003
 349  -39.61798
 350  69.38244
 351  154.5806
 352  194.8622
 353  124.3558
 354  144.5291
 355  144.4679
 356  166.8612
 357  105.5597
 358  92.03429
 359  144.8819
 360  200.2041
 361  249.1624
 362  84.03009
 363  -33.32038
 364  -43.54028
 365  -39.17056
 366  62.94635
 367  228.5199
 368  122.1852
 369  186.5038
 370  160.9747
 371  14.85592
 372  -49.82565
 373  -31.37285
 374  -149.3243
 375  -180.6475
 376  -95.21731
 377  -4.282596
 378  -68.84103
 379  -12.12218
 380  -62.59813
 381  22.61728
 382  124.0204
 383  215.6679
 384  96.17905
 385  80.07061
 386  -22.57481
 387  53.55204
 388  98.76742
 389  114.0711
 390  44.48782
 391  -19.43198
 392  -48.19025
 393  61.72109
 394  174.3615
 395  161.3452
 396  208.379
 397  251.5603
 398  139.2753
 399  161.4625
 400  78.86834
 401  20.61473
 402  86.42759
 403  42.92218
 404  21.14069
 405  215.6232
 406  136.9088
 407  93.37373
 408  147.8231
 409  174.2728
 410  121.7563
 411  148.267
 412  97.21082
 413  101.2793
 414  -9.133957
 415  -51.88317
 416  63.23795
 417  -7.512334
 418  78.64492
 419  243.1347
 420  149.4977
 421  63.60107
 422  100.2572
 423  190.8955
 424  83.38704
 425  74.45817
 426  139.9688
 427  86.98903
 428  43.44899
 429  82.78713
 430  19.74433
 431  128.8386
 432  260.5935
 433  219.0209
 434  248.6271
 435  255.0674
 436  127.9256
 437  121.8773
 438  216.702
 439  36.4772
 440  0.6055717
 441  122.5709
 442  243.9398
 443  231.4694
 444  109.1976
 445  -21.70007
 446  -7.163508
 447  161.5069
 448  218.0479
 449  118.0183
 450  12.06784
 451  -0.4195274
 452  130.7913
 453  207.0343
 454  106.8495
 455  333.5834
 456  316.636
 457  285.403
 458  185.7908
 459  -44.85699
 460  -28.97324
 461  108.2297
 462  164.5065
 463  91.29022
 464  172.3136
 465  302.9702
 466  258.519
 467  205.5731
 468  166.4164
 469  219.2723
 470  269.2434
 471  377.4496
 472  657.1735
 473  767.9158
 474  680.829
 475  698.4181
 476  571.8094
 477  414.345
 478  259.1606
 479  167.9979
 480  166.835
 481  14.0795
 482  123.4744
 483  164.19
 484  217.0658
 485  217.8292
 486  115.0988
 487  151.0482
 488  309.2899
 489  395.8109
 490  376.7032
 491  324.8704
 492  100.685
 493  35.55308
 494  -25.89263
 495  28.97828
 496  62.90067
 497  25.87326
 498  246.1893
 499  303.2359
 500  231.9087
 501  170.9821
 502  77.97809
 503  72.70185
 504  173.6976
 505  260.8697
 506  78.97186
 507  -6.16433
 508  -39.68764
 509  106.1235
 510  26.94433
 511  158.2585
