# Input file       =  1189628040.113569_cleaned.dat
# Candidate        =  PSR_0332+5434
# Telescope        =  AR
# Epoch_topo       =  58012.843276777421
# Epoch_bary       =  N/A
# T_sample         =  0.002
# Data Folded      =  7208960
# Data Avg         =  0.0108527985087911
# Data StdDev      =  1.000022293643   
# Profile Bins     =  512
# Profile Avg      =  152.793686897191 
# Profile StdDev   =  118.661821138834 
# Reduced chi-sqr  =  1.541
# Prob(Noise)      <  4.06e-14   (~7.5 sigma)
# P_topo (ms)      =  714.466421345452  +/- 0.000203
# P'_topo (s/s)    =  -0                +/- 1.09e-10
# P''_topo (s/s^2) =  0                 +/- 4.91e-14
# P_bary (ms)      =  N/A
# P'_bary (s/s)    =  N/A
# P''_bary (s/s^2) =  N/A
# P_orb (s)        =  N/A
# asin(i)/c (s)    =  N/A
# eccentricity     =  N/A
# w (rad)          =  N/A
# T_peri           =  N/A
######################################################
   0  174.7029
   1  235.2189
   2  158.6861
   3  177.4669
   4  133.7737
   5  158.4576
   6  163.459
   7  115.6744
   8  59.7257
   9  137.6123
  10  247.2412
  11  148.1352
  12  213.3742
  13  207.6689
  14  166.3447
  15  174.6557
  16  149.8538
  17  4.119182
  18  16.25457
  19  95.62746
  20  225.7633
  21  34.16342
  22  73.27502
  23  -38.63659
  24  -29.42042
  25  36.54453
  26  24.11699
  27  63.84247
  28  222.0298
  29  166.3617
  30  179.6286
  31  142.5766
  32  134.1604
  33  227.9788
  34  182.6581
  35  185.6171
  36  211.0304
  37  137.4001
  38  165.8886
  39  92.06785
  40  142.8447
  41  171.5163
  42  104.9456
  43  142.9257
  44  182.9359
  45  131.1601
  46  254.6277
  47  151.4505
  48  90.07268
  49  -43.84585
  50  65.92161
  51  146.798
  52  82.6087
  53  143.6663
  54  182.612
  55  214.5032
  56  182.6892
  57  110.9164
  58  145.1098
  59  261.6387
  60  307.3601
  61  295.9469
  62  218.362
  63  263.653
  64  193.1765
  65  193.027
  66  108.7568
  67  184.5105
  68  134.7832
  69  87.37708
  70  180.6819
  71  178.3543
  72  349.8919
  73  120.7485
  74  195.0129
  75  52.93563
  76  38.17027
  77  175.2613
  78  246.6856
  79  106.9188
  80  50.61979
  81  92.32935
  82  -11.5688
  83  28.06116
  84  88.42229
  85  -16.93191
  86  43.55978
  87  132.3479
  88  160.0957
  89  34.09396
  90  214.5322
  91  203.7458
  92  169.08
  93  166.0302
  94  213.8865
  95  146.1577
  96  44.25372
  97  151.4729
  98  187.5047
  99  158.517
 100  255.0931
 101  333.4347
 102  215.4675
 103  97.7443
 104  -35.86292
 105  103.2197
 106  80.13319
 107  159.7691
 108  140.7243
 109  143.0207
 110  74.2367
 111  234.4684
 112  269.434
 113  211.0874
 114  214.6517
 115  236.6158
 116  -42.3592
 117  126.5498
 118  247.4262
 119  157.8357
 120  106.8138
 121  197.8341
 122  344.6888
 123  294.0474
 124  78.76996
 125  32.35323
 126  205.3884
 127  157.6112
 128  244.1646
 129  313.916
 130  285.0092
 131  224.3964
 132  202.3319
 133  174.7467
 134  132.2777
 135  92.65701
 136  181.5037
 137  348.7888
 138  284.7524
 139  187.0579
 140  235.2419
 141  141.6054
 142  14.28581
 143  41.66552
 144  234.3746
 145  162.1108
 146  114.5854
 147  69.25848
 148  72.53003
 149  94.4492
 150  157.2014
 151  131.4376
 152  2.035829
 153  63.81808
 154  182.5597
 155  61.25335
 156  59.88433
 157  76.66563
 158  71.68771
 159  -53.41085
 160  113.0518
 161  142.3323
 162  54.55774
 163  -32.64386
 164  103.6313
 165  165.9279
 166  110.4689
 167  40.58015
 168  117.2946
 169  91.45036
 170  168.0784
 171  108.7263
 172  48.95816
 173  103.9353
 174  230.8237
 175  78.67658
 176  33.75963
 177  78.14545
 178  107.9211
 179  73.83665
 180  71.06263
 181  75.63298
 182  168.5063
 183  279.8688
 184  130.0531
 185  8.092607
 186  63.34145
 187  69.3439
 188  155.5639
 189  220.9219
 190  141.522
 191  217.8288
 192  237.5556
 193  191.3153
 194  64.15956
 195  149.0316
 196  76.54709
 197  272.3401
 198  192.9832
 199  40.99184
 200  -8.484076
 201  -1.215164
 202  166.5183
 203  188.0728
 204  129.2454
 205  123.1606
 206  335.876
 207  215.3468
 208  111.4141
 209  294.4547
 210  242.6456
 211  135.7401
 212  113.451
 213  119.571
 214  135.0715
 215  160.7558
 216  188.4283
 217  133.7672
 218  192.2875
 219  319.1743
 220  240.9074
 221  183.6452
 222  16.34179
 223  22.24404
 224  9.11487
 225  182.2329
 226  314.6644
 227  262.3074
 228  206.5095
 229  190.3272
 230  23.61269
 231  13.23809
 232  154.3879
 233  151.2677
 234  126.7719
 235  231.3139
 236  152.4176
 237  174.3449
 238  174.0797
 239  62.2798
 240  126.2716
 241  134.4706
 242  129.1177
 243  179.3271
 244  169.7747
 245  253.8608
 246  178.7136
 247  107.1703
 248  80.88247
 249  70.65734
 250  83.10564
 251  181.6072
 252  77.12522
 253  46.05322
 254  245.5422
 255  105.1857
 256  -35.95159
 257  53.84273
 258  38.76955
 259  28.62961
 260  71.02274
 261  98.14984
 262  205.0071
 263  55.23294
 264  38.68644
 265  150.3034
 266  273.8766
 267  229.205
 268  211.7917
 269  203.143
 270  347.3893
 271  365.5955
 272  137.2614
 273  23.8726
 274  153.5943
 275  172.0559
 276  164.1445
 277  213.8623
 278  246.8802
 279  114.3604
 280  213.2386
 281  113.7058
 282  145.4978
 283  182.4842
 284  103.7625
 285  195.3353
 286  353.0696
 287  293.9529
 288  366.689
 289  349.7429
 290  584.0707
 291  832.3152
 292  982.6622
 293  918.3432
 294  650.9662
 295  516.4553
 296  367.6824
 297  363.2243
 298  329.6073
 299  341.5488
 300  249.5667
 301  82.67001
 302  142.5533
 303  161.9132
 304  119.5013
 305  170.869
 306  230.6958
 307  267.8593
 308  319.8134
 309  192.699
 310  176.4183
 311  65.11539
 312  119.2679
 313  84.78252
 314  100.0189
 315  123.7125
 316  -41.8412
 317  40.01355
 318  84.68176
 319  42.13974
 320  -98.99974
 321  114.8951
 322  179.5125
 323  142.7386
 324  153.5386
 325  134.2706
 326  137.6647
 327  65.38962
 328  78.61253
 329  71.95819
 330  175.3085
 331  82.5088
 332  99.14485
 333  109.9422
 334  141.1432
 335  141.6123
 336  131.9969
 337  148.8287
 338  173.4848
 339  78.73506
 340  51.50648
 341  146.7816
 342  144.535
 343  108.5103
 344  85.41253
 345  205.585
 346  217.0195
 347  189.5283
 348  267.6685
 349  193.9831
 350  108.1225
 351  112.3567
 352  61.79422
 353  228.3454
 354  251.4848
 355  195.065
 356  165.1652
 357  126.1238
 358  227.3274
 359  104.6307
 360  58.01286
 361  50.46766
 362  162.6204
 363  195.8712
 364  81.04559
 365  212.7417
 366  194.7724
 367  194.1603
 368  177.4535
 369  239.1702
 370  201.5641
 371  60.21933
 372  131.8564
 373  181.1581
 374  163.0334
 375  190.0302
 376  152.4189
 377  189.8558
 378  317.4001
 379  189.009
 380  135.2655
 381  73.1368
 382  106.2152
 383  134.6374
 384  349.1574
 385  81.44993
 386  102.9297
 387  85.4257
 388  147.9861
 389  192.3386
 390  150.8216
 391  173.9257
 392  94.25471
 393  127.5351
 394  73.85307
 395  69.79028
 396  55.32228
 397  122.4732
 398  238.4317
 399  249.0455
 400  100.7759
 401  131.6433
 402  94.12839
 403  -27.15181
 404  44.06879
 405  194.1391
 406  323.5114
 407  316.9704
 408  170.493
 409  129.5331
 410  222.0698
 411  164.6236
 412  185.3981
 413  171.892
 414  349.6122
 415  252.4311
 416  30.51735
 417  18.83557
 418  55.99559
 419  97.5211
 420  118.3723
 421  130.6338
 422  123.4226
 423  191.7438
 424  90.61897
 425  184.563
 426  191.9681
 427  145.7495
 428  19.62539
 429  206.2477
 430  244.073
 431  95.38792
 432  82.38086
 433  157.3484
 434  77.75146
 435  74.66031
 436  19.67451
 437  107.3053
 438  108.6353
 439  148.7521
 440  201.1273
 441  299.5419
 442  326.2651
 443  205.2851
 444  174.7463
 445  221.1337
 446  80.77119
 447  157.5772
 448  146.9464
 449  70.83218
 450  26.95878
 451  42.48783
 452  2.755875
 453  70.31145
 454  6.847609
 455  79.81875
 456  104.9183
 457  186.907
 458  178.3092
 459  29.71758
 460  44.96768
 461  62.29375
 462  158.7317
 463  206.8902
 464  198.1546
 465  65.27828
 466  47.41584
 467  80.51123
 468  212.3853
 469  232.4581
 470  166.6571
 471  233.0336
 472  228.1062
 473  262.4119
 474  180.2924
 475  197.4149
 476  119.057
 477  159.349
 478  59.21636
 479  121.8396
 480  168.7583
 481  126.2955
 482  52.27846
 483  115.1226
 484  200.3253
 485  120.8197
 486  185.8125
 487  58.46051
 488  219.3507
 489  135.7875
 490  213.5111
 491  260.1037
 492  147.6005
 493  87.61912
 494  96.35731
 495  166.8578
 496  279.5155
 497  67.28295
 498  39.79256
 499  186.5323
 500  195.6951
 501  166.7199
 502  137.3843
 503  86.56603
 504  174.3461
 505  28.83001
 506  99.58222
 507  220.2184
 508  186.8364
 509  37.1933
 510  60.14112
 511  160.0156
