# Input file       =  1189743766.114279-PSRB0329-2ms-sampling-dd.dat
# Candidate        =  PSR_0332+5434
# Telescope        =  AR
# Epoch_topo       =  58014.182698081931
# Epoch_bary       =  N/A
# T_sample         =  0.002
# Data Folded      =  7340032
# Data Avg         =  -7.49620575679967e-10
# Data StdDev      =  5.33033368779593 
# Profile Bins     =  512
# Profile Avg      =  -0.0755549474151033
# Profile StdDev   =  638.217037341172 
# Reduced chi-sqr  =  0.796
# Prob(Noise)      <  1   (~0.0 sigma)
# P_topo (ms)      =  714.467213002682  +/- 0.000155
# P'_topo (s/s)    =  -0                +/- 8.16e-11
# P''_topo (s/s^2) =  0                 +/- 3.6e-14
# P_bary (ms)      =  N/A
# P'_bary (s/s)    =  N/A
# P''_bary (s/s^2) =  N/A
# P_orb (s)        =  N/A
# asin(i)/c (s)    =  N/A
# eccentricity     =  N/A
# w (rad)          =  N/A
# T_peri           =  N/A
######################################################
   0  -584.0976
   1  -169.4962
   2  -344.7641
   3  -360.1739
   4  -736.0491
   5  -486.0594
   6  -711.6201
   7  -571.1986
   8  -246.7276
   9  -504.4871
  10  -587.4389
  11  -275.9953
  12  -251.9207
  13  -284.002
  14  -114.5
  15  544.9303
  16  85.87996
  17  -291.4587
  18  -441.2065
  19  -26.33735
  20  68.4028
  21  -140.9422
  22  42.24773
  23  269.7016
  24  -86.58385
  25  -873.4802
  26  -1073.715
  27  -1227.774
  28  -1198.434
  29  -45.72234
  30  -64.1945
  31  216.9844
  32  -603.6542
  33  -890.5711
  34  -862.4528
  35  -724.4061
  36  -521.3002
  37  -561.4822
  38  -71.71043
  39  209.7445
  40  -33.08005
  41  -385.9097
  42  -551.2693
  43  -379.5253
  44  -71.15262
  45  -123.1035
  46  -53.67417
  47  246.5558
  48  -57.13676
  49  -191.9679
  50  -156.2762
  51  -694.2062
  52  -75.24515
  53  398.0037
  54  -18.83243
  55  -221.0662
  56  364.6821
  57  297.322
  58  -347.4506
  59  -388.1985
  60  -209.9776
  61  298.052
  62  793.059
  63  566.9349
  64  -239.1616
  65  -579.8124
  66  -582.5202
  67  -304.8625
  68  -61.88545
  69  -53.31935
  70  -57.78017
  71  3.078054
  72  -86.06991
  73  -282.9366
  74  -16.09459
  75  -115.2795
  76  21.90506
  77  -577.4831
  78  -573.9673
  79  -215.2911
  80  -516.3696
  81  -609.9624
  82  -110.6425
  83  -5.056451
  84  -335.6507
  85  -716.9691
  86  -211.5269
  87  115.2394
  88  -22.05934
  89  -152.616
  90  130.6193
  91  -217.966
  92  -684.7336
  93  -537.8234
  94  102.0914
  95  -151.3452
  96  -193.5968
  97  -414.7349
  98  162.522
  99  -113.5198
 100  -240.9619
 101  -280.9291
 102  107.0176
 103  437.8163
 104  -120.617
 105  -168.3277
 106  61.88691
 107  -216.8201
 108  -345.2308
 109  -359.9815
 110  -661.4953
 111  -242.8094
 112  232.0544
 113  -243.3643
 114  41.65623
 115  130.353
 116  -434.9594
 117  -396.5718
 118  -211.8896
 119  -133.2975
 120  -107.2578
 121  464.6131
 122  680.9506
 123  696.3375
 124  332.5885
 125  507.8152
 126  170.8517
 127  785.709
 128  1389.366
 129  1915.519
 130  1598.282
 131  1548.611
 132  1222.912
 133  821.671
 134  1188.897
 135  715.2093
 136  -87.3757
 137  -203.7709
 138  513.1046
 139  321.6407
 140  207.8751
 141  198.681
 142  229.3861
 143  185.0908
 144  350.0976
 145  441.6546
 146  8.586386
 147  180.1351
 148  -103.2792
 149  -232.1639
 150  63.41989
 151  -182.884
 152  146.2941
 153  -146.05
 154  -574.9122
 155  81.36156
 156  80.48492
 157  264.2796
 158  -125.1352
 159  393.9611
 160  430.9312
 161  406.4806
 162  406.4014
 163  208.6857
 164  50.56186
 165  136.2256
 166  467.0587
 167  174.6965
 168  34.93776
 169  76.00462
 170  -42.23552
 171  -458.0879
 172  -654.8088
 173  -68.2327
 174  -239.6065
 175  330.6627
 176  -280.7898
 177  -605.285
 178  -297.1711
 179  -279.8135
 180  -204.2816
 181  56.12053
 182  29.04305
 183  -11.31586
 184  158.2868
 185  135.5079
 186  138.1355
 187  516.397
 188  433.616
 189  432.3666
 190  514.6795
 191  420.9079
 192  135.1888
 193  -365.9875
 194  -94.794
 195  394.3295
 196  381.5562
 197  250.9771
 198  39.49676
 199  -173.9751
 200  -429.0663
 201  -359.8593
 202  -365.693
 203  307.0662
 204  203.8183
 205  -269.3606
 206  1.618549
 207  -272.7992
 208  -237.6738
 209  56.11226
 210  -146.3456
 211  -130.1379
 212  113.3046
 213  619.2019
 214  490.4991
 215  120.3718
 216  -328.2712
 217  -10.19742
 218  34.31846
 219  91.47913
 220  138.9276
 221  114.8564
 222  350.8225
 223  718.2899
 224  853.5722
 225  552.4975
 226  260.1047
 227  318.8947
 228  317.4629
 229  -239.6894
 230  -382.1246
 231  498.819
 232  839.3356
 233  696.4585
 234  672.7523
 235  749.7264
 236  870.928
 237  10.24519
 238  -48.15664
 239  -228.0322
 240  50.36636
 241  183.7541
 242  566.7998
 243  220.5608
 244  -225.1619
 245  -276.2955
 246  -325.8503
 247  231.6635
 248  418.4808
 249  790.4857
 250  1119.354
 251  370.7825
 252  99.02748
 253  281.5392
 254  553.7321
 255  -7.587924
 256  241.5615
 257  557.7235
 258  612.5403
 259  391.264
 260  328.9631
 261  18.34179
 262  -18.95989
 263  311.4342
 264  211.048
 265  250.9091
 266  419.3925
 267  451.5528
 268  -35.37495
 269  269.5729
 270  327.5862
 271  -22.28666
 272  286.8643
 273  603.5405
 274  542.6099
 275  869.3376
 276  765.5236
 277  689.7386
 278  604.8483
 279  419.558
 280  15.36413
 281  295.624
 282  553.7676
 283  396.7098
 284  356.5671
 285  403.1326
 286  853.0343
 287  377.8094
 288  213.6649
 289  271.7932
 290  614.908
 291  -86.52392
 292  -347.3667
 293  106.2654
 294  280.0853
 295  -53.68539
 296  -273.2726
 297  338.3487
 298  389.5374
 299  -36.41121
 300  -426.0076
 301  -481.2374
 302  -261.3766
 303  -133.9913
 304  256.0933
 305  170.0911
 306  321.4292
 307  240.8063
 308  -317.091
 309  -244.2705
 310  -32.19653
 311  -61.56952
 312  -327.1059
 313  -618.2319
 314  -519.9617
 315  145.9022
 316  -194.9085
 317  372.4792
 318  791.0488
 319  433.5833
 320  283.7157
 321  110.7787
 322  123.3765
 323  774.1283
 324  193.6987
 325  246.5724
 326  166.2179
 327  387.4164
 328  326.6384
 329  -232.7188
 330  405.5696
 331  418.8032
 332  203.1878
 333  108.7528
 334  97.51611
 335  479.6634
 336  319.1659
 337  558.6634
 338  675.0229
 339  998.7766
 340  721.0504
 341  207.9841
 342  262.1724
 343  257.8055
 344  335.579
 345  454.766
 346  903.6665
 347  845.5508
 348  325.7606
 349  354.8647
 350  -308.1284
 351  -110.3053
 352  121.7332
 353  391.436
 354  -183.8583
 355  -317.0587
 356  8.931015
 357  42.83947
 358  -276.1204
 359  -69.8503
 360  290.3139
 361  123.7669
 362  63.68189
 363  -409.7299
 364  -245.0583
 365  113.3357
 366  -338.8322
 367  -249.5929
 368  -83.97834
 369  135.7992
 370  5.567052
 371  -109.6047
 372  -307.9892
 373  -342.8268
 374  -282.4253
 375  -579.5975
 376  -443.7755
 377  -81.87295
 378  170.2767
 379  54.6998
 380  -523.962
 381  -322.0093
 382  -381.1754
 383  -242.0231
 384  73.00663
 385  299.8213
 386  132.6401
 387  -285.8177
 388  -388.7498
 389  107.0838
 390  -115.3971
 391  -213.8654
 392  -484.5549
 393  -621.9873
 394  83.61449
 395  167.9101
 396  81.70251
 397  -292.111
 398  -350.5994
 399  105.2675
 400  51.1615
 401  -114.2283
 402  -26.53407
 403  -555.6018
 404  -540.7583
 405  -646.3188
 406  -185.9226
 407  -179.9716
 408  7.369383
 409  -145.6977
 410  -544.3523
 411  -696.6487
 412  -721.7659
 413  -745.0712
 414  -211.0941
 415  -72.28131
 416  -6.378115
 417  -324.2929
 418  -414.2137
 419  -236.2743
 420  -42.95504
 421  -195.8205
 422  69.57239
 423  440.8503
 424  163.5686
 425  260.157
 426  316.768
 427  -332.5621
 428  -133.3522
 429  -198.0928
 430  -102.6837
 431  -380.3991
 432  -680.2312
 433  -635.7991
 434  -570.09
 435  -139.4823
 436  73.73975
 437  -119.2846
 438  -223.1134
 439  -343.7264
 440  -225.9726
 441  138.7735
 442  29.06256
 443  159.7117
 444  156.0779
 445  -23.27424
 446  -411.4798
 447  -810.8815
 448  -952.5352
 449  -145.0791
 450  -663.8998
 451  -221.7872
 452  562.4679
 453  -283.0884
 454  -488.475
 455  -437.8838
 456  -195.4683
 457  -75.45466
 458  221.4533
 459  255.1222
 460  631.7374
 461  -12.92821
 462  -179.4301
 463  -198.9234
 464  -303.283
 465  7.559483
 466  -716.3496
 467  -241.118
 468  -27.35016
 469  -188.8914
 470  -699.1388
 471  -442.6609
 472  -406.6978
 473  -508.2344
 474  -94.38441
 475  -358.4795
 476  168.3866
 477  39.88333
 478  72.7575
 479  39.16248
 480  -68.8326
 481  -340.2054
 482  -383.9723
 483  2.789823
 484  126.9957
 485  225.7449
 486  216.5885
 487  202.5815
 488  -353.9481
 489  -356.9507
 490  181.1398
 491  179.5313
 492  18.8388
 493  290.8057
 494  -269.5837
 495  -119.9606
 496  -330.1256
 497  -378.1075
 498  -424.8445
 499  -306.3668
 500  71.41414
 501  -10.34857
 502  -370.1186
 503  -174.7266
 504  -513.7923
 505  -595.7278
 506  -227.9917
 507  -454.2993
 508  -132.8443
 509  -222.3058
 510  -156.5406
 511  -45.13252
