# Input file       =  1189283375.118279_cleaned.dat
# Candidate        =  PSR_0332+5434
# Telescope        =  AR
# Epoch_topo       =  58008.854098591190
# Epoch_bary       =  N/A
# T_sample         =  0.002
# Data Folded      =  7208960
# Data Avg         =  0.206089302138637
# Data StdDev      =  4.25721306615343 
# Profile Bins     =  256
# Profile Avg      =  5803.48775148159 
# Profile StdDev   =  714.400437172368 
# Reduced chi-sqr  =  0.674
# Prob(Noise)      <  1   (~0.0 sigma)
# P_topo (ms)      =  714.465289901126  +/- 0.00092
# P'_topo (s/s)    =  -0                +/- 4.94e-10
# P''_topo (s/s^2) =  0                 +/- 2.22e-13
# P_bary (ms)      =  N/A
# P'_bary (s/s)    =  N/A
# P''_bary (s/s^2) =  N/A
# P_orb (s)        =  N/A
# asin(i)/c (s)    =  N/A
# eccentricity     =  N/A
# w (rad)          =  N/A
# T_peri           =  N/A
######################################################
   0  5623.352
   1  6013.949
   2  5460.72
   3  5442.648
   4  5598.865
   5  5269.47
   6  5950.329
   7  5949.797
   8  5499.307
   9  5191.069
  10  5813.715
  11  5738.951
  12  5777.481
  13  5716.732
  14  6140.529
  15  5504.3
  16  5589.466
  17  5707.247
  18  5718.838
  19  6136.502
  20  5459.842
  21  5794.931
  22  7263.738
  23  6049.951
  24  5776.172
  25  5471.76
  26  5432.972
  27  6077.548
  28  6319.192
  29  5830.704
  30  5382.73
  31  5836.91
  32  6429.187
  33  4861.502
  34  5740.04
  35  6163.026
  36  5627.889
  37  5220.138
  38  5682.046
  39  6167.546
  40  6121.717
  41  4906.897
  42  5849.207
  43  5857.943
  44  6036.301
  45  5515.489
  46  5627.591
  47  6122.012
  48  6051.174
  49  6527.252
  50  5705.64
  51  5314.173
  52  6473.194
  53  5824.817
  54  6466.819
  55  6121.231
  56  5864.962
  57  5852.692
  58  5566.124
  59  5864.291
  60  6139.628
  61  5620.67
  62  4782.814
  63  4903.38
  64  6064.784
  65  5927.876
  66  5705.981
  67  6310.747
  68  5551.309
  69  5845.032
  70  6016.711
  71  6495.448
  72  5754.672
  73  6051.029
  74  5745.186
  75  5022.215
  76  5559.748
  77  5472.721
  78  5674.026
  79  5705.5
  80  5820.788
  81  5651.482
  82  5651.011
  83  5144.854
  84  6238.721
  85  5448.854
  86  5212.317
  87  5590.646
  88  5345.54
  89  5772.575
  90  6061.75
  91  5462.574
  92  5367.56
  93  5608.086
  94  5570.149
  95  5789.021
  96  5967.983
  97  6105.46
  98  5739.626
  99  5109.348
 100  5932.099
 101  5373.544
 102  5732.38
 103  5226.263
 104  5301.267
 105  5750.854
 106  6462.062
 107  6367.288
 108  4695.102
 109  5582.933
 110  5394.345
 111  5932.942
 112  5420.77
 113  5622.387
 114  5742.582
 115  6549.417
 116  5997.792
 117  5774.86
 118  5194.193
 119  5560.987
 120  5990.134
 121  6494.351
 122  5925.003
 123  5392.585
 124  6099.738
 125  6636.061
 126  5517.309
 127  5381.353
 128  5652.047
 129  6206.461
 130  6068.231
 131  5886.905
 132  5694.322
 133  6237.979
 134  6272.341
 135  5725.115
 136  5848.614
 137  5484.751
 138  6056.342
 139  6221.982
 140  6003.556
 141  5546.03
 142  6477.256
 143  6206.4
 144  6043.273
 145  5917.348
 146  5415.274
 147  4960.404
 148  5423.507
 149  5341.088
 150  5509.386
 151  5921.306
 152  5847.87
 153  5564.212
 154  5597.495
 155  5712.892
 156  5947.453
 157  6599.403
 158  6549.48
 159  7233.934
 160  8654.957
 161  9149.961
 162  7986.013
 163  6281.078
 164  5750.991
 165  6039.598
 166  5473.173
 167  5910.724
 168  6419.776
 169  5644.367
 170  5270.019
 171  6190.045
 172  6027.861
 173  5789.271
 174  5756.907
 175  5468.551
 176  5460.504
 177  5718.935
 178  5688.493
 179  5169.441
 180  5681.514
 181  5951.727
 182  6078.779
 183  5609.687
 184  5955.665
 185  5377.833
 186  5357.98
 187  5704.721
 188  5917.66
 189  6149.483
 190  5474.821
 191  6143.725
 192  5680.953
 193  5507.959
 194  5309.178
 195  5970.93
 196  5711.468
 197  5633.534
 198  6137.694
 199  5532.951
 200  6030.898
 201  5839.857
 202  5420.169
 203  5877.517
 204  6054.036
 205  5738.933
 206  5909.781
 207  5738.442
 208  5510.134
 209  6425.922
 210  6042.362
 211  5047.042
 212  5756.64
 213  6420.463
 214  6784.147
 215  5845.839
 216  5304.961
 217  5419.598
 218  5934.991
 219  5539.226
 220  5456.115
 221  4978.945
 222  5835.188
 223  5028.575
 224  5360.588
 225  6699.155
 226  6309.952
 227  5276.248
 228  5350.746
 229  5969.229
 230  5906.748
 231  5286.841
 232  5725.778
 233  5398.443
 234  5602.933
 235  5167.125
 236  5928.327
 237  6062.907
 238  5581
 239  5151.774
 240  5943.079
 241  5768.308
 242  6183.838
 243  5520.878
 244  6248.479
 245  6633.064
 246  6371.088
 247  5738.187
 248  5454.529
 249  5970.292
 250  5393.921
 251  5675.835
 252  5583.473
 253  5481.896
 254  5148.257
 255  5789.539
