# Input file       =  1189485312.127878_cleaned.dat
# Candidate        =  PSR_0332+5434
# Telescope        =  AR
# Epoch_topo       =  58011.191332498587
# Epoch_bary       =  N/A
# T_sample         =  0.002
# Data Folded      =  7340032
# Data Avg         =  0.00929363966856605
# Data StdDev      =  1.00003008393927 
# Profile Bins     =  512
# Profile Avg      =  133.274211252955 
# Profile StdDev   =  119.736638418161 
# Reduced chi-sqr  =  1.375
# Prob(Noise)      <  3.4e-08   (~5.4 sigma)
# P_topo (ms)      =  714.466270063692  +/- 0.000143
# P'_topo (s/s)    =  -0                +/- 7.52e-11
# P''_topo (s/s^2) =  0                 +/- 3.32e-14
# P_bary (ms)      =  N/A
# P'_bary (s/s)    =  N/A
# P''_bary (s/s^2) =  N/A
# P_orb (s)        =  N/A
# asin(i)/c (s)    =  N/A
# eccentricity     =  N/A
# w (rad)          =  N/A
# T_peri           =  N/A
######################################################
   0  28.61893
   1  -86.46045
   2  144.5495
   3  177.6528
   4  80.84954
   5  164.1219
   6  40.30146
   7  157.0234
   8  26.11427
   9  29.6955
  10  120.1738
  11  202.3346
  12  230.8766
  13  158.5146
  14  122.6023
  15  152.7252
  16  99.51055
  17  86.44988
  18  72.16596
  19  109.5174
  20  197.5977
  21  198.8698
  22  -5.722194
  23  50.70468
  24  195.5886
  25  73.98853
  26  -41.51298
  27  -44.27047
  28  120.8226
  29  90.45987
  30  168.19
  31  142.7747
  32  34.04006
  33  144.6464
  34  160.9471
  35  73.6613
  36  -51.39548
  37  -36.33203
  38  132.5563
  39  95.8839
  40  5.472778
  41  -6.034297
  42  12.93761
  43  260.4007
  44  261.7692
  45  114.5769
  46  50.09207
  47  192.2443
  48  260.519
  49  138.8306
  50  84.63461
  51  116.1975
  52  50.16031
  53  29.14909
  54  98.65682
  55  86.67472
  56  156.415
  57  197.0626
  58  145.6927
  59  51.49098
  60  32.23483
  61  153.8493
  62  152.9104
  63  204.4212
  64  102.5317
  65  -40.27533
  66  -65.43419
  67  8.654749
  68  -18.69238
  69  -30.93138
  70  118.0394
  71  102.3496
  72  223.0063
  73  129.9043
  74  172.6751
  75  133.8158
  76  -18.3721
  77  -88.23659
  78  2.920014
  79  115.8394
  80  -15.57095
  81  21.60617
  82  88.15787
  83  197.2818
  84  132.9597
  85  65.40942
  86  86.10963
  87  176.4126
  88  173.684
  89  309.4169
  90  475.0609
  91  687.5914
  92  762.7001
  93  825.6943
  94  610.6407
  95  301.0051
  96  218.1409
  97  277.5309
  98  52.02822
  99  42.52032
 100  12.27017
 101  105.1574
 102  53.12074
 103  37.77373
 104  102.1775
 105  227.8587
 106  49.88434
 107  92.87436
 108  159.2867
 109  199.7952
 110  49.24305
 111  71.54351
 112  76.88764
 113  11.8094
 114  89.64052
 115  229.0033
 116  140.5459
 117  20.37616
 118  40.07846
 119  -78.25171
 120  58.49893
 121  209.671
 122  243.5295
 123  133.1747
 124  84.50066
 125  301.8095
 126  98.28845
 127  119.0423
 128  109.7902
 129  181.2556
 130  65.07403
 131  92.65868
 132  145.6765
 133  232.1586
 134  173.6518
 135  206.46
 136  139.8357
 137  54.40002
 138  125.0328
 139  199.2872
 140  116.8097
 141  56.86948
 142  21.26056
 143  105.6226
 144  128.8116
 145  140.4543
 146  138.2082
 147  64.54397
 148  130.6169
 149  -55.11831
 150  22.52125
 151  80.82336
 152  224.8921
 153  157.9782
 154  41.97166
 155  154.7108
 156  248.5076
 157  128.1959
 158  78.43574
 159  78.43876
 160  186.0471
 161  36.85923
 162  124.9016
 163  163.035
 164  40.12231
 165  -30.34869
 166  103.1008
 167  121.6537
 168  223.2389
 169  134.4994
 170  100.779
 171  92.51785
 172  -4.047126
 173  58.73355
 174  202.5931
 175  218.8108
 176  196.7855
 177  43.57836
 178  86.16171
 179  156.6207
 180  244.0126
 181  334.8655
 182  203.914
 183  98.48013
 184  153.4203
 185  151.2895
 186  252.3282
 187  193.2054
 188  42.83825
 189  104.5328
 190  106.2248
 191  181.9853
 192  156.2686
 193  180.9679
 194  256.3239
 195  62.95308
 196  76.17362
 197  310.4441
 198  223.5798
 199  152.1239
 200  52.50935
 201  196.3342
 202  289.9182
 203  305.8301
 204  362.0753
 205  260.8711
 206  222.0247
 207  97.76162
 208  60.44744
 209  163.7191
 210  295.8764
 211  26.98926
 212  -31.76292
 213  -22.101
 214  105.622
 215  222.8713
 216  48.88883
 217  -42.75547
 218  -45.23208
 219  61.81455
 220  255.0259
 221  112.1111
 222  89.24419
 223  -8.295919
 224  2.157431
 225  86.13439
 226  278.8658
 227  196.7096
 228  49.53037
 229  -15.43756
 230  57.08291
 231  113.4371
 232  -37.01463
 233  -54.06896
 234  89.54223
 235  222.8411
 236  259.008
 237  195.5557
 238  119.4961
 239  134.2836
 240  74.98124
 241  65.33909
 242  170.7492
 243  296.9477
 244  331.5192
 245  221.2081
 246  181.345
 247  122.7792
 248  81.72066
 249  33.62846
 250  48.25963
 251  8.72432
 252  -74.00423
 253  -102.7121
 254  -49.35058
 255  136.5536
 256  123.581
 257  143.9912
 258  176.8581
 259  156.0483
 260  129.3083
 261  165.5251
 262  92.54148
 263  20.36562
 264  42.91032
 265  142.4132
 266  152.3714
 267  108.2896
 268  170.8119
 269  218.2339
 270  153.2141
 271  109.4581
 272  188.8193
 273  152.5522
 274  53.65396
 275  138.1959
 276  165.3545
 277  116.0073
 278  38.42938
 279  94.93103
 280  -0.07135169
 281  46.67308
 282  108.7339
 283  143.6942
 284  184.7052
 285  303.3361
 286  201.5886
 287  139.1323
 288  103.4315
 289  194.0926
 290  112.6088
 291  185.0932
 292  277.3252
 293  178.4362
 294  222.5259
 295  141.1802
 296  140.8034
 297  228.1134
 298  163.8033
 299  -42.54136
 300  82.71385
 301  173.5751
 302  143.8105
 303  112.1225
 304  177.7795
 305  114.247
 306  114.0536
 307  88.51698
 308  245.0511
 309  156.9185
 310  41.07594
 311  14.23084
 312  89.53716
 313  132.0453
 314  32.16412
 315  -31.58059
 316  112.4393
 317  264.6743
 318  236.2152
 319  391.2926
 320  213.2754
 321  165.6871
 322  121.2016
 323  12.02783
 324  146.5545
 325  185.4739
 326  229.903
 327  136.4052
 328  124.4078
 329  146.2992
 330  5.933976
 331  -75.80826
 332  90.07364
 333  52.13146
 334  71.87718
 335  167.8543
 336  111.5831
 337  43.83913
 338  77.21645
 339  33.46778
 340  32.72709
 341  64.84556
 342  45.90797
 343  81.41817
 344  138.0909
 345  176.5974
 346  236.5987
 347  186.1268
 348  163.8261
 349  255.5617
 350  237.4234
 351  222.9785
 352  138.0145
 353  53.60644
 354  209.1987
 355  91.29076
 356  48.94861
 357  147.1302
 358  122.9216
 359  272.3396
 360  180.0417
 361  148.1839
 362  126.5366
 363  133.2751
 364  221.6945
 365  344.6378
 366  162.9449
 367  61.18544
 368  142.1266
 369  83.01646
 370  246.4309
 371  195.2139
 372  189.0934
 373  260.6948
 374  224.6007
 375  156.7321
 376  213.1447
 377  123.2626
 378  148.4441
 379  180.3182
 380  109.281
 381  100.374
 382  64.34464
 383  78.68945
 384  149.9908
 385  71.20938
 386  123.8169
 387  137.6366
 388  137.122
 389  170.0173
 390  116.3731
 391  164.8723
 392  110.9798
 393  163.8304
 394  221.7721
 395  114.8185
 396  156.3423
 397  152.9959
 398  55.9852
 399  107.9699
 400  164.6539
 401  112.4725
 402  72.24799
 403  96.38763
 404  163.3222
 405  251.4978
 406  260.2285
 407  163.3328
 408  96.71976
 409  13.85566
 410  166.7574
 411  64.51437
 412  106.1371
 413  223.8892
 414  47.29871
 415  224.6938
 416  201.6492
 417  107.0958
 418  271.7184
 419  353.5353
 420  254.6838
 421  328.0168
 422  377.4407
 423  264.5445
 424  69.08024
 425  73.19611
 426  270.2915
 427  253.2465
 428  213.6086
 429  177.5109
 430  233.7989
 431  191.3189
 432  139.1335
 433  127.4495
 434  132.4455
 435  91.30937
 436  17.53324
 437  85.74638
 438  69.96985
 439  143.7128
 440  318.6339
 441  228.8999
 442  93.78208
 443  146.8249
 444  141.172
 445  77.50211
 446  116.1314
 447  76.13926
 448  201.8669
 449  96.38242
 450  81.45335
 451  244.4422
 452  220.3275
 453  88.93139
 454  33.7333
 455  92.27713
 456  232.2171
 457  202.7247
 458  145.9187
 459  205.8661
 460  214.3202
 461  172.1371
 462  162.6957
 463  32.77383
 464  -47.45745
 465  48.31113
 466  159.2242
 467  259.4974
 468  80.1996
 469  194.2478
 470  156.4409
 471  221.602
 472  188.2314
 473  188.5637
 474  248.0756
 475  116.5284
 476  70.59211
 477  123.6725
 478  104.7613
 479  18.84662
 480  63.58684
 481  196.4604
 482  205.5165
 483  108.6723
 484  69.65299
 485  200.1847
 486  313.6694
 487  104.8171
 488  151.4283
 489  223.9914
 490  217.5914
 491  137.8949
 492  147.562
 493  169.9415
 494  8.893993
 495  54.36064
 496  127.8309
 497  61.7527
 498  157.039
 499  168.8453
 500  36.68929
 501  -13.35884
 502  106.2876
 503  145.63
 504  152.4104
 505  191.6093
 506  166.1842
 507  128.0643
 508  39.75437
 509  122.6018
 510  53.70257
 511  168.2545
