# Input file       =  1189312948.110782-PSRB0329-2ms-sampling-dd.dat
# Candidate        =  PSR_0332+5434
# Telescope        =  AR
# Epoch_topo       =  58009.196378597015
# Epoch_bary       =  N/A
# T_sample         =  0.002
# Data Folded      =  7340032
# Data Avg         =  6.83349011879778e-11
# Data StdDev      =  5.20464282275634 
# Profile Bins     =  512
# Profile Avg      =  0.199147226151905
# Profile StdDev   =  623.167688425159 
# Reduced chi-sqr  =  0.790
# Prob(Noise)      <  1   (~0.0 sigma)
# P_topo (ms)      =  714.465725916905  +/- 0.000138
# P'_topo (s/s)    =  -0                +/- 7.29e-11
# P''_topo (s/s^2) =  0                 +/- 3.22e-14
# P_bary (ms)      =  N/A
# P'_bary (s/s)    =  N/A
# P''_bary (s/s^2) =  N/A
# P_orb (s)        =  N/A
# asin(i)/c (s)    =  N/A
# eccentricity     =  N/A
# w (rad)          =  N/A
# T_peri           =  N/A
######################################################
   0  182.8157
   1  -58.90918
   2  -381.4026
   3  -434.5452
   4  -441.6162
   5  -726.6299
   6  -553.7878
   7  -624.3748
   8  -378.1887
   9  -925.2862
  10  -795.0795
  11  -511.8913
  12  -599.618
  13  -625.634
  14  -75.73418
  15  263.0605
  16  -11.69129
  17  -13.8163
  18  -41.38344
  19  -463.8806
  20  -586.8292
  21  -440.1142
  22  59.71062
  23  165.1869
  24  -82.1655
  25  3.475506
  26  -253.369
  27  -445.0069
  28  -810.2929
  29  -528.9868
  30  -426.6393
  31  153.2094
  32  611.0938
  33  199.4135
  34  -141.4268
  35  -530.7585
  36  -597.6003
  37  -318.5636
  38  150.5685
  39  195.3926
  40  205.5475
  41  -209.366
  42  -436.8811
  43  -302.1519
  44  -782.9763
  45  -507.1498
  46  30.14669
  47  -22.99811
  48  -102.718
  49  -194.3584
  50  -50.06097
  51  -132.6341
  52  -459.1129
  53  -109.0134
  54  329.9619
  55  367.1679
  56  297.4538
  57  687.0509
  58  379.5788
  59  466.2986
  60  -273.6617
  61  -414.5054
  62  -573.3036
  63  -637.7149
  64  107.9773
  65  50.24456
  66  489.1566
  67  298.6683
  68  117.189
  69  24.23837
  70  -89.60023
  71  -53.2969
  72  -373.9998
  73  -231.1694
  74  156.6731
  75  -237.6167
  76  -322.1452
  77  -281.1242
  78  -103.5659
  79  -357.856
  80  184.8919
  81  -192.5553
  82  -88.01777
  83  220.4031
  84  138.6137
  85  -253.7029
  86  -179.3438
  87  -8.133705
  88  -76.33121
  89  199.6452
  90  274.4428
  91  687.2032
  92  496.9818
  93  163.3762
  94  -8.955547
  95  3.932614
  96  -199.3866
  97  -143.7456
  98  -78.1792
  99  -347.8667
 100  97.76472
 101  245.5919
 102  -8.69961
 103  289.8083
 104  -46.90114
 105  -147.4404
 106  -33.73163
 107  358.0431
 108  -167.923
 109  -173.0539
 110  342.3792
 111  374.2946
 112  -54.80621
 113  -104.6278
 114  102.4514
 115  249.0325
 116  -170.0059
 117  -100.7093
 118  -179.1852
 119  -170.1488
 120  -264.315
 121  72.13511
 122  -35.89304
 123  -77.88684
 124  471.31
 125  113.3169
 126  -236.1902
 127  37.94561
 128  479.5627
 129  507.5023
 130  209.2704
 131  -237.7951
 132  -529.0447
 133  -57.59297
 134  -155.9796
 135  1.459596
 136  5.998755
 137  -40.46209
 138  75.75417
 139  298.8845
 140  619.0201
 141  153.9404
 142  217.7513
 143  -190.5741
 144  -538.8661
 145  -45.87116
 146  127.0068
 147  134.555
 148  588.8076
 149  100.9462
 150  526.2662
 151  297.1216
 152  -226.7266
 153  -451.3375
 154  181.8116
 155  534.9913
 156  155.0951
 157  -134.6987
 158  -399.3777
 159  165.9201
 160  534.5872
 161  354.6644
 162  398.7445
 163  66.02841
 164  553.2775
 165  452.4532
 166  -59.70789
 167  -271.0064
 168  -13.83676
 169  -397.221
 170  -428.2581
 171  -44.53973
 172  -113.1802
 173  -393.5759
 174  343.1956
 175  503.9032
 176  -289.438
 177  -410.0698
 178  -261.7546
 179  -0.8454366
 180  -349.8914
 181  -112.6206
 182  426.2364
 183  321.3127
 184  196.5819
 185  -158.0973
 186  331.6139
 187  64.7292
 188  192.8717
 189  -12.91495
 190  430.8477
 191  606.2132
 192  387.6339
 193  205.7738
 194  58.23932
 195  59.48932
 196  55.90917
 197  291.9581
 198  61.24091
 199  -146.7534
 200  -45.88176
 201  531.1868
 202  24.62554
 203  -208.707
 204  223.5752
 205  37.72408
 206  -142.7573
 207  295.0351
 208  -230.8044
 209  -143.1694
 210  -523.0138
 211  -82.49093
 212  145.9014
 213  -103.8644
 214  -179.1139
 215  -316.9789
 216  434.9688
 217  419.2004
 218  -311.8835
 219  -231.7569
 220  -366.516
 221  -513.3878
 222  -829.9883
 223  -127.0793
 224  494.6615
 225  120.9325
 226  147.9802
 227  -157.6959
 228  -133.8462
 229  412.7856
 230  238.8965
 231  281.9824
 232  266.5497
 233  436.1534
 234  75.03249
 235  99.06442
 236  196.0843
 237  -99.6585
 238  -613.4272
 239  20.35926
 240  89.29964
 241  37.374
 242  -416.9834
 243  -370.6424
 244  9.392494
 245  -369.3213
 246  -429.7335
 247  -624.4578
 248  -277.2841
 249  667.562
 250  557.4446
 251  644.3005
 252  -479.5714
 253  -698.7524
 254  178.7395
 255  342.1346
 256  365.7811
 257  584.8082
 258  96.10312
 259  0.9795151
 260  -86.4337
 261  -112.3799
 262  -202.2631
 263  -189.35
 264  45.44224
 265  271.8006
 266  -108.9109
 267  -170.6496
 268  73.67921
 269  -70.7163
 270  237.4538
 271  9.941361
 272  -640.4554
 273  -145.0972
 274  11.25578
 275  448.5645
 276  459.4049
 277  299.8103
 278  218.7417
 279  146.2106
 280  -72.96629
 281  -19.60224
 282  138.6379
 283  534.5251
 284  28.02016
 285  -590.6718
 286  -462.1411
 287  -519.7343
 288  -30.80057
 289  308.1828
 290  647.3293
 291  288.2138
 292  0.4518869
 293  318.5789
 294  -362.0453
 295  53.22781
 296  463.5982
 297  417.6683
 298  -132.927
 299  -101.7646
 300  176.8466
 301  -299.2269
 302  -215.3861
 303  -191.2566
 304  -356.7173
 305  -556.3826
 306  -702.2717
 307  -436.2096
 308  -284.129
 309  -268.8295
 310  -718.11
 311  -245.3422
 312  -133.3733
 313  -36.6046
 314  -140.3773
 315  79.54117
 316  -26.93951
 317  168.4951
 318  151.4548
 319  81.34332
 320  314.5089
 321  -204.0146
 322  -314.0141
 323  264.4364
 324  -149.6389
 325  158.0083
 326  -514.4976
 327  -358.5994
 328  -452.5576
 329  -311.4936
 330  182.5748
 331  491.809
 332  462.459
 333  -88.48657
 334  -355.3199
 335  -252.5753
 336  -368.4496
 337  -163.0335
 338  -401.2905
 339  -143.19
 340  -224.52
 341  -19.49899
 342  229.254
 343  230.3314
 344  26.89059
 345  -96.47321
 346  -93.71734
 347  -416.3126
 348  -328.9059
 349  -588.0834
 350  -264.5742
 351  208.041
 352  307.5939
 353  352.8982
 354  -39.53129
 355  -69.43011
 356  86.57807
 357  92.75641
 358  141.1704
 359  204.5266
 360  595.8167
 361  681.8367
 362  -9.805547
 363  -711.405
 364  -479.322
 365  -267.8716
 366  -325.3018
 367  -20.22417
 368  -258.2252
 369  -136.8085
 370  -443.9037
 371  -743.7677
 372  -788.6362
 373  -734.1478
 374  -1052.01
 375  -1223.252
 376  -771.2839
 377  -478.4635
 378  -618.7925
 379  -496.9911
 380  -758.0956
 381  -447.5516
 382  -32.22847
 383  568.5078
 384  132.5391
 385  210.9592
 386  -397.3268
 387  -218.5055
 388  37.64401
 389  104.0254
 390  92.16717
 391  41.86532
 392  -95.9827
 393  113.0418
 394  259.6313
 395  76.49095
 396  -49.86619
 397  121.1068
 398  -119.3456
 399  92.9026
 400  -48.81312
 401  -199.8039
 402  84.99155
 403  -263.3527
 404  -312.0261
 405  8.488605
 406  110.3307
 407  -112.3316
 408  14.24727
 409  169.5746
 410  17.76737
 411  33.12067
 412  -239.9921
 413  -220.5655
 414  -734.8934
 415  -564.2356
 416  -3.642369
 417  -4.670205
 418  369.5862
 419  821.3828
 420  188.2679
 421  -437.5435
 422  -589.3046
 423  -120.0269
 424  -55.04507
 425  -95.59489
 426  146.6125
 427  217.0616
 428  -141.0112
 429  -134.4326
 430  -359.0576
 431  54.76681
 432  497.5691
 433  307.5733
 434  534.5851
 435  538.6155
 436  -9.170821
 437  -191.1953
 438  57.11803
 439  -349.5603
 440  -539.8948
 441  -190.1427
 442  365.4435
 443  535.9431
 444  175.8168
 445  -252.7688
 446  -93.57449
 447  400.3109
 448  542.9967
 449  175.8448
 450  42.96292
 451  43.1058
 452  505.409
 453  651.9971
 454  -25.2513
 455  499.1064
 456  294.8456
 457  185.5111
 458  162.5395
 459  -417.7288
 460  -213.5653
 461  127.6663
 462  288.6084
 463  -105.5378
 464  107.3897
 465  858.0839
 466  536.803
 467  482.8774
 468  255.5923
 469  345.8583
 470  516.2488
 471  1103.92
 472  1866.086
 473  2254.199
 474  1841.245
 475  1876.958
 476  1528.024
 477  1075.573
 478  491.5661
 479  158.7839
 480  257.3908
 481  -436.4135
 482  -56.3411
 483  239.4594
 484  509.4377
 485  685.806
 486  477.4756
 487  498.9666
 488  677.7438
 489  832.1675
 490  857.0276
 491  802.1253
 492  200.9004
 493  -89.66376
 494  -311.7045
 495  -210.6153
 496  -414.2161
 497  -243.9627
 498  402.0651
 499  467.0027
 500  208.0657
 501  -37.4719
 502  -334.8379
 503  -414.9285
 504  100.2258
 505  255.2208
 506  -208.3104
 507  -308.6837
 508  -657.5828
 509  21.30844
 510  -413.7794
 511  132.5519
