# Input file       =  1190677245.097413_cleaned.dat
# Candidate        =  PSR_0332+5434
# Telescope        =  AR
# Epoch_topo       =  58024.986852979317
# Epoch_bary       =  N/A
# T_sample         =  0.002
# Data Folded      =  7340032
# Data Avg         =  0.0287473168303092
# Data StdDev      =  2.48867251295357 
# Profile Bins     =  512
# Profile Avg      =  412.37456450507  
# Profile StdDev   =  297.976316523328 
# Reduced chi-sqr  =  1.805
# Prob(Noise)      <  5.17e-26   (~10.5 sigma)
# P_topo (ms)      =  714.471550007445  +/- 0.00015
# P'_topo (s/s)    =  -0                +/- 7.89e-11
# P''_topo (s/s^2) =  0                 +/- 3.49e-14
# P_bary (ms)      =  N/A
# P'_bary (s/s)    =  N/A
# P''_bary (s/s^2) =  N/A
# P_orb (s)        =  N/A
# asin(i)/c (s)    =  N/A
# eccentricity     =  N/A
# w (rad)          =  N/A
# T_peri           =  N/A
######################################################
   0  374.1423
   1  281.7114
   2  361.3691
   3  607.0016
   4  273.7834
   5  172.379
   6  634.8504
   7  586.9066
   8  436.2285
   9  247.9287
  10  194.783
  11  307.5683
  12  777.7899
  13  778.3906
  14  586.3845
  15  651.0619
  16  641.3934
  17  360.3762
  18  530.4778
  19  643.4655
  20  306.5099
  21  395.787
  22  1.597231
  23  -81.01209
  24  249.6825
  25  460.4323
  26  351.4193
  27  486.6087
  28  851.9912
  29  702.2802
  30  165.0282
  31  485.8527
  32  386.3035
  33  365.895
  34  248.6779
  35  382.6056
  36  419.6496
  37  711.765
  38  654.4144
  39  526.1516
  40  315.716
  41  173.3794
  42  131.275
  43  -48.09719
  44  257.009
  45  465.815
  46  62.33371
  47  384.8813
  48  104.4663
  49  164.3238
  50  -53.97651
  51  326.5366
  52  470.8326
  53  765.4985
  54  475.5745
  55  419.7879
  56  445.3537
  57  246.8159
  58  148.7877
  59  239.6927
  60  462.273
  61  652.2022
  62  514.9489
  63  190.3047
  64  210.7638
  65  810.1589
  66  726.1
  67  342.1965
  68  762.7921
  69  423.2712
  70  498.5547
  71  420.4514
  72  488.7464
  73  353.9257
  74  100.4996
  75  178.3383
  76  356.9123
  77  283.8748
  78  297.226
  79  314.6815
  80  583.3222
  81  518.128
  82  467.8443
  83  124.54
  84  463.9202
  85  152.8676
  86  323.4808
  87  328.9479
  88  358.3923
  89  508.9945
  90  530.1672
  91  539.0264
  92  325.2205
  93  244.8925
  94  363.0987
  95  458.7156
  96  577.6967
  97  704.9188
  98  452.9937
  99  602.385
 100  565.4462
 101  450.0045
 102  673.8566
 103  702.8908
 104  637.5959
 105  571.7496
 106  626.2711
 107  597.4775
 108  586.9496
 109  84.88333
 110  289.4514
 111  296.0815
 112  272.5802
 113  340.1349
 114  742.814
 115  802.717
 116  460.0294
 117  382.764
 118  591.8461
 119  667.6893
 120  413.3036
 121  284.6204
 122  294.8138
 123  356.16
 124  424.1164
 125  582.0448
 126  483.6578
 127  242.6629
 128  377.9413
 129  842.9012
 130  651.7154
 131  331.519
 132  280.3981
 133  169.8774
 134  305.6221
 135  394.0924
 136  372.4465
 137  553.1028
 138  854.7388
 139  590.6973
 140  267.6684
 141  297.9217
 142  287.7191
 143  243.0641
 144  642.7346
 145  316.816
 146  198.6841
 147  509.2182
 148  596.3308
 149  86.70665
 150  389.542
 151  614.817
 152  557.6155
 153  40.48664
 154  59.81318
 155  348.124
 156  441.1546
 157  756.8073
 158  625.2911
 159  159.3232
 160  42.34936
 161  451.9235
 162  464.4428
 163  629.5937
 164  309.4903
 165  529.765
 166  763.9755
 167  365.584
 168  97.43157
 169  491.6994
 170  653.5431
 171  347.9307
 172  198.4163
 173  402.4981
 174  751.0811
 175  164.6012
 176  451.3102
 177  432.0844
 178  371.4789
 179  380.2327
 180  374.4378
 181  499.4575
 182  450.7439
 183  420.2253
 184  405.8866
 185  525.5087
 186  492.7543
 187  428.5705
 188  306.6938
 189  213.3545
 190  133.5079
 191  455.3573
 192  536.165
 193  514.673
 194  305.9831
 195  200.0641
 196  516.0466
 197  615.3615
 198  662.004
 199  456.7791
 200  585.7455
 201  413.6136
 202  123.8348
 203  -44.04488
 204  177.4543
 205  455.6313
 206  402.5162
 207  480.7271
 208  433.6843
 209  250.0538
 210  530.2206
 211  571.3357
 212  436.3212
 213  464.8523
 214  270.9084
 215  332.9658
 216  210.9899
 217  630.252
 218  894.3941
 219  323.0659
 220  76.34683
 221  136.4557
 222  354.8788
 223  618.4722
 224  427.7318
 225  285.221
 226  215.5549
 227  314.2013
 228  497.2637
 229  60.87638
 230  -549.9677
 231  -177.5796
 232  321.6903
 233  521.4747
 234  519.559
 235  638.4878
 236  746.4825
 237  406.3736
 238  293.4312
 239  212.621
 240  213.1726
 241  292.7128
 242  517.8152
 243  594.2763
 244  337.8008
 245  -13.90508
 246  67.72931
 247  157.0011
 248  7.530206
 249  17.03422
 250  516.0118
 251  457.7173
 252  524.7218
 253  221.3151
 254  62.98065
 255  81.32636
 256  276.3671
 257  468.25
 258  241.4205
 259  214.9267
 260  135.3853
 261  191.7584
 262  303.1941
 263  223.6278
 264  454.8655
 265  333.9988
 266  359.0692
 267  237.8804
 268  335.9934
 269  86.79752
 270  149.1489
 271  258.6162
 272  213.9223
 273  436.0294
 274  217.7026
 275  266.5844
 276  465.8174
 277  214.2148
 278  312.8232
 279  651.3026
 280  473.2661
 281  438.0221
 282  330.1404
 283  531.2396
 284  385.8809
 285  335.3539
 286  717.1357
 287  614.9828
 288  421.4836
 289  351.6064
 290  513.8312
 291  597.6368
 292  669.0494
 293  436.9472
 294  727.8542
 295  572.8437
 296  129.4487
 297  3.028091
 298  308.9827
 299  400.6958
 300  715.5904
 301  949.0081
 302  637.9076
 303  489.9353
 304  529.0027
 305  146.9144
 306  108.4488
 307  321.8055
 308  758.1006
 309  531.2841
 310  272.3439
 311  436.6803
 312  487.1029
 313  801.6147
 314  919.2553
 315  699.6005
 316  629.0189
 317  1153.548
 318  1906.608
 319  2556.401
 320  2498.19
 321  2518.732
 322  2120.883
 323  1511.491
 324  792.6351
 325  442.3938
 326  491.8355
 327  599.6398
 328  399.6487
 329  282.5338
 330  446.6359
 331  446.9918
 332  419.3992
 333  161.1942
 334  423.9081
 335  250.0548
 336  94.95746
 337  262.6255
 338  -50.46447
 339  -128.5807
 340  219.5114
 341  274.0634
 342  395.2591
 343  427.302
 344  558.8984
 345  316.3998
 346  -110.7298
 347  -329.4758
 348  102.9334
 349  353.5951
 350  689.9612
 351  812.3274
 352  760.6555
 353  329.5713
 354  559.8573
 355  202.392
 356  223.7474
 357  753.6433
 358  928.3562
 359  687.4073
 360  264.9744
 361  417.2758
 362  -1.414616
 363  -140.2133
 364  277.402
 365  213.8247
 366  187.5607
 367  37.92878
 368  332.8269
 369  328.653
 370  545.9211
 371  472.9993
 372  392.4091
 373  344.0725
 374  544.9759
 375  596.801
 376  370.1086
 377  431.1569
 378  342.9884
 379  203.4263
 380  483.1138
 381  501.6654
 382  554.8841
 383  458.8157
 384  112.3969
 385  398.5946
 386  587.4172
 387  443.0517
 388  311.024
 389  297.6894
 390  321.9645
 391  329.8628
 392  405.251
 393  642.8378
 394  360.1952
 395  149.4508
 396  23.6458
 397  389.1103
 398  525.2361
 399  320.8727
 400  590.4955
 401  657.7341
 402  604.6484
 403  344.7489
 404  415.9893
 405  166.5487
 406  -35.93687
 407  105.2338
 408  258.3195
 409  365.1898
 410  247.2381
 411  286.7073
 412  119.0012
 413  439.8425
 414  345.1351
 415  220.9959
 416  473.5612
 417  231.6556
 418  159.1227
 419  164.8527
 420  452.4651
 421  83.31239
 422  -105.4289
 423  61.6798
 424  380.6207
 425  514.8026
 426  572.9234
 427  532.3522
 428  -125.2056
 429  28.65246
 430  308.9098
 431  563.6634
 432  176.7262
 433  -255.452
 434  341.4426
 435  354.8566
 436  424.3469
 437  310.0501
 438  163.3838
 439  166.1213
 440  362.7284
 441  414.1888
 442  481.3838
 443  536.1871
 444  619.9036
 445  576.613
 446  548.9658
 447  464.6781
 448  572.9774
 449  415.1784
 450  523.2827
 451  433.8771
 452  342.6527
 453  559.3204
 454  415.7038
 455  390.2014
 456  593.7674
 457  800.4253
 458  541.6466
 459  404.4027
 460  302.2086
 461  491.3268
 462  486.5699
 463  221.5872
 464  274.1768
 465  421.4693
 466  588.6261
 467  613.4542
 468  376.708
 469  182.8742
 470  465.6965
 471  547.0818
 472  286.3014
 473  464.8681
 474  602.959
 475  388.3506
 476  448.549
 477  354.6856
 478  418.3022
 479  398.1001
 480  341.5589
 481  -125.3829
 482  107.2134
 483  520.8319
 484  725.8528
 485  748.4869
 486  653.4006
 487  530.0256
 488  294.7654
 489  390.4008
 490  256.5794
 491  393.286
 492  523.4474
 493  842.9363
 494  694.1871
 495  579.8979
 496  483.532
 497  453.8494
 498  272.5698
 499  300.9323
 500  597.6623
 501  344.1769
 502  383.2874
 503  263.3755
 504  204.4872
 505  200.9808
 506  66.51908
 507  112.2678
 508  582.6127
 509  544.0129
 510  631.3693
 511  437.6739
