# Input file       =  1190762833.099269_cleaned.dat
# Candidate        =  PSR_0332+5434
# Telescope        =  AR
# Epoch_topo       =  58025.977454852647
# Epoch_bary       =  N/A
# T_sample         =  0.002
# Data Folded      =  7340032
# Data Avg         =  0.00931725966162475
# Data StdDev      =  0.999992405548699
# Profile Bins     =  512
# Profile Avg      =  133.579651590426 
# Profile StdDev   =  119.732127070052 
# Reduced chi-sqr  =  1.378
# Prob(Noise)      <  2.65e-08   (~5.4 sigma)
# P_topo (ms)      =  714.472059502987  +/- 0.00014
# P'_topo (s/s)    =  -0                +/- 7.4e-11
# P''_topo (s/s^2) =  0                 +/- 3.27e-14
# P_bary (ms)      =  N/A
# P'_bary (s/s)    =  N/A
# P''_bary (s/s^2) =  N/A
# P_orb (s)        =  N/A
# asin(i)/c (s)    =  N/A
# eccentricity     =  N/A
# w (rad)          =  N/A
# T_peri           =  N/A
######################################################
   0  157.0634
   1  142.6542
   2  308.8054
   3  206.8763
   4  107.8673
   5  91.65219
   6  -34.98719
   7  82.12511
   8  203.3746
   9  233.0141
  10  118.5534
  11  171.6436
  12  238.5553
  13  112.265
  14  63.15304
  15  132.1196
  16  85.41399
  17  72.57224
  18  76.29315
  19  -122.5263
  20  41.04752
  21  114.8025
  22  15.42942
  23  154.6163
  24  216.4697
  25  9.945719
  26  -16.34381
  27  110.3003
  28  280.8453
  29  169.0709
  30  123.2366
  31  42.83742
  32  63.74785
  33  50.14567
  34  -56.84147
  35  -59.19376
  36  179.5757
  37  279.9764
  38  206.7122
  39  121.7754
  40  165.9032
  41  119.1488
  42  165.2714
  43  118.2681
  44  143.3942
  45  -66.41518
  46  90.5158
  47  109.8882
  48  -25.2753
  49  207.9301
  50  195.6679
  51  40.47433
  52  265.9041
  53  219.9657
  54  178.277
  55  103.6971
  56  134.4051
  57  176.9235
  58  83.58141
  59  177.3081
  60  87.43319
  61  117.1548
  62  120.8703
  63  123.2083
  64  78.59547
  65  127.1215
  66  97.0698
  67  79.58877
  68  1.865368
  69  -65.95794
  70  -44.83539
  71  66.27836
  72  54.96076
  73  222.4729
  74  100.4722
  75  49.1835
  76  79.24792
  77  105.6078
  78  205.4087
  79  82.53991
  80  -12.02421
  81  156.4938
  82  167.6813
  83  44.45271
  84  -57.89994
  85  30.69563
  86  156.2252
  87  106.725
  88  222.0166
  89  169.9597
  90  238.6103
  91  167.0861
  92  205.8056
  93  274.9291
  94  176.0392
  95  211.3766
  96  219.1795
  97  40.93262
  98  92.28764
  99  137.9168
 100  141.9718
 101  173.1562
 102  47.29863
 103  17.5289
 104  -35.0848
 105  -56.05515
 106  45.35083
 107  53.45824
 108  88.39977
 109  213.9214
 110  213.9439
 111  61.06142
 112  47.37505
 113  198.4722
 114  149.2409
 115  93.03965
 116  -35.54358
 117  46.03856
 118  144.8875
 119  155.5597
 120  54.50449
 121  90.43269
 122  10.34365
 123  244.5049
 124  253.7408
 125  -11.83942
 126  -33.28898
 127  -35.50716
 128  110.5747
 129  45.32898
 130  100.0564
 131  202.1799
 132  209.4154
 133  229.066
 134  237.1936
 135  227.1848
 136  190.1478
 137  46.69656
 138  229.1955
 139  244.4084
 140  210.9794
 141  202.9476
 142  145.4129
 143  202.3951
 144  185.6808
 145  200.6018
 146  154.6289
 147  146.6587
 148  159.5655
 149  100.5643
 150  33.41674
 151  73.28598
 152  79.86646
 153  80.84541
 154  116.151
 155  172.4664
 156  71.17693
 157  142.695
 158  173.2367
 159  81.96156
 160  117.1552
 161  128.3113
 162  110.394
 163  30.54538
 164  161.2045
 165  216.45
 166  82.77087
 167  -73.18427
 168  -41.07645
 169  95.22233
 170  80.63638
 171  71.38305
 172  302.6304
 173  294.6532
 174  82.46783
 175  73.03687
 176  111.6945
 177  93.69274
 178  106.9806
 179  119.4482
 180  126.9166
 181  157.2889
 182  147.9684
 183  81.75774
 184  105.2653
 185  64.14866
 186  0.1828775
 187  116.6892
 188  158.9315
 189  216.274
 190  192.8944
 191  9.593877
 192  33.62665
 193  162.9158
 194  234.1532
 195  215.6497
 196  187.8195
 197  144.445
 198  125.7778
 199  59.48207
 200  100.485
 201  25.30816
 202  82.62781
 203  62.88991
 204  114.5923
 205  204.7452
 206  169.3958
 207  124.5102
 208  77.29476
 209  231.8365
 210  250.5559
 211  182.3643
 212  98.7055
 213  204.7681
 214  61.19476
 215  132.958
 216  -33.32961
 217  88.35039
 218  106.3919
 219  51.47422
 220  227.9026
 221  332.1587
 222  129.3919
 223  81.37537
 224  186.8643
 225  168.7215
 226  50.30188
 227  18.18752
 228  152.3667
 229  201.7169
 230  79.92322
 231  131.5686
 232  116.9038
 233  91.4958
 234  22.58631
 235  104.3134
 236  186.0048
 237  195.9148
 238  160.1689
 239  120.2926
 240  84.31082
 241  -58.11706
 242  6.918557
 243  33.05569
 244  43.72083
 245  159.4691
 246  106.722
 247  92.88574
 248  72.35381
 249  33.81437
 250  93.75862
 251  105.5104
 252  34.04381
 253  123.9216
 254  169.2885
 255  43.53806
 256  109.3865
 257  173.9226
 258  102.2396
 259  95.52671
 260  131.9538
 261  104.3364
 262  254.9279
 263  229.5691
 264  95.30519
 265  97.22102
 266  105.3598
 267  -10.92961
 268  156.8521
 269  145.273
 270  -1.542024
 271  -151.8154
 272  50.70326
 273  36.12978
 274  53.44045
 275  144.2763
 276  175.2557
 277  158.3076
 278  41.251
 279  -40.32499
 280  139.9343
 281  126.2621
 282  119.2934
 283  131.4546
 284  180.8085
 285  57.40499
 286  -22.36471
 287  66.02625
 288  186.3718
 289  196.2706
 290  135.2559
 291  114.5008
 292  51.15059
 293  -3.309911
 294  153.2021
 295  166.3192
 296  247.1597
 297  143.7216
 298  149.2598
 299  219.9714
 300  158.4273
 301  120.5129
 302  79.64481
 303  23.15759
 304  -14.62928
 305  -4.379653
 306  -24.62695
 307  149.2192
 308  204.3381
 309  164.6529
 310  134.5816
 311  219.8573
 312  112.2579
 313  145.8379
 314  124.3106
 315  242.9385
 316  96.24748
 317  169.1869
 318  156.4392
 319  175.2092
 320  151.2885
 321  65.50117
 322  59.60158
 323  256.1369
 324  351.861
 325  440.6457
 326  351.9971
 327  285.6898
 328  600.8546
 329  695.2784
 330  872.8979
 331  672.6333
 332  414.8716
 333  339.1291
 334  195.1198
 335  194.5661
 336  218.3557
 337  248.1698
 338  83.1758
 339  55.50945
 340  110.4059
 341  95.61481
 342  241.7061
 343  335.9071
 344  280.0932
 345  252.1253
 346  293.4728
 347  227.3208
 348  48.34524
 349  61.01606
 350  196.2359
 351  232.0293
 352  128.2067
 353  98.38567
 354  213.6883
 355  163.7963
 356  91.37602
 357  91.99765
 358  108.8867
 359  185.0708
 360  290.2317
 361  142.8525
 362  -31.61517
 363  64.19348
 364  168.3195
 365  155.0553
 366  108.3945
 367  108.1846
 368  135.1936
 369  68.3794
 370  -21.37931
 371  129.2262
 372  133.3327
 373  140.6145
 374  210.5487
 375  146.3471
 376  111.1787
 377  116.5749
 378  151.1972
 379  217.0673
 380  273.0657
 381  111.1462
 382  165.9878
 383  226.0879
 384  178.7829
 385  154.8621
 386  124.1194
 387  227.6465
 388  146.6161
 389  169.1011
 390  180.5467
 391  142.349
 392  197.4368
 393  187.6605
 394  212.7503
 395  152.1664
 396  25.37276
 397  109.0115
 398  155.2666
 399  132.5761
 400  167.9166
 401  82.61634
 402  88.70383
 403  120.5402
 404  96.97678
 405  174.7898
 406  81.88909
 407  -39.7761
 408  203.7461
 409  261.1165
 410  128.0027
 411  58.28302
 412  69.93385
 413  162.8004
 414  172.7519
 415  235.6865
 416  272.3738
 417  196.0244
 418  251.6493
 419  259.3331
 420  172.7393
 421  195.0853
 422  145.6146
 423  158.9726
 424  63.97044
 425  -18.34548
 426  16.84116
 427  75.23862
 428  85.28569
 429  59.5942
 430  117.3155
 431  269.2364
 432  373.5286
 433  323.369
 434  164.4944
 435  195.9628
 436  200.953
 437  134.8823
 438  120.4239
 439  140.3048
 440  185.6285
 441  -63.17007
 442  29.0776
 443  207.9036
 444  262.6805
 445  208.0169
 446  144.1193
 447  -81.86713
 448  -98.12489
 449  -38.01529
 450  47.11441
 451  103.5429
 452  51.68237
 453  126.642
 454  181.6552
 455  194.469
 456  125.684
 457  70.57023
 458  10.35095
 459  24.79152
 460  169.7098
 461  254.9747
 462  162.9412
 463  214.6341
 464  254.1004
 465  52.96965
 466  71.21722
 467  73.81017
 468  173.1238
 469  253.9016
 470  75.03004
 471  70.39022
 472  242.7951
 473  331.4949
 474  375.622
 475  240.8978
 476  177.5633
 477  35.97437
 478  -31.80123
 479  123.9163
 480  292.9767
 481  269.6198
 482  143.0751
 483  89.04444
 484  160.6891
 485  145.7191
 486  13.17378
 487  112.2119
 488  178.9941
 489  102.1833
 490  146.3375
 491  144.9401
 492  29.18581
 493  60.6104
 494  69.34631
 495  110.9558
 496  -15.50354
 497  51.86161
 498  198.8056
 499  147.437
 500  163.559
 501  167.3972
 502  168.2677
 503  192.1386
 504  223.8829
 505  233.7484
 506  318.1121
 507  128.3317
 508  56.21222
 509  154.4617
 510  241.5152
 511  136.9111
