# Input file       =  1190863929.112254-PSRB0329-2ms-sampling-dd.dat
# Candidate        =  PSR_0332+5434
# Telescope        =  AR
# Epoch_topo       =  58027.147547595530
# Epoch_bary       =  N/A
# T_sample         =  0.002
# Data Folded      =  7340032
# Data Avg         =  -2.84334870315509e-10
# Data StdDev      =  6.67298863104233 
# Profile Bins     =  512
# Profile Avg      =  -0.00111977933124197
# Profile StdDev   =  798.977190502338 
# Reduced chi-sqr  =  0.687
# Prob(Noise)      <  1   (~0.0 sigma)
# P_topo (ms)      =  714.473025315655  +/- 7.24e-05
# P'_topo (s/s)    =  -0                +/- 3.82e-11
# P''_topo (s/s^2) =  0                 +/- 1.69e-14
# P_bary (ms)      =  N/A
# P'_bary (s/s)    =  N/A
# P''_bary (s/s^2) =  N/A
# P_orb (s)        =  N/A
# asin(i)/c (s)    =  N/A
# eccentricity     =  N/A
# w (rad)          =  N/A
# T_peri           =  N/A
######################################################
   0  -58.16885
   1  -543.0041
   2  -473.6099
   3  -172.8888
   4  268.5442
   5  501.3551
   6  214.8033
   7  -186.5189
   8  -88.25614
   9  -138.982
  10  284.3496
  11  430.3049
  12  455.9818
  13  450.3524
  14  -80.87171
  15  -164.7429
  16  -1.421999
  17  -204.7631
  18  195.6001
  19  129.4216
  20  -171.6342
  21  -1019.985
  22  -662.0853
  23  -137.3669
  24  -5.939341
  25  -20.17441
  26  -371.7094
  27  -842.5078
  28  -934.0245
  29  -642.7485
  30  -638.1208
  31  -104.1189
  32  589.6284
  33  567.2927
  34  -164.9415
  35  -980.9846
  36  -619.3647
  37  120.0992
  38  -117.0522
  39  70.51928
  40  83.29995
  41  -341.6659
  42  -546.8421
  43  -474.1223
  44  -232.3001
  45  -385.5159
  46  -747.7715
  47  -110.2483
  48  198.2833
  49  42.07861
  50  512.7968
  51  418.5665
  52  387.3847
  53  -108.3334
  54  -383.9657
  55  36.38753
  56  7.443813
  57  337.3299
  58  224.6774
  59  167.6888
  60  -111.4788
  61  -537.7093
  62  -126.9507
  63  -481.2346
  64  -534.6423
  65  -632.6984
  66  -269.8705
  67  145.3462
  68  -116.9727
  69  133.1125
  70  -7.134137
  71  -251.5191
  72  335.2969
  73  327.5692
  74  -53.55345
  75  -576.8551
  76  -43.53143
  77  552.4988
  78  -55.83138
  79  32.8807
  80  -159.6734
  81  214.7066
  82  -331.7394
  83  -42.92638
  84  -8.642458
  85  316.8254
  86  606.9207
  87  124.6737
  88  106.2971
  89  45.94774
  90  -804.7243
  91  -319.3042
  92  70.58237
  93  209.2445
  94  145.9843
  95  86.94016
  96  -516.3589
  97  -615.3651
  98  -36.90048
  99  186.7386
 100  273.5595
 101  310.3163
 102  377.6947
 103  52.40521
 104  -180.5288
 105  -142.9951
 106  85.83953
 107  -33.17042
 108  49.41629
 109  198.7835
 110  -104.1451
 111  -210.5701
 112  -280.7645
 113  273.1002
 114  747.22
 115  858.2944
 116  192.5608
 117  34.54937
 118  100.0334
 119  -32.50785
 120  581.3198
 121  548.1659
 122  951.5093
 123  951.3984
 124  505.0295
 125  -41.24277
 126  -276.131
 127  -201.8131
 128  761.5032
 129  1355.548
 130  1606.888
 131  1885.832
 132  1623.414
 133  1486.882
 134  720.6584
 135  -119.1142
 136  170.4828
 137  340.9849
 138  216.6548
 139  425.045
 140  -410.163
 141  -431.8144
 142  -369.2828
 143  -359.3169
 144  -686.0652
 145  -656.1802
 146  -227.6812
 147  -702.226
 148  -403.8024
 149  -117.6649
 150  318.74
 151  177.3646
 152  69.89456
 153  -434.7346
 154  -607.9975
 155  -924.6187
 156  -576.2369
 157  -181.5882
 158  34.27672
 159  -131.987
 160  -208.7468
 161  -390.3371
 162  -1617.934
 163  -935.1736
 164  -504.917
 165  -231.071
 166  -86.79168
 167  -663.8234
 168  -512.9868
 169  -588.6735
 170  -388.4974
 171  -84.61262
 172  -175.8936
 173  115.2559
 174  825.9642
 175  167.5345
 176  -420.2108
 177  -473.6871
 178  -176.221
 179  -501.8683
 180  -521.2337
 181  -206.2409
 182  -122.7864
 183  -443.064
 184  -759.0571
 185  -827.3694
 186  -206.6291
 187  401.885
 188  697.2098
 189  576.7977
 190  65.95502
 191  -637.8414
 192  -294.5322
 193  208.1157
 194  819.3383
 195  795.1644
 196  446.4277
 197  -84.14149
 198  -515.1326
 199  -341.769
 200  148.3278
 201  128.1725
 202  391.0605
 203  683.6263
 204  344.1868
 205  -291.5056
 206  112.889
 207  100.3698
 208  111.571
 209  382.0715
 210  -177.8625
 211  -255.0585
 212  -460.3228
 213  -225.6966
 214  143.4637
 215  200.5
 216  608.0769
 217  58.27266
 218  0.6424604
 219  12.6736
 220  54.8108
 221  -46.67954
 222  299.8076
 223  1290.306
 224  1165.124
 225  912.2465
 226  347.451
 227  -364.3224
 228  -324.9931
 229  253.7953
 230  1237.779
 231  1096.968
 232  761.6529
 233  71.47427
 234  175.1218
 235  44.79165
 236  77.12358
 237  695.2831
 238  904.8357
 239  865.6685
 240  795.2178
 241  805.6846
 242  476.3824
 243  75.54824
 244  154.8113
 245  556.6906
 246  243.4574
 247  15.57624
 248  134.8982
 249  358.9511
 250  561.2449
 251  361.956
 252  228.9272
 253  -356.4154
 254  -13.70489
 255  -210.4543
 256  -193.0374
 257  113.7599
 258  536.1495
 259  453.326
 260  252.1334
 261  -309.0008
 262  -530.848
 263  -1077.623
 264  -1090.046
 265  171.0282
 266  361.7661
 267  -142.6094
 268  -109.4719
 269  84.46215
 270  -337.0659
 271  -641.4633
 272  -211.9362
 273  450.952
 274  126.2934
 275  80.45031
 276  109.9781
 277  36.35878
 278  24.58794
 279  71.00673
 280  15.59474
 281  -353.8796
 282  -394.5591
 283  -392.4155
 284  -412.473
 285  7.897845
 286  -63.329
 287  -525.9717
 288  -192.0525
 289  -179.9163
 290  139.56
 291  463.2931
 292  310.3451
 293  0.176406
 294  -201.6731
 295  171.4667
 296  335.9867
 297  -12.98524
 298  178.6393
 299  604.0186
 300  -7.379502
 301  457.662
 302  388.1284
 303  304.5685
 304  501.9511
 305  252.4532
 306  266.1662
 307  698.7748
 308  543.0961
 309  482.4075
 310  971.0487
 311  999.6007
 312  784.6244
 313  468.8446
 314  52.64655
 315  -33.58458
 316  77.88192
 317  398.6666
 318  63.68119
 319  351.4059
 320  890.6055
 321  590.2378
 322  934.1246
 323  671.7826
 324  333.4196
 325  75.83174
 326  630.804
 327  661.262
 328  664.0912
 329  320.0341
 330  487.9622
 331  515.2953
 332  301.4543
 333  370.2849
 334  39.44762
 335  -440.7349
 336  -436.0522
 337  325.8321
 338  978.1605
 339  832.1603
 340  449.2699
 341  -46.3655
 342  -490.42
 343  -412.6096
 344  -239.1889
 345  -50.68806
 346  -406.3737
 347  -363.2607
 348  -454.538
 349  -542.4544
 350  -949.8669
 351  -352.6308
 352  -108.2396
 353  -120.1056
 354  -416.1481
 355  -413.7139
 356  83.44887
 357  -1005.242
 358  -973.9652
 359  -372.4647
 360  229.2127
 361  -29.52792
 362  -521.653
 363  -292.5329
 364  -946.9518
 365  -290.4787
 366  47.42286
 367  475.9908
 368  373.9346
 369  62.82181
 370  -204.3939
 371  -1016.267
 372  -709.824
 373  -287.9774
 374  762.996
 375  867.5539
 376  351.1992
 377  -109.4033
 378  -583.9362
 379  -512.5507
 380  -663.4815
 381  -47.38624
 382  187.4937
 383  -485.4408
 384  -674.5878
 385  -776.2334
 386  -617.2552
 387  -241.6167
 388  124.1982
 389  -363.6962
 390  -731.0983
 391  -509.8407
 392  -445.3355
 393  -278.2582
 394  -620.4708
 395  -604.7371
 396  -203.294
 397  159.4601
 398  -163.6939
 399  -568.7971
 400  -981.8121
 401  -874.6335
 402  -276.7521
 403  318.28
 404  560.9229
 405  249.8371
 406  -427.0869
 407  -136.21
 408  -386.925
 409  -183.0564
 410  560.9741
 411  235.1306
 412  245.5114
 413  -8.645791
 414  -535.0947
 415  -652.1542
 416  -286.9974
 417  -69.90083
 418  -399.9357
 419  -572.0457
 420  -68.93361
 421  -7.608576
 422  342.2574
 423  167.0674
 424  -143.7154
 425  96.22923
 426  -17.88932
 427  588.2642
 428  413.6726
 429  -495.1513
 430  -74.58362
 431  155.3868
 432  305.5139
 433  379.8328
 434  194.693
 435  -58.37717
 436  -749.8651
 437  -169.9554
 438  -99.51877
 439  777.6249
 440  947.415
 441  749.731
 442  266.6098
 443  -71.72301
 444  76.20094
 445  -591.2945
 446  -146.8978
 447  517.7485
 448  441.8963
 449  120.4622
 450  -330.1578
 451  -72.7207
 452  -433.9554
 453  -33.2795
 454  -26.28525
 455  16.51467
 456  -296.1306
 457  -803.2362
 458  -683.9327
 459  -351.7288
 460  -46.0315
 461  2.837598
 462  432.5159
 463  173.1642
 464  -652.1813
 465  -569.4023
 466  -332.2137
 467  -45.10976
 468  -147.4191
 469  335.0653
 470  -256.7617
 471  -415.747
 472  -358.4416
 473  -462.1368
 474  47.1695
 475  10.52147
 476  658.4946
 477  587.6353
 478  81.43158
 479  -487.5053
 480  -299.2964
 481  88.59122
 482  -86.82994
 483  326.4132
 484  -210.3698
 485  -575.9219
 486  -762.4347
 487  -581.7617
 488  -193.627
 489  -282.7392
 490  -74.32567
 491  -404.8673
 492  -321.3907
 493  -736.3281
 494  -328.8087
 495  127.222
 496  90.22919
 497  169.5123
 498  492.8001
 499  -310.4872
 500  -596.1092
 501  -220.6563
 502  660.2014
 503  433.8689
 504  571.677
 505  14.27416
 506  -406.432
 507  -783.7225
 508  -103.21
 509  996.7918
 510  1136.789
 511  768.0875
