# Input file       =  1190849001.1267_cleaned.dat
# Candidate        =  PSR_0332+5434
# Telescope        =  AR
# Epoch_topo       =  58026.974769984954
# Epoch_bary       =  N/A
# T_sample         =  0.002
# Data Folded      =  7340032
# Data Avg         =  0.0109819949694096
# Data StdDev      =  1.00009389504714 
# Profile Bins     =  512
# Profile Avg      =  157.568111186354 
# Profile StdDev   =  119.744278715861 
# Reduced chi-sqr  =  1.556
# Prob(Noise)      <  1.03e-14   (~7.6 sigma)
# P_topo (ms)      =  714.472595193268  +/- 0.000114
# P'_topo (s/s)    =  -0                +/- 6e-11
# P''_topo (s/s^2) =  0                 +/- 2.65e-14
# P_bary (ms)      =  N/A
# P'_bary (s/s)    =  N/A
# P''_bary (s/s^2) =  N/A
# P_orb (s)        =  N/A
# asin(i)/c (s)    =  N/A
# eccentricity     =  N/A
# w (rad)          =  N/A
# T_peri           =  N/A
######################################################
   0  17.39081
   1  116.2587
   2  166.7514
   3  146.7285
   4  210.7495
   5  99.88947
   6  79.99462
   7  141.3456
   8  161.5771
   9  307.2472
  10  379.395
  11  264.0396
  12  224.9824
  13  25.58018
  14  -13.74705
  15  167.4504
  16  182.5668
  17  229.0685
  18  251.1337
  19  229.4385
  20  208.1535
  21  154.0915
  22  220.9195
  23  230.8732
  24  175.9742
  25  188.7916
  26  201.8902
  27  210.1545
  28  170.4587
  29  125.3278
  30  334.7465
  31  394.5202
  32  367.5069
  33  214.6434
  34  146.5066
  35  222.6452
  36  151.7543
  37  131.2888
  38  93.77049
  39  79.07087
  40  173.4766
  41  105.6498
  42  97.19166
  43  41.04675
  44  127.6116
  45  16.10413
  46  68.62745
  47  102.1849
  48  74.68873
  49  215.4168
  50  201.2172
  51  254.6567
  52  143.4635
  53  56.27228
  54  106.3363
  55  35.79741
  56  66.99213
  57  158.9674
  58  182.3308
  59  173.3128
  60  159.7083
  61  75.04951
  62  177.7368
  63  113.8801
  64  107.3056
  65  80.15556
  66  178.7479
  67  228.7183
  68  248.3798
  69  149.8961
  70  45.56566
  71  131.4574
  72  188.1475
  73  94.44034
  74  148.7186
  75  166.653
  76  128.2932
  77  151.2339
  78  34.42425
  79  165.9484
  80  87.47944
  81  105.3572
  82  43.40321
  83  124.9158
  84  175.6549
  85  98.10927
  86  107.4878
  87  155.7603
  88  171.7931
  89  130.517
  90  18.03216
  91  163.4748
  92  310.835
  93  63.84277
  94  88.78384
  95  225.91
  96  294.4537
  97  192.6038
  98  219.6137
  99  209.0546
 100  183.601
 101  70.85123
 102  118.3509
 103  82.87228
 104  3.710739
 105  72.07533
 106  121.86
 107  205.9181
 108  185.1927
 109  176.2034
 110  59.21543
 111  4.044597
 112  178.9654
 113  184.2117
 114  103.9925
 115  272.4848
 116  282.3795
 117  271.1716
 118  202.7527
 119  166.4752
 120  124.4083
 121  -41.89439
 122  -11.42653
 123  223.693
 124  237.8865
 125  168.9987
 126  261.5204
 127  184.0394
 128  207.2172
 129  1.901573
 130  -20.74442
 131  52.01936
 132  51.39208
 133  111.6405
 134  37.08588
 135  26.47619
 136  64.84399
 137  98.60906
 138  -15.01287
 139  54.01779
 140  56.21878
 141  134.8053
 142  70.02219
 143  157.5611
 144  153.833
 145  85.36713
 146  -52.64626
 147  50.56334
 148  95.10129
 149  59.35537
 150  43.56354
 151  125.9876
 152  180.4954
 153  171.6462
 154  62.81516
 155  50.34035
 156  182.8553
 157  178.5013
 158  90.83486
 159  138.9809
 160  135.1468
 161  106.5466
 162  121.9076
 163  39.76527
 164  143.7376
 165  108.2458
 166  183.8974
 167  267.5573
 168  204.155
 169  104.2133
 170  127.5683
 171  226.6528
 172  271.1961
 173  172.3637
 174  92.23853
 175  107.099
 176  73.58698
 177  110.3217
 178  199.6848
 179  215.2944
 180  224.1051
 181  208.3477
 182  202.3903
 183  190.8589
 184  161.3624
 185  69.98082
 186  68.66427
 187  141.1495
 188  177.1588
 189  64.36531
 190  210.6784
 191  281.6128
 192  103.7449
 193  111.1316
 194  186.5412
 195  213.2778
 196  233.7539
 197  217.3658
 198  131.1139
 199  191.6175
 200  338.8213
 201  241.0127
 202  205.4923
 203  184.9832
 204  226.1101
 205  146.904
 206  144.4687
 207  203.5465
 208  252.651
 209  277.6428
 210  300.6634
 211  214.1215
 212  200.1793
 213  92.3877
 214  190.965
 215  270.3639
 216  214.036
 217  246.2618
 218  190.2097
 219  140.3647
 220  234.2559
 221  117.1702
 222  131.338
 223  84.28764
 224  82.54526
 225  155.7375
 226  140.7926
 227  224.6605
 228  194.3267
 229  128.372
 230  93.37315
 231  221.8995
 232  101.8532
 233  42.84583
 234  24.74494
 235  59.13447
 236  96.77849
 237  60.04626
 238  160.9315
 239  115.7483
 240  -97.31036
 241  -40.37756
 242  120.1659
 243  117.2778
 244  275.1907
 245  325.899
 246  225.1439
 247  8.787012
 248  153.816
 249  129.3963
 250  100.7781
 251  147.6805
 252  71.81194
 253  106.5846
 254  100.9782
 255  151.9491
 256  132.758
 257  200.8204
 258  208.8685
 259  126.1056
 260  161.5475
 261  271.619
 262  286.2491
 263  181.6746
 264  335.05
 265  288.4431
 266  282.3444
 267  178.158
 268  198.0918
 269  212.9596
 270  -22.91948
 271  33.67152
 272  123.7168
 273  120.4365
 274  139.8853
 275  163.2299
 276  320.5158
 277  282.4894
 278  190.8535
 279  158.0488
 280  254.9919
 281  163.6302
 282  111.4275
 283  166.7636
 284  156.7697
 285  142.1662
 286  65.31639
 287  168.8298
 288  279.6547
 289  173.9217
 290  61.19525
 291  58.29096
 292  -37.63654
 293  30.91482
 294  1.14154
 295  25.45799
 296  115.8016
 297  204.0728
 298  183.9846
 299  121.6595
 300  5.487924
 301  14.36536
 302  115.5535
 303  -26.65314
 304  30.6946
 305  67.3862
 306  112.8473
 307  143.3751
 308  177.8878
 309  114.5565
 310  62.00089
 311  140.0334
 312  105.5704
 313  27.42712
 314  294.9832
 315  176.9599
 316  50.47958
 317  140.4544
 318  183.6075
 319  134.8199
 320  106.3568
 321  239.6568
 322  246.7735
 323  44.09364
 324  91.82905
 325  48.85179
 326  55.17265
 327  57.0851
 328  92.82368
 329  124.2512
 330  69.47161
 331  40.58633
 332  61.55729
 333  20.08585
 334  59.04287
 335  23.66952
 336  -50.0311
 337  57.31749
 338  173.2649
 339  -7.969382
 340  85.98934
 341  168.3114
 342  175.761
 343  128.1445
 344  161.8821
 345  127.6982
 346  169.3759
 347  314.9163
 348  302.2903
 349  314.8214
 350  183.6232
 351  87.07942
 352  26.84657
 353  231.2342
 354  104.3727
 355  -20.86216
 356  100.1666
 357  98.78516
 358  267.4444
 359  361.104
 360  119.8931
 361  51.85149
 362  99.17112
 363  124.1279
 364  117.9721
 365  246.5628
 366  222.0506
 367  188.6799
 368  123.7397
 369  85.48176
 370  117.1022
 371  81.20669
 372  95.92192
 373  152.0945
 374  204.4781
 375  147.7422
 376  68.43609
 377  226.382
 378  191.2601
 379  68.84271
 380  86.26732
 381  313.0162
 382  341.4688
 383  175.3737
 384  -15.11732
 385  160.7359
 386  198.966
 387  114.0726
 388  108.7607
 389  249.4767
 390  284.2833
 391  -33.71936
 392  55.98207
 393  277.5099
 394  407.3035
 395  33.04993
 396  -41.89383
 397  183.7487
 398  320.9614
 399  138.7232
 400  130.0014
 401  104.113
 402  205.1867
 403  243.2254
 404  264.7965
 405  245.9323
 406  143.8074
 407  156.914
 408  114.475
 409  60.73588
 410  52.52581
 411  137.0044
 412  192.5023
 413  125.7401
 414  129.7446
 415  203.7274
 416  1.26035
 417  -62.55364
 418  126.7235
 419  208.5714
 420  219.1254
 421  193.0854
 422  189.9152
 423  136.8367
 424  93.43696
 425  47.75556
 426  97.90086
 427  123.0355
 428  240.7885
 429  286.1593
 430  128.0157
 431  78.35262
 432  331.1417
 433  320.806
 434  128.6737
 435  86.92708
 436  141.9825
 437  240.3968
 438  163.6703
 439  300.7284
 440  250.6684
 441  114.5347
 442  109.9856
 443  102.1438
 444  181.2241
 445  172.3853
 446  188.3244
 447  263.0725
 448  301.014
 449  216.5619
 450  127.2299
 451  159.3238
 452  156.0087
 453  117.4565
 454  115.5825
 455  63.53139
 456  75.52663
 457  194.655
 458  199.1311
 459  128.9532
 460  118.4413
 461  128.1883
 462  114.6677
 463  235.6675
 464  222.1015
 465  82.45451
 466  104.2633
 467  122.2374
 468  123.2831
 469  224.188
 470  338.9383
 471  187.7169
 472  141.8131
 473  15.24608
 474  80.33704
 475  243.8387
 476  172.4122
 477  211.2034
 478  181.9236
 479  139.8539
 480  119.8398
 481  89.96686
 482  90.97453
 483  126.025
 484  240.9638
 485  229.6326
 486  372.9638
 487  389.4322
 488  296.1582
 489  324.2785
 490  514.4634
 491  586.2415
 492  704.4407
 493  697.2227
 494  868.9982
 495  878.2924
 496  659.0428
 497  433.6255
 498  244.8051
 499  124.7202
 500  193.6586
 501  172.685
 502  229.2487
 503  253.9774
 504  207.5177
 505  149.2826
 506  196.1448
 507  201.5994
 508  168.8248
 509  243.0319
 510  274.9934
 511  79.69629
