# Input file       =  1190834350.096258_cleaned.dat
# Candidate        =  PSR_0332+5434
# Telescope        =  AR
# Epoch_topo       =  58026.805197873357
# Epoch_bary       =  N/A
# T_sample         =  0.002
# Data Folded      =  7208960
# Data Avg         =  0.00634339545647085
# Data StdDev      =  1.00004403759971 
# Profile Bins     =  512
# Profile Avg      =  89.3368770463887 
# Profile StdDev   =  118.664401258816 
# Reduced chi-sqr  =  1.441
# Prob(Noise)      <  2.23e-10   (~6.2 sigma)
# P_topo (ms)      =  714.472488520675  +/- 0.000179
# P'_topo (s/s)    =  -0                +/- 9.63e-11
# P''_topo (s/s^2) =  0                 +/- 4.33e-14
# P_bary (ms)      =  N/A
# P'_bary (s/s)    =  N/A
# P''_bary (s/s^2) =  N/A
# P_orb (s)        =  N/A
# asin(i)/c (s)    =  N/A
# eccentricity     =  N/A
# w (rad)          =  N/A
# T_peri           =  N/A
######################################################
   0  114.0876
   1  -45.36685
   2  -13.38632
   3  87.13705
   4  106.6711
   5  105.6863
   6  221.7521
   7  146.8488
   8  52.55703
   9  229.4544
  10  142.1443
  11  77.71924
  12  155.6044
  13  134.977
  14  87.27163
  15  120.0429
  16  211.3037
  17  284.9071
  18  299.0286
  19  286.2669
  20  331.9106
  21  450.0769
  22  682.2341
  23  814.8355
  24  839.4309
  25  682.5356
  26  462.6819
  27  165.8683
  28  60.11691
  29  44.31904
  30  151.5305
  31  83.20073
  32  86.52197
  33  100.0242
  34  113.6919
  35  97.87373
  36  72.02687
  37  140.9097
  38  169.5325
  39  150.8253
  40  252.1801
  41  189.7284
  42  125.3467
  43  103.5456
  44  48.07975
  45  233.5863
  46  229.3024
  47  175.0082
  48  125.0892
  49  105.7769
  50  32.25658
  51  69.79002
  52  187.4662
  53  90.07676
  54  112.153
  55  55.77213
  56  73.65556
  57  207.1626
  58  181.7605
  59  56.56701
  60  -21.68124
  61  63.41249
  62  -68.54918
  63  49.7984
  64  3.331017
  65  34.82194
  66  59.7294
  67  -3.564523
  68  -73.46508
  69  -3.124851
  70  175.2928
  71  203.1963
  72  65.94576
  73  33.20952
  74  -2.566662
  75  13.03473
  76  142.4538
  77  255.9847
  78  196.6227
  79  51.92162
  80  38.65342
  81  157.6461
  82  106.8639
  83  112.203
  84  205.7043
  85  64.56647
  86  78.75579
  87  91.19733
  88  -20.33131
  89  -66.25237
  90  -26.68571
  91  207.6008
  92  265.6053
  93  126.4758
  94  146.3086
  95  44.18333
  96  89.99432
  97  96.67053
  98  144.2869
  99  191.7215
 100  188.774
 101  4.554442
 102  182.5462
 103  98.9037
 104  74.37993
 105  -4.608008
 106  91.58166
 107  190.2553
 108  222.8945
 109  259.4671
 110  269.8724
 111  108.704
 112  -36.16492
 113  54.72137
 114  98.76889
 115  34.20425
 116  -14.57451
 117  46.11505
 118  1.585126
 119  42.23301
 120  157.2471
 121  105.1982
 122  71.62469
 123  90.3215
 124  247.4847
 125  147.4007
 126  78.22371
 127  193.8296
 128  145.359
 129  19.66991
 130  53.14159
 131  73.93738
 132  57.88895
 133  35.0526
 134  128.7475
 135  81.92743
 136  138.1519
 137  189.8522
 138  171.2968
 139  154.6276
 140  159.1446
 141  230.1019
 142  127.4889
 143  42.45905
 144  130.443
 145  -18.7893
 146  94.12244
 147  141.1003
 148  66.93333
 149  -10.50529
 150  51.92699
 151  127.2715
 152  84.30618
 153  27.00391
 154  108.5327
 155  103.2176
 156  76.4001
 157  120.6916
 158  110.9768
 159  210.4141
 160  129.0815
 161  -29.66346
 162  -7.501204
 163  45.09338
 164  51.40488
 165  24.40805
 166  30.94234
 167  168.8271
 168  20.74274
 169  73.21732
 170  135.8045
 171  161.3708
 172  -8.585614
 173  -11.20374
 174  163.5841
 175  107.8779
 176  20.6928
 177  142.0159
 178  83.35881
 179  63.95582
 180  91.81203
 181  63.00923
 182  103.1262
 183  136.5416
 184  98.04868
 185  51.40397
 186  53.63332
 187  137.5254
 188  240.2281
 189  286.635
 190  51.88593
 191  1.954778
 192  2.925757
 193  -63.67249
 194  91.24931
 195  162.0387
 196  54.08526
 197  203.5044
 198  294.3874
 199  102.9963
 200  50.02352
 201  42.51382
 202  129.8467
 203  140.3356
 204  150.9072
 205  181.8358
 206  151.6696
 207  185.5197
 208  246.5652
 209  243.2389
 210  112.6338
 211  12.66914
 212  -79.98965
 213  39.93273
 214  26.08996
 215  60.67329
 216  198.6627
 217  149.2658
 218  78.7707
 219  39.47631
 220  7.044488
 221  126.3857
 222  64.29108
 223  -13.31936
 224  -11.89534
 225  96.395
 226  179.0615
 227  32.90714
 228  19.45703
 229  20.76013
 230  -32.5598
 231  51.28601
 232  94.80321
 233  171.9589
 234  179.7246
 235  63.38435
 236  34.30182
 237  -24.31418
 238  164.1943
 239  167.5645
 240  -41.9102
 241  77.83271
 242  70.47829
 243  69.62278
 244  102.6491
 245  31.92627
 246  140.9465
 247  189.2307
 248  39.3496
 249  102.4021
 250  88.42068
 251  126.9056
 252  58.89214
 253  71.09287
 254  129.3633
 255  138.4781
 256  136.0975
 257  142.3958
 258  14.2216
 259  66.47079
 260  46.81434
 261  99.35777
 262  107.3897
 263  74.62024
 264  95.31178
 265  69.88503
 266  111.5941
 267  13.38227
 268  53.55758
 269  49.95958
 270  42.33714
 271  1.640819
 272  6.074388
 273  -75.67505
 274  26.95108
 275  87.58132
 276  55.34742
 277  -59.97322
 278  -62.54007
 279  -35.17716
 280  -23.17151
 281  43.80527
 282  85.63885
 283  65.02032
 284  65.03411
 285  -17.65916
 286  -41.01047
 287  119.8646
 288  84.34528
 289  59.25504
 290  20.98177
 291  -8.897606
 292  131.0553
 293  113.3643
 294  59.33086
 295  109.2129
 296  150.2038
 297  60.48503
 298  36.91197
 299  101.585
 300  71.50351
 301  203.7374
 302  176.4352
 303  48.14115
 304  -1.919276
 305  34.57305
 306  56.76564
 307  127.5652
 308  104.0102
 309  109.3784
 310  -3.585191
 311  10.15562
 312  66.00224
 313  136.5575
 314  93.733
 315  100.47
 316  161.9647
 317  40.45835
 318  67.41972
 319  -12.35958
 320  -26.29335
 321  88.25772
 322  161.3595
 323  3.1151
 324  -79.92338
 325  75.49866
 326  85.5006
 327  91.33899
 328  -9.711625
 329  25.28939
 330  54.84945
 331  66.85143
 332  42.99667
 333  2.713785
 334  43.2725
 335  66.26542
 336  -96.35588
 337  -89.12907
 338  162.5243
 339  64.86423
 340  -128.122
 341  -160.1453
 342  -4.490816
 343  34.51979
 344  47.33788
 345  101.6601
 346  32.68682
 347  -15.16566
 348  103.5386
 349  79.80053
 350  21.12177
 351  -5.18343
 352  -49.82452
 353  -17.47434
 354  197.5621
 355  157.7361
 356  244.0168
 357  -25.06432
 358  -0.1625297
 359  32.8418
 360  34.41362
 361  82.44167
 362  177.4883
 363  194.5162
 364  150.1419
 365  38.17854
 366  48.91765
 367  -19.40751
 368  -18.96641
 369  17.68701
 370  35.71442
 371  -14.98417
 372  4.042054
 373  -11.4175
 374  -82.66313
 375  74.70389
 376  75.06357
 377  81.76286
 378  67.62666
 379  95.44207
 380  173.9394
 381  126.5116
 382  54.70404
 383  17.89376
 384  88.14705
 385  0.9820287
 386  91.34607
 387  172.3455
 388  213.0685
 389  230.825
 390  74.50005
 391  36.01436
 392  -14.36214
 393  -4.445538
 394  85.72441
 395  101.2972
 396  -44.73169
 397  -73.96172
 398  -38.97679
 399  -21.28791
 400  -21.43532
 401  -1.465636
 402  1.995206
 403  0.7574552
 404  12.54066
 405  35.91613
 406  193.5705
 407  275.5225
 408  238.1337
 409  91.73525
 410  -2.961291
 411  22.46761
 412  78.07277
 413  177.7413
 414  107.3847
 415  23.54984
 416  -102.7863
 417  -2.129519
 418  157.2827
 419  53.58615
 420  63.23014
 421  62.91797
 422  -3.411942
 423  -81.45924
 424  131.4546
 425  110.1703
 426  78.82735
 427  32.10965
 428  -34.99963
 429  99.8494
 430  144.1294
 431  21.23217
 432  -13.18033
 433  57.28104
 434  93.57155
 435  40.71121
 436  63.00405
 437  171.2457
 438  109.9667
 439  17.62273
 440  78.18465
 441  -11.92697
 442  150.0331
 443  185.3643
 444  54.76213
 445  88.7811
 446  199.8661
 447  84.85953
 448  67.5802
 449  84.74303
 450  -101.9326
 451  -76.67053
 452  7.890087
 453  127.0822
 454  118.7628
 455  140.9917
 456  140.5414
 457  125.3899
 458  217.6573
 459  224.0267
 460  102.3416
 461  152.435
 462  188.4839
 463  133.9646
 464  39.17947
 465  126.5739
 466  -6.033249
 467  -75.34261
 468  -15.89211
 469  114.7539
 470  40.4954
 471  62.71394
 472  189.1672
 473  201.0479
 474  175.775
 475  110.1661
 476  110.2323
 477  63.4084
 478  -49.20905
 479  -44.07904
 480  100.2957
 481  329.8918
 482  133.2652
 483  -8.436924
 484  -17.46427
 485  11.43126
 486  129.1542
 487  178.5639
 488  152.7473
 489  61.03527
 490  -0.233823
 491  31.71159
 492  79.19341
 493  153.1461
 494  307.4542
 495  220.5943
 496  170.8152
 497  82.60458
 498  50.24888
 499  -61.43381
 500  24.07091
 501  31.60848
 502  78.97888
 503  23.14404
 504  -1.277989
 505  61.08621
 506  1.848085
 507  33.3218
 508  194.6112
 509  191.3547
 510  180.8705
 511  126.6027
