# Input file       =  1190935138.104840-PSRB0329-2ms-sampling-dd.dat
# Candidate        =  PSR_0332+5434
# Telescope        =  AR
# Epoch_topo       =  58027.971725750460
# Epoch_bary       =  N/A
# T_sample         =  0.002
# Data Folded      =  7340032
# Data Avg         =  1.1771358247583e-10
# Data StdDev      =  3.95037764556316 
# Profile Bins     =  512
# Profile Avg      =  1.20749367906821 
# Profile StdDev   =  472.990710338178 
# Reduced chi-sqr  =  1.089
# Prob(Noise)      <  0.0803   (~1.4 sigma)
# P_topo (ms)      =  714.473144345717  +/- 0.000376
# P'_topo (s/s)    =  -0                +/- 1.98e-10
# P''_topo (s/s^2) =  0                 +/- 8.76e-14
# P_bary (ms)      =  N/A
# P'_bary (s/s)    =  N/A
# P''_bary (s/s^2) =  N/A
# P_orb (s)        =  N/A
# asin(i)/c (s)    =  N/A
# eccentricity     =  N/A
# w (rad)          =  N/A
# T_peri           =  N/A
######################################################
   0  -401.7065
   1  -307.4356
   2  -424.5008
   3  -265.149
   4  -49.90372
   5  -41.97819
   6  -203.8453
   7  -211.8544
   8  -226.9912
   9  -363.0359
  10  -291.0338
  11  -352.9856
  12  -578.6569
  13  -320.3832
  14  -287.4911
  15  -403.247
  16  -393.3125
  17  -197.4913
  18  -269.2978
  19  -178.2011
  20  514.8318
  21  513.4238
  22  415.887
  23  487.6237
  24  559.4958
  25  -146.0592
  26  -35.27101
  27  477.3232
  28  728.4547
  29  698.3831
  30  780.1038
  31  162.0822
  32  -632.028
  33  -613.2694
  34  -531.1259
  35  -475.6081
  36  -273.0914
  37  -131.3749
  38  142.1456
  39  -57.58718
  40  -111.4441
  41  -358.0253
  42  12.38548
  43  479.6958
  44  236.3699
  45  35.99074
  46  -196.8553
  47  -475.7875
  48  -204.8569
  49  -6.735745
  50  -307.5464
  51  -121.8307
  52  239.3528
  53  -15.75899
  54  -235.3559
  55  -246.7157
  56  -78.02911
  57  -706.4057
  58  -713.9042
  59  -298.8743
  60  -350.8349
  61  -82.13603
  62  -263.6496
  63  -268.2677
  64  -225.7142
  65  -124.3065
  66  -102.9042
  67  -104.7399
  68  -119.8281
  69  -133.1297
  70  -96.76963
  71  34.76322
  72  99.17268
  73  99.51958
  74  334.3568
  75  160.563
  76  -319.5848
  77  -171.8561
  78  124.2424
  79  290.6018
  80  -167.4484
  81  -334.7228
  82  -91.99758
  83  -464.086
  84  -444.3431
  85  -281.0905
  86  -465.7849
  87  -157.2488
  88  -115.2357
  89  -5.386581
  90  -390.5104
  91  -380.6999
  92  -249.4131
  93  60.38677
  94  126.0738
  95  -37.49345
  96  -118.7942
  97  -242.3485
  98  6.449801
  99  -260.5493
 100  -384.7926
 101  -44.19685
 102  -209.4549
 103  33.42283
 104  292.634
 105  42.13324
 106  -192.7842
 107  -173.7222
 108  -112.3331
 109  -450.9084
 110  -77.91112
 111  39.79926
 112  -10.23487
 113  -37.53563
 114  112.7452
 115  -39.14226
 116  136.1247
 117  408.7658
 118  289.9906
 119  152.7238
 120  288.97
 121  59.45303
 122  -232.8387
 123  -176.9897
 124  36.00023
 125  264.7633
 126  558.7986
 127  24.18637
 128  -4.107119
 129  181.5725
 130  107.9772
 131  469.8401
 132  875.8029
 133  733.9664
 134  375.8855
 135  203.0352
 136  110.9075
 137  87.50043
 138  454.8431
 139  406.9212
 140  499.9379
 141  358.8134
 142  65.78717
 143  269.5983
 144  686.9346
 145  1240.88
 146  972.4505
 147  431.647
 148  459.6469
 149  53.91021
 150  -169.5568
 151  35.68573
 152  125.873
 153  2.433899
 154  -222.61
 155  -126.8899
 156  94.09225
 157  83.91674
 158  316.0142
 159  626.4916
 160  272.6095
 161  145.4852
 162  -185.6946
 163  -199.7917
 164  -14.71453
 165  336.298
 166  285.3507
 167  346.8029
 168  377.924
 169  -67.36886
 170  -208.3195
 171  142.2384
 172  37.53808
 173  42.78111
 174  69.54202
 175  -30.90402
 176  90.92684
 177  251.8089
 178  18.5547
 179  -212.1131
 180  -330.3233
 181  -209.1319
 182  -225.3318
 183  -209.9454
 184  -290.3972
 185  -138.4944
 186  16.84423
 187  269.4186
 188  -184.3957
 189  -87.39388
 190  126.7557
 191  134.8969
 192  9.036909
 193  1.862714
 194  -91.41135
 195  85.51237
 196  285.9392
 197  -331.7394
 198  46.92349
 199  224.9534
 200  239.5606
 201  100.7471
 202  162.9987
 203  -13.00998
 204  -0.1861418
 205  -78.18429
 206  160.6635
 207  -2.252816
 208  158.2836
 209  31.27441
 210  -296.2428
 211  -369.1399
 212  -171.8709
 213  359.5514
 214  492.9522
 215  13.71495
 216  -334.6047
 217  -35.51387
 218  -144.1761
 219  -205.4608
 220  -223.4497
 221  -272.77
 222  -384.3225
 223  -278.5539
 224  -444.2014
 225  -269.1041
 226  0.6857105
 227  -51.87928
 228  -145.1128
 229  -433.7822
 230  -287.6846
 231  -180.8711
 232  -157.9831
 233  -275.927
 234  -377.3855
 235  -70.72877
 236  212.5068
 237  96.22802
 238  42.79229
 239  -37.98864
 240  -12.45779
 241  -330.6435
 242  -144.4041
 243  -173.1121
 244  -25.70966
 245  -170.7051
 246  -193.5989
 247  -170.3019
 248  6.811382
 249  310.7753
 250  78.60762
 251  16.2961
 252  -326.4731
 253  -273.4154
 254  -514.3698
 255  -59.50955
 256  -125.9536
 257  141.8249
 258  419.372
 259  738.1158
 260  314.6799
 261  35.73092
 262  235.5984
 263  235.8435
 264  -17.6955
 265  79.40516
 266  16.31693
 267  182.7643
 268  189.9766
 269  461.492
 270  596.0956
 271  120.3819
 272  -18.08504
 273  324.3435
 274  181.0576
 275  -39.69659
 276  57.45803
 277  78.96615
 278  -214.1737
 279  11.10162
 280  89.70697
 281  80.31322
 282  171.5887
 283  -239.4179
 284  -322.2782
 285  137.6014
 286  300.9726
 287  146.4647
 288  -68.08667
 289  -480.3101
 290  -566.8049
 291  -294.7922
 292  64.38939
 293  181.6781
 294  -166.6777
 295  -285.4883
 296  144.7807
 297  -187.1783
 298  -274.6882
 299  -135.0472
 300  -140.8813
 301  -335.6195
 302  196.573
 303  98.83436
 304  -17.83004
 305  184.5785
 306  -104.0775
 307  -44.4213
 308  -296.8615
 309  -173.6088
 310  -144.0503
 311  -81.26046
 312  63.53032
 313  -217.4902
 314  -157.3783
 315  -266.3775
 316  -176.5373
 317  146.7703
 318  -104.8559
 319  -165.0454
 320  -306.4316
 321  230.8169
 322  356.4851
 323  39.99179
 324  17.62696
 325  -48.98865
 326  -100.9293
 327  -159.2849
 328  -220.063
 329  -258.5554
 330  -344.4872
 331  6.780949
 332  304.6795
 333  61.8402
 334  -146.0498
 335  120.4317
 336  167.8296
 337  -76.23293
 338  141.3744
 339  108.5335
 340  -80.78792
 341  -96.50224
 342  -72.31616
 343  422.3103
 344  238.2188
 345  -73.40151
 346  -144.6744
 347  -104.1405
 348  -224.4951
 349  -162.2688
 350  -123.0787
 351  31.80194
 352  119.2071
 353  55.67498
 354  -542.646
 355  -353.3786
 356  150.176
 357  257.6959
 358  290.0659
 359  -43.12051
 360  -149.544
 361  -473.8202
 362  -403.632
 363  -82.57233
 364  166.3396
 365  398.7684
 366  -14.70578
 367  -117.96
 368  -338.3094
 369  114.7457
 370  -28.17772
 371  -44.39278
 372  -97.03391
 373  12.19362
 374  -318.1552
 375  -375.6071
 376  -195.2625
 377  -233.8369
 378  -310.0959
 379  42.73426
 380  -211.9589
 381  -228.0394
 382  -444.9277
 383  -451.0873
 384  -451.3573
 385  49.05122
 386  444.1906
 387  286.846
 388  -369.1627
 389  -258.3621
 390  -398.9719
 391  -172.3326
 392  -54.53648
 393  -21.95028
 394  -93.57243
 395  -37.72456
 396  -23.30243
 397  -162.1554
 398  -232.8732
 399  -86.57044
 400  68.40617
 401  -307.7245
 402  -248.0538
 403  -120.0119
 404  -217.2089
 405  -72.02383
 406  -92.83892
 407  131.8372
 408  -183.155
 409  133.4721
 410  97.60761
 411  -494.7255
 412  -412.038
 413  90.7718
 414  208.4462
 415  316.4764
 416  401.3745
 417  293.1126
 418  441.8409
 419  467.1432
 420  757.4725
 421  1090.077
 422  724.7173
 423  867.7316
 424  1185.931
 425  1563.545
 426  1659.7
 427  2163.288
 428  1847.234
 429  1376.36
 430  758.1988
 431  272.08
 432  255.4873
 433  620.1067
 434  461.3503
 435  768.0244
 436  80.43774
 437  350.2612
 438  579.5344
 439  1254.758
 440  1243.243
 441  664.0839
 442  812.9556
 443  718.9832
 444  452.8936
 445  -50.89976
 446  -270.208
 447  -126.1103
 448  -106.3354
 449  90.92361
 450  45.3016
 451  -205.5263
 452  -135.2814
 453  -519.7841
 454  -352.2347
 455  24.48035
 456  -392.0199
 457  -223.3461
 458  256.1782
 459  182.1195
 460  -62.81028
 461  -588.6983
 462  -787.8666
 463  -476.2764
 464  -269.4814
 465  -195.3068
 466  -384.0976
 467  -187.7198
 468  -474.9942
 469  -590.5945
 470  -276.3254
 471  -340.84
 472  -244.5129
 473  -128.7584
 474  -328.0146
 475  -350.5567
 476  -263.1443
 477  -484.4723
 478  -511.1812
 479  -658.223
 480  -3.869549
 481  -179.1368
 482  29.12173
 483  105.5822
 484  -208.2392
 485  46.63559
 486  -283.2416
 487  -98.27962
 488  -12.45566
 489  -239.7076
 490  73.20776
 491  195.6487
 492  241.9508
 493  132.9453
 494  140.9181
 495  -58.95306
 496  153.5841
 497  -83.67468
 498  128.0823
 499  49.43204
 500  340.3968
 501  303.1362
 502  70.16782
 503  -243.4318
 504  -184.2518
 505  -286.4427
 506  -510.4596
 507  -178.8512
 508  -6.126011
 509  -307.3864
 510  -417.2833
 511  -437.0767
