# Input file       =  1190849001.1267_cleaned.dat
# Candidate        =  PSR_0332+5434
# Telescope        =  AR
# Epoch_topo       =  58026.974769984954
# Epoch_bary       =  N/A
# T_sample         =  0.002
# Data Folded      =  7340032
# Data Avg         =  0.0304176862867149
# Data StdDev      =  2.62706544791763 
# Profile Bins     =  256
# Profile Avg      =  873.047519798179 
# Profile StdDev   =  444.835958597156 
# Reduced chi-sqr  =  1.548
# Prob(Noise)      <  4.34e-08   (~5.4 sigma)
# P_topo (ms)      =  714.472595182087  +/- 0.000293
# P'_topo (s/s)    =  -0                +/- 1.55e-10
# P''_topo (s/s^2) =  0                 +/- 6.82e-14
# P_bary (ms)      =  N/A
# P'_bary (s/s)    =  N/A
# P''_bary (s/s^2) =  N/A
# P_orb (s)        =  N/A
# asin(i)/c (s)    =  N/A
# eccentricity     =  N/A
# w (rad)          =  N/A
# T_peri           =  N/A
######################################################
   0  656.6643
   1  652.6816
   2  1189.221
   3  1275.397
   4  1132.19
   5  849.9079
   6  668.9962
   7  615.2236
   8  1403.36
   9  553.255
  10  1286.148
  11  1226.592
  12  795.6039
  13  1668.007
  14  974.7314
  15  926.5756
  16  1058.696
  17  1355.838
  18  1426.57
  19  918.07
  20  1214.514
  21  1265.046
  22  886.1395
  23  1068.948
  24  666.2517
  25  758.3827
  26  1069.408
  27  993.9528
  28  898.215
  29  324.9786
  30  316.5235
  31  424.6498
  32  765.4058
  33  -343.1674
  34  628.2974
  35  1848.442
  36  618.8279
  37  919.2006
  38  731.8958
  39  559.697
  40  650.5536
  41  766.6342
  42  868.073
  43  1159.223
  44  1126.308
  45  1442.703
  46  1176.729
  47  1102.069
  48  88.69485
  49  859.0392
  50  886.6837
  51  1680.495
  52  1134.372
  53  965.4343
  54  673.3094
  55  738.8331
  56  595.6613
  57  1016.002
  58  367.6314
  59  23.1731
  60  123.2361
  61  868.7242
  62  804.1318
  63  255.7247
  64  189.2865
  65  504.898
  66  898.5148
  67  744.0289
  68  595.4249
  69  549.6752
  70  1313.434
  71  517.8492
  72  921.6132
  73  1032.658
  74  876.7748
  75  458.7137
  76  516.7734
  77  508.0594
  78  308.9614
  79  343.5046
  80  352.9211
  81  87.41708
  82  349.32
  83  751.8112
  84  857.7391
  85  766.3332
  86  1157.226
  87  1397.738
  88  721.0826
  89  830.8678
  90  67.63944
  91  660.5217
  92  1714.686
  93  442.8341
  94  655.7214
  95  997.1736
  96  1004.304
  97  560.9081
  98  602.1504
  99  776.5206
 100  952.1324
 101  674.7393
 102  783.5112
 103  1152.348
 104  1155.246
 105  451.7119
 106  875.1109
 107  970.8877
 108  527.1695
 109  858.5655
 110  1079.696
 111  497.1434
 112  1168.415
 113  528.3605
 114  1230.673
 115  1252.538
 116  688.4645
 117  583.1958
 118  710.1432
 119  760.4722
 120  843.9838
 121  -56.52203
 122  827.6081
 123  1056.09
 124  832.2579
 125  464.2469
 126  617.283
 127  1520.542
 128  522.144
 129  1612.458
 130  596.2095
 131  986.1693
 132  1169.299
 133  827.8651
 134  483.0269
 135  847.4712
 136  1232.389
 137  1292.444
 138  664.3508
 139  830.3008
 140  558.2124
 141  768.62
 142  807.7347
 143  715.577
 144  1001.203
 145  791.3806
 146  679.6157
 147  1007.517
 148  1456.434
 149  478.4004
 150  1001.781
 151  1004.826
 152  1004.646
 153  697.8658
 154  501.3845
 155  1250.229
 156  2030.933
 157  1465.639
 158  2830.748
 159  3373.806
 160  4316.972
 161  2695.534
 162  1093.477
 163  969.7438
 164  1265.94
 165  935.73
 166  915.4141
 167  1032.471
 168  916.472
 169  455.387
 170  760.6773
 171  771.8279
 172  713.3167
 173  1200.94
 174  1651.467
 175  672.6011
 176  478.0127
 177  1181.419
 178  1255.488
 179  951.4763
 180  1312.19
 181  852.0157
 182  1106.987
 183  959.9203
 184  1954.181
 185  1413.477
 186  1092.535
 187  785.1331
 188  546.3298
 189  824.2945
 190  340.7575
 191  587.1109
 192  658.0135
 193  910.1558
 194  1306.537
 195  644.1268
 196  435.5007
 197  767.054
 198  924.3947
 199  675.9207
 200  943.9338
 201  594.7589
 202  1113.796
 203  1272.036
 204  759.6558
 205  879.4722
 206  1078.987
 207  902.8941
 208  736.1984
 209  636.7779
 210  652.3837
 211  772.2796
 212  770.5139
 213  774.0424
 214  605.4248
 215  1029.571
 216  861.1443
 217  1385.472
 218  1227.839
 219  805.7524
 220  598.9029
 221  246.3475
 222  949.0556
 223  932.2888
 224  239.2844
 225  859.9679
 226  866.684
 227  1373.231
 228  1008.356
 229  214.0176
 230  621.4122
 231  1118.109
 232  1297.727
 233  639.9315
 234  159.4092
 235  522.868
 236  314.8065
 237  499.0354
 238  149.6019
 239  489.9215
 240  757.8046
 241  794.7393
 242  163.7176
 243  374.6393
 244  561.778
 245  957.6435
 246  443.7993
 247  1025.592
 248  642.5876
 249  750.4191
 250  658.347
 251  715.6617
 252  1295.12
 253  931.6826
 254  940.2718
 255  1096.919
