# Input file       =  1190863929.112254_cleaned.dat
# Candidate        =  PSR_0332+5434
# Telescope        =  AR
# Epoch_topo       =  58027.147547595530
# Epoch_bary       =  N/A
# T_sample         =  0.002
# Data Folded      =  7340032
# Data Avg         =  0.00940224992998634
# Data StdDev      =  1.0000536762825  
# Profile Bins     =  512
# Profile Avg      =  134.737846322435 
# Profile StdDev   =  119.739463201052 
# Reduced chi-sqr  =  1.471
# Prob(Noise)      <  1.91e-11   (~6.6 sigma)
# P_topo (ms)      =  714.473024290297  +/- 0.000153
# P'_topo (s/s)    =  -0                +/- 8.05e-11
# P''_topo (s/s^2) =  0                 +/- 3.55e-14
# P_bary (ms)      =  N/A
# P'_bary (s/s)    =  N/A
# P''_bary (s/s^2) =  N/A
# P_orb (s)        =  N/A
# asin(i)/c (s)    =  N/A
# eccentricity     =  N/A
# w (rad)          =  N/A
# T_peri           =  N/A
######################################################
   0  766.8859
   1  781.2541
   2  554.3732
   3  304.5911
   4  290.7513
   5  259.7001
   6  209.7029
   7  159.8742
   8  -3.623039
   9  56.79055
  10  135.278
  11  164.9647
  12  70.24481
  13  153.9612
  14  280.494
  15  201.4512
  16  184.8579
  17  188.6307
  18  270.1776
  19  118.4896
  20  186.8184
  21  41.7979
  22  70.63721
  23  69.82193
  24  133.4186
  25  180.241
  26  151.5279
  27  115.907
  28  162.4178
  29  88.98456
  30  -134.6901
  31  82.93233
  32  146.534
  33  87.63726
  34  -0.08863488
  35  -126.507
  36  16.68607
  37  16.58492
  38  70.23016
  39  74.21869
  40  0.2406866
  41  78.45227
  42  234.8792
  43  50.21823
  44  153.6938
  45  188.5032
  46  298.1966
  47  138.0328
  48  82.72382
  49  82.28392
  50  25.3231
  51  -27.77811
  52  37.11404
  53  19.01433
  54  80.57378
  55  188.4843
  56  215.5748
  57  134.997
  58  1.944624
  59  -54.8759
  60  52.06368
  61  96.03734
  62  194.7548
  63  108.3778
  64  -44.55392
  65  -4.957739
  66  72.41127
  67  100.2008
  68  194.7744
  69  157.583
  70  219.8502
  71  261.9733
  72  130.3499
  73  133.516
  74  224.8251
  75  104.2963
  76  84.32436
  77  129.3165
  78  58.46214
  79  110.9313
  80  106.5568
  81  173.7618
  82  158.2177
  83  -0.8713255
  84  100.3569
  85  31.30933
  86  97.20007
  87  149.9268
  88  174.9188
  89  39.95512
  90  70.59945
  91  226.1918
  92  201.3926
  93  226.4436
  94  186.2752
  95  90.54464
  96  153.3279
  97  158.698
  98  286.8535
  99  198.4754
 100  86.1982
 101  -87.52277
 102  60.08238
 103  111.8493
 104  78.20737
 105  227.2421
 106  208.7232
 107  140.1363
 108  121.721
 109  266.8061
 110  195.3769
 111  58.48967
 112  98.73288
 113  126.9499
 114  123.1424
 115  87.57333
 116  149.401
 117  160.4169
 118  102.7525
 119  87.34821
 120  0.5138538
 121  6.619379
 122  213.5823
 123  159.5775
 124  105.3194
 125  59.10156
 126  163.0246
 127  105.9291
 128  150.1719
 129  89.57241
 130  96.62275
 131  -86.49493
 132  2.154288
 133  227.089
 134  136.2736
 135  7.331626
 136  97.13577
 137  197.1484
 138  132.6716
 139  6.679481
 140  53.06662
 141  101.7545
 142  19.23025
 143  138.4202
 144  188.5069
 145  247.9529
 146  154.4819
 147  113.9008
 148  102.5183
 149  6.804703
 150  49.68784
 151  16.5759
 152  71.24211
 153  147.3967
 154  128.9818
 155  14.18369
 156  155.5425
 157  121.2069
 158  187.1402
 159  266.5526
 160  213.379
 161  77.51543
 162  30.83621
 163  263.4023
 164  272.7507
 165  163.0754
 166  183.4011
 167  222.7652
 168  101.1361
 169  216.229
 170  168.4492
 171  122.1946
 172  130.2007
 173  -0.2938257
 174  109.5161
 175  201.996
 176  139.2
 177  161.909
 178  196.5987
 179  187.273
 180  180.7978
 181  186.977
 182  120.7029
 183  98.50787
 184  130.8283
 185  83.61661
 186  42.76319
 187  82.91671
 188  234.3451
 189  134.7388
 190  264.0569
 191  128.5892
 192  -8.064434
 193  -11.56263
 194  63.3053
 195  207.7632
 196  281.3055
 197  225.7046
 198  155.7426
 199  86.48425
 200  54.66836
 201  63.10227
 202  66.31711
 203  43.98117
 204  47.20006
 205  114.4461
 206  177.2193
 207  179.5413
 208  224.9925
 209  228.3916
 210  142.9413
 211  196.8197
 212  37.1925
 213  23.51607
 214  33.30476
 215  105.3538
 216  160.8848
 217  149.7425
 218  84.72354
 219  153.0966
 220  140.18
 221  102.6238
 222  -17.73787
 223  68.57542
 224  181.316
 225  -2.935988
 226  -65.41317
 227  0.8289028
 228  122.6289
 229  45.4468
 230  41.22486
 231  114.7453
 232  117.3918
 233  163.7289
 234  87.83163
 235  150.806
 236  143.1187
 237  281.506
 238  189.3672
 239  117.4787
 240  101.1726
 241  170.8727
 242  196.452
 243  250.5016
 244  274.3367
 245  149.7955
 246  141.1945
 247  195.1026
 248  104.8161
 249  164.4411
 250  202.0694
 251  57.90377
 252  18.44602
 253  95.78352
 254  158.3663
 255  204.1451
 256  151.1705
 257  -51.41085
 258  -101.3684
 259  66.05035
 260  66.59504
 261  153.198
 262  143.9892
 263  73.05846
 264  97.91682
 265  193.6377
 266  145.4679
 267  119.5791
 268  22.54705
 269  87.27514
 270  179.7012
 271  317.2274
 272  352.4547
 273  202.9682
 274  138.2109
 275  160.8658
 276  12.52916
 277  46.51521
 278  175.095
 279  81.14848
 280  134.0055
 281  175.0549
 282  49.05462
 283  44.40659
 284  80.75324
 285  44.11934
 286  -91.61888
 287  -38.28613
 288  112.3693
 289  71.24065
 290  221.2965
 291  104.295
 292  105.0043
 293  84.69427
 294  92.33523
 295  241.4811
 296  189.7466
 297  51.95659
 298  65.38831
 299  32.75573
 300  44.88596
 301  82.68102
 302  68.22858
 303  22.98351
 304  -78.90301
 305  5.855847
 306  58.52667
 307  261.3785
 308  268.3801
 309  198.8401
 310  86.34263
 311  101.1394
 312  168.0253
 313  -68.78976
 314  7.50042
 315  260.9742
 316  148.0343
 317  33.66269
 318  37.01275
 319  88.06044
 320  23.87238
 321  157.5055
 322  147.9831
 323  239.5464
 324  80.34637
 325  -10.2521
 326  -25.64575
 327  142.1103
 328  187.6171
 329  164.1243
 330  205.2007
 331  252.1085
 332  151.7507
 333  188.8946
 334  197.5374
 335  96.78715
 336  66.63126
 337  203.8078
 338  85.9305
 339  164.3055
 340  160.4459
 341  167.3204
 342  160.1352
 343  215.2964
 344  213.3996
 345  263.2671
 346  234.6742
 347  58.51665
 348  56.65016
 349  92.53954
 350  52.37772
 351  192.6336
 352  55.93735
 353  30.56852
 354  22.14462
 355  71.64969
 356  93.30282
 357  82.50571
 358  168.7098
 359  195.0038
 360  171.3274
 361  -18.16905
 362  158.2175
 363  74.12942
 364  33.1894
 365  152.5977
 366  333.8875
 367  213.375
 368  98.05158
 369  51.2291
 370  110.8984
 371  21.06478
 372  130.6579
 373  146.2453
 374  197.5413
 375  189.1959
 376  262.7789
 377  392.2452
 378  311.454
 379  216.1277
 380  117.8235
 381  70.43891
 382  103.8033
 383  106.6713
 384  110.661
 385  104.2016
 386  58.58286
 387  61.25808
 388  -8.701772
 389  -54.90019
 390  98.91033
 391  129.1043
 392  190.0599
 393  213.6037
 394  81.04146
 395  75.53436
 396  48.66044
 397  72.28494
 398  198.4169
 399  235.7336
 400  175.4048
 401  16.62962
 402  148.2314
 403  173.2412
 404  134.8045
 405  107.8758
 406  108.7647
 407  43.49651
 408  93.18156
 409  172.0219
 410  124.4576
 411  165.5759
 412  272.5067
 413  339.6574
 414  108.4118
 415  -19.32546
 416  177.1655
 417  302.6962
 418  172.2913
 419  282.9872
 420  225.164
 421  166.5816
 422  74.58562
 423  111.4925
 424  179.8386
 425  147.1088
 426  21.88649
 427  279.3001
 428  299.886
 429  187.4082
 430  136.0314
 431  141.404
 432  135.9548
 433  81.35389
 434  131.5919
 435  295.3618
 436  265.1308
 437  277.6787
 438  257.8828
 439  203.9397
 440  153.5404
 441  232.0832
 442  282.8345
 443  166.0055
 444  113.9511
 445  28.73222
 446  126.853
 447  223.0606
 448  182.255
 449  227.9885
 450  185.5109
 451  88.22051
 452  231.2791
 453  172.9561
 454  31.98762
 455  -33.06453
 456  265.8694
 457  334.8107
 458  115.8016
 459  41.1746
 460  13.8563
 461  141.4017
 462  -3.507987
 463  119.0711
 464  103.2903
 465  120.9809
 466  114.0781
 467  87.03777
 468  77.99721
 469  46.42069
 470  -65.59951
 471  94.70941
 472  135.8292
 473  40.88152
 474  115.9309
 475  154.3225
 476  -18.65826
 477  -0.6725188
 478  201.9502
 479  96.53719
 480  104.7942
 481  147.601
 482  235.4106
 483  173.0748
 484  119.1312
 485  246.0652
 486  95.35301
 487  60.28808
 488  104.7064
 489  260.7916
 490  153.6409
 491  82.97227
 492  90.81371
 493  116.7634
 494  237.4281
 495  273.8014
 496  252.4238
 497  234.1997
 498  169.2326
 499  146.2991
 500  257.4617
 501  194.6747
 502  335.1447
 503  351.4707
 504  249.7738
 505  199.8103
 506  250.1983
 507  225.5269
 508  450.4587
 509  454.6581
 510  626.0856
 511  760.9652
