# Input file       =  1190863929.112254_cleaned.dat
# Candidate        =  PSR_0332+5434
# Telescope        =  AR
# Epoch_topo       =  58027.147547595530
# Epoch_bary       =  N/A
# T_sample         =  0.002
# Data Folded      =  7340032
# Data Avg         =  0.0330181708756883
# Data StdDev      =  3.21506074996213 
# Profile Bins     =  512
# Profile Avg      =  473.250031195306 
# Profile StdDev   =  384.948985728728 
# Reduced chi-sqr  =  1.427
# Prob(Noise)      <  6.73e-10   (~6.1 sigma)
# P_topo (ms)      =  714.473025315655  +/- 0.00014
# P'_topo (s/s)    =  -0                +/- 7.41e-11
# P''_topo (s/s^2) =  0                 +/- 3.27e-14
# P_bary (ms)      =  N/A
# P'_bary (s/s)    =  N/A
# P''_bary (s/s^2) =  N/A
# P_orb (s)        =  N/A
# asin(i)/c (s)    =  N/A
# eccentricity     =  N/A
# w (rad)          =  N/A
# T_peri           =  N/A
######################################################
   0  423.5042
   1  254.0884
   2  389.7623
   3  422.4663
   4  387.4239
   5  433.6974
   6  258.4755
   7  262.2872
   8  68.8492
   9  -68.89901
  10  315.5014
  11  421.9001
  12  617.7292
  13  811.1915
  14  367.1187
  15  264.3895
  16  271.7495
  17  214.1605
  18  595.2875
  19  734.0364
  20  716.8471
  21  155.4288
  22  391.5435
  23  640.9954
  24  509.9398
  25  417.9525
  26  365.7431
  27  198.8426
  28  322.3682
  29  553.7363
  30  370.7594
  31  445.7037
  32  875.6267
  33  1195.786
  34  576.8525
  35  -21.50837
  36  470.8394
  37  1076.984
  38  695.1738
  39  819.1484
  40  752.1835
  41  496.1696
  42  272.6072
  43  372.4879
  44  597.2742
  45  624.5602
  46  105.9359
  47  783.2994
  48  999.6792
  49  580.389
  50  544.4829
  51  446.1234
  52  523.1991
  53  312.2774
  54  342.9887
  55  836.0487
  56  877.2325
  57  932.4097
  58  916.7716
  59  766.7753
  60  481.3664
  61  626.197
  62  939.8662
  63  653.5938
  64  423.3079
  65  113.7409
  66  290.7916
  67  717.3561
  68  560.4671
  69  720.3867
  70  652.489
  71  368.333
  72  694.7372
  73  695.6617
  74  234.7251
  75  -46.54594
  76  689.535
  77  1107.265
  78  468.2571
  79  171.657
  80  87.3754
  81  483.803
  82  20.38305
  83  435.1125
  84  488.6355
  85  336.2501
  86  468.8625
  87  295.214
  88  361.5724
  89  265.5604
  90  -173.9304
  91  176.1245
  92  531.4342
  93  248.5932
  94  272.6926
  95  480.0694
  96  112.774
  97  -50.23253
  98  663.3257
  99  419.7798
 100  335.2834
 101  483.7284
 102  826.5087
 103  726.3619
 104  432.2002
 105  717.2491
 106  387.2975
 107  117.24
 108  343.2247
 109  800.6959
 110  575.2437
 111  320.0739
 112  389.27
 113  365.2564
 114  848.8478
 115  1077.831
 116  866.2908
 117  833.0313
 118  752.5281
 119  532.0065
 120  899.0408
 121  676.3264
 122  1000.614
 123  1195.095
 124  893.2479
 125  734.9109
 126  850.711
 127  680.1849
 128  1436.039
 129  1586.405
 130  1908.611
 131  2440.347
 132  2414.832
 133  2507.059
 134  1904.592
 135  1071.238
 136  928.9017
 137  923.9495
 138  716.6915
 139  672.312
 140  115.0804
 141  174.6104
 142  424.0927
 143  635.5952
 144  481.0274
 145  516.5001
 146  1048.71
 147  853.4841
 148  694.9026
 149  684.2198
 150  953.1524
 151  521.5346
 152  569.3732
 153  233.8582
 154  288.0031
 155  285.2908
 156  478.3823
 157  724.8837
 158  506.7202
 159  434.1322
 160  498.569
 161  474.7789
 162  -381.9061
 163  226.3665
 164  531.2536
 165  421.8142
 166  85.20901
 167  -408.3081
 168  -30.60585
 169  58.46901
 170  237.6376
 171  314.7868
 172  91.2298
 173  160.6818
 174  825.8839
 175  297.7895
 176  449.8486
 177  708.8779
 178  936.5441
 179  552.775
 180  303.3076
 181  345.4621
 182  137.5406
 183  -28.89603
 184  172.9134
 185  97.49117
 186  107.3633
 187  589.9946
 188  782.8177
 189  497.9365
 190  172.5822
 191  -134.4096
 192  240.1631
 193  202.7681
 194  646.4023
 195  428.5353
 196  30.22168
 197  -27.26354
 198  247.7452
 199  341.0131
 200  639.6569
 201  500.9538
 202  723.8917
 203  962.4649
 204  588.877
 205  415.6624
 206  787.8578
 207  431.0918
 208  249.9959
 209  499.3985
 210  216.9189
 211  423.0374
 212  384.8583
 213  580.2472
 214  664.7564
 215  169.76
 216  360.432
 217  239.4476
 218  329.5791
 219  512.5165
 220  690.0944
 221  313.1474
 222  132.4234
 223  650.0574
 224  662.044
 225  646.0894
 226  702.6655
 227  297.0746
 228  464.8468
 229  466.9615
 230  894.1671
 231  778.6046
 232  546.8993
 233  -146.2001
 234  147.0961
 235  445.6637
 236  295.946
 237  716.1066
 238  681.7861
 239  513.9332
 240  361.0129
 241  836.7776
 242  732.2316
 243  308.9813
 244  349.5463
 245  496.7509
 246  398.1865
 247  197.9381
 248  444.0904
 249  532.6382
 250  388.3009
 251  245.7495
 252  78.85092
 253  -46.97825
 254  595.4377
 255  582.9765
 256  367.7494
 257  182.1918
 258  470.6577
 259  453.3624
 260  478.9523
 261  324.6741
 262  346.0107
 263  -98.16022
 264  -51.4727
 265  761.3253
 266  567.2047
 267  7.228419
 268  200.9438
 269  575.1553
 270  556.1627
 271  145.5587
 272  172.367
 273  323.6559
 274  102.6501
 275  429.6992
 276  619.4581
 277  765.691
 278  580.3611
 279  456.468
 280  387.7481
 281  65.64484
 282  136.966
 283  249.5381
 284  239.8835
 285  521.0371
 286  490.85
 287  157.6425
 288  507.3251
 289  478.143
 290  465.0311
 291  842.8865
 292  756.2865
 293  364.9892
 294  108.0511
 295  792.7264
 296  1012.192
 297  681.467
 298  684.6078
 299  871.7911
 300  440.9963
 301  659.0709
 302  654.3495
 303  392.1496
 304  438.7722
 305  93.33221
 306  312.4081
 307  743.2047
 308  570.0101
 309  504.7458
 310  688.4999
 311  810.5601
 312  680.2216
 313  678.2592
 314  467.7846
 315  329.4078
 316  412.1815
 317  376.9373
 318  286.4232
 319  266.4836
 320  897.4768
 321  525.6214
 322  877.384
 323  570.6995
 324  94.44249
 325  0.507833
 326  170.4233
 327  558.8927
 328  950.4374
 329  804.2018
 330  551.3773
 331  335.3359
 332  191.9487
 333  301.0641
 334  205.7224
 335  114.2875
 336  114.7889
 337  342.0508
 338  572.6413
 339  735.4183
 340  685.3864
 341  719.5806
 342  482.6356
 343  651.8067
 344  205.705
 345  96.25904
 346  189.7596
 347  354.6575
 348  542.541
 349  495.6516
 350  175.4795
 351  440.978
 352  499.3783
 353  452.7833
 354  72.40651
 355  161.6197
 356  721.2896
 357  138.0226
 358  -109.2569
 359  -17.6678
 360  346.6373
 361  107.2661
 362  111.6161
 363  350.9326
 364  377.3187
 365  485.6093
 366  414.4136
 367  567.8101
 368  498.2297
 369  823.0008
 370  754.786
 371  259.5601
 372  419.0174
 373  433.1425
 374  615.7772
 375  663.9127
 376  907.5806
 377  577.7374
 378  413.5892
 379  684.3983
 380  474.7167
 381  541.4487
 382  716.999
 383  301.2024
 384  99.93452
 385  339.2974
 386  415.1215
 387  635.6378
 388  550.5384
 389  28.85577
 390  -301.128
 391  198.3748
 392  193.8902
 393  417.8183
 394  412.9948
 395  230.5802
 396  222.5002
 397  676.4452
 398  515.3266
 399  423.4164
 400  93.69793
 401  243.0239
 402  539.6437
 403  951.8267
 404  1115.548
 405  785.4343
 406  513.6364
 407  548.0919
 408  170.1531
 409  44.81588
 410  530.9491
 411  331.7726
 412  457.134
 413  744.0447
 414  361.8883
 415  207.1008
 416  210.4076
 417  174.1439
 418  -216.5455
 419  -165.8851
 420  394.2449
 421  303.019
 422  733.8048
 423  504.0731
 424  275.7243
 425  342.2947
 426  277.1004
 427  790.1733
 428  761.4009
 429  240.4184
 430  241.9271
 431  150.7379
 432  190.9071
 433  305.8879
 434  269.0182
 435  282.1562
 436  -104.1936
 437  103.9274
 438  344.3694
 439  843.5339
 440  946.3396
 441  796.8367
 442  452.1054
 443  415.2867
 444  592.1193
 445  -13.79241
 446  22.21432
 447  845.6904
 448  694.8793
 449  253.8116
 450  64.92947
 451  341.0748
 452  1.200199
 453  478.14
 454  559.8414
 455  845.272
 456  347.2731
 457  46.19742
 458  -82.74427
 459  283.9983
 460  502.588
 461  426.0482
 462  674.9177
 463  906.6607
 464  593.9277
 465  571.0972
 466  714.5604
 467  497.5772
 468  216.5293
 469  732.2194
 470  394.9695
 471  542.8504
 472  643.8881
 473  538.8785
 474  572.105
 475  667.0508
 476  742.0522
 477  812.4928
 478  856.4809
 479  300.9815
 480  175.6301
 481  288.8412
 482  267.2379
 483  587.8724
 484  321.257
 485  166.6834
 486  145.319
 487  264.6173
 488  386.5029
 489  342.158
 490  534.3757
 491  499.6547
 492  673.5596
 493  -59.47025
 494  426.234
 495  330.0259
 496  114.7175
 497  403.838
 498  1090.156
 499  732.1987
 500  294.6314
 501  184.57
 502  447.928
 503  70.02036
 504  428.1792
 505  495.2667
 506  738.7542
 507  556.9318
 508  677.2137
 509  1174.413
 510  1113.939
 511  725.7755
