# Input file       =  1190935138.10484_cleaned.dat
# Candidate        =  PSR_0332+5434
# Telescope        =  AR
# Epoch_topo       =  58027.971725750460
# Epoch_bary       =  N/A
# T_sample         =  0.002
# Data Folded      =  7340032
# Data Avg         =  0.0105106573669268
# Data StdDev      =  1.00003098244734 
# Profile Bins     =  512
# Profile Avg      =  150.956927642422 
# Profile StdDev   =  119.736745999261 
# Reduced chi-sqr  =  1.399
# Prob(Noise)      <  5.96e-09   (~5.7 sigma)
# P_topo (ms)      =  714.47314324964   +/- 0.000212
# P'_topo (s/s)    =  -0                +/- 1.12e-10
# P''_topo (s/s^2) =  0                 +/- 4.93e-14
# P_bary (ms)      =  N/A
# P'_bary (s/s)    =  N/A
# P''_bary (s/s^2) =  N/A
# P_orb (s)        =  N/A
# asin(i)/c (s)    =  N/A
# eccentricity     =  N/A
# w (rad)          =  N/A
# T_peri           =  N/A
######################################################
   0  808.584
   1  661.0291
   2  501.2571
   3  277.3337
   4  126.4944
   5  165.9642
   6  76.73878
   7  116.6413
   8  4.330043
   9  154.4641
  10  290.6626
  11  361.4541
  12  380.3516
  13  197.0724
  14  343.6985
  15  351.7968
  16  240.7041
  17  112.7933
  18  74.39941
  19  157.0686
  20  157.7331
  21  205.1011
  22  187.3595
  23  118.4385
  24  162.3167
  25  86.40331
  26  110.5953
  27  219.9707
  28  80.70776
  29  107.4563
  30  262.6738
  31  294.2794
  32  226.844
  33  43.74437
  34  -71.69181
  35  8.435355
  36  118.6561
  37  169.1199
  38  86.7879
  39  132.8798
  40  63.79641
  41  -20.52835
  42  127.8208
  43  151.5223
  44  142.8845
  45  164.846
  46  100.5273
  47  75.29774
  48  131.2544
  49  71.78143
  50  1.206311
  51  -57.12444
  52  202.0742
  53  203.2643
  54  196.7115
  55  232.6694
  56  95.86605
  57  146.2113
  58  73.51255
  59  117.0535
  60  176.403
  61  45.31709
  62  78.49104
  63  157.5639
  64  120.1233
  65  129.3756
  66  156.1242
  67  122.3274
  68  243.9818
  69  231.8845
  70  290.2141
  71  144.957
  72  211.715
  73  183.8545
  74  173.7023
  75  116.6948
  76  177.0687
  77  140.6154
  78  -6.673141
  79  29.56417
  80  136.0615
  81  94.8731
  82  30.12361
  83  45.66865
  84  83.8952
  85  90.9756
  86  19.50007
  87  61.12915
  88  149.101
  89  164.7397
  90  130.4144
  91  133.2688
  92  135.852
  93  74.60407
  94  83.69835
  95  104.1703
  96  32.1688
  97  106.5273
  98  118.5198
  99  51.22551
 100  17.72469
 101  79.60415
 102  96.56327
 103  96.06097
 104  204.4185
 105  145.6455
 106  118.7368
 107  232.7647
 108  294.9509
 109  125.7542
 110  39.80426
 111  151.3671
 112  203.1794
 113  264.7418
 114  402.8479
 115  182.9217
 116  30.08524
 117  90.84722
 118  128.1399
 119  68.13475
 120  88.04514
 121  99.08289
 122  172.2501
 123  166.2392
 124  167.9453
 125  95.32183
 126  158.7994
 127  255.3445
 128  178.2172
 129  71.91856
 130  23.64866
 131  19.61303
 132  156.499
 133  253.0908
 134  129.0955
 135  184.1293
 136  323.0786
 137  201.873
 138  164.3694
 139  190.0214
 140  283.6466
 141  67.05165
 142  21.69652
 143  167.6002
 144  113.0208
 145  244.2518
 146  193.6896
 147  127.1266
 148  122.2715
 149  171.0483
 150  217.7119
 151  172.1297
 152  179.2276
 153  192.0106
 154  201.9519
 155  153.7647
 156  226.4581
 157  175.8744
 158  233.2638
 159  237.7944
 160  92.86295
 161  183.6866
 162  261.5719
 163  288.7982
 164  94.65861
 165  -33.47992
 166  132.9428
 167  89.77778
 168  62.06005
 169  154.3941
 170  24.15981
 171  128.1526
 172  125.2048
 173  130.4296
 174  120.5361
 175  102.542
 176  131.7701
 177  232.5431
 178  207.1274
 179  139.6793
 180  112.9123
 181  109.1051
 182  193.9461
 183  101.9301
 184  -32.7501
 185  115.9933
 186  85.48975
 187  156.695
 188  302.2512
 189  166.503
 190  142.5794
 191  99.98675
 192  108.863
 193  20.69089
 194  119.5864
 195  176.5159
 196  182.3521
 197  148.0333
 198  218.584
 199  169.3559
 200  231.0755
 201  265.649
 202  214.5585
 203  192.9382
 204  273.1729
 205  188.0331
 206  68.11003
 207  33.06579
 208  32.27164
 209  112.2799
 210  215.1534
 211  149.7337
 212  81.46182
 213  87.24297
 214  15.40499
 215  165.4726
 216  324.1519
 217  340.5509
 218  314.4584
 219  204.4196
 220  105.817
 221  126.6182
 222  124.7651
 223  75.06319
 224  106.7684
 225  100.6389
 226  17.20459
 227  48.43163
 228  208.5889
 229  353.0692
 230  215.8715
 231  17.74721
 232  86.05012
 233  10.65854
 234  19.95851
 235  103.1427
 236  143.2583
 237  98.90037
 238  55.6925
 239  145.7197
 240  210.7233
 241  130.5131
 242  220.7336
 243  323.4116
 244  204.1806
 245  232.8226
 246  152.0862
 247  81.92759
 248  151.8804
 249  244.4366
 250  245.2491
 251  272.9828
 252  338.6588
 253  199.5954
 254  122.3593
 255  219.0988
 256  131.8985
 257  180.8091
 258  228.5921
 259  181.5776
 260  231.3772
 261  296.7273
 262  195.5
 263  63.87181
 264  30.88278
 265  86.39588
 266  125.7405
 267  180.2655
 268  127.0606
 269  132.4746
 270  136.9028
 271  307.3613
 272  134.6652
 273  120.8787
 274  251.7439
 275  238.0067
 276  188.1466
 277  116.9325
 278  117.8846
 279  193.8894
 280  282.1974
 281  64.56356
 282  201.977
 283  258.6913
 284  250.3441
 285  187.2412
 286  217.9968
 287  144.8152
 288  137.2419
 289  144.3301
 290  191.4362
 291  106.515
 292  229.6441
 293  183.6024
 294  19.33988
 295  12.32955
 296  101.8712
 297  263.922
 298  305.4903
 299  178.3537
 300  82.29832
 301  193.9804
 302  150.3648
 303  129.3679
 304  140.6099
 305  123.8604
 306  64.92388
 307  139.674
 308  78.56315
 309  148.3761
 310  268.7632
 311  277.1832
 312  182.457
 313  70.36148
 314  126.6061
 315  135.1652
 316  187.2073
 317  153.1305
 318  102.9399
 319  197.2784
 320  271.6573
 321  263.1708
 322  210.4864
 323  127.3271
 324  166.4577
 325  68.80759
 326  154.996
 327  142.3092
 328  237.164
 329  231.9032
 330  156.4812
 331  137.4261
 332  147.0345
 333  209.1856
 334  128.1383
 335  151.3268
 336  63.83615
 337  91.22552
 338  -0.4974641
 339  100.2954
 340  9.075521
 341  102.4832
 342  189.5692
 343  357.0296
 344  278.5872
 345  188.5334
 346  211.8357
 347  132.2893
 348  35.19698
 349  69.67547
 350  117.0894
 351  200.708
 352  133.7146
 353  268.2494
 354  264.6454
 355  159.7825
 356  82.07331
 357  135.9361
 358  258.339
 359  202.8126
 360  211.1672
 361  252.2234
 362  108.5749
 363  175.4545
 364  176.8944
 365  157.1327
 366  212.6194
 367  119.3273
 368  110.1511
 369  209.0259
 370  233.4029
 371  189.6373
 372  144.5571
 373  -61.77903
 374  -45.98285
 375  75.66736
 376  143.3702
 377  156.4959
 378  31.47831
 379  -45.78388
 380  159.4883
 381  114.8083
 382  91.73422
 383  124.9087
 384  76.31422
 385  -64.26251
 386  170.6671
 387  175.761
 388  168.4193
 389  286.7828
 390  113.3663
 391  114.1249
 392  57.1272
 393  124.3098
 394  164.3857
 395  222.549
 396  275.9853
 397  137.79
 398  58.85072
 399  27.17146
 400  85.91225
 401  218.6944
 402  116.4211
 403  61.49378
 404  49.48815
 405  207.7485
 406  233.5136
 407  87.98663
 408  133.9077
 409  146.4278
 410  118.4536
 411  31.87811
 412  -38.42001
 413  1.488942
 414  11.16331
 415  222.3672
 416  360.7952
 417  194.5821
 418  43.354
 419  89.10078
 420  140.8591
 421  148.1514
 422  176.5093
 423  219.1184
 424  134.6488
 425  140.57
 426  109.2646
 427  233.3092
 428  185.0906
 429  124.7701
 430  87.5062
 431  99.80276
 432  101.0411
 433  61.35841
 434  47.02499
 435  81.28279
 436  118.8959
 437  133.5146
 438  -72.03421
 439  -59.59081
 440  91.97335
 441  141.8819
 442  108.9176
 443  28.75778
 444  77.49756
 445  -0.6183898
 446  -5.46331
 447  156.6634
 448  182.47
 449  194.4244
 450  101.2075
 451  63.75372
 452  25.83121
 453  202.079
 454  178.8064
 455  123.4513
 456  51.62029
 457  98.01085
 458  -6.128752
 459  53.72276
 460  166.8271
 461  155.1714
 462  36.39871
 463  164.1089
 464  71.18213
 465  111.1777
 466  100.1602
 467  33.20539
 468  26.47276
 469  139.7391
 470  261.7874
 471  269.0298
 472  35.8191
 473  122.2651
 474  113.6176
 475  115.5002
 476  45.25528
 477  28.04423
 478  26.13642
 479  175.2435
 480  219.8646
 481  155.1014
 482  114.3704
 483  188.9961
 484  169.3376
 485  41.27992
 486  92.17586
 487  152.354
 488  159.1094
 489  164.8121
 490  121.7087
 491  195.8194
 492  106.1279
 493  183.4421
 494  241.6415
 495  35.46776
 496  13.98065
 497  137.2798
 498  171.9126
 499  178.7562
 500  209.395
 501  179.3313
 502  217.9375
 503  269.004
 504  312.972
 505  297.0975
 506  253.0308
 507  323.7139
 508  491.0897
 509  605.424
 510  673.958
 511  847.6765
