# Input file       =  1190662343.095806_cleaned.dat
# Candidate        =  PSR_0332+5434
# Telescope        =  AR
# Epoch_topo       =  58024.814376108865
# Epoch_bary       =  N/A
# T_sample         =  0.002
# Data Folded      =  7340032
# Data Avg         =  0.000460101202146832
# Data StdDev      =  2.91919549286319 
# Profile Bins     =  1024
# Profile Avg      =  3.28906050078868 
# Profile StdDev   =  247.150889679892 
# Reduced chi-sqr  =  0.955
# Prob(Noise)      <  0.848   (~0.0 sigma)
# P_topo (ms)      =  714.471434034206  +/- 0.000163
# P'_topo (s/s)    =  -0                +/- 8.63e-11
# P''_topo (s/s^2) =  0                 +/- 3.81e-14
# P_bary (ms)      =  N/A
# P'_bary (s/s)    =  N/A
# P''_bary (s/s^2) =  N/A
# P_orb (s)        =  N/A
# asin(i)/c (s)    =  N/A
# eccentricity     =  N/A
# w (rad)          =  N/A
# T_peri           =  N/A
######################################################
   0  -159.225
   1  -98.69529
   2  68.65412
   3  36.39476
   4  88.14546
   5  107.8216
   6  65.37537
   7  -97.75095
   8  -76.69732
   9  -23.31738
  10  9.056947
  11  -81.88231
  12  -153.0385
  13  -197.6078
  14  -218.9195
  15  -204.5833
  16  -63.87658
  17  -42.44047
  18  17.4627
  19  -59.57791
  20  -93.32619
  21  -47.80754
  22  19.23518
  23  126.9942
  24  58.97321
  25  25.36565
  26  -23.71447
  27  -41.59698
  28  -67.55128
  29  25.58513
  30  120.004
  31  175.8873
  32  148.1873
  33  85.24184
  34  51.19049
  35  99.26409
  36  89.43955
  37  119.921
  38  -99.58189
  39  -69.3315
  40  -80.57567
  41  59.82976
  42  33.49234
  43  42.53296
  44  105.214
  45  148.6659
  46  81.60055
  47  -52.93953
  48  -42.25617
  49  -90.99356
  50  -56.61031
  51  -128.2011
  52  -51.89038
  53  -44.65463
  54  75.28575
  55  151.05
  56  211.2523
  57  119.6584
  58  99.62199
  59  -24.59781
  60  -39.91494
  61  -25.35345
  62  -39.68938
  63  -70.48986
  64  -121.83
  65  -109.7809
  66  -138.0039
  67  -158.0915
  68  -139.3178
  69  -28.87223
  70  -33.7778
  71  -0.7004381
  72  40.9029
  73  22.25641
  74  -12.58975
  75  -91.61739
  76  -59.46963
  77  -24.55054
  78  47.85938
  79  146.0663
  80  155.9251
  81  203.6462
  82  243.8338
  83  282.1345
  84  77.16299
  85  12.30646
  86  -92.11746
  87  -47.23732
  88  -183.8717
  89  -199.7241
  90  -204.2274
  91  -129.5024
  92  -26.19325
  93  77.60212
  94  160.9988
  95  101.2846
  96  173.6871
  97  110.425
  98  77.09587
  99  82.77161
 100  163.1298
 101  162.4318
 102  84.65279
 103  -9.407534
 104  -7.763113
 105  -3.684599
 106  24.91911
 107  92.48158
 108  128.4162
 109  103.267
 110  44.86755
 111  -29.94474
 112  66.18053
 113  22.36899
 114  -9.86328
 115  -101.938
 116  -20.40132
 117  13.75676
 118  -26.93174
 119  -161.6781
 120  -206.3865
 121  -163.0818
 122  -103.9553
 123  -83.23814
 124  17.53551
 125  -2.287832
 126  30.39213
 127  27.73244
 128  126.9608
 129  153.3218
 130  14.1822
 131  -113.8256
 132  -157.8437
 133  -73.95942
 134  -119.5469
 135  -163.3864
 136  -89.50063
 137  62.90024
 138  191.4636
 139  133.2191
 140  41.1845
 141  11.47869
 142  79.33936
 143  112.8519
 144  -0.6678764
 145  -131.5597
 146  -173.4911
 147  -115.4509
 148  33.71941
 149  76.02081
 150  153.7428
 151  118.7392
 152  115.1409
 153  -79.79108
 154  -119.867
 155  -53.33268
 156  28.38877
 157  62.24692
 158  -28.23402
 159  -96.33009
 160  -123.4919
 161  -4.564973
 162  88.83112
 163  33.68761
 164  158.9711
 165  31.85984
 166  7.618872
 167  -134.3587
 168  -34.1162
 169  -60.94069
 170  -31.9572
 171  7.476748
 172  97.5247
 173  47.79853
 174  113.846
 175  113.7864
 176  88.67733
 177  26.17721
 178  2.611558
 179  114.4421
 180  108.9692
 181  86.11682
 182  74.1703
 183  61.46272
 184  -62.54586
 185  -172.1001
 186  -133.0614
 187  -44.39655
 188  82.64089
 189  110.664
 190  160.315
 191  3.282261
 192  -42.43744
 193  85.33754
 194  100.6349
 195  89.83208
 196  -82.65816
 197  -24.87758
 198  -153.6584
 199  -46.14396
 200  57.41463
 201  148.4833
 202  23.08222
 203  -17.15714
 204  34.78245
 205  98.6986
 206  27.44123
 207  16.69838
 208  129.3439
 209  172.3032
 210  163.2482
 211  141.1392
 212  188.8124
 213  55.7054
 214  -40.7
 215  -10.45513
 216  52.51995
 217  -29.97131
 218  -114.9973
 219  -145.1751
 220  -27.69672
 221  -13.64283
 222  -9.402976
 223  -73.88124
 224  -3.318029
 225  148.0746
 226  168.8741
 227  132.6476
 228  29.40239
 229  58.92564
 230  54.84055
 231  -7.311457
 232  -98.97242
 233  -161.9394
 234  -228.2275
 235  -159.4
 236  -124.7372
 237  54.50679
 238  84.41508
 239  77.52259
 240  -14.83469
 241  91.98866
 242  112.9941
 243  124.0511
 244  34.53094
 245  15.71261
 246  -37.41137
 247  -29.87193
 248  61.97186
 249  178.1994
 250  157.8012
 251  122.9735
 252  57.54809
 253  57.81286
 254  47.65138
 255  93.24091
 256  151.4656
 257  133.7601
 258  25.04368
 259  -72.51862
 260  -39.0392
 261  41.25253
 262  77.91899
 263  93.8043
 264  107.4455
 265  86.83407
 266  -15.11553
 267  -120.2099
 268  -119.6685
 269  -144.2292
 270  -87.68939
 271  -113.7549
 272  2.237863
 273  20.22449
 274  113.1009
 275  -11.34116
 276  40.56924
 277  -34.50264
 278  -12.99397
 279  -107.9964
 280  -106.3211
 281  -76.95599
 282  -45.30232
 283  -91.31651
 284  -124.4973
 285  -121.9581
 286  -80.65201
 287  -26.8541
 288  65.16202
 289  59.52034
 290  -28.0652
 291  5.611995
 292  44.87979
 293  -82.94553
 294  -230.5512
 295  -196.7354
 296  -19.94691
 297  -0.7832265
 298  -27.40619
 299  -7.7236
 300  -17.13444
 301  -1.616506
 302  -19.84215
 303  24.51899
 304  -47.97987
 305  32.04536
 306  -21.44667
 307  -4.10864
 308  -128.4096
 309  -88.16012
 310  -60.0499
 311  -111.315
 312  -67.73897
 313  -111.1669
 314  9.977277
 315  -46.74271
 316  5.27327
 317  -106.2163
 318  -42.9639
 319  42.06736
 320  219.9686
 321  163.5579
 322  185.1834
 323  125.9896
 324  180.4247
 325  31.68511
 326  -11.5659
 327  93.74859
 328  183.6367
 329  88.56011
 330  11.39349
 331  -57.18992
 332  -46.57958
 333  -141.4825
 334  0.8245856
 335  79.10947
 336  173.6567
 337  104.856
 338  56.8738
 339  81.24498
 340  -64.44035
 341  26.50221
 342  93.21443
 343  292.599
 344  145.0907
 345  30.09201
 346  -100.9216
 347  -103.9389
 348  -116.3812
 349  -20.345
 350  -104.6768
 351  -193.7604
 352  -236.3016
 353  -66.76733
 354  -60.38614
 355  -87.12708
 356  -129.8707
 357  -79.05669
 358  -49.50233
 359  107.4917
 360  164.5803
 361  186.8784
 362  -12.59827
 363  -50.63224
 364  -103.7804
 365  -95.5361
 366  -176.2636
 367  -104.8637
 368  -65.88231
 369  -89.73373
 370  -119.343
 371  -77.34679
 372  -133.4337
 373  -126.2966
 374  -121.3801
 375  11.8984
 376  110.2917
 377  171.5871
 378  219.5499
 379  95.01211
 380  9.815969
 381  -72.98677
 382  78.79681
 383  71.33703
 384  -8.492217
 385  -112.1573
 386  64.70856
 387  31.20839
 388  4.585895
 389  -39.23754
 390  83.24673
 391  102.9942
 392  21.34351
 393  -10.3557
 394  -60.49482
 395  -69.04102
 396  -126.0343
 397  11.13268
 398  -68.68131
 399  -100.2261
 400  -128.4591
 401  -44.40618
 402  -50.01633
 403  -44.39157
 404  -80.95518
 405  -62.78021
 406  -164.5226
 407  -118.1898
 408  -135.3375
 409  -58.70316
 410  -94.22408
 411  -65.58951
 412  -29.8453
 413  56.72083
 414  0.873289
 415  1.423074
 416  -4.206929
 417  -22.23487
 418  -114.1313
 419  -73.22262
 420  -50.78847
 421  -25.74162
 422  -62.89952
 423  -19.63308
 424  -58.09455
 425  -231.936
 426  -330.2299
 427  -227.6398
 428  -36.65667
 429  -92.36699
 430  -202.754
 431  -316.2035
 432  -140.1328
 433  -100.3161
 434  -100.2541
 435  -174.6019
 436  -50.74665
 437  63.29038
 438  117.2872
 439  44.34402
 440  -36.42571
 441  -65.60011
 442  -13.55795
 443  75.64651
 444  21.17498
 445  -28.52579
 446  -115.6666
 447  25.83559
 448  69.11018
 449  89.21867
 450  81.38046
 451  60.80645
 452  102.9483
 453  57.19629
 454  113.9658
 455  139.8411
 456  72.75576
 457  -32.08436
 458  -74.19937
 459  -20.6169
 460  -51.62106
 461  -118.3885
 462  -159.8071
 463  -194.7541
 464  -319.4784
 465  -289.7289
 466  -301.9486
 467  -174.2328
 468  -180.8474
 469  -77.88651
 470  -32.99181
 471  -0.826543
 472  26.01181
 473  46.76122
 474  41.99236
 475  38.81514
 476  46.83551
 477  104.5669
 478  92.61643
 479  99.67424
 480  26.83454
 481  -35.01355
 482  -49.92136
 483  -67.7737
 484  -36.93048
 485  -90.20634
 486  -5.800053
 487  24.60759
 488  49.74838
 489  46.1787
 490  -10.56394
 491  -100.7125
 492  -123.438
 493  -100.3875
 494  -0.3932047
 495  45.02666
 496  70.38424
 497  38.96825
 498  -33.29517
 499  -30.92816
 500  -30.14656
 501  -127.0525
 502  -132.6881
 503  -151.9758
 504  0.4219127
 505  88.49085
 506  159.4998
 507  100.53
 508  -7.118342
 509  24.26356
 510  -7.08289
 511  39.49966
 512  14.54259
 513  111.029
 514  50.15495
 515  -106.5151
 516  -225.8208
 517  -254.3715
 518  -215.6747
 519  -204.1807
 520  -76.0748
 521  0.3335801
 522  37.62222
 523  38.89678
 524  26.16119
 525  -12.59692
 526  -114.39
 527  -43.72584
 528  -80.0354
 529  -61.6539
 530  -149.6811
 531  -81.81393
 532  -12.75758
 533  66.52274
 534  -38.82623
 535  -104.5418
 536  -66.88948
 537  109.2486
 538  117.6516
 539  8.254251
 540  117.129
 541  87.33569
 542  258.6255
 543  186.5386
 544  62.39491
 545  -229.552
 546  -237.2078
 547  -36.01273
 548  109.7119
 549  98.68623
 550  117.699
 551  133.1288
 552  145.6792
 553  170.662
 554  130.7801
 555  142.9286
 556  130.6599
 557  98.11534
 558  -93.3891
 559  -56.59029
 560  -18.02129
 561  85.82246
 562  -23.71433
 563  -20.88697
 564  -17.44016
 565  -52.28793
 566  -143.4418
 567  -99.46103
 568  -70.19569
 569  -71.21494
 570  -200.7392
 571  -128.8179
 572  -163.2106
 573  -35.47833
 574  -57.85547
 575  27.00014
 576  37.78604
 577  110.7324
 578  158.3918
 579  199.7089
 580  144.2567
 581  40.76044
 582  -117.8042
 583  -179.5706
 584  -196.2123
 585  -26.39222
 586  34.57175
 587  -4.680198
 588  -151.4661
 589  -139.2329
 590  -143.9039
 591  -227.971
 592  -187.5213
 593  -118.8904
 594  -41.73286
 595  -96.61373
 596  -140.3663
 597  -177.5033
 598  -224.1878
 599  -178.7686
 600  -65.91959
 601  60.91462
 602  195.0192
 603  177.0354
 604  90.62256
 605  -85.59795
 606  -39.31897
 607  34.60451
 608  58.9419
 609  15.92641
 610  44.91967
 611  -17.91744
 612  -74.74854
 613  -80.85753
 614  -19.30071
 615  133.6901
 616  148.8058
 617  122.4315
 618  29.21242
 619  -28.53169
 620  -42.11036
 621  51.89366
 622  185.5904
 623  200.4725
 624  123.6187
 625  94.8047
 626  131.6408
 627  94.95302
 628  130.0642
 629  212.7891
 630  286.0938
 631  262.9905
 632  208.1155
 633  304.7922
 634  335.6108
 635  394.0038
 636  473.452
 637  637.7746
 638  733.0385
 639  874.1535
 640  899.8358
 641  1005.876
 642  874.8588
 643  834.205
 644  726.2985
 645  597.1862
 646  502.1451
 647  353.7083
 648  147.0336
 649  -60.2977
 650  -33.69058
 651  24.67699
 652  52.54602
 653  -12.8058
 654  105.731
 655  199.18
 656  223.6081
 657  174.1695
 658  168.524
 659  230.7821
 660  197.8948
 661  127.932
 662  -24.71513
 663  -124.1125
 664  -241.2932
 665  -191.9796
 666  -184.4964
 667  -140.7803
 668  -212.2777
 669  -249.7594
 670  -170.2891
 671  -131.7331
 672  46.58565
 673  34.31865
 674  182.0067
 675  142.7721
 676  192.3227
 677  82.2264
 678  -98.38648
 679  -112.6031
 680  -61.71596
 681  -27.40849
 682  -74.33671
 683  -65.62264
 684  89.64243
 685  96.47589
 686  159.9368
 687  72.91372
 688  30.38071
 689  -82.35783
 690  -43.84725
 691  -38.24903
 692  -34.31263
 693  -77.56138
 694  -32.43489
 695  -29.38745
 696  -125.7448
 697  -171.9956
 698  -153.8553
 699  -101.1372
 700  -212.5758
 701  -113.6007
 702  -99.27927
 703  25.44604
 704  -12.70578
 705  75.61301
 706  110.2647
 707  -60.55677
 708  -112.8364
 709  -104.6463
 710  -13.98013
 711  -72.44218
 712  -59.62964
 713  17.32828
 714  15.27709
 715  -75.47322
 716  -2.357001
 717  13.94656
 718  -11.83562
 719  -15.72311
 720  -57.22871
 721  -120.6992
 722  -212.5633
 723  -126.6191
 724  12.70276
 725  57.94036
 726  -9.322937
 727  -114.6477
 728  -168.6935
 729  -96.73245
 730  -125.8475
 731  -96.18366
 732  -109.0838
 733  -10.59135
 734  -14.49325
 735  -1.90631
 736  -55.60903
 737  -93.97783
 738  -93.06051
 739  -108.6013
 740  -39.6012
 741  -41.23512
 742  -6.175435
 743  -94.26406
 744  -128.9609
 745  -73.67249
 746  -71.84788
 747  -197.1746
 748  -130.1928
 749  3.425613
 750  19.67797
 751  -80.28833
 752  -46.80009
 753  78.91248
 754  70.19678
 755  31.24183
 756  -32.70925
 757  -133.0357
 758  -23.89069
 759  90.30791
 760  132.6665
 761  57.97879
 762  65.30762
 763  84.9761
 764  -60.329
 765  -176.8133
 766  -75.81808
 767  22.76003
 768  54.50723
 769  -19.41545
 770  -9.437603
 771  -5.300566
 772  -59.48081
 773  -87.0325
 774  -66.54477
 775  -8.348999
 776  -119.7836
 777  -94.65453
 778  9.836759
 779  52.12531
 780  -64.47012
 781  15.98714
 782  10.0651
 783  -18.57895
 784  -28.19208
 785  101.9173
 786  65.94764
 787  60.40306
 788  17.73594
 789  44.57777
 790  -116.307
 791  -115.2762
 792  -116.4285
 793  -170.3653
 794  -258.6258
 795  -187.5569
 796  -12.80141
 797  88.51941
 798  -3.83125
 799  -47.20095
 800  -1.158131
 801  99.62338
 802  89.33721
 803  -7.261943
 804  -89.04778
 805  -49.50373
 806  81.15785
 807  201.9549
 808  136.5383
 809  88.35076
 810  -43.78894
 811  -157.2472
 812  -212.678
 813  -206.212
 814  -37.88449
 815  -34.73192
 816  0.5206434
 817  -31.32329
 818  37.13977
 819  -2.563001
 820  -64.22813
 821  10.6993
 822  21.38694
 823  -28.83565
 824  -53.21087
 825  -32.02188
 826  29.22508
 827  68.90819
 828  173.0818
 829  131.1506
 830  -37.02244
 831  -146.7888
 832  -152.9238
 833  -102.853
 834  -96.27271
 835  -7.85365
 836  21.71287
 837  15.12832
 838  -74.24831
 839  32.49971
 840  90.85191
 841  106.8338
 842  127.9661
 843  269.6402
 844  220.2228
 845  45.34523
 846  -135.6493
 847  -48.97038
 848  -68.05086
 849  48.66571
 850  42.18409
 851  55.72976
 852  4.99463
 853  -7.80632
 854  18.57894
 855  18.71702
 856  58.7859
 857  176.5049
 858  184.1509
 859  154.9227
 860  81.638
 861  70.86906
 862  141.7504
 863  204.0812
 864  233.8633
 865  100.7762
 866  -75.99933
 867  -207.9507
 868  -117.1507
 869  -55.1072
 870  -15.32351
 871  -22.34152
 872  103.8827
 873  114.7841
 874  120.4161
 875  69.39999
 876  27.39174
 877  -70.14138
 878  -70.8686
 879  122.4266
 880  170.8091
 881  101.0548
 882  -38.66028
 883  -14.70833
 884  -59.6813
 885  -71.06966
 886  -117.7742
 887  -61.91379
 888  -97.70255
 889  -106.0852
 890  -107.3075
 891  -169.756
 892  -221.4014
 893  -114.2308
 894  29.03774
 895  154.5607
 896  73.49492
 897  41.24177
 898  -78.62405
 899  -200.6603
 900  -189.266
 901  -143.521
 902  -76.1266
 903  -140.6215
 904  -174.3682
 905  -239.2631
 906  -144.3544
 907  -71.38009
 908  18.36126
 909  -23.7074
 910  -9.319772
 911  5.088381
 912  39.40663
 913  14.15098
 914  71.40848
 915  121.7188
 916  188.6172
 917  103.4437
 918  86.63056
 919  37.30882
 920  -29.07539
 921  -39.83516
 922  3.030065
 923  57.19796
 924  133.7488
 925  103.8438
 926  -0.6334733
 927  -134.1155
 928  -117.6282
 929  -82.81339
 930  -84.94479
 931  -160.1927
 932  -101.9583
 933  -6.697104
 934  121.4214
 935  35.87054
 936  12.04837
 937  16.34525
 938  52.41141
 939  146.1693
 940  235.0675
 941  213.4527
 942  82.51732
 943  -62.54982
 944  -18.98347
 945  32.7287
 946  -43.31528
 947  6.412264
 948  7.972378
 949  66.23595
 950  -13.72102
 951  -96.42335
 952  -55.15845
 953  -120.1905
 954  39.24142
 955  -15.97092
 956  83.31187
 957  75.06297
 958  110.182
 959  -17.28812
 960  17.67789
 961  80.86235
 962  185.8249
 963  6.45276
 964  -66.22129
 965  -89.67476
 966  -85.88162
 967  -44.60914
 968  -66.75959
 969  4.599307
 970  19.06912
 971  2.948797
 972  -15.96123
 973  26.4785
 974  69.44742
 975  141.7439
 976  158.6472
 977  120.6581
 978  120.8886
 979  13.86066
 980  43.07389
 981  70.99403
 982  155.8214
 983  182.4101
 984  179.7606
 985  136.1991
 986  22.71778
 987  -33.85952
 988  -24.03254
 989  -6.292739
 990  -38.63967
 991  -54.20371
 992  -44.56349
 993  -112.4497
 994  -234.6477
 995  -279.4211
 996  -212.7634
 997  -47.70292
 998  -65.91901
 999  -69.14899
1000  -89.33254
1001  2.348432
1002  153.5191
1003  250.5659
1004  202.5694
1005  63.63754
1006  33.59938
1007  90.04432
1008  39.67395
1009  -17.58428
1010  -20.43457
1011  13.20564
1012  -34.13595
1013  -32.18984
1014  -53.96099
1015  -124.0303
1016  -172.1858
1017  -67.92243
1018  107.2608
1019  107.851
1020  97.47016
1021  22.70708
1022  27.13694
1023  -175.7316
