# Input file       =  1190662343.095806_cleaned.dat
# Candidate        =  PSR_0332+5434
# Telescope        =  AR
# Epoch_topo       =  58024.814376108865
# Epoch_bary       =  N/A
# T_sample         =  0.002
# Data Folded      =  7340032
# Data Avg         =  0.00715333898885063
# Data StdDev      =  1.00010809957798 
# Profile Bins     =  512
# Profile Avg      =  102.5412090873   
# Profile StdDev   =  119.745979467468 
# Reduced chi-sqr  =  1.517
# Prob(Noise)      <  3.56e-13   (~7.2 sigma)
# P_topo (ms)      =  714.471433121313  +/- 0.000186
# P'_topo (s/s)    =  -0                +/- 9.8e-11
# P''_topo (s/s^2) =  0                 +/- 4.33e-14
# P_bary (ms)      =  N/A
# P'_bary (s/s)    =  N/A
# P''_bary (s/s^2) =  N/A
# P_orb (s)        =  N/A
# asin(i)/c (s)    =  N/A
# eccentricity     =  N/A
# w (rad)          =  N/A
# T_peri           =  N/A
######################################################
   0  924.8122
   1  819.178
   2  612.2227
   3  397.7048
   4  124.8808
   5  143.7205
   6  145.2348
   7  220.9429
   8  184.8032
   9  153.237
  10  116.1804
  11  -12.72017
  12  -31.68809
  13  -64.06976
  14  -122.89
  15  14.92052
  16  164.0868
  17  244.9551
  18  160.9441
  19  69.57317
  20  91.16667
  21  87.9545
  22  239.0935
  23  196.6954
  24  51.50111
  25  35.8433
  26  103.2029
  27  100.9051
  28  13.06963
  29  54.45932
  30  35.14993
  31  114.0586
  32  146.516
  33  13.97019
  34  -20.23597
  35  43.79416
  36  121.6463
  37  123.6001
  38  159.0965
  39  40.27592
  40  -37.74011
  41  -21.18733
  42  123.8965
  43  36.85126
  44  24.0828
  45  -6.069327
  46  84.91657
  47  101.7217
  48  62.21151
  49  49.49141
  50  96.77965
  51  16.29273
  52  36.59996
  53  -13.73098
  54  84.98273
  55  63.6496
  56  139.5925
  57  84.69213
  58  35.21757
  59  228.4044
  60  114.1673
  61  120.095
  62  7.027582
  63  90.04341
  64  73.0757
  65  64.67547
  66  36.36246
  67  28.55577
  68  -1.597764
  69  78.15734
  70  59.99688
  71  57.21213
  72  132.8827
  73  177.3207
  74  122.6685
  75  -10.58876
  76  -53.81843
  77  -8.775281
  78  177.4653
  79  120.5433
  80  155.8477
  81  91.82874
  82  70.8783
  83  221.544
  84  115.3972
  85  -50.54124
  86  33.85723
  87  127.1645
  88  129.0864
  89  79.00822
  90  61.3405
  91  68.00036
  92  62.43168
  93  159.1823
  94  211.2085
  95  59.45761
  96  20.11682
  97  102.7475
  98  143.4441
  99  81.27737
 100  180.6349
 101  296.1064
 102  174.1947
 103  71.54654
 104  162.1435
 105  140.0486
 106  116.8582
 107  144.4462
 108  200.0983
 109  175.2008
 110  185.3446
 111  286.2411
 112  168.3821
 113  -33.29919
 114  101.4779
 115  129.8356
 116  167.2483
 117  133.8079
 118  53.47196
 119  153.104
 120  152.3711
 121  56.75658
 122  49.17827
 123  24.95449
 124  5.618997
 125  -50.14165
 126  0.0419512
 127  229.535
 128  151.0662
 129  -14.80122
 130  21.71843
 131  47.50788
 132  -7.057003
 133  72.36256
 134  106.3432
 135  69.87267
 136  135.0204
 137  196.6246
 138  208.9196
 139  183.3463
 140  118.6141
 141  184.1187
 142  176.1283
 143  -24.34958
 144  33.74883
 145  -25.41499
 146  89.43055
 147  143.7837
 148  145.2468
 149  171.8417
 150  188.8299
 151  35.76445
 152  79.34433
 153  125.0723
 154  161.4846
 155  78.74181
 156  37.27899
 157  67.93661
 158  129.4765
 159  37.79383
 160  175.9594
 161  159.2972
 162  55.23356
 163  34.30564
 164  105.7346
 165  86.08029
 166  78.13123
 167  204.8968
 168  191.3761
 169  158.3722
 170  172.7973
 171  178.9324
 172  155.4041
 173  54.87921
 174  94.63053
 175  53.27279
 176  -4.972574
 177  -37.85021
 178  69.5823
 179  2.908151
 180  129.8371
 181  265.8397
 182  135.1037
 183  141.487
 184  122.1025
 185  132.1563
 186  88.77432
 187  -0.6220745
 188  73.00116
 189  178.1844
 190  110.776
 191  -25.20412
 192  38.37569
 193  136.7437
 194  176.1808
 195  54.16059
 196  132.585
 197  49.22665
 198  -58.61433
 199  5.46605
 200  118.4069
 201  51.46171
 202  15.63491
 203  166.655
 204  99.4913
 205  13.41156
 206  102.4444
 207  215.9276
 208  158.8423
 209  161.3701
 210  150.9676
 211  12.51196
 212  111.6031
 213  144.9089
 214  198.6295
 215  75.48446
 216  66.18996
 217  59.35878
 218  97.208
 219  253.2129
 220  184.6194
 221  75.23943
 222  76.68629
 223  26.1625
 224  -36.97815
 225  -9.886992
 226  74.05907
 227  153.7363
 228  162.0967
 229  63.0187
 230  71.19992
 231  167.589
 232  245.2116
 233  300.372
 234  108.8737
 235  23.87948
 236  -97.34349
 237  -29.09903
 238  177.5242
 239  220.2703
 240  176.9765
 241  159.0391
 242  186.1926
 243  58.39413
 244  146.2747
 245  195.7686
 246  199.3621
 247  109.0293
 248  130.8493
 249  -1.278919
 250  72.81254
 251  -16.5407
 252  -66.8744
 253  -13.77105
 254  34.22255
 255  99.86672
 256  162.3418
 257  3.135652
 258  -11.63022
 259  -17.72269
 260  164.1864
 261  154.6513
 262  59.59788
 263  130.2879
 264  -46.53163
 265  5.044252
 266  258.0139
 267  265.0055
 268  61.98537
 269  63.88436
 270  109.9794
 271  -19.65534
 272  58.24864
 273  178.1758
 274  155.2207
 275  23.55905
 276  74.97176
 277  131.5316
 278  146.6031
 279  141.9739
 280  144.521
 281  188.6119
 282  169.9572
 283  91.51572
 284  -44.70014
 285  34.95673
 286  170.1399
 287  138.9142
 288  202.4212
 289  157.0603
 290  84.71976
 291  108.4281
 292  162.3811
 293  136.3607
 294  212.4354
 295  165.2912
 296  251.1299
 297  219.9581
 298  155.6677
 299  67.04205
 300  94.89169
 301  15.03034
 302  118.2938
 303  26.67051
 304  205.2149
 305  205.066
 306  194.9062
 307  84.20541
 308  -32.58665
 309  -17.89043
 310  118.8115
 311  168.063
 312  121.6
 313  152.6034
 314  43.62343
 315  4.585733
 316  221.2371
 317  190.9953
 318  155.4189
 319  222.0135
 320  230.9791
 321  112.5287
 322  146.7122
 323  131.1569
 324  152.1588
 325  35.74571
 326  50.44495
 327  121.7056
 328  174.1823
 329  100.0989
 330  72.34394
 331  43.22126
 332  105.8882
 333  76.02137
 334  -17.23003
 335  80.4248
 336  60.13177
 337  32.25711
 338  18.02702
 339  -23.66364
 340  109.8161
 341  125.3015
 342  152.9296
 343  158.0107
 344  70.51387
 345  21.84345
 346  -8.3983
 347  -31.13717
 348  20.44473
 349  96.34779
 350  51.99824
 351  146.9573
 352  218.5185
 353  201.3307
 354  142.0156
 355  155.2582
 356  172.9334
 357  97.90257
 358  50.26109
 359  165.475
 360  181.6116
 361  117.8846
 362  82.60155
 363  229.3715
 364  108.2809
 365  20.01275
 366  81.43419
 367  -21.08739
 368  14.27025
 369  28.37183
 370  -8.612637
 371  127.4768
 372  228.0093
 373  58.10282
 374  31.23593
 375  69.28205
 376  67.19728
 377  2.278972
 378  -33.73599
 379  105.2027
 380  233.0307
 381  138.8049
 382  2.720248
 383  139.0541
 384  62.10659
 385  76.45938
 386  58.43806
 387  149.1266
 388  49.16065
 389  -36.05257
 390  69.38648
 391  47.85786
 392  75.5123
 393  70.00182
 394  60.12704
 395  -14.12216
 396  12.13368
 397  59.69577
 398  148.2525
 399  87.61216
 400  36.77714
 401  8.496842
 402  39.02623
 403  15.73035
 404  -120.6036
 405  -71.79308
 406  6.689206
 407  -127.6065
 408  42.50597
 409  53.36039
 410  189.296
 411  126.9393
 412  62.27673
 413  114.8975
 414  22.03275
 415  56.8147
 416  139.7392
 417  139.7366
 418  121.4584
 419  159.7187
 420  81.19788
 421  44.32929
 422  -0.7138507
 423  -37.14202
 424  -131.2896
 425  -59.17301
 426  37.76043
 427  86.72644
 428  150.5076
 429  170.2989
 430  210.2429
 431  222.9109
 432  138.452
 433  115.055
 434  102.5651
 435  123.5651
 436  85.64268
 437  -3.561235
 438  33.02228
 439  123.2759
 440  125.3086
 441  143.1868
 442  60.77382
 443  3.928524
 444  160.8287
 445  124.1851
 446  95.36269
 447  132.0301
 448  199.326
 449  70.18842
 450  -68.30864
 451  -45.04672
 452  58.60108
 453  105.2322
 454  48.71664
 455  55.18671
 456  63.66922
 457  67.80417
 458  181.9801
 459  64.55933
 460  176.4935
 461  152.1074
 462  199.7323
 463  173.6771
 464  -102.2134
 465  22.63524
 466  194.1225
 467  239.5517
 468  272.7356
 469  259.6993
 470  126.8769
 471  82.3076
 472  154.8128
 473  95.84148
 474  84.52325
 475  2.779586
 476  81.30843
 477  -52.45464
 478  -19.48082
 479  55.71272
 480  171.3712
 481  204.0968
 482  100.8913
 483  3.001236
 484  103.2162
 485  36.2743
 486  -73.32087
 487  -50.54899
 488  27.86013
 489  68.78505
 490  -18.58163
 491  -53.98809
 492  129.2323
 493  205.6487
 494  42.90973
 495  61.50154
 496  100.8554
 497  84.3746
 498  22.05252
 499  183.082
 500  173.1388
 501  58.21751
 502  189.4519
 503  257.9268
 504  209.1937
 505  194.5506
 506  234.6935
 507  264.9854
 508  354.2551
 509  492.7935
 510  637.1821
 511  852.1711
