# Input file       =  1190863929.112254_cleaned.dat
# Candidate        =  PSR_0332+5434
# Telescope        =  AR
# Epoch_topo       =  58027.147547595530
# Epoch_bary       =  N/A
# T_sample         =  0.002
# Data Folded      =  7340032
# Data Avg         =  0.00940224992998634
# Data StdDev      =  1.0000536762825  
# Profile Bins     =  512
# Profile Avg      =  134.737851873574 
# Profile StdDev   =  119.739463201052 
# Reduced chi-sqr  =  1.463
# Prob(Noise)      <  3.64e-11   (~6.5 sigma)
# P_topo (ms)      =  714.473025315655  +/- 0.000137
# P'_topo (s/s)    =  -0                +/- 7.24e-11
# P''_topo (s/s^2) =  0                 +/- 3.2e-14
# P_bary (ms)      =  N/A
# P'_bary (s/s)    =  N/A
# P''_bary (s/s^2) =  N/A
# P_orb (s)        =  N/A
# asin(i)/c (s)    =  N/A
# eccentricity     =  N/A
# w (rad)          =  N/A
# T_peri           =  N/A
######################################################
   0  131.3009
   1  75.56849
   2  90.36933
   3  116.43
   4  103.2311
   5  116.0786
   6  59.0871
   7  62.82004
   8  12.13519
   9  -65.26424
  10  78.00262
  11  126.5805
  12  175.5113
  13  222.4425
  14  94.68831
  15  70.67402
  16  54.14008
  17  58.40986
  18  188.807
  19  233.9902
  20  196.092
  21  26.54822
  22  118.2669
  23  190.1969
  24  129.3124
  25  116.5364
  26  109.3752
  27  54.8716
  28  75.14484
  29  165.3247
  30  139.672
  31  142.276
  32  253.8725
  33  343.8653
  34  156.3475
  35  -21.1444
  36  138.3768
  37  303.6214
  38  191.4668
  39  258.1887
  40  248.9128
  41  175.6415
  42  75.31965
  43  100.2078
  44  168.2725
  45  175.6529
  46  15.54175
  47  237.8961
  48  328.2998
  49  184.5105
  50  155.5367
  51  118.5383
  52  160.772
  53  79.53732
  54  113.3513
  55  264.8015
  56  279.5919
  57  275.4608
  58  270.6998
  59  220.0828
  60  146.5245
  61  210.3611
  62  294.373
  63  177.7616
  64  126.4974
  65  40.34848
  66  97.72598
  67  227.9002
  68  179.334
  69  222.3396
  70  195.5849
  71  96.94998
  72  203.7344
  73  203.0143
  74  49.45351
  75  -41.16368
  76  206.4964
  77  352.4274
  78  145.1153
  79  52.34206
  80  3.665748
  81  139.9549
  82  0.7145818
  83  102.3186
  84  124.1533
  85  95.65132
  86  137.2688
  87  78.65697
  88  84.74598
  89  61.09534
  90  -60.1889
  91  53.53115
  92  149.9513
  93  53.14884
  94  95.87091
  95  165.1118
  96  12.62848
  97  -35.31251
  98  190.4796
  99  114.9415
 100  99.96057
 101  127.282
 102  238.4416
 103  185.9154
 104  114.4913
 105  221.4958
 106  143.7896
 107  44.16024
 108  97.42033
 109  243.8223
 110  179.7834
 111  78.23854
 112  96.01254
 113  103.0997
 114  229.3412
 115  275.58
 116  251.4016
 117  227.8918
 118  186.582
 119  129.7615
 120  261.2409
 121  190.1649
 122  309.0709
 123  370.0782
 124  269.6071
 125  193.9695
 126  254.5472
 127  211.0246
 128  416.7351
 129  462.8557
 130  576.2243
 131  763.4871
 132  751.4901
 133  795.803
 134  603.6766
 135  329.9892
 136  287.1942
 137  276.0244
 138  210.7287
 139  180.9598
 140  4.274614
 141  36.93335
 142  129.0734
 143  163.7465
 144  90.89985
 145  118.7224
 146  289.5635
 147  208.752
 148  184.8547
 149  181.3184
 150  267.7273
 151  134.9813
 152  179.0594
 153  72.67254
 154  56.37467
 155  74.89426
 156  107.8628
 157  184.8306
 158  153.5509
 159  128.6541
 160  143.237
 161  141.8837
 162  -138.1843
 163  53.16629
 164  132.3376
 165  112.1819
 166  13.6297
 167  -119.1163
 168  -6.272561
 169  19.56528
 170  59.05176
 171  76.11371
 172  18.11224
 173  32.70274
 174  244.5829
 175  77.90572
 176  121.2455
 177  192.6649
 178  276.3777
 179  179.3807
 180  72.29804
 181  88.17764
 182  38.09778
 183  -23.97635
 184  29.75313
 185  26.44642
 186  52.37357
 187  173.0776
 188  221.8958
 189  154.6284
 190  33.13239
 191  -76.9756
 192  57.94854
 193  58.40012
 194  203.5951
 195  120.396
 196  -14.4499
 197  -27.84528
 198  75.3828
 199  83.5322
 200  193.8628
 201  154.0738
 202  203.8065
 203  270.3926
 204  152.9882
 205  124.023
 206  217.8639
 207  133.6678
 208  63.38424
 209  142.0386
 210  54.56206
 211  108.5622
 212  100.3784
 213  161.299
 214  170.9049
 215  17.31576
 216  88.69567
 217  38.52242
 218  83.10037
 219  140.4496
 220  191.7135
 221  59.28536
 222  40.4868
 223  210.2445
 224  219.7448
 225  208.7427
 226  207.6349
 227  87.72125
 228  148.8539
 229  152.6598
 230  274.5164
 231  220.6917
 232  111.3469
 233  -84.41676
 234  28.32017
 235  125.0928
 236  72.25253
 237  208.0837
 238  213.8303
 239  151.8151
 240  109.3284
 241  253.3413
 242  219.8874
 243  68.93742
 244  86.02459
 245  128.8678
 246  129.3969
 247  82.87918
 248  141.5169
 249  164.2438
 250  114.558
 251  85.08015
 252  30.26418
 253  -25.91994
 254  197.6362
 255  169.295
 256  114.4744
 257  54.81512
 258  145.6427
 259  116.3818
 260  143.3472
 261  106.5278
 262  99.83714
 263  -51.30169
 264  -46.33943
 265  211.8701
 266  167.7618
 267  15.68896
 268  75.0949
 269  178.0736
 270  164.5223
 271  17.29763
 272  41.77155
 273  97.42669
 274  22.34981
 275  124.2466
 276  182.209
 277  242.331
 278  174.8994
 279  111.6243
 280  113.3605
 281  20.78834
 282  30.78216
 283  45.58321
 284  37.14394
 285  149.5856
 286  138.2299
 287  18.92227
 288  135.0914
 289  130.9522
 290  164.3792
 291  270.1103
 292  223.8284
 293  103.9582
 294  8.871792
 295  227.281
 296  293.0804
 297  172.7448
 298  171.716
 299  227.3799
 300  120.2168
 301  191.8879
 302  189.8028
 303  122.7774
 304  126.902
 305  20.66416
 306  73.66652
 307  206.654
 308  145.2365
 309  150.841
 310  197.9104
 311  200.8399
 312  172.2359
 313  185.8276
 314  137.4053
 315  95.18121
 316  128.8131
 317  84.99558
 318  51.91074
 319  52.41736
 320  241.1922
 321  132.9372
 322  258.7005
 323  153.5366
 324  8.706038
 325  -14.06885
 326  50.80438
 327  174.0143
 328  278.5307
 329  243.0139
 330  162.7847
 331  98.81419
 332  50.25562
 333  65.75852
 334  63.11309
 335  49.58331
 336  36.54682
 337  103.3001
 338  168.5358
 339  193.7141
 340  208.8255
 341  244.7157
 342  143.8999
 343  199.176
 344  62.04607
 345  13.61023
 346  35.18914
 347  86.77853
 348  162.8545
 349  161.7197
 350  79.2106
 351  145.8293
 352  136.7486
 353  119.3576
 354  -1.551326
 355  31.64076
 356  192.359
 357  25.67382
 358  -64.7593
 359  -12.74186
 360  107.9828
 361  60.33692
 362  33.81018
 363  101.0554
 364  118.0956
 365  163.84
 366  90.90813
 367  140.7418
 368  143.8847
 369  255.1601
 370  235.6729
 371  96.27365
 372  126.1704
 373  137.1634
 374  210.001
 375  225.9335
 376  285.975
 377  168.5015
 378  126.419
 379  202.4895
 380  118.6031
 381  143.9883
 382  206.3399
 383  87.53656
 384  12.28511
 385  89.56714
 386  141.0951
 387  204.58
 388  164.4492
 389  -11.52914
 390  -122.8356
 391  53.03441
 392  66.62946
 393  141.1376
 394  149.4277
 395  85.70622
 396  73.66663
 397  196.9007
 398  150.7267
 399  132.8631
 400  27.25776
 401  65.89114
 402  163.2398
 403  303.2982
 404  361.8527
 405  232.8103
 406  130.8662
 407  164.1049
 408  39.77007
 409  14.6168
 410  171.3436
 411  99.60258
 412  115.129
 413  181.1845
 414  72.77397
 415  32.83247
 416  80.80993
 417  60.71593
 418  -77.22934
 419  -63.16972
 420  102.2263
 421  73.75291
 422  196.7494
 423  139.2668
 424  90.55169
 425  98.66049
 426  70.175
 427  221.6004
 428  217.6964
 429  54.27164
 430  75.30365
 431  29.92712
 432  41.76051
 433  77.64124
 434  70.02395
 435  46.20066
 436  -72.44305
 437  -5.167409
 438  38.00246
 439  228.1967
 440  270.1292
 441  223.0229
 442  98.3737
 443  81.86165
 444  175.1978
 445  -27.12127
 446  -30.25927
 447  237.0715
 448  177.8185
 449  44.00398
 450  21.42255
 451  107.15
 452  12.84626
 453  148.0264
 454  141.8138
 455  237.1537
 456  103.7052
 457  -1.02009
 458  -27.87155
 459  108.6356
 460  194.1495
 461  152.9981
 462  199.6435
 463  265.6955
 464  158.2645
 465  180.3773
 466  202.847
 467  121.1082
 468  44.06945
 469  198.355
 470  101.9337
 471  140.3545
 472  178.0902
 473  149.5339
 474  171.1051
 475  197.0621
 476  217.3557
 477  255.8465
 478  253.1006
 479  80.17529
 480  49.05634
 481  93.01305
 482  50.47886
 483  173.141
 484  90.05929
 485  24.41325
 486  22.49703
 487  63.1722
 488  97.51078
 489  78.25029
 490  167.0443
 491  167.5851
 492  213.2277
 493  -25.21531
 494  145.7297
 495  92.80068
 496  29.41193
 497  121.3797
 498  321.1055
 499  236.2876
 500  111.2152
 501  48.64783
 502  129.0378
 503  16.85536
 504  123.824
 505  126.5315
 506  207.0503
 507  176.4554
 508  247.2937
 509  376.6537
 510  335.2787
 511  228.6482
