# Input file       =  1190677245.097413_cleaned.dat
# Candidate        =  PSR_0332+5434
# Telescope        =  AR
# Epoch_topo       =  58024.986852979317
# Epoch_bary       =  N/A
# T_sample         =  0.002
# Data Folded      =  7340032
# Data Avg         =  0.0287473168303092
# Data StdDev      =  2.48867251295357 
# Profile Bins     =  256
# Profile Avg      =  824.74912901014  
# Profile StdDev   =  421.402148093268 
# Reduced chi-sqr  =  2.179
# Prob(Noise)      <  2.07e-24   (~10.1 sigma)
# P_topo (ms)      =  714.471550007445  +/- 0.000202
# P'_topo (s/s)    =  -0                +/- 1.07e-10
# P''_topo (s/s^2) =  0                 +/- 4.71e-14
# P_bary (ms)      =  N/A
# P'_bary (s/s)    =  N/A
# P''_bary (s/s^2) =  N/A
# P_orb (s)        =  N/A
# asin(i)/c (s)    =  N/A
# eccentricity     =  N/A
# w (rad)          =  N/A
# T_peri           =  N/A
######################################################
   0  655.8538
   1  968.3707
   2  446.1624
   3  1221.757
   4  684.1572
   5  502.3513
   6  1556.181
   7  1237.446
   8  1001.77
   9  1173.943
  10  702.2969
  11  -79.41486
  12  710.1148
  13  838.0279
  14  1554.271
  15  650.8809
  16  752.1985
  17  631.2835
  18  1131.415
  19  1180.566
  20  489.0954
  21  83.1778
  22  722.824
  23  447.215
  24  268.7901
  25  272.5601
  26  1236.331
  27  895.3624
  28  692.1697
  29  388.4803
  30  1114.475
  31  705.2537
  32  1020.923
  33  1068.296
  34  1186.063
  35  919.006
  36  842.6721
  37  278.8378
  38  640.7871
  39  611.9075
  40  1101.45
  41  592.3843
  42  616.7877
  43  652.4286
  44  867.3868
  45  1069.194
  46  570.1129
  47  821.8143
  48  1282.616
  49  1055.379
  50  1015.451
  51  1376.747
  52  1209.345
  53  1223.749
  54  671.8329
  55  585.533
  56  612.7151
  57  1545.531
  58  842.7935
  59  1259.535
  60  697.9239
  61  650.9738
  62  1006.161
  63  726.3207
  64  1220.843
  65  983.2344
  66  450.2755
  67  699.7145
  68  925.5493
  69  1445.436
  70  565.5901
  71  530.7832
  72  959.5506
  73  707.9023
  74  683.0375
  75  1004.359
  76  598.1021
  77  407.9371
  78  1197.962
  79  784.6143
  80  494.2728
  81  1094.036
  82  839.2552
  83  1129.559
  84  589.131
  85  1001.474
  86  600.9144
  87  915.6823
  88  883.3945
  89  751.7116
  90  873.8953
  91  870.9692
  92  931.3953
  93  921.3248
  94  520.0483
  95  588.8652
  96  1050.838
  97  506.0472
  98  1131.408
  99  1118.783
 100  999.359
 101  79.78989
 102  633.0856
 103  883.2433
 104  683.7381
 105  1101.556
 106  901.1735
 107  603.8741
 108  841.2419
 109  1217.46
 110  212.8025
 111  973.3509
 112  712.9528
 113  529.7562
 114  558.1401
 115  -727.5472
 116  843.165
 117  1158.047
 118  1152.856
 119  506.0522
 120  505.8854
 121  1112.092
 122  323.8957
 123  224.7304
 124  24.56443
 125  973.7291
 126  746.0369
 127  144.307
 128  744.6171
 129  456.3472
 130  327.1437
 131  526.8219
 132  788.8643
 133  596.9496
 134  422.791
 135  407.7652
 136  649.9517
 137  484.287
 138  680.0322
 139  964.1259
 140  911.2881
 141  861.38
 142  721.2348
 143  1332.119
 144  773.0901
 145  1111.468
 146  1105.997
 147  1300.698
 148  132.4768
 149  709.6786
 150  1664.598
 151  1127.843
 152  675.9171
 153  430.2543
 154  1289.385
 155  709.0242
 156  1288.718
 157  1618.856
 158  1782.567
 159  4463.008
 160  5016.922
 161  3632.374
 162  1235.029
 163  1091.475
 164  682.1824
 165  893.6277
 166  580.5935
 167  673.9628
 168  357.583
 169  -179.0452
 170  493.5748
 171  822.5611
 172  875.2983
 173  -440.2055
 174  456.5285
 175  1502.289
 176  1090.227
 177  762.2493
 178  977.3907
 179  1615.764
 180  682.2502
 181  -141.6279
 182  491.2267
 183  225.4894
 184  661.4799
 185  1018.92
 186  736.4816
 187  1141.777
 188  801.2654
 189  546.4146
 190  984.7792
 191  1013.7
 192  510.9915
 193  1030.469
 194  608.7134
 195  651.8273
 196  1048.089
 197  509.646
 198  412.7561
 199  846.1088
 200  1248.23
 201  949.3973
 202  582.538
 203  69.29698
 204  623.5093
 205  533.9454
 206  558.8436
 207  566.131
 208  705.2169
 209  323.9754
 210  535.7775
 211  -43.74908
 212  895.4233
 213  1105.276
 214  -96.55309
 215  872.5732
 216  -78.72587
 217  696.2992
 218  734.397
 219  329.5051
 220  776.9172
 221  1017.571
 222  1196.517
 223  1013.644
 224  988.1558
 225  957.1597
 226  901.9731
 227  805.9053
 228  1394.193
 229  946.0493
 230  793.5354
 231  708.1571
 232  695.6461
 233  1202.08
 234  559.5822
 235  1012.778
 236  751.1695
 237  991.3096
 238  803.2346
 239  816.4023
 240  216.176
 241  628.0453
 242  1474.34
 243  1183.426
 244  685.1661
 245  649.8654
 246  1366.384
 247  1274.085
 248  937.3814
 249  573.5021
 250  941.8392
 251  646.6629
 252  405.468
 253  178.7869
 254  1126.626
 255  1069.043
