# Input file       =  1190662343.095806_cleaned.dat
# Candidate        =  PSR_0332+5434
# Telescope        =  AR
# Epoch_topo       =  58024.814376108865
# Epoch_bary       =  N/A
# T_sample         =  0.002
# Data Folded      =  7340032
# Data Avg         =  0.00715333898885063
# Data StdDev      =  1.00010809957798 
# Profile Bins     =  512
# Profile Avg      =  102.541219564126 
# Profile StdDev   =  119.745979467468 
# Reduced chi-sqr  =  1.517
# Prob(Noise)      <  3.62e-13   (~7.2 sigma)
# P_topo (ms)      =  714.471434034206  +/- 0.000188
# P'_topo (s/s)    =  -0                +/- 9.91e-11
# P''_topo (s/s^2) =  0                 +/- 4.37e-14
# P_bary (ms)      =  N/A
# P'_bary (s/s)    =  N/A
# P''_bary (s/s^2) =  N/A
# P_orb (s)        =  N/A
# asin(i)/c (s)    =  N/A
# eccentricity     =  N/A
# w (rad)          =  N/A
# T_peri           =  N/A
######################################################
   0  242.9774
   1  147.8913
   2  74.68306
   3  85.3246
   4  99.06258
   5  246.9021
   6  185.869
   7  42.67476
   8  39.8947
   9  109.0726
  10  88.42573
  11  16.69131
  12  50.68033
  13  38.64685
  14  120.4492
  15  143.8848
  16  2.298102
  17  -10.57983
  18  44.49769
  19  127.8494
  20  123.9605
  21  153.3092
  22  34.34276
  23  -45.0918
  24  -8.09395
  25  122.8745
  26  34.34466
  27  19.87594
  28  -2.645225
  29  90.60791
  30  100.8919
  31  58.8917
  32  51.98872
  33  99.24418
  34  7.786835
  35  43.31743
  36  -19.20121
  37  92.32164
  38  61.30107
  39  142.0298
  40  79.78709
  41  44.37446
  42  229.3041
  43  108.1126
  44  111.6577
  45  11.04781
  46  96.26679
  47  69.74368
  48  65.3827
  49  31.33043
  50  24.39152
  51  6.617213
  52  71.30763
  53  68.14709
  54  53.73399
  55  142.9232
  56  172.9624
  57  113.6854
  58  -12.78624
  59  -58.4764
  60  8.251989
  61  177.3368
  62  113.1219
  63  168.0245
  64  76.24796
  65  81.54956
  66  222.7558
  67  106.21
  68  -57.31835
  69  49.94547
  70  127.6293
  71  126.4294
  72  73.84252
  73  61.54186
  74  68.64161
  75  66.76894
  76  168.8638
  77  199.5542
  78  50.0295
  79  24.07086
  80  110.0484
  81  138.4036
  82  84.46181
  83  189.7173
  84  301.7712
  85  153.24
  86  75.31907
  87  170.9213
  88  135.7911
  89  117.7544
  90  144.333
  91  202.566
  92  172.034
  93  193.4069
  94  289.4784
  95  147.7295
  96  -26.69548
  97  105.618
  98  133.0326
  99  164.9066
 100  127.8779
 101  48.92907
 102  164.2414
 103  143.1416
 104  56.35392
 105  47.07576
 106  23.61535
 107  4.897117
 108  -56.47827
 109  19.96973
 110  235.4221
 111  140.2562
 112  -20.72408
 113  23.27009
 114  48.4384
 115  -8.021571
 116  81.44275
 117  98.09132
 118  73.1423
 119  135.9173
 120  204.9058
 121  206.3351
 122  180.7752
 123  120.6776
 124  187.402
 125  162.6822
 126  -27.8089
 127  34.10602
 128  -22.22657
 129  101.2646
 130  139.7735
 131  145.4681
 132  175.7788
 133  180.9759
 134  29.27989
 135  82.8066
 136  129.3186
 137  163.4418
 138  74.70322
 139  37.93865
 140  70.6945
 141  128.2474
 142  35.61098
 143  189.8974
 144  145.4077
 145  51.55742
 146  34.90757
 147  110.2737
 148  81.82039
 149  85.73007
 150  209.1843
 151  190.2432
 152  155.1849
 153  175.879
 154  176.9793
 155  147.9975
 156  54.82052
 157  95.03705
 158  52.73705
 159  -11.97058
 160  -32.80278
 161  70.63853
 162  1.850702
 163  142.8491
 164  266.9532
 165  124.93
 166  144.7761
 167  121.6729
 168  130.8703
 169  86.06646
 170  -4.159439
 171  84.34741
 172  176.2916
 173  103.8194
 174  -32.99757
 175  58.60254
 176  130.1952
 177  176.3117
 178  46.31754
 179  139.6016
 180  34.99315
 181  -53.16262
 182  14.56932
 183  117.4944
 184  41.74624
 185  20.19557
 186  172.6039
 187  93.07458
 188  11.13579
 189  117.8507
 190  214.9995
 191  151.6099
 192  167.004
 193  135.8357
 194  17.86731
 195  115.0726
 196  150.3875
 197  198.4448
 198  67.66064
 199  68.87294
 200  57.73205
 201  107.2652
 202  259.0944
 203  171.3064
 204  69.18365
 205  79.68724
 206  17.95178
 207  -39.08361
 208  -9.595351
 209  84.25411
 210  160.3312
 211  158.82
 212  56.16318
 213  76.29647
 214  177.0109
 215  249.6616
 216  293.0898
 217  98.40897
 218  13.67882
 219  -99.25417
 220  -17.24111
 221  193.5244
 222  217.0976
 223  173.4114
 224  160.5174
 225  177.5782
 226  60.99117
 227  152.9281
 228  196.9601
 229  193.222
 230  109.6111
 231  124.565
 232  0.4219109
 233  70.96902
 234  -23.88672
 235  -67.23806
 236  -6.512691
 237  37.06106
 238  107.4894
 239  157.2949
 240  -11.84031
 241  -3.626438
 242  -17.0456
 243  183.2253
 244  133.8306
 245  71.77997
 246  119.1483
 247  -54.36135
 248  23.84364
 249  269.0674
 250  255.1808
 251  48.76201
 252  73.12209
 253  101.2489
 254  -25.4337
 255  75.64097
 256  185.1792
 257  143.8139
 258  22.39811
 259  72.38549
 260  137.355
 261  147.9951
 262  138.4926
 263  146.9058
 264  192.7915
 265  161.8838
 266  84.21827
 267  -44.66824
 268  45.12179
 269  173.4429
 270  135.25
 271  207.1624
 272  145.1122
 273  85.06354
 274  118.2384
 275  157.2098
 276  146.8169
 277  206.1659
 278  169.544
 279  252.5552
 280  221.8219
 281  139.0934
 282  72.81339
 283  88.1903
 284  19.70321
 285  118.9542
 286  26.39588
 287  214.4769
 288  203.2845
 289  190.7254
 290  75.51957
 291  -36.5256
 292  -16.34709
 293  135.6678
 294  157.4716
 295  128.7883
 296  147.5889
 297  36.83926
 298  12.40023
 299  227.1381
 300  184.6621
 301  158.7396
 302  232.6486
 303  222.3936
 304  105.6743
 305  150.3691
 306  133.5472
 307  147.5464
 308  32.71248
 309  54.68751
 310  126.4309
 311  174.9716
 312  90.71806
 313  72.68657
 314  40.25745
 315  114.9947
 316  61.03517
 317  -10.46978
 318  82.46336
 319  53.58473
 320  40.76831
 321  5.801426
 322  -12.42157
 323  112.8139
 324  129.2149
 325  151.6183
 326  149.4607
 327  68.71021
 328  15.71145
 329  -1.665542
 330  -31.48388
 331  27.45914
 332  97.35511
 333  49.18999
 334  159.2403
 335  213.0307
 336  206.1548
 337  128.4358
 338  164.8409
 339  167.2066
 340  92.98623
 341  58.34709
 342  170.6084
 343  175.0721
 344  108.0326
 345  90.61993
 346  232.2733
 347  98.9304
 348  18.05536
 349  84.2002
 350  -26.95863
 351  18.09867
 352  23.89026
 353  -4.268898
 354  141.3161
 355  220.6923
 356  47.40617
 357  32.80141
 358  77.60664
 359  60.30148
 360  -0.9721124
 361  -32.19117
 362  118.3359
 363  239.9915
 364  119.0041
 365  12.61076
 366  136.0222
 367  65.29658
 368  71.05041
 369  65.42618
 370  146.4493
 371  39.90011
 372  -35.30667
 373  74.15611
 374  45.57894
 375  78.52666
 376  71.26819
 377  54.69657
 378  -16.03222
 379  14.39116
 380  66.90496
 381  147.6758
 382  87.66335
 383  25.62122
 384  19.94416
 385  30.27429
 386  17.56873
 387  -139.2402
 388  -47.39938
 389  -9.769404
 390  -117.3167
 391  47.15202
 392  59.95193
 393  190.9393
 394  118.1731
 395  61.13662
 396  115.96
 397  14.68501
 398  69.28778
 399  140.5469
 400  141.7594
 401  120.7249
 402  157.9716
 403  73.94127
 404  47.00711
 405  -4.900932
 406  -45.97823
 407  -135.5566
 408  -46.41267
 409  41.91605
 410  89.11072
 411  156.9371
 412  170.8733
 413  209.8389
 414  221.2496
 415  135.505
 416  118.4866
 417  94.49672
 418  126.6383
 419  80.93137
 420  -5.684267
 421  42.44346
 422  122.7878
 423  123.1677
 424  146.9122
 425  47.36295
 426  13.76803
 427  163.9089
 428  117.308
 429  99.47358
 430  137.2613
 431  196.852
 432  59.76363
 433  -74.35532
 434  -39.49357
 435  64.42134
 436  104.9977
 437  43.86708
 438  55.5508
 439  64.03551
 440  75.62461
 441  180.032
 442  61.21906
 443  183.9224
 444  159.7524
 445  198.1225
 446  163.8773
 447  -122.6884
 448  49.999
 449  195.069
 450  243.9127
 451  270.0359
 452  255.9308
 453  110.4189
 454  98.65746
 455  146.9829
 456  100.163
 457  73.5556
 458  10.5036
 459  74.97475
 460  -59.83147
 461  -12.59824
 462  61.27668
 463  180.0453
 464  204.8578
 465  88.72422
 466  0.4495888
 467  108.4067
 468  24.52058
 469  -70.7746
 470  -47.64443
 471  33.33133
 472  64.11417
 473  -26.56775
 474  -43.78437
 475  142.4901
 476  200.4529
 477  32.65679
 478  69.42725
 479  104.7577
 480  75.39554
 481  24.63865
 482  190.6903
 483  167.951
 484  56.06399
 485  202.3295
 486  258.6399
 487  207.3571
 488  189.7871
 489  243.6828
 490  260.3271
 491  366.8094
 492  502.6281
 493  654.1808
 494  861.3665
 495  924.3909
 496  805.6291
 497  598.9911
 498  372.6174
 499  122.2442
 500  145.1158
 501  147.3682
 502  225.9189
 503  171.7495
 504  158.144
 505  103.9831
 506  -16.34874
 507  -30.31368
 508  -67.26054
 509  -118.0405
 510  28.49696
 511  171.3086
