# Input file       =  1190762833.099269_cleaned.dat
# Candidate        =  PSR_0332+5434
# Telescope        =  AR
# Epoch_topo       =  58025.977454852647
# Epoch_bary       =  N/A
# T_sample         =  0.002
# Data Folded      =  7340032
# Data Avg         =  0.00931725966162475
# Data StdDev      =  0.999992405548699
# Profile Bins     =  512
# Profile Avg      =  133.579633631387 
# Profile StdDev   =  119.732127070052 
# Reduced chi-sqr  =  1.378
# Prob(Noise)      <  2.77e-08   (~5.4 sigma)
# P_topo (ms)      =  714.472058498796  +/- 0.000141
# P'_topo (s/s)    =  -0                +/- 7.42e-11
# P''_topo (s/s^2) =  0                 +/- 3.28e-14
# P_bary (ms)      =  N/A
# P'_bary (s/s)    =  N/A
# P''_bary (s/s^2) =  N/A
# P_orb (s)        =  N/A
# asin(i)/c (s)    =  N/A
# eccentricity     =  N/A
# w (rad)          =  N/A
# T_peri           =  N/A
######################################################
   0  874.7092
   1  667.8858
   2  413.4708
   3  337.3109
   4  194.1289
   5  196.2133
   6  218.2874
   7  247.8143
   8  81.19398
   9  55.33589
  10  109.7626
  11  96.85175
  12  243.5896
  13  337.5496
  14  277.8357
  15  251.7165
  16  292.8414
  17  226.7821
  18  46.88388
  19  62.16082
  20  196.8532
  21  231.5069
  22  128.3807
  23  98.93322
  24  215.2123
  25  161.6148
  26  90.83475
  27  92.8871
  28  108.6903
  29  186.6734
  30  291.2056
  31  140.1338
  32  -32.8675
  33  65.53545
  34  168.2845
  35  154.8667
  36  107.4281
  37  109.15
  38  135.4417
  39  66.79642
  40  -20.70241
  41  130.4942
  42  132.8625
  43  141.0156
  44  210.9577
  45  145.1841
  46  111.5691
  47  116.6846
  48  152.2645
  49  218.7149
  50  272.1798
  51  108.3239
  52  169.6488
  53  224.6043
  54  178.2383
  55  153.5264
  56  124.6807
  57  227.9748
  58  146.6015
  59  170.6145
  60  179.6075
  61  142.4775
  62  197.5153
  63  187.8504
  64  213.2569
  65  150.4136
  66  25.82588
  67  109.3372
  68  154.8963
  69  132.9079
  70  167.6373
  71  80.85159
  72  90.75401
  73  118.9321
  74  98.38835
  75  175.641
  76  77.75762
  77  -37.33464
  78  206.0788
  79  260.1593
  80  126.6846
  81  57.81786
  82  70.48313
  83  163.3942
  84  172.8577
  85  237.3886
  86  271.4577
  87  196.467
  88  252.4089
  89  258.7567
  90  171.9686
  91  194.8911
  92  144.3235
  93  160.2339
  94  61.00737
  95  -16.97879
  96  16.83546
  97  75.74854
  98  85.8306
  99  57.63775
 100  119.4228
 101  270.0841
 102  375.705
 103  321.2737
 104  163.6517
 105  196.6253
 106  200.6279
 107  134.7664
 108  119.0928
 109  141.6704
 110  183.0175
 111  -63.42108
 112  30.87573
 113  210.151
 114  262.7448
 115  206.7542
 116  141.65
 117  -83.1587
 118  -97.06484
 119  -37.94617
 120  47.63624
 121  104.4988
 122  51.53587
 123  128.0967
 124  182.7421
 125  193.465
 126  123.9144
 127  70.30438
 128  9.492519
 129  26.1483
 130  173.1604
 131  252.6595
 132  163.2039
 133  217.241
 134  251.0365
 135  51.17138
 136  72.89541
 137  73.98072
 138  175.7615
 139  252.3415
 140  73.44711
 141  71.59399
 142  244.1203
 143  332.5205
 144  374.9865
 145  238.4581
 146  176.9476
 147  34.95667
 148  -31.82466
 149  126.4399
 150  294.4398
 151  267.304
 152  142.6152
 153  88.99984
 154  162.5858
 155  143.7111
 156  13.55831
 157  113.4045
 158  177.9419
 159  101.9927
 160  146.6742
 161  143.7466
 162  28.82942
 163  60.29908
 164  70.5144
 165  110.5216
 166  -16.58207
 167  54.13509
 168  199.521
 169  146.5341
 170  163.8175
 171  167.4068
 172  167.6106
 173  192.6309
 174  223.9747
 175  236.0422
 176  316.2005
 177  125.6428
 178  58.31395
 179  155.9403
 180  241.1627
 181  135.5469
 182  157.8775
 183  143.4447
 184  309.3787
 185  205.0479
 186  107.8581
 187  90.71835
 188  -35.93852
 189  84.32067
 190  203.6811
 191  232.3479
 192  117.291
 193  173.5085
 194  238.5424
 195  108.7067
 196  66.4533
 197  131.4873
 198  84.80676
 199  72.45343
 200  75.31766
 201  -122.649
 202  43.5587
 203  113.7896
 204  15.02251
 205  156.8222
 206  214.0515
 207  8.536201
 208  -15.50513
 209  112.8363
 210  281.9333
 211  166.3603
 212  123.5508
 213  41.57707
 214  64.35437
 215  49.52722
 216  -58.4545
 217  -56.2172
 218  182.7979
 219  278.7938
 220  206.0242
 221  121.8842
 222  164.6367
 223  119.1627
 224  165.3196
 225  118.9079
 226  140.9779
 227  -67.842
 228  94.07295
 229  107.9139
 230  -23.87028
 231  210.5814
 232  192.3887
 233  42.75379
 234  266.3867
 235  219.4951
 236  177.3439
 237  102.1364
 238  135.45
 239  176.1599
 240  83.2495
 241  178.8297
 242  84.98504
 243  119.251
 244  119.8264
 245  122.9631
 246  80.01136
 247  127.4439
 248  96.87217
 249  78.93047
 250  1.7937
 251  -68.28859
 252  -42.60947
 253  66.24654
 254  55.60319
 255  223.4657
 256  97.27812
 257  49.91409
 258  79.60339
 259  106.5839
 260  205.9883
 261  79.45239
 262  -9.893963
 263  157.6826
 264  165.9687
 265  43.68871
 266  -58.58352
 267  32.94633
 268  156.1677
 269  108.3184
 270  221.59
 271  170.7467
 272  238.3654
 273  165.8651
 274  207.3137
 275  273.8753
 276  175.6199
 277  212.8459
 278  216.1911
 279  41.32325
 280  92.33792
 281  139.1278
 282  141.5196
 283  173.2807
 284  44.9412
 285  17.85593
 286  -35.1476
 287  -55.70491
 288  46.42952
 289  53.48739
 290  89.5211
 291  214.4756
 292  212.0592
 293  61.40961
 294  48.46299
 295  198.999
 296  147.4876
 297  92.51825
 298  -37.32081
 299  48.39232
 300  144.7096
 301  155.5554
 302  55.53933
 303  87.74751
 304  12.88581
 305  246.8575
 306  250.8965
 307  -13.83176
 308  -33.21885
 309  -33.9937
 310  111.28
 311  44.09068
 312  101.5806
 313  201.8191
 314  210.2882
 315  229.5096
 316  236.6705
 317  227.3005
 318  187.4013
 319  47.70627
 320  231.4552
 321  243.2221
 322  211.7898
 323  203.0783
 324  143.6886
 325  204.0882
 326  185.1617
 327  200.4189
 328  154.394
 329  146.3069
 330  159.9274
 331  98.56281
 332  33.8714
 333  74.10506
 334  79.52811
 335  81.81323
 336  117.0168
 337  171.3082
 338  69.33667
 339  144.9418
 340  171.7788
 341  82.25883
 342  117.2573
 343  129.0888
 344  109.2955
 345  32.0985
 346  162.451
 347  215.735
 348  79.89675
 349  -73.98091
 350  -40.0514
 351  97.60586
 352  79.12801
 353  72.74555
 354  304.125
 355  293.9046
 356  79.7112
 357  74.08392
 358  111.6462
 359  92.84268
 360  108.4124
 361  118.7267
 362  128.5327
 363  156.7537
 364  147.1105
 365  81.18967
 366  106.0802
 367  63.19244
 368  1.88142
 369  116.511
 370  159.5017
 371  216.0187
 372  192.0722
 373  7.282101
 374  36.26934
 375  163.7905
 376  234.0938
 377  215.1498
 378  188.0778
 379  145.4777
 380  122.7862
 381  60.52575
 382  99.29096
 383  25.93282
 384  82.91138
 385  61.84967
 386  116.1953
 387  204.5841
 388  170.5373
 389  123.6784
 390  77.31851
 391  233.9186
 392  250.4516
 393  181.0972
 394  98.48686
 395  203.9123
 396  61.25309
 397  132.8794
 398  -34.69028
 399  91.12918
 400  104.9766
 401  51.50312
 402  230.9034
 403  330.4902
 404  126.9536
 405  82.53767
 406  188.3471
 407  165.3769
 408  51.3722
 409  17.81554
 410  154.7495
 411  201.0635
 412  78.45996
 413  132.6277
 414  116.1046
 415  91.60493
 416  21.79704
 417  107.0301
 418  186.0441
 419  195.3054
 420  160.252
 421  118.8528
 422  83.98663
 423  -59.65762
 424  8.272893
 425  33.15125
 426  44.25703
 427  160.8165
 428  105.2441
 429  92.97157
 430  71.5837
 431  34.03455
 432  94.81564
 433  104.0453
 434  34.15925
 435  126.2214
 436  167.2651
 437  44.25945
 438  110.143
 439  174.0936
 440  100.1789
 441  97.0369
 442  130.4446
 443  106.1801
 444  255.8591
 445  228.2025
 446  94.17805
 447  98.9467
 448  103.4404
 449  -10.22465
 450  157.6968
 451  145.0579
 452  -4.88807
 453  -150.3921
 454  52.26791
 455  35.1287
 456  55.16196
 457  144.6239
 458  175.2823
 459  157.4785
 460  39.33656
 461  -39.67884
 462  140.5266
 463  126.2121
 464  119.2395
 465  132.2511
 466  182.3484
 467  54.16871
 468  -20.79359
 469  66.23299
 470  187.4843
 471  195.1337
 472  135.016
 473  113.5279
 474  50.46585
 475  -2.38636
 476  155.7117
 477  165.6072
 478  247.7077
 479  142.4245
 480  150.456
 481  219.5524
 482  158.537
 483  119.805
 484  78.89079
 485  22.06135
 486  -15.32594
 487  -3.263648
 488  -24.09894
 489  150.8938
 490  204.0694
 491  162.9893
 492  136.622
 493  219.3412
 494  111.8886
 495  145.9906
 496  124.3887
 497  243.4919
 498  95.36796
 499  170.8385
 500  154.5934
 501  175.117
 502  151.084
 503  65.08518
 504  60.66197
 505  258.4715
 506  352.4426
 507  441.2415
 508  349.6763
 509  287.8455
 510  603.5464
 511  696.4669
