# Input file       =  1190950050.106759_cleaned.dat
# Candidate        =  PSR_0332+5434
# Telescope        =  AR
# Epoch_topo       =  58028.144318365266
# Epoch_bary       =  N/A
# T_sample         =  0.002
# Data Folded      =  7340032
# Data Avg         =  0.00849786868308844
# Data StdDev      =  1.00025844162852 
# Profile Bins     =  512
# Profile Avg      =  121.870280581126 
# Profile StdDev   =  119.763980377675 
# Reduced chi-sqr  =  1.512
# Prob(Noise)      <  5.57e-13   (~7.1 sigma)
# P_topo (ms)      =  714.47357481133   +/- 0.000207
# P'_topo (s/s)    =  -0                +/- 1.09e-10
# P''_topo (s/s^2) =  0                 +/- 4.82e-14
# P_bary (ms)      =  N/A
# P'_bary (s/s)    =  N/A
# P''_bary (s/s^2) =  N/A
# P_orb (s)        =  N/A
# asin(i)/c (s)    =  N/A
# eccentricity     =  N/A
# w (rad)          =  N/A
# T_peri           =  N/A
######################################################
   0  701.1915
   1  709.9099
   2  513.5567
   3  418.3289
   4  448.4692
   5  281.5326
   6  151.5627
   7  178.3324
   8  238.1657
   9  183.1489
  10  64.02219
  11  163.1556
  12  178.0128
  13  279.968
  14  291.1994
  15  360.9999
  16  281.1685
  17  171.706
  18  150.3366
  19  215.3784
  20  131.4534
  21  154.6854
  22  100.8334
  23  -38.24784
  24  -24.48488
  25  1.281418
  26  64.27443
  27  24.08214
  28  133.5462
  29  144.9263
  30  56.98848
  31  48.8413
  32  239.5362
  33  137.2141
  34  175.1411
  35  132.6881
  36  52.84916
  37  12.95635
  38  112.8781
  39  88.66842
  40  135.4015
  41  255.6262
  42  189.1594
  43  155.5284
  44  117.9417
  45  -3.059219
  46  42.39533
  47  107.4476
  48  142.9317
  49  223.9874
  50  151.9048
  51  94.86626
  52  156.9961
  53  64.26294
  54  96.54297
  55  128.0592
  56  85.87166
  57  101.7147
  58  114.2101
  59  34.72053
  60  37.90551
  61  144.2373
  62  48.83018
  63  129.2791
  64  111.0527
  65  16.98218
  66  12.95925
  67  110.8713
  68  186.4125
  69  191.5641
  70  199.6939
  71  210.7494
  72  99.94363
  73  68.09956
  74  105.6587
  75  -68.3728
  76  8.648483
  77  159.7125
  78  167.3294
  79  222.2394
  80  125.8966
  81  35.36809
  82  55.53422
  83  238.0381
  84  241.6078
  85  98.43353
  86  44.59502
  87  199.173
  88  221.3297
  89  205.8227
  90  215.0522
  91  183.5647
  92  91.87285
  93  125.857
  94  82.02085
  95  114.1851
  96  144.8908
  97  28.26622
  98  71.34133
  99  69.6423
 100  125.2083
 101  154.7023
 102  162.3698
 103  124.8786
 104  145.0227
 105  26.94024
 106  35.00034
 107  147.8113
 108  186.1023
 109  320.0388
 110  157.6454
 111  -47.85979
 112  -112.2251
 113  81.08609
 114  197.4896
 115  62.01486
 116  146.4335
 117  231.0843
 118  163.0413
 119  185.345
 120  145.1403
 121  18.06507
 122  60.27994
 123  154.3672
 124  56.12919
 125  84.09837
 126  74.13034
 127  18.95896
 128  0.7342624
 129  176.1364
 130  178.3836
 131  105.1328
 132  82.74091
 133  177.1119
 134  233.8819
 135  178.0762
 136  113.4658
 137  27.09031
 138  79.58278
 139  98.76071
 140  113.2286
 141  208.4024
 142  107.1601
 143  -75.70364
 144  -30.2071
 145  -75.28909
 146  111.6306
 147  27.62266
 148  105.3146
 149  169.7077
 150  79.69641
 151  67.65284
 152  48.6242
 153  119.9088
 154  75.98917
 155  62.73163
 156  190.8407
 157  123.3785
 158  -23.17554
 159  104.1343
 160  174.7227
 161  81.60139
 162  110.776
 163  47.25192
 164  113.3917
 165  72.03568
 166  -66.11446
 167  -12.84654
 168  25.24069
 169  82.23356
 170  123.6196
 171  160.218
 172  188.6463
 173  132.9411
 174  81.35416
 175  135.5807
 176  60.88396
 177  57.95887
 178  163.1111
 179  42.66001
 180  -113.6935
 181  -13.68598
 182  175.4552
 183  149.9596
 184  21.82365
 185  126.7357
 186  57.66757
 187  3.523494
 188  86.32756
 189  89.30032
 190  144.1685
 191  60.04647
 192  17.89829
 193  187.3867
 194  148.0912
 195  186.7027
 196  -0.0772941
 197  -53.50602
 198  137.2492
 199  -0.8146768
 200  26.01111
 201  -9.512041
 202  -67.70461
 203  30.0237
 204  13.00401
 205  -33.08566
 206  -35.11431
 207  91.59853
 208  -37.33735
 209  -16.1513
 210  91.73083
 211  231.5083
 212  8.301339
 213  -0.1274136
 214  95.52929
 215  129.812
 216  -16.99972
 217  -101.1019
 218  1.360706
 219  158.238
 220  201.2564
 221  171.3092
 222  30.5875
 223  16.16014
 224  -47.47139
 225  -94.7328
 226  -69.50957
 227  134.0854
 228  155.2373
 229  88.38293
 230  89.30853
 231  -20.94194
 232  -65.56909
 233  -95.38155
 234  129.9021
 235  191.0639
 236  121.9379
 237  -10.06825
 238  55.86424
 239  43.57124
 240  107.2498
 241  134.2318
 242  77.76011
 243  159.1788
 244  134.7464
 245  106.5077
 246  94.97749
 247  50.06563
 248  -30.32724
 249  -46.5678
 250  -51.69379
 251  63.06649
 252  47.22052
 253  -40.63572
 254  34.16158
 255  34.3974
 256  69.25896
 257  33.97048
 258  140.5832
 259  112.9452
 260  21.34311
 261  127.9183
 262  181.575
 263  147.2635
 264  187.4483
 265  173.8905
 266  173.0701
 267  174.9241
 268  217.7182
 269  123.5717
 270  55.19041
 271  52.3003
 272  96.61797
 273  49.77244
 274  179.8385
 275  154.4481
 276  176.3563
 277  156.2653
 278  122.4403
 279  149.4072
 280  210.5295
 281  87.67639
 282  115.6479
 283  114.6788
 284  133.8136
 285  120.8557
 286  142.926
 287  116.9971
 288  -53.10368
 289  -27.25807
 290  150.3141
 291  258.7563
 292  147.6252
 293  97.60091
 294  159.1136
 295  148.3887
 296  92.68571
 297  25.12679
 298  44.55549
 299  138.9402
 300  109.4853
 301  285.6808
 302  271.5479
 303  28.96165
 304  52.87648
 305  190.995
 306  110.5241
 307  228.5753
 308  155.0767
 309  8.77125
 310  9.409896
 311  131.089
 312  176.8868
 313  193.2204
 314  228.0924
 315  253.6969
 316  208.377
 317  180.56
 318  58.5616
 319  32.01524
 320  92.08454
 321  7.370979
 322  -52.28633
 323  37.55299
 324  62.42459
 325  -0.3825091
 326  79.59136
 327  105.4714
 328  59.73375
 329  42.36229
 330  220.4331
 331  240.9381
 332  207.2754
 333  326.4599
 334  110.9044
 335  54.46527
 336  52.58403
 337  74.80235
 338  -31.58234
 339  28.84541
 340  69.09515
 341  192.992
 342  201.7948
 343  230.2089
 344  246.8141
 345  57.74028
 346  52.58642
 347  140.4723
 348  88.1848
 349  172.6601
 350  223.7335
 351  272.5247
 352  184.6739
 353  164.6986
 354  55.11211
 355  202.4742
 356  222.5688
 357  230.0426
 358  130.7217
 359  285.0947
 360  294.8127
 361  179.0867
 362  78.96659
 363  96.74023
 364  221.3701
 365  82.91782
 366  26.51767
 367  137.9485
 368  297.7191
 369  244.5848
 370  71.40907
 371  84.5451
 372  203.5451
 373  112.7838
 374  106.8358
 375  65.25938
 376  130.8893
 377  145.1778
 378  282.0627
 379  237.0914
 380  154.4829
 381  175.1418
 382  160.3383
 383  208.1385
 384  185.8696
 385  261.911
 386  261.1769
 387  108.4609
 388  123.4105
 389  169.5435
 390  86.43005
 391  86.30193
 392  97.64251
 393  163.1195
 394  118.9709
 395  74.31406
 396  105.4312
 397  97.91781
 398  85.27814
 399  135.8917
 400  236.903
 401  213.9396
 402  -29.53207
 403  -13.19124
 404  168.8595
 405  135.0538
 406  183.0806
 407  230.7796
 408  301.3523
 409  189.4965
 410  70.67131
 411  280.6598
 412  141.1585
 413  27.48238
 414  135.7833
 415  89.62388
 416  99.01004
 417  207.3469
 418  118.5251
 419  94.50226
 420  120.7956
 421  112.0619
 422  137.5957
 423  100.1568
 424  9.524996
 425  49.45798
 426  -47.01281
 427  87.27782
 428  139.9554
 429  272.6751
 430  268.0596
 431  214.9231
 432  221.3385
 433  95.24548
 434  45.9394
 435  15.44419
 436  -6.111272
 437  33.61425
 438  140.7264
 439  109.5672
 440  173.5023
 441  261.1204
 442  196.3529
 443  194.3735
 444  184.6288
 445  92.05179
 446  172.3315
 447  139.7474
 448  82.24596
 449  124.4161
 450  89.68051
 451  33.70792
 452  -106.8387
 453  -90.44595
 454  141.1921
 455  149.7466
 456  143.8356
 457  173.8406
 458  85.48602
 459  41.86633
 460  16.49361
 461  58.54635
 462  167.8802
 463  204.1512
 464  110.0119
 465  211.152
 466  312.2211
 467  387.3574
 468  177.573
 469  115.4786
 470  163.5977
 471  126.7867
 472  165.3684
 473  47.11136
 474  22.72496
 475  96.62337
 476  58.29334
 477  123.19
 478  77.58873
 479  72.73624
 480  118.5577
 481  98.69267
 482  67.95586
 483  69.05283
 484  163.4502
 485  138.707
 486  62.78698
 487  96.35814
 488  72.47281
 489  41.19785
 490  69.50784
 491  177.5643
 492  190
 493  100.7281
 494  80.49786
 495  249.3482
 496  194.3988
 497  78.47134
 498  16.17812
 499  225.6132
 500  256.0519
 501  286.2953
 502  323.812
 503  295.6905
 504  196.9057
 505  248.3279
 506  145.9403
 507  119.3993
 508  296.988
 509  432.835
 510  772.8862
 511  794.5336
