# Input file       =  1190950050.106759-PSRB0329-2ms-sampling-dd.dat
# Candidate        =  PSR_0332+5434
# Telescope        =  AR
# Epoch_topo       =  58028.144318365266
# Epoch_bary       =  N/A
# T_sample         =  0.002
# Data Folded      =  7340032
# Data Avg         =  -5.14049283809741e-10
# Data StdDev      =  7.13217887861787 
# Profile Bins     =  512
# Profile Avg      =  0.304654044603628
# Profile StdDev   =  853.957433119157 
# Reduced chi-sqr  =  0.552
# Prob(Noise)      <  1   (~0.0 sigma)
# P_topo (ms)      =  714.473576084747  +/- 5.99e-05
# P'_topo (s/s)    =  -0                +/- 3.16e-11
# P''_topo (s/s^2) =  0                 +/- 1.39e-14
# P_bary (ms)      =  N/A
# P'_bary (s/s)    =  N/A
# P''_bary (s/s^2) =  N/A
# P_orb (s)        =  N/A
# asin(i)/c (s)    =  N/A
# eccentricity     =  N/A
# w (rad)          =  N/A
# T_peri           =  N/A
######################################################
   0  -558.6342
   1  -582.2061
   2  -349.3762
   3  -131.357
   4  -193.918
   5  -258.9512
   6  -223.2547
   7  19.87802
   8  -57.43686
   9  379.94
  10  756.9384
  11  492.3485
  12  43.71828
  13  -53.06121
  14  418.7356
  15  212.5702
  16  674.1019
  17  631.975
  18  487.8413
  19  100.275
  20  -3.72766
  21  -220.4574
  22  -423.4306
  23  119.6508
  24  325.8716
  25  -113.3906
  26  4.653222
  27  -81.66499
  28  -163.6247
  29  -229.4326
  30  50.69669
  31  45.53199
  32  -56.40612
  33  -551.3596
  34  -324.9664
  35  -302.9137
  36  -176.9238
  37  -149.8038
  38  66.27686
  39  121.9216
  40  -530.4628
  41  -887.8668
  42  -276.0131
  43  41.16589
  44  -111.8987
  45  210.9756
  46  542.7316
  47  309.3071
  48  -194.3645
  49  -416.5222
  50  -349.4656
  51  -17.62499
  52  -71.79156
  53  370.0778
  54  100.0727
  55  -839.6648
  56  -513.4404
  57  -292.1754
  58  -85.33852
  59  246.4823
  60  177.6267
  61  -763.6624
  62  -968.5906
  63  -549.6724
  64  -393.086
  65  -234.2448
  66  -37.68132
  67  643.2804
  68  190.9613
  69  -85.67511
  70  -437.3676
  71  -537.3621
  72  -68.41882
  73  49.71656
  74  0.8580433
  75  13.12145
  76  -1.269586
  77  -224.8602
  78  198.6616
  79  232.6422
  80  -140.0194
  81  -372.4723
  82  -294.4108
  83  -212.9824
  84  -132.3809
  85  929.2474
  86  129.2385
  87  -231.4064
  88  -390.1608
  89  -485.4832
  90  -905.972
  91  -679.2097
  92  -139.7997
  93  433.1728
  94  205.7931
  95  452.7197
  96  393.9253
  97  -463.6088
  98  -556.7432
  99  -49.36703
 100  194.7593
 101  439.1281
 102  701.3961
 103  814.7942
 104  246.3842
 105  335.9011
 106  151.6362
 107  297.6776
 108  244.5814
 109  567.5442
 110  262.5752
 111  663.6926
 112  743.1695
 113  255.3343
 114  -135.8736
 115  -545.6837
 116  -84.19285
 117  -508.0149
 118  -518.2642
 119  82.17722
 120  554.5999
 121  607.4991
 122  85.69395
 123  -168.0072
 124  -245.8533
 125  -494.6574
 126  -657.2614
 127  -638.0689
 128  -257.5564
 129  -130.5181
 130  365.316
 131  -37.90904
 132  -383.4443
 133  -507.2424
 134  -256.3255
 135  -177.8593
 136  -226.8118
 137  -93.50212
 138  221.199
 139  -184.6856
 140  -563.1528
 141  -346.7328
 142  -216.0356
 143  267.7523
 144  -82.65023
 145  36.94681
 146  -245.5474
 147  -522.7013
 148  -532.1506
 149  -220.3658
 150  73.66122
 151  211.5923
 152  51.16292
 153  -26.5561
 154  -671.4444
 155  -827.2987
 156  -167.6764
 157  -105.8807
 158  45.6305
 159  386.8926
 160  616.3015
 161  169.283
 162  -502.1641
 163  280.4887
 164  -85.29243
 165  -474.8358
 166  -107.0205
 167  -166.8478
 168  -449.8565
 169  -148.5289
 170  -342.1293
 171  -92.80757
 172  551.0535
 173  518.5684
 174  -19.53889
 175  -202.497
 176  -495.0232
 177  -823.4667
 178  -716.1735
 179  -110.9458
 180  14.67672
 181  340.2063
 182  -55.17009
 183  -478.2649
 184  -441.1414
 185  -368.0116
 186  201.3505
 187  553.3601
 188  533.9763
 189  267.3208
 190  239.0638
 191  -37.61581
 192  654.0533
 193  1035.972
 194  527.965
 195  784.6684
 196  592.4017
 197  26.73108
 198  197.1517
 199  448.4494
 200  290.9461
 201  41.87938
 202  169.388
 203  -177.4973
 204  -955.353
 205  -574.7222
 206  647.3949
 207  466.2019
 208  -97.09432
 209  6.479102
 210  -403.0638
 211  -581.9711
 212  -422.5952
 213  -50.54829
 214  571.5513
 215  456.2883
 216  -149.2853
 217  366.8263
 218  471.7395
 219  671.2259
 220  438.7262
 221  272.5376
 222  608.5065
 223  263.6281
 224  366.3124
 225  -91.16717
 226  -595.6031
 227  -182.685
 228  -569.5777
 229  -47.73247
 230  -99.68018
 231  -251.6209
 232  268.3372
 233  43.986
 234  176.2351
 235  -147.7548
 236  75.94711
 237  28.11076
 238  89.48116
 239  229.1045
 240  86.53786
 241  -55.68941
 242  -37.94807
 243  461.8357
 244  242.8317
 245  135.0063
 246  -140.483
 247  67.51207
 248  -231.0003
 249  -385.0174
 250  -179.9703
 251  452.7413
 252  368.0558
 253  245.1053
 254  844.5905
 255  709.0812
 256  265.4382
 257  602.9389
 258  298.9892
 259  401.1146
 260  469.6624
 261  605.0701
 262  1375.874
 263  1524.878
 264  1515.935
 265  1339.211
 266  931.048
 267  699.0084
 268  681.0892
 269  -145.176
 270  -425.5719
 271  -231.4635
 272  378.9053
 273  580.9312
 274  -26.47345
 275  26.50804
 276  -44.57979
 277  242.744
 278  318.105
 279  433.0714
 280  181.3998
 281  86.25755
 282  -99.20037
 283  260.7988
 284  -77.60457
 285  -273.9493
 286  -55.92681
 287  -713.6299
 288  4.54555
 289  21.35209
 290  -92.39187
 291  -183.1795
 292  227.7505
 293  453.3765
 294  -401.3304
 295  -327.7391
 296  340.9709
 297  26.01817
 298  205.0311
 299  292.7054
 300  -25.22964
 301  -137.2679
 302  -191.2095
 303  -307.4897
 304  -188.9213
 305  477.6866
 306  602.2402
 307  552.392
 308  466.7126
 309  -518.7817
 310  -754.6842
 311  -910.1237
 312  -662.0896
 313  107.9374
 314  263.0653
 315  838.0615
 316  825.1774
 317  44.8007
 318  -280.3551
 319  -766.8977
 320  -457.4877
 321  37.72187
 322  466.7624
 323  348.7168
 324  -61.23403
 325  8.680545
 326  -501.9662
 327  -69.0271
 328  -218.6492
 329  -624.8443
 330  -789.3833
 331  -660.2316
 332  -594.8383
 333  -521.3405
 334  -255.6366
 335  220.5294
 336  192.8635
 337  143.3866
 338  -132.0486
 339  -826.753
 340  -651.4776
 341  -220.586
 342  722.8389
 343  1439.121
 344  1310.806
 345  761.2577
 346  375.2259
 347  398.0455
 348  417.2914
 349  239.1969
 350  434.4199
 351  868.3423
 352  572.9921
 353  177.693
 354  -144.2011
 355  -243.8903
 356  41.54004
 357  247.2208
 358  250.9226
 359  -63.77311
 360  -58.04436
 361  -696.7742
 362  -386.026
 363  17.45502
 364  532.497
 365  586.4603
 366  229.016
 367  395.6845
 368  -166.2378
 369  -349.7432
 370  81.28602
 371  871.9069
 372  1332.355
 373  1109.262
 374  541.55
 375  -455.6903
 376  -733.0908
 377  143.0264
 378  871.9493
 379  780.7806
 380  602.114
 381  671.2009
 382  307.8225
 383  50.10289
 384  -192.2938
 385  -196.7713
 386  45.58203
 387  161.573
 388  -97.65366
 389  336.4354
 390  117.2373
 391  -232.3316
 392  215.5589
 393  746.4339
 394  750.0684
 395  386.7576
 396  155.2544
 397  294.0201
 398  220.4847
 399  591.2896
 400  397.9666
 401  311.7573
 402  59.13563
 403  276.0182
 404  161.788
 405  235.3878
 406  307.3057
 407  -264.7678
 408  -53.41101
 409  -625.3928
 410  -577.6539
 411  -981.5123
 412  -863.5374
 413  -116.3107
 414  -303.2195
 415  -26.75466
 416  -294.2561
 417  -381.8928
 418  -379.2043
 419  -871.5347
 420  -154.1646
 421  -12.31847
 422  -147.9281
 423  -42.91279
 424  -135.5423
 425  -105.7531
 426  -214.67
 427  -123.6567
 428  275.4682
 429  98.42348
 430  -860.7493
 431  -1078.21
 432  -1037.477
 433  -836.0062
 434  -306.3349
 435  56.78316
 436  528.0878
 437  -24.80606
 438  -75.49162
 439  -133.2868
 440  -336.8615
 441  -255.3456
 442  107.0799
 443  -124.2217
 444  -904.4425
 445  -735.5936
 446  73.69565
 447  263.7067
 448  -28.62718
 449  530.6262
 450  806.7364
 451  57.13179
 452  -28.51501
 453  -362.7313
 454  32.84196
 455  207.3891
 456  212.2986
 457  866.9208
 458  625.1802
 459  4.923944
 460  -629.7402
 461  -490.1779
 462  298.4769
 463  -23.18556
 464  80.54137
 465  -106.816
 466  -1007.602
 467  -1004.713
 468  -388.9438
 469  -367.7324
 470  -22.26172
 471  694.3582
 472  282.9908
 473  -85.67934
 474  -459.7362
 475  88.7252
 476  -422.5017
 477  -285.79
 478  184.9602
 479  309.0662
 480  -353.1921
 481  -1151.455
 482  -820.8834
 483  -76.82501
 484  366.9832
 485  554.4781
 486  -26.54325
 487  74.57709
 488  -710.8646
 489  -872.7061
 490  -814.2877
 491  -416.1802
 492  145.5188
 493  -263.6297
 494  -113.3672
 495  -963.9797
 496  -1164.969
 497  -1254.287
 498  -640.717
 499  -531.6726
 500  -446.9493
 501  -383.2178
 502  -393.966
 503  -72.5363
 504  100.9494
 505  331.0752
 506  89.05731
 507  497.1295
 508  629.5053
 509  237.4316
 510  -57.30316
 511  -469.6593
