# Input file       =  1190849001.1267_cleaned.dat
# Candidate        =  PSR_0332+5434
# Telescope        =  AR
# Epoch_topo       =  58026.974769984954
# Epoch_bary       =  N/A
# T_sample         =  0.002
# Data Folded      =  7340032
# Data Avg         =  0.0304176862867149
# Data StdDev      =  2.62706544791763 
# Profile Bins     =  512
# Profile Avg      =  436.5237599152   
# Profile StdDev   =  314.546522839667 
# Reduced chi-sqr  =  1.367
# Prob(Noise)      <  5.89e-08   (~5.3 sigma)
# P_topo (ms)      =  714.472595193268  +/- 9.44e-05
# P'_topo (s/s)    =  -0                +/- 4.98e-11
# P''_topo (s/s^2) =  0                 +/- 2.2e-14
# P_bary (ms)      =  N/A
# P'_bary (s/s)    =  N/A
# P''_bary (s/s^2) =  N/A
# P_orb (s)        =  N/A
# asin(i)/c (s)    =  N/A
# eccentricity     =  N/A
# w (rad)          =  N/A
# T_peri           =  N/A
######################################################
   0  116.372
   1  324.1581
   2  398.6414
   3  360.3754
   4  525.0671
   5  272.5466
   6  299.574
   7  391.5426
   8  401.6851
   9  754.9674
  10  969.3207
  11  720.781
  12  601.8571
  13  124.0579
  14  4.086659
  15  425.511
  16  524.5548
  17  642.2637
  18  660.7952
  19  608.6325
  20  552.6444
  21  398.7324
  22  645.7202
  23  666.7761
  24  438.7513
  25  421.3204
  26  502.3344
  27  591.1311
  28  525.5587
  29  423.569
  30  952.7939
  31  985.0604
  32  917.5898
  33  540.0509
  34  493.6159
  35  596.3243
  36  395.0935
  37  396.5544
  38  288.7352
  39  240.6096
  40  522.2439
  41  325.1409
  42  241.8214
  43  94.50787
  44  412.5399
  45  194.5921
  46  265.2151
  47  376.0387
  48  230.2942
  49  633.6711
  50  608.667
  51  711.6288
  52  429.6526
  53  242.2086
  54  330.461
  55  113.2154
  56  265.9862
  57  467.9268
  58  486.9117
  59  444.4149
  60  407.6466
  61  272.6997
  62  550.3635
  63  405.102
  64  343.688
  65  243.9417
  66  452.3246
  67  639.9455
  68  749.9709
  69  547.0797
  70  327.9014
  71  410.6335
  72  545.6096
  73  349.5247
  74  536.9493
  75  539.5605
  76  465.1601
  77  459.513
  78  196.7589
  79  507.2473
  80  339.3673
  81  322.7991
  82  209.789
  83  421.0949
  84  520.5021
  85  272.0783
  86  352.6358
  87  422.0013
  88  394.4534
  89  389.0732
  90  99.14209
  91  449.4568
  92  876.6636
  93  215.4952
  94  248.3382
  95  548.8066
  96  805.1448
  97  598.6306
  98  601.131
  99  621.5676
 100  544.7701
 101  298.4373
 102  365.5643
 103  236.211
 104  66.54418
 105  168.7963
 106  340.3553
 107  577.4332
 108  537.6481
 109  423.8156
 110  180.4461
 111  60.14826
 112  486.274
 113  380.9362
 114  192.3068
 115  629.7625
 116  694.2805
 117  679.5473
 118  565.5133
 119  470.1228
 120  384.3579
 121  -116.0551
 122  -68.8129
 123  604.6514
 124  622.9554
 125  500.1238
 126  740.0592
 127  565.5099
 128  616.2137
 129  84.74085
 130  -42.98531
 131  175.6445
 132  203.9933
 133  317.6169
 134  215.2573
 135  115.9242
 136  209.3049
 137  286.2132
 138  8.884509
 139  138.7732
 140  126.7844
 141  350.9516
 142  261.2763
 143  475.9557
 144  493.6007
 145  338.8612
 146  -43.76855
 147  172.9199
 148  238.6737
 149  160.3526
 150  140.2583
 151  392.1443
 152  514.291
 153  452.7642
 154  211.5465
 155  227.4099
 156  528.9484
 157  499.0503
 158  219.0765
 159  405.0954
 160  436.7872
 161  341.3522
 162  430.2429
 163  232.5578
 164  428.8621
 165  287.4825
 166  477.6056
 167  785.4817
 168  640.5789
 169  335.4453
 170  358.8833
 171  535.7128
 172  668.5864
 173  444.0393
 174  342.5617
 175  324.6267
 176  244.2952
 177  399.4813
 178  581.144
 179  601.2114
 180  660.1363
 181  605.3361
 182  578.6503
 183  565.6773
 184  555.9666
 185  314.6109
 186  261.0654
 187  388.5011
 188  460.5703
 189  176.6996
 190  612.0305
 191  774.3823
 192  259.257
 193  289.1254
 194  603.4039
 195  666.0646
 196  648.1642
 197  588.3411
 198  350.8627
 199  428.4482
 200  961.0292
 201  717.0562
 202  546.4888
 203  440.7317
 204  562.007
 205  388.9402
 206  457.9398
 207  577.4985
 208  638.2109
 209  700.7018
 210  803.7255
 211  623.6474
 212  627.4629
 213  327.1934
 214  494.0252
 215  688.6473
 216  579.5493
 217  688.0029
 218  483.2269
 219  414.3697
 220  657.6374
 221  426.8063
 222  374.0336
 223  293.5862
 224  323.8793
 225  420.6878
 226  412.1813
 227  634.0206
 228  580.0613
 229  457.6656
 230  320.2688
 231  561.5494
 232  237.4353
 233  114.3229
 234  119.6533
 235  173.9713
 236  293.2588
 237  136.7484
 238  462.2561
 239  326.5266
 240  -242.0679
 241  -115.4688
 242  304.085
 243  302.8877
 244  817.1914
 245  996.3785
 246  643.6851
 247  26.93045
 248  441.0242
 249  456.4003
 250  320.7065
 251  424.2663
 252  288.8855
 253  271.077
 254  253.829
 255  391.8866
 256  247.7096
 257  502.636
 258  556.103
 259  330.2502
 260  423.641
 261  698.6518
 262  684.8697
 263  463.5279
 264  800.545
 265  645.2543
 266  691.7099
 267  497.6139
 268  536.5062
 269  568.9445
 270  -51.81372
 271  121.1455
 272  413.5135
 273  438.8735
 274  451.5148
 275  433.9055
 276  855.263
 277  817.2327
 278  632.7723
 279  511.7496
 280  635.9359
 281  368.6872
 282  277.1017
 283  376.7731
 284  388.5012
 285  351.4785
 286  166.8555
 287  404.9214
 288  626.8073
 289  426.675
 290  186.1783
 291  182.9898
 292  -105.6134
 293  120.8867
 294  43.78639
 295  84.26377
 296  287.4252
 297  556.8564
 298  491.4415
 299  337.0021
 300  107.212
 301  134.6502
 302  268.1731
 303  -54.38622
 304  153.6829
 305  323.6583
 306  439.9449
 307  450.5154
 308  447.7973
 309  324.1888
 310  197.4759
 311  373.9866
 312  315.5048
 313  229.9612
 314  864.8436
 315  477.8562
 316  128.7819
 317  362.8113
 318  546.7186
 319  385.9476
 320  333.1285
 321  661.2455
 322  771.7928
 323  165.661
 324  242.7754
 325  204.2226
 326  335.2771
 327  187.145
 328  195.0914
 329  309.0089
 330  178.823
 331  126.0526
 332  213.5522
 333  142.4249
 334  231.922
 335  116.0104
 336  -69.25029
 337  136.8029
 338  419.3855
 339  -37.88026
 340  218.698
 341  477.1193
 342  530.6241
 343  342.8687
 344  427.3045
 345  341.3557
 346  407.9267
 347  722.0193
 348  676.6033
 349  735.9012
 350  519.7778
 351  263.9806
 352  127.3397
 353  646.5177
 354  218.8916
 355  -118.7243
 356  248.2178
 357  383.9687
 358  757.3344
 359  949.1198
 360  332.4201
 361  139.5245
 362  269.7961
 363  372.5035
 364  361.5219
 365  609.3068
 366  587.7488
 367  442.9081
 368  303.289
 369  265.492
 370  348.6038
 371  250.2374
 372  305.9953
 373  451.8615
 374  601.7014
 375  379.6805
 376  131.397
 377  507.3085
 378  552.7612
 379  264.9367
 380  293.0851
 381  806.0632
 382  826.4828
 383  396.7318
 384  -48.76425
 385  455.7142
 386  533.4276
 387  364.3964
 388  346.7623
 389  587.6784
 390  692.3997
 391  -89.46579
 392  99.26003
 393  663.7285
 394  1047.513
 395  130.2617
 396  -69.02147
 397  485.7696
 398  847.7066
 399  365.2632
 400  279.4419
 401  236.4033
 402  543.5871
 403  654.8192
 404  666.5294
 405  611.7595
 406  342.0903
 407  361.735
 408  314.6778
 409  279.2438
 410  282.0494
 411  403.3724
 412  479.2321
 413  297.2882
 414  283.9153
 415  547.3397
 416  109.3282
 417  -132.8853
 418  289.4773
 419  496.2458
 420  553.9834
 421  497.4451
 422  498.6547
 423  356.7638
 424  266.1523
 425  198.5886
 426  299.4635
 427  302.1451
 428  686.8723
 429  824.5258
 430  344.5805
 431  186.6313
 432  766.0309
 433  850.0859
 434  330.4819
 435  285.4729
 436  359.0351
 437  612.0262
 438  441.2959
 439  691.6268
 440  590.1033
 441  275.6615
 442  315.4592
 443  182.9734
 444  401.9512
 445  429.2069
 446  488.1094
 447  708.6993
 448  780.7413
 449  561.2288
 450  321.5437
 451  336.9405
 452  400.1746
 453  419.1747
 454  366.4073
 455  212.4328
 456  227.1981
 457  525.8182
 458  494.8547
 459  323.5421
 460  381.4817
 461  327.3989
 462  333.4476
 463  638.4961
 464  571.1086
 465  233.6203
 466  334.4591
 467  338.5881
 468  349.6471
 469  635.0101
 470  923.1727
 471  579.3657
 472  371.0479
 473  127.6165
 474  327.3474
 475  646.8849
 476  405.6595
 477  594.9708
 478  515.3147
 479  482.8437
 480  428.6926
 481  285.38
 482  168.9971
 483  311.6666
 484  633.6125
 485  608.1801
 486  982.2345
 487  1039.665
 488  666.3261
 489  771.0856
 490  1308.215
 491  1496.759
 492  1648.441
 493  1679.883
 494  2162.972
 495  2159.279
 496  1668.666
 497  1118.631
 498  675.8637
 499  440.5299
 500  529.2941
 501  446.2573
 502  576.2556
 503  681.7448
 504  584.2455
 505  361.0053
 506  463.3752
 507  457.7218
 508  383.6876
 509  611.2141
 510  739.511
 511  222.0429
