# Input file       =  1190612441.145066_cleaned.dat
# Candidate        =  PSR_0332+5434
# Telescope        =  AR
# Epoch_topo       =  58024.236807234563
# Epoch_bary       =  N/A
# T_sample         =  0.002
# Data Folded      =  7340032
# Data Avg         =  0.0154304418642174
# Data StdDev      =  2.6211084277947  
# Profile Bins     =  512
# Profile Avg      =  221.058256154936 
# Profile StdDev   =  313.833270732592 
# Reduced chi-sqr  =  1.622
# Prob(Noise)      <  1.73e-17   (~8.4 sigma)
# P_topo (ms)      =  714.471665966552  +/- 0.000189
# P'_topo (s/s)    =  -0                +/- 9.98e-11
# P''_topo (s/s^2) =  0                 +/- 4.4e-14
# P_bary (ms)      =  N/A
# P'_bary (s/s)    =  N/A
# P''_bary (s/s^2) =  N/A
# P_orb (s)        =  N/A
# asin(i)/c (s)    =  N/A
# eccentricity     =  N/A
# w (rad)          =  N/A
# T_peri           =  N/A
######################################################
   0  177.2025
   1  246.8562
   2  9.851907
   3  239.249
   4  323.2116
   5  391.8002
   6  318.9913
   7  36.27845
   8  259.008
   9  190.6998
  10  -157.8469
  11  254.7839
  12  65.68133
  13  70.61324
  14  6.071515
  15  99.04345
  16  407.2199
  17  222.0178
  18  220.3792
  19  235.1302
  20  -62.68343
  21  -47.27416
  22  266.2377
  23  169.3095
  24  532.0331
  25  724.1449
  26  491.2396
  27  346.2934
  28  253.7008
  29  473.0655
  30  308.1945
  31  45.75383
  32  228.7028
  33  122.5783
  34  398.0342
  35  331.027
  36  85.26339
  37  -142.9572
  38  -105.7338
  39  -11.0154
  40  466.0082
  41  501.5547
  42  66.83247
  43  -125.3341
  44  19.1442
  45  80.53809
  46  8.963374
  47  183.0652
  48  -90.59534
  49  -174.4486
  50  -72.78733
  51  53.08394
  52  447.189
  53  486.1826
  54  257.9262
  55  486.7118
  56  439.3705
  57  234.4611
  58  500.948
  59  451.451
  60  389.5489
  61  555.2203
  62  615.4676
  63  304.1119
  64  -3.237442
  65  299.3317
  66  208.4022
  67  -108.2588
  68  -108.2226
  69  293.876
  70  -90.91204
  71  -204.269
  72  289.5281
  73  569.6971
  74  360.611
  75  97.38274
  76  22.23283
  77  83.51044
  78  473.6999
  79  174.0637
  80  -50.10839
  81  145.0856
  82  -50.93004
  83  -189.6155
  84  102.04
  85  559.5881
  86  561.4577
  87  350.0685
  88  308.5915
  89  285.5638
  90  99.35743
  91  -18.78888
  92  16.50297
  93  142.1859
  94  24.0847
  95  429.3464
  96  390.4556
  97  122.1953
  98  -207.5636
  99  121.785
 100  478.8237
 101  660.6821
 102  727.4891
 103  612.8655
 104  348.264
 105  -106.478
 106  374.9958
 107  202.23
 108  108.052
 109  246.745
 110  -124.6061
 111  -349.6065
 112  -247.9713
 113  186.8495
 114  147.2009
 115  -88.79816
 116  132.96
 117  430.1248
 118  138.6163
 119  -160.6579
 120  123.4906
 121  308.5978
 122  297.4702
 123  -2.734837
 124  101.7343
 125  100.7904
 126  -20.8911
 127  103.8745
 128  204.0409
 129  129.6013
 130  -6.350319
 131  -99.4978
 132  -149.2994
 133  -63.63163
 134  318.5825
 135  -117.3292
 136  -283.413
 137  177.2833
 138  526.0358
 139  467.8939
 140  400.9081
 141  371.5708
 142  454.4536
 143  142.5593
 144  366.485
 145  333.3465
 146  51.17369
 147  94.04672
 148  141.757
 149  10.75647
 150  -165.6156
 151  393.4648
 152  496.3932
 153  266.6968
 154  275.4119
 155  410.0139
 156  470.9542
 157  101.2348
 158  273.289
 159  248.9671
 160  31.29934
 161  -128.2687
 162  127.6778
 163  540.8007
 164  142.6608
 165  440.4395
 166  47.46055
 167  306.5757
 168  -118.9438
 169  -92.3897
 170  -197.2292
 171  -125.5445
 172  190.4128
 173  164.3695
 174  223.3432
 175  123.9131
 176  66.42908
 177  -186.9753
 178  540.9047
 179  279.8344
 180  115.3539
 181  66.1771
 182  151.2721
 183  386.8403
 184  173.111
 185  132.0705
 186  245.462
 187  330.1299
 188  380.6371
 189  41.07023
 190  35.50735
 191  162.9923
 192  242.2163
 193  499.7421
 194  230.1436
 195  -79.95204
 196  -106.5845
 197  1.099981
 198  78.75056
 199  497.6019
 200  354.9874
 201  105.2284
 202  66.67395
 203  48.91684
 204  307.396
 205  623.5295
 206  322.9916
 207  366.0747
 208  124.4346
 209  190.6368
 210  384.1441
 211  262.7405
 212  360.461
 213  125.4785
 214  112.4899
 215  27.14072
 216  21.99921
 217  -44.82185
 218  -117.1577
 219  -170.3509
 220  -170.1324
 221  131.2955
 222  453.431
 223  142.0022
 224  -127.8345
 225  156.5768
 226  373.686
 227  238.9374
 228  199.2927
 229  271.168
 230  344.1979
 231  410.8344
 232  364.6037
 233  150.1068
 234  -266.9988
 235  -186.1786
 236  -65.70428
 237  -52.42054
 238  -19.16025
 239  71.12199
 240  -233.6613
 241  -261.1499
 242  37.35151
 243  195.1864
 244  120.5507
 245  54.40586
 246  221.587
 247  109.0785
 248  -269.7635
 249  -484.8918
 250  -268.9507
 251  -10.76991
 252  414.3243
 253  242.5339
 254  4.897065
 255  -214.1162
 256  -422.464
 257  67.43532
 258  624.2231
 259  554.5922
 260  436.9785
 261  600.717
 262  551.636
 263  322.6766
 264  220.7077
 265  415.1176
 266  331.6216
 267  168.1452
 268  36.03568
 269  18.82023
 270  72.01183
 271  406.0238
 272  606.9439
 273  548.2156
 274  77.9512
 275  99.3402
 276  216.4008
 277  408.4554
 278  467.4841
 279  794.6533
 280  213.9664
 281  -94.46196
 282  65.01276
 283  358.3309
 284  408.4849
 285  294.4257
 286  48.32779
 287  204.977
 288  -63.04201
 289  222.3379
 290  92.04555
 291  -51.84182
 292  -347.1699
 293  14.18423
 294  582.5327
 295  283.4874
 296  -31.75991
 297  17.45446
 298  -137.3074
 299  -312.2897
 300  -72.04719
 301  313.8384
 302  364.8917
 303  -168.0846
 304  -259.5581
 305  222.5381
 306  637.983
 307  371.1048
 308  500.1152
 309  516.5207
 310  139.7024
 311  260.8442
 312  408.4032
 313  504.1268
 314  404.541
 315  250.1477
 316  917.4727
 317  830.1913
 318  1428.128
 319  1827.132
 320  2132.505
 321  2173.893
 322  1654.938
 323  1274.916
 324  599.1612
 325  153.5955
 326  -120.1938
 327  -66.61631
 328  -58.75969
 329  249.3906
 330  323.7073
 331  810.8366
 332  525.9992
 333  497.5089
 334  411.0079
 335  754.4413
 336  531.6556
 337  -79.59354
 338  44.71097
 339  119.4392
 340  69.45814
 341  97.89788
 342  129.4734
 343  307.6482
 344  337.7856
 345  291.5399
 346  418.778
 347  446.9573
 348  67.30238
 349  264.1146
 350  637.822
 351  467.9837
 352  129.9375
 353  436.6708
 354  434.6668
 355  318.6091
 356  251.3044
 357  527.0991
 358  671.136
 359  494.2625
 360  431.9843
 361  72.10651
 362  105.0145
 363  193.8325
 364  281.8755
 365  98.59043
 366  137.9823
 367  170.8936
 368  217.1007
 369  312.1766
 370  396.0992
 371  426.0122
 372  364.1133
 373  543.5181
 374  450.0739
 375  315.3233
 376  174.5668
 377  267.064
 378  150.8993
 379  288.1606
 380  402.43
 381  559.3072
 382  100.3085
 383  155.0166
 384  106.6834
 385  275.0901
 386  -11.24552
 387  -43.81078
 388  62.44484
 389  272.9119
 390  556.3285
 391  376.7907
 392  271.9789
 393  -17.49943
 394  -57.18446
 395  177.387
 396  139.4813
 397  -164.3152
 398  261.0479
 399  551.8164
 400  264.0132
 401  171.6641
 402  308.8117
 403  288.7303
 404  210.5694
 405  37.46365
 406  -47.47709
 407  156.1995
 408  327.0417
 409  -25.12585
 410  -81.63
 411  58.40789
 412  431.4973
 413  252.2868
 414  94.11691
 415  74.16473
 416  -139.8621
 417  28.03947
 418  13.25433
 419  -161.3692
 420  -262.1305
 421  208.6153
 422  371.4311
 423  238.7377
 424  274.2289
 425  556.7227
 426  937.7567
 427  571.5532
 428  235.3136
 429  216.4269
 430  299.3563
 431  531.1968
 432  64.63502
 433  98.17872
 434  452.4274
 435  375.1941
 436  97.90958
 437  176.6342
 438  -35.3418
 439  215.0387
 440  453.7796
 441  515.6357
 442  323.9732
 443  281.9899
 444  428.037
 445  146.6741
 446  617.7253
 447  617.4816
 448  445.6302
 449  227.1182
 450  132.0933
 451  591.5169
 452  499.72
 453  -101.05
 454  304.6482
 455  674.4046
 456  651.5493
 457  130.7886
 458  -56.3516
 459  -9.515818
 460  68.36078
 461  113.2695
 462  206.922
 463  225.471
 464  122.9425
 465  474.034
 466  300.1179
 467  2.84382
 468  -46.291
 469  19.29943
 470  257.5732
 471  163.8673
 472  298.8542
 473  287.5038
 474  28.74283
 475  -50.65964
 476  -169.7003
 477  36.47942
 478  353.4079
 479  108.9418
 480  160.9213
 481  -183.1459
 482  -219.5663
 483  159.9074
 484  108.4638
 485  141.5287
 486  334.2418
 487  503.8522
 488  454.1205
 489  -13.967
 490  16.86286
 491  163.3056
 492  -48.65234
 493  420.3072
 494  641.5045
 495  612.6583
 496  544.7887
 497  166.5865
 498  472.5421
 499  130.5943
 500  -24.53711
 501  129.8885
 502  139.521
 503  -124.7488
 504  70.74583
 505  422.0315
 506  108.9748
 507  136.8016
 508  619.1543
 509  558.7382
 510  46.51788
 511  -11.62691
