# Input file       =  1190612441.145066_cleaned.dat
# Candidate        =  PSR_0332+5434
# Telescope        =  AR
# Epoch_topo       =  58024.236807234563
# Epoch_bary       =  N/A
# T_sample         =  0.002
# Data Folded      =  7340032
# Data Avg         =  0.00572439857757228
# Data StdDev      =  1.00001252845649 
# Profile Bins     =  512
# Profile Avg      =  81.9930250136447 
# Profile StdDev   =  119.734536446902 
# Reduced chi-sqr  =  1.767
# Prob(Noise)      <  3.64e-24   (~10.1 sigma)
# P_topo (ms)      =  714.471665950646  +/- 0.000201
# P'_topo (s/s)    =  -0                +/- 1.06e-10
# P''_topo (s/s^2) =  0                 +/- 4.68e-14
# P_bary (ms)      =  N/A
# P'_bary (s/s)    =  N/A
# P''_bary (s/s^2) =  N/A
# P_orb (s)        =  N/A
# asin(i)/c (s)    =  N/A
# eccentricity     =  N/A
# w (rad)          =  N/A
# T_peri           =  N/A
######################################################
   0  176.5346
   1  236.4986
   2  214.0909
   3  84.74637
   4  65.66777
   5  132.6393
   6  36.47366
   7  -35.01384
   8  14.55934
   9  111.8641
  10  -134.6436
  11  -87.15376
  12  116.5114
  13  176.6649
  14  81.33171
  15  7.860081
  16  -30.39262
  17  24.1277
  18  163.7487
  19  -21.62906
  20  3.433585
  21  29.56596
  22  -42.02717
  23  -74.02534
  24  97.589
  25  210.147
  26  175.354
  27  118.8616
  28  140.8787
  29  93.04146
  30  68.97839
  31  5.869228
  32  -1.286873
  33  -2.879895
  34  27.29638
  35  175.2099
  36  140.055
  37  -23.67245
  38  -80.73029
  39  113.4261
  40  199.8521
  41  233.7326
  42  254.6572
  43  227.8768
  44  68.108
  45  6.525445
  46  116.053
  47  13.7828
  48  -11.9009
  49  29.39657
  50  -130.9035
  51  -146.5703
  52  -41.0703
  53  45.47947
  54  28.64091
  55  -93.61812
  56  52.33834
  57  104.2525
  58  -40.85428
  59  -42.45218
  60  54.6759
  61  122.3258
  62  52.51779
  63  -24.70496
  64  61.44403
  65  13.02467
  66  -4.331697
  67  49.62278
  68  66.89787
  69  4.538687
  70  -13.10241
  71  -38.53202
  72  -12.56107
  73  48.18262
  74  83.00281
  75  -121.7266
  76  -79.65799
  77  146.2292
  78  197.7737
  79  238.5833
  80  94.16873
  81  163.7377
  82  128.5186
  83  67.8173
  84  174.7784
  85  72.30656
  86  -2.918873
  87  44.35463
  88  50.22185
  89  -24.24225
  90  8.093588
  91  197.9358
  92  154.5521
  93  94.40746
  94  141.4941
  95  180.2106
  96  146.2129
  97  34.22106
  98  141.4594
  99  49.46833
 100  -7.889114
 101  -89.36013
 102  167.8713
 103  169.0782
 104  99.6587
 105  111.1341
 106  49.93071
 107  89.23611
 108  -55.161
 109  -62.25194
 110  -78.73594
 111  -12.7816
 112  90.26576
 113  44.48671
 114  60.03207
 115  38.10629
 116  -55.10394
 117  5.873683
 118  245.9186
 119  70.60583
 120  27.30417
 121  1.23486
 122  70.37805
 123  95.52296
 124  56.67865
 125  125.4324
 126  129.5298
 127  175.2193
 128  79.68428
 129  -19.12028
 130  65.66794
 131  67.54222
 132  115.8241
 133  207.7807
 134  77.18818
 135  -28.10238
 136  -31.73166
 137  -30.22736
 138  119.0153
 139  199.8718
 140  104.2835
 141  31.00492
 142  20.73638
 143  16.31181
 144  198.5637
 145  194.442
 146  126.2364
 147  135.9982
 148  13.8987
 149  111.744
 150  144.6766
 151  153.5068
 152  110.9561
 153  60.01815
 154  51.98073
 155  -25.9429
 156  15.73084
 157  -2.577957
 158  -6.610951
 159  -76.11473
 160  -38.11926
 161  107.0134
 162  163.2932
 163  9.596976
 164  -43.33474
 165  89.24158
 166  168.169
 167  70.27828
 168  88.87241
 169  88.14909
 170  122.582
 171  130.1936
 172  104.1755
 173  -36.44237
 174  -130.117
 175  -60.80943
 176  -11.46131
 177  -2.066536
 178  24.62232
 179  32.83384
 180  -123.8703
 181  -71.89086
 182  18.92938
 183  59.56325
 184  14.24263
 185  -1.805897
 186  65.14296
 187  -21.76772
 188  -189.5513
 189  -192.7192
 190  -86.6245
 191  27.95678
 192  144.4614
 193  35.45864
 194  -8.325307
 195  -109.0087
 196  -125.9695
 197  91.39642
 198  211.5069
 199  146.0739
 200  216.8992
 201  232.9259
 202  172.4002
 203  76.29859
 204  127.2354
 205  196.1096
 206  95.64471
 207  44.17607
 208  29.00829
 209  40.24123
 210  78.33178
 211  190.9769
 212  259.3831
 213  138.2901
 214  21.61212
 215  42.33952
 216  149.1684
 217  108.0992
 218  247.9442
 219  200.5154
 220  17.01876
 221  -25.54523
 222  73.62805
 223  136.9727
 224  148.3786
 225  34.9249
 226  58.28923
 227  31.40334
 228  -16.46522
 229  45.7349
 230  11.31877
 231  -17.52584
 232  -107.2766
 233  89.76761
 234  221.8362
 235  52.7423
 236  14.31912
 237  23.98038
 238  -87.2527
 239  -136.2174
 240  2.327377
 241  172.2728
 242  79.19191
 243  -73.21164
 244  -32.74493
 245  221.9263
 246  183.0224
 247  131.6349
 248  226.5043
 249  169.3206
 250  32.39996
 251  205.1898
 252  158.8584
 253  223.6732
 254  137.6474
 255  236.9681
 256  370.1313
 257  356.9065
 258  658.3817
 259  777.8433
 260  929.4399
 261  870.1677
 262  613.4861
 263  415.3211
 264  171.6098
 265  31.71877
 266  -12.56508
 267  -13.3949
 268  0.220432
 269  98.7692
 270  243.7593
 271  297.5277
 272  196.8915
 273  190.1651
 274  239.8686
 275  287.5371
 276  127.5322
 277  -48.06011
 278  34.22116
 279  12.94067
 280  57.22337
 281  59.44116
 282  104.8898
 283  144.4577
 284  98.80965
 285  103.1601
 286  136.2339
 287  153.7628
 288  45.8121
 289  195.847
 290  267.3226
 291  162.1224
 292  105.3243
 293  200.3165
 294  137.8848
 295  105.0768
 296  104.4094
 297  266.6611
 298  239.0623
 299  180.3757
 300  109.2734
 301  27.03683
 302  69.51376
 303  79.94866
 304  91.81146
 305  -4.242963
 306  33.77163
 307  29.25773
 308  127.3704
 309  107.3545
 310  154.0017
 311  114.5089
 312  145.3437
 313  182.7294
 314  125.7742
 315  71.9747
 316  87.62911
 317  101.3378
 318  50.90939
 319  103.7301
 320  143.9656
 321  162.4372
 322  29.17781
 323  80.94272
 324  120.3151
 325  96.02737
 326  -21.03791
 327  -13.29393
 328  57.96993
 329  155.0461
 330  185.288
 331  124.7321
 332  64.59666
 333  -57.12589
 334  27.30857
 335  52.51723
 336  31.76739
 337  -49.92615
 338  192.9264
 339  192.6316
 340  123.6752
 341  66.50833
 342  125.665
 343  76.46738
 344  98.87041
 345  -12.77101
 346  -23.03021
 347  93.10775
 348  99.60567
 349  -31.10913
 350  -84.0051
 351  71.34171
 352  120.1964
 353  102.7345
 354  -8.262432
 355  -0.5586739
 356  -38.22884
 357  46.8005
 358  -21.19926
 359  -72.77419
 360  -46.6747
 361  83.64016
 362  103.9937
 363  93.80586
 364  140.9548
 365  318.6114
 366  306.2664
 367  140.3605
 368  95.42263
 369  27.80697
 370  103.7605
 371  143.9162
 372  -23.8573
 373  51.61578
 374  176.2226
 375  77.47809
 376  54.18858
 377  35.35632
 378  6.391971
 379  103.5685
 380  158.2048
 381  176.9962
 382  74.28087
 383  158.0038
 384  111.9398
 385  104.5694
 386  249.6055
 387  234.1794
 388  146.8757
 389  70.41154
 390  84.02639
 391  253.9834
 392  92.29169
 393  -2.211365
 394  165.0473
 395  214.8885
 396  175.666
 397  11.90848
 398  2.668828
 399  0.9760536
 400  61.19964
 401  45.18036
 402  140.4932
 403  32.30653
 404  70.84551
 405  161.5572
 406  42.9025
 407  -13.76688
 408  -26.16069
 409  57.95505
 410  128.0052
 411  75.69956
 412  156.0104
 413  50.22216
 414  14.42872
 415  -58.40782
 416  -39.79009
 417  46.82632
 418  103.1207
 419  26.28809
 420  65.47744
 421  -103.1889
 422  -51.25927
 423  79.27534
 424  3.142338
 425  77.3699
 426  132.7187
 427  182.2499
 428  110.5265
 429  -50.23337
 430  59.50735
 431  12.06939
 432  -21.78638
 433  174.3099
 434  262.2366
 435  241.3722
 436  161.8924
 437  60.46323
 438  151.8467
 439  -11.02762
 440  -23.35216
 441  71.93165
 442  37.00348
 443  -45.07233
 444  69.08228
 445  153.9481
 446  -24.24117
 447  106.4348
 448  210.0705
 449  129.4034
 450  24.2592
 451  50.59783
 452  120.3864
 453  86.64378
 454  22.54658
 455  115.8855
 456  59.29469
 457  178.4413
 458  53.71107
 459  21.40213
 460  125.3197
 461  15.84223
 462  24.79122
 463  88.47545
 464  -0.3030894
 465  7.280779
 466  6.51691
 467  61.64277
 468  181.3393
 469  32.1814
 470  93.13371
 471  12.09607
 472  -75.65013
 473  -6.025509
 474  78.30144
 475  50.73654
 476  239.7323
 477  220.608
 478  161.6623
 479  100.6682
 480  144.0736
 481  178.6733
 482  59.67285
 483  22.80567
 484  68.55461
 485  63.99583
 486  180.2466
 487  110.6157
 488  7.288574
 489  -97.7868
 490  -60.63426
 491  18.73536
 492  257.8913
 493  130.9035
 494  12.90616
 495  -32.81181
 496  47.25638
 497  19.27706
 498  14.33288
 499  9.005676
 500  -64.16586
 501  -66.87785
 502  -6.401266
 503  78.08514
 504  197.9837
 505  145.0565
 506  108.9688
 507  177.9761
 508  96.11836
 509  116.8343
 510  154.4902
 511  143.8368
