# Input file       =  1190777738.109756-PSRB0329-2ms-sampling-dd.dat
# Candidate        =  PSR_0332+5434
# Telescope        =  AR
# Epoch_topo       =  58026.149966548102
# Epoch_bary       =  N/A
# T_sample         =  0.002
# Data Folded      =  7340032
# Data Avg         =  -1.55434297149795e-10
# Data StdDev      =  6.32643232011396 
# Profile Bins     =  512
# Profile Avg      =  0.045649532320868
# Profile StdDev   =  757.482951119353 
# Reduced chi-sqr  =  0.594
# Prob(Noise)      <  1   (~0.0 sigma)
# P_topo (ms)      =  714.472486353979  +/- 0.000125
# P'_topo (s/s)    =  -0                +/- 6.6e-11
# P''_topo (s/s^2) =  0                 +/- 2.92e-14
# P_bary (ms)      =  N/A
# P'_bary (s/s)    =  N/A
# P''_bary (s/s^2) =  N/A
# P_orb (s)        =  N/A
# asin(i)/c (s)    =  N/A
# eccentricity     =  N/A
# w (rad)          =  N/A
# T_peri           =  N/A
######################################################
   0  -221.8441
   1  7.996078
   2  -137.5237
   3  -70.20895
   4  -176.3823
   5  -306.3735
   6  -1273.322
   7  -852.0021
   8  -668.4819
   9  -511.7775
  10  219.4128
  11  450.1572
  12  156.481
  13  30.21324
  14  -178.3893
  15  -334.0308
  16  -169.4248
  17  -579.4797
  18  -673.6082
  19  -160.5281
  20  -49.00225
  21  74.71302
  22  28.2333
  23  -320.9191
  24  -818.0649
  25  -879.7899
  26  -814.4858
  27  -369.0121
  28  -337.9212
  29  -416.6058
  30  -137.858
  31  -414.2698
  32  -421.8976
  33  -430.252
  34  -147.5676
  35  -178.359
  36  675.7263
  37  867.7394
  38  1071.366
  39  1243.569
  40  1323.616
  41  1461.477
  42  791.2482
  43  242.5659
  44  -45.02836
  45  -190.5972
  46  -275.3083
  47  -164.9842
  48  -156.0473
  49  -43.79493
  50  34.15592
  51  -283.6302
  52  -700.0064
  53  -46.89115
  54  285.7122
  55  111.1781
  56  418.7262
  57  210.6608
  58  -165.0632
  59  -4.572001
  60  268.1159
  61  341.2831
  62  211.632
  63  443.8333
  64  177.6022
  65  -364.2655
  66  -121.8937
  67  -270.4117
  68  -198.3056
  69  350.1123
  70  431.0396
  71  205.2034
  72  -135.0896
  73  -240.8877
  74  -596.8289
  75  -170.4606
  76  193.8339
  77  249.5116
  78  205.6241
  79  287.6454
  80  98.20158
  81  11.38938
  82  135.2091
  83  178.6898
  84  -93.73624
  85  50.18536
  86  -154.9033
  87  -606.1235
  88  -565.8004
  89  -399.3513
  90  95.87495
  91  -260.7094
  92  -70.58199
  93  187.7543
  94  10.07257
  95  441.7675
  96  517.6042
  97  164.9156
  98  155.7902
  99  -483.1785
 100  -369.1222
 101  -361.349
 102  -398.4668
 103  -194.9407
 104  -267.8077
 105  -254.2337
 106  -737.2408
 107  -654.174
 108  -412.9582
 109  -144.5735
 110  -64.2141
 111  219.3552
 112  842.042
 113  387.6631
 114  -333.3242
 115  -674.8915
 116  -354.0035
 117  -556.6219
 118  -892.1035
 119  -299.1248
 120  -468.4986
 121  -724.2905
 122  -451.363
 123  -297.3597
 124  -318.6714
 125  -423.9838
 126  -306.3255
 127  -567.973
 128  -345.2906
 129  -62.42227
 130  222.6519
 131  -11.00677
 132  -455.3346
 133  -204.82
 134  400.8832
 135  43.26194
 136  329.8343
 137  1000.921
 138  1198.467
 139  665.716
 140  52.71137
 141  479.6072
 142  -14.32954
 143  714.0107
 144  1327.688
 145  1545.151
 146  1448.263
 147  720.6881
 148  142.0842
 149  -217.0882
 150  -864.2574
 151  -575.1948
 152  -135.1513
 153  -114.9017
 154  328.0874
 155  -263.1475
 156  -531.5124
 157  -440.9181
 158  -554.4521
 159  -327.7121
 160  -549.563
 161  -275.1278
 162  466.9203
 163  515.9534
 164  294.4272
 165  -214.5453
 166  -121.3108
 167  -355.0249
 168  -216.285
 169  351.607
 170  165.7947
 171  -6.885199
 172  -450.9383
 173  -217.2448
 174  -116.2984
 175  -218.4029
 176  -202.1711
 177  329.5215
 178  699.778
 179  697.9218
 180  -142.0771
 181  -506.1506
 182  -533.2902
 183  -431.5954
 184  200.6981
 185  7.592234
 186  -471.7136
 187  -186.8845
 188  -169.7723
 189  -177.3276
 190  -959.177
 191  -861.165
 192  -259.0027
 193  262.967
 194  176.5218
 195  591.2712
 196  528.869
 197  220.6126
 198  145.8105
 199  -435.7989
 200  -98.78152
 201  -27.47902
 202  -90.08328
 203  -81.90276
 204  -3.239703
 205  105.1967
 206  -390.8463
 207  -371.3124
 208  -157.1378
 209  -641.5332
 210  -397.933
 211  -64.60674
 212  -249.6789
 213  -300.2455
 214  -720.9744
 215  -704.2933
 216  -664.9715
 217  -319.9692
 218  -292.5775
 219  53.55436
 220  58.84026
 221  -425.2915
 222  -538.3521
 223  -289.5745
 224  -322.7204
 225  -716.2852
 226  -420.1429
 227  -411.5632
 228  -87.92141
 229  -249.2733
 230  -224.1376
 231  -108.251
 232  8.525232
 233  -21.62992
 234  121.4347
 235  402.9262
 236  24.20221
 237  451.7116
 238  741.8562
 239  486.0301
 240  100.4946
 241  -329.3973
 242  113.4803
 243  33.01621
 244  233.5821
 245  354.2612
 246  -179.4134
 247  79.92936
 248  -361.3697
 249  -335.4104
 250  -345.1123
 251  119.9696
 252  180.1339
 253  -111.233
 254  -56.11594
 255  -103.6625
 256  -163.919
 257  -351.4466
 258  -110.1012
 259  280.5328
 260  474.9735
 261  1022.271
 262  742.1902
 263  542.4132
 264  453.0534
 265  383.6901
 266  233.0131
 267  -28.54156
 268  560.576
 269  549.5259
 270  558.2172
 271  441.4048
 272  128.1748
 273  266.9039
 274  61.19188
 275  30.56917
 276  80.2124
 277  267.3571
 278  249.6276
 279  232.7945
 280  365.1058
 281  102.5135
 282  398.7325
 283  533.3152
 284  245.1309
 285  9.058089
 286  248.4162
 287  470.8759
 288  595.4797
 289  535.6796
 290  482.0668
 291  524.0234
 292  867.0469
 293  474.277
 294  859.4625
 295  764.6255
 296  263.9819
 297  561.3836
 298  812.3977
 299  651.939
 300  378.1252
 301  228.5836
 302  73.96125
 303  199.0667
 304  -82.10698
 305  194.5138
 306  233.2475
 307  96.85077
 308  24.2934
 309  411.3701
 310  333.0569
 311  90.57862
 312  -390.24
 313  -674.043
 314  -671.5758
 315  -651.1197
 316  -103.3204
 317  -165.3309
 318  73.09849
 319  291.4778
 320  -563.8554
 321  -562.854
 322  -294.6266
 323  354.3622
 324  865.0147
 325  733.096
 326  663.9659
 327  -90.53111
 328  -179.8761
 329  45.65802
 330  143.7544
 331  219.9826
 332  -14.7662
 333  -292.1955
 334  90.26408
 335  2.072788
 336  -126.1366
 337  239.5468
 338  252.836
 339  -475.03
 340  -347.9487
 341  -603.2115
 342  -594.3441
 343  -310.3421
 344  -367.9545
 345  445.0289
 346  221.8701
 347  54.62189
 348  -66.79326
 349  -331.569
 350  -18.92483
 351  260.2104
 352  499.7198
 353  590.6004
 354  396.0054
 355  -501.5542
 356  -674.4574
 357  -450.1726
 358  545.5286
 359  699.054
 360  236.8716
 361  208.4784
 362  170.7869
 363  267.0151
 364  580.2786
 365  501.3352
 366  684.9499
 367  306.3629
 368  35.29125
 369  -433.1306
 370  -337.1158
 371  -431.2654
 372  8.234262
 373  -109.3601
 374  -316.648
 375  -267.3482
 376  -59.53185
 377  -230.816
 378  -426.9297
 379  -228.6721
 380  274.2342
 381  217.7338
 382  -497.9045
 383  -51.78657
 384  -363.7935
 385  -453.7048
 386  126.4277
 387  172.2331
 388  399.2972
 389  -136.7907
 390  -87.15383
 391  -5.807437
 392  -53.19254
 393  262.2547
 394  425.7918
 395  453.0219
 396  419.3416
 397  334.3181
 398  -137.9478
 399  -210.8865
 400  157.6109
 401  -56.7508
 402  175.7944
 403  -301.3019
 404  -316.9996
 405  -57.99898
 406  -434.0208
 407  -341.8045
 408  -79.22578
 409  204.5066
 410  -246.7942
 411  -337.6704
 412  -309.1783
 413  179.9463
 414  -168.3323
 415  -356.393
 416  185.6141
 417  755.1928
 418  494.3495
 419  168.2326
 420  395.3156
 421  668.3047
 422  517.243
 423  252.0203
 424  432.5145
 425  333.5111
 426  291.826
 427  292.4484
 428  284.3205
 429  68.2118
 430  46.15268
 431  758.723
 432  685.9845
 433  609.9655
 434  628.2883
 435  477.1892
 436  104.1335
 437  640.5291
 438  584.3309
 439  189.258
 440  -36.87947
 441  -221.7506
 442  -329.3575
 443  -22.17652
 444  -251.1067
 445  212.5512
 446  682.3441
 447  -40.7931
 448  -377.1139
 449  -817.5186
 450  -51.57045
 451  284.669
 452  340.5172
 453  100.1602
 454  -227.1102
 455  -153.9576
 456  -396.6228
 457  -648.7186
 458  -399.1013
 459  55.61203
 460  -391.3777
 461  -795.7763
 462  -319.7344
 463  -226.4173
 464  -109.2919
 465  63.57793
 466  236.2393
 467  233.1645
 468  -243.7621
 469  -298.1693
 470  -294.1076
 471  -216.1788
 472  -139.0853
 473  745.0423
 474  582.5222
 475  301.6839
 476  -65.50009
 477  -252.6464
 478  -1077.012
 479  -928.1005
 480  -81.08134
 481  534.6201
 482  525.1346
 483  56.94157
 484  -180.1623
 485  -315.2275
 486  -542.8011
 487  -434.1473
 488  -398.99
 489  -164.091
 490  -51.94901
 491  -175.6884
 492  153.291
 493  -103.7514
 494  129.9913
 495  76.75234
 496  150.8537
 497  -140.4685
 498  -495.2032
 499  -85.60136
 500  -57.37821
 501  25.71984
 502  208.5825
 503  38.39317
 504  -274.7858
 505  -276.2231
 506  -162.453
 507  -53.29297
 508  -258.6943
 509  -143.6522
 510  -195.5305
 511  -346.306
