# Input file       =  1190920557.109346_cleaned.dat
# Candidate        =  PSR_0332+5434
# Telescope        =  AR
# Epoch_topo       =  58027.802964228540
# Epoch_bary       =  N/A
# T_sample         =  0.002
# Data Folded      =  7143424
# Data Avg         =  0.0220768573940137
# Data StdDev      =  1.00005260078624 
# Profile Bins     =  512
# Profile Avg      =  307.97830342768  
# Profile StdDev   =  118.12479761228  
# Reduced chi-sqr  =  1.504
# Prob(Noise)      <  1.12e-12   (~7.0 sigma)
# P_topo (ms)      =  714.473034435631  +/- 0.000186
# P'_topo (s/s)    =  -0                +/- 1.01e-10
# P''_topo (s/s^2) =  0                 +/- 4.59e-14
# P_bary (ms)      =  N/A
# P'_bary (s/s)    =  N/A
# P''_bary (s/s^2) =  N/A
# P_orb (s)        =  N/A
# asin(i)/c (s)    =  N/A
# eccentricity     =  N/A
# w (rad)          =  N/A
# T_peri           =  N/A
######################################################
   0  1079.504
   1  1014.32
   2  706.2607
   3  423.3901
   4  235.9998
   5  233.019
   6  289.7421
   7  341.8182
   8  252.334
   9  290.2223
  10  269.164
  11  420.5227
  12  403.3473
  13  396.0036
  14  364.7797
  15  423.4455
  16  406.3543
  17  408.4167
  18  418.7672
  19  257.0496
  20  261.0125
  21  313.4726
  22  383.8265
  23  305.6574
  24  256.5448
  25  317.8618
  26  392.8472
  27  389.6631
  28  351.5486
  29  349.6725
  30  378.4376
  31  190.1831
  32  395.9705
  33  500.2188
  34  269.8644
  35  191.5634
  36  317.4114
  37  316.0577
  38  284.028
  39  285.0312
  40  281.1777
  41  300.1083
  42  413.4655
  43  389.6651
  44  270.958
  45  306.8213
  46  322.0199
  47  351.1483
  48  342.6023
  49  372.5383
  50  470.0736
  51  338.329
  52  231.108
  53  229.838
  54  289.393
  55  205.0542
  56  273.5521
  57  389.5667
  58  279.6871
  59  265.6787
  60  256.9436
  61  266.2545
  62  283.7235
  63  322.031
  64  279.2849
  65  295.2861
  66  164.8957
  67  63.67456
  68  360.5203
  69  505.0978
  70  429.0409
  71  271.865
  72  258.6266
  73  223.69
  74  260.2585
  75  228.7671
  76  300.1219
  77  285.4269
  78  338.027
  79  315.918
  80  237.0306
  81  216.5595
  82  208.0184
  83  189.8106
  84  234.473
  85  348.6456
  86  394.1393
  87  353.4771
  88  252.7668
  89  204.4411
  90  126.4123
  91  146.0574
  92  250.968
  93  370.2614
  94  395.1794
  95  399.4662
  96  250.8413
  97  160.8785
  98  270.4139
  99  274.3619
 100  252.0787
 101  355.386
 102  283.41
 103  165.0658
 104  247.8589
 105  269.9468
 106  319.6591
 107  219.6035
 108  230.0633
 109  222.8318
 110  264.5497
 111  311.8838
 112  212.5285
 113  196.4198
 114  249.7845
 115  250.1968
 116  227.6795
 117  251.487
 118  295.9494
 119  235.6543
 120  200.2428
 121  315.0554
 122  531.4937
 123  449.9163
 124  261.0055
 125  150.6568
 126  238.3348
 127  333.511
 128  344.5685
 129  288.7057
 130  279.1893
 131  189.8323
 132  174.9048
 133  228.5763
 134  133.8751
 135  175.0172
 136  176.3889
 137  342.6446
 138  297.0022
 139  297.5177
 140  357.4777
 141  418.4211
 142  186.5737
 143  170.0677
 144  270.0652
 145  292.5442
 146  219.8325
 147  349.7185
 148  338.3505
 149  431.2158
 150  360.373
 151  165.0806
 152  280.4771
 153  308.3988
 154  245.4339
 155  272.6397
 156  192.414
 157  287.6003
 158  273.0583
 159  386.5748
 160  310.6985
 161  308.5492
 162  417.672
 163  236.8781
 164  130.1526
 165  141.6362
 166  326.2599
 167  400.3987
 168  330.7786
 169  335.9669
 170  283.3729
 171  335.6477
 172  461.0871
 173  369.2182
 174  340.0488
 175  241.0475
 176  248.5314
 177  142.6533
 178  220.0147
 179  251.8583
 180  373.4918
 181  464.0774
 182  451.3303
 183  261.4246
 184  248.664
 185  208.7756
 186  278.5802
 187  385.2576
 188  361.2937
 189  338.1565
 190  232.8541
 191  228.4768
 192  322.1654
 193  255.0211
 194  203.2335
 195  248.57
 196  339.8625
 197  353.527
 198  256.9715
 199  175.6626
 200  300.8677
 201  418.0487
 202  281.9366
 203  253.2977
 204  288.6346
 205  223.3417
 206  213.0123
 207  198.2519
 208  201.7094
 209  312.3323
 210  181.1546
 211  294.8074
 212  173.6238
 213  261.8153
 214  441.8677
 215  392.4883
 216  341.1028
 217  351.4667
 218  262.8348
 219  243.9852
 220  221.4209
 221  341.3192
 222  337.9529
 223  369.2255
 224  377.6866
 225  256.3987
 226  352.2462
 227  236.0098
 228  392.3781
 229  364.8681
 230  336.7936
 231  319.5851
 232  227.3593
 233  250.9488
 234  255.7391
 235  459.2155
 236  517.9589
 237  413.2933
 238  292.9072
 239  282.3011
 240  245.6934
 241  283.6829
 242  367.1289
 243  422.8696
 244  281.2554
 245  373.2482
 246  356.3117
 247  393.2122
 248  416.1695
 249  347.0751
 250  358.5406
 251  393.546
 252  380.7939
 253  288.6453
 254  343.9689
 255  432.6941
 256  271.3982
 257  148.5303
 258  264.2184
 259  278.1635
 260  246.6783
 261  280.4424
 262  393.7578
 263  458.5506
 264  328.0763
 265  356.0975
 266  329.8613
 267  307.6153
 268  151.7734
 269  227.1961
 270  256.6948
 271  265.0303
 272  262.6181
 273  322.556
 274  218.0374
 275  139.0222
 276  234.5543
 277  214.9549
 278  276.6962
 279  221.9976
 280  176.2528
 281  261.8984
 282  325.1194
 283  229.747
 284  381.0844
 285  254.9723
 286  257.1822
 287  266.4377
 288  369.1736
 289  209.0085
 290  173.7304
 291  263.9085
 292  442.9767
 293  410.6879
 294  309.0887
 295  261.6988
 296  307.202
 297  252.3624
 298  376.0303
 299  386.4928
 300  351.2536
 301  364.5116
 302  411.5546
 303  323.0978
 304  304.9489
 305  292.5019
 306  342.677
 307  325.0696
 308  372.9729
 309  224.551
 310  102.3528
 311  213.2113
 312  206.4018
 313  277.1441
 314  313.2567
 315  311.435
 316  287.0011
 317  362.3265
 318  274.1096
 319  228.4366
 320  381.2141
 321  417.7207
 322  339.8402
 323  291.0612
 324  387.465
 325  468.1726
 326  393.8736
 327  453.3349
 328  401.303
 329  290.9326
 330  389.4546
 331  399.0657
 332  219.6069
 333  139.4565
 334  243.6549
 335  323.1212
 336  324.4785
 337  204.2051
 338  320.6543
 339  377.9125
 340  380.9386
 341  277.0829
 342  193.6738
 343  220.0945
 344  220.0081
 345  313.1751
 346  276.5122
 347  240.8472
 348  242.1518
 349  347.821
 350  259.6703
 351  383.4631
 352  253.0068
 353  278.6035
 354  331.273
 355  162.6338
 356  217.9041
 357  271.018
 358  387.1965
 359  393.1944
 360  147.3654
 361  179.977
 362  247.1167
 363  335.4889
 364  270.5699
 365  295.4529
 366  360.5915
 367  357.9925
 368  298.3615
 369  237.4205
 370  259.7132
 371  374.324
 372  397.1761
 373  389.8761
 374  388.0946
 375  306.0765
 376  387.3255
 377  149.9531
 378  98.44419
 379  213.7684
 380  190.55
 381  249.0952
 382  392.7131
 383  433.8354
 384  371.2941
 385  230.1619
 386  260.7998
 387  252.7957
 388  330.709
 389  379.5303
 390  373.3565
 391  289.178
 392  343.7354
 393  373.6406
 394  342.1251
 395  303.3846
 396  364.2548
 397  350.233
 398  210.5565
 399  202.5813
 400  190.963
 401  339.5963
 402  438.1096
 403  436.6888
 404  305.9948
 405  287.3476
 406  295.5526
 407  270.6298
 408  242.2954
 409  410.0712
 410  400.9676
 411  302.1143
 412  347.4263
 413  466.6308
 414  272.3386
 415  276.5361
 416  262.9607
 417  426.9347
 418  289.2451
 419  316.3015
 420  333.2217
 421  293.5444
 422  247.3143
 423  321.8081
 424  401.1463
 425  322.3036
 426  195.5745
 427  346.5445
 428  369.9094
 429  407.1578
 430  303.5381
 431  306.458
 432  181.1989
 433  243.1228
 434  190.8356
 435  219.7294
 436  237.6896
 437  258.5801
 438  371.8191
 439  356.8267
 440  425.6131
 441  488.5401
 442  425.8832
 443  360.8315
 444  256.2084
 445  194.8224
 446  190.0572
 447  229.7912
 448  250.9536
 449  249.5679
 450  169.1681
 451  223.7671
 452  419.2492
 453  224.6813
 454  187.0241
 455  343.4206
 456  365.2628
 457  342.9121
 458  172.1165
 459  176.5508
 460  243.274
 461  190.2347
 462  259.6853
 463  347.867
 464  350.1583
 465  407.0287
 466  447.5191
 467  446.9088
 468  405.6891
 469  222.8354
 470  217.4812
 471  228.1799
 472  312.4632
 473  463.6255
 474  436.7122
 475  203.4308
 476  183.9713
 477  156.812
 478  164.2126
 479  229.2183
 480  351.6927
 481  374.7598
 482  356.8628
 483  377.1542
 484  271.2775
 485  268.6336
 486  281.5255
 487  189.3254
 488  313.6589
 489  413.5994
 490  416.591
 491  375.9578
 492  263.2408
 493  330.2105
 494  240.4317
 495  321.394
 496  337.6386
 497  276.8489
 498  169.5886
 499  263.2475
 500  402.0492
 501  368.1765
 502  450.1601
 503  354.3367
 504  465.8623
 505  470.3466
 506  410.8067
 507  395.209
 508  555.8427
 509  590.2651
 510  853.3975
 511  1033.779
