# Input file       =  1190834350.096258-PSRB0329-2ms-sampling-dd.dat
# Candidate        =  PSR_0332+5434
# Telescope        =  AR
# Epoch_topo       =  58026.805197873357
# Epoch_bary       =  N/A
# T_sample         =  0.002
# Data Folded      =  7208960
# Data Avg         =  -2.19169611152354e-10
# Data StdDev      =  4.267339989728   
# Profile Bins     =  512
# Profile Avg      =  0.0409005974343435
# Profile StdDev   =  506.359046011897 
# Reduced chi-sqr  =  0.849
# Prob(Noise)      <  0.994   (~0.0 sigma)
# P_topo (ms)      =  714.472488520675  +/- 0.000173
# P'_topo (s/s)    =  -0                +/- 9.29e-11
# P''_topo (s/s^2) =  0                 +/- 4.17e-14
# P_bary (ms)      =  N/A
# P'_bary (s/s)    =  N/A
# P''_bary (s/s^2) =  N/A
# P_orb (s)        =  N/A
# asin(i)/c (s)    =  N/A
# eccentricity     =  N/A
# w (rad)          =  N/A
# T_peri           =  N/A
######################################################
   0  -180.0273
   1  -645.1627
   2  -442.7741
   3  -292.4843
   4  -200.3287
   5  -297.4122
   6  -124.3022
   7  -179.0522
   8  -69.53222
   9  236.851
  10  6.089744
  11  -232.707
  12  -176.6289
  13  -337.4805
  14  -446.3989
  15  -115.623
  16  99.46076
  17  363.8792
  18  363.6466
  19  346.8998
  20  213.2606
  21  426.4132
  22  968.4414
  23  1265.856
  24  1409.872
  25  1150.746
  26  657.8474
  27  -113.6391
  28  -233.3241
  29  -171.9175
  30  44.0791
  31  -165.2508
  32  -350.4208
  33  -275.5804
  34  -140.4758
  35  -262.7953
  36  -335.9223
  37  45.13879
  38  33.27308
  39  -169.2386
  40  -6.412141
  41  86.75373
  42  -120.5501
  43  9.511019
  44  -16.85232
  45  125.0294
  46  31.09938
  47  -104.4026
  48  -185.0117
  49  -156.1685
  50  -198.5993
  51  -46.13571
  52  186.0897
  53  -256.3196
  54  -351.9105
  55  -449.8331
  56  -431.8935
  57  1.348912
  58  120.4018
  59  -220.292
  60  -376.262
  61  -323.3571
  62  -667.7254
  63  -408.3318
  64  -415.4802
  65  -348.8144
  66  -337.3037
  67  -484.2562
  68  -669.3437
  69  -553.2848
  70  -120.8651
  71  -11.62292
  72  -447.7229
  73  -522.5688
  74  -603.552
  75  -485.205
  76  -258.6384
  77  238.809
  78  308.9042
  79  -174.5633
  80  -334.0924
  81  -100.773
  82  -122.6578
  83  -372.1027
  84  58.11656
  85  -231.3988
  86  -208.4565
  87  -167.6978
  88  -607.8286
  89  -763.7589
  90  -630.2994
  91  94.91898
  92  47.30933
  93  -211.0459
  94  -319.0076
  95  -609.1732
  96  -376.9836
  97  -327.2921
  98  -296.6278
  99  -318.8323
 100  -278.5049
 101  -713.6456
 102  -83.76981
 103  -388.45
 104  -418.1109
 105  -604.2186
 106  -472.8944
 107  -282.775
 108  -187.3489
 109  -164.883
 110  100.7213
 111  -169.388
 112  -354.9692
 113  -220.0013
 114  -172.3872
 115  -234.1522
 116  -448.3157
 117  -235.4642
 118  -474.0182
 119  -393.6406
 120  -124.5956
 121  -336.7449
 122  -406.2305
 123  -189.3627
 124  215.4589
 125  60.07604
 126  -261.3075
 127  41.35601
 128  -177.0626
 129  -360.9674
 130  -214.7751
 131  -11.88655
 132  67.34818
 133  152.6057
 134  403.2754
 135  156.1493
 136  -108.7212
 137  212.5133
 138  261.6297
 139  220.1153
 140  191.863
 141  310.2077
 142  269.8311
 143  108.7426
 144  419.7906
 145  32.49281
 146  258.9514
 147  223.9708
 148  -258.4847
 149  -352.1051
 150  -198.0443
 151  97.32698
 152  90.95393
 153  138.013
 154  210.8112
 155  1.009417
 156  10.50373
 157  27.08717
 158  162.8225
 159  346.9013
 160  408.9093
 161  44.13213
 162  179.6058
 163  338.519
 164  469.2131
 165  267.2205
 166  318.3734
 167  669.3165
 168  377.6745
 169  506.0496
 170  564.6495
 171  660.1981
 172  154.3501
 173  220.3177
 174  606.4938
 175  433.0811
 176  224.6108
 177  361.9233
 178  214.3457
 179  243.9961
 180  367.2029
 181  193.5279
 182  149.5441
 183  120.9167
 184  218.995
 185  147.4561
 186  214.05
 187  496.6631
 188  666.9669
 189  777.3065
 190  291.393
 191  -6.547116
 192  -2.620624
 193  16.27233
 194  500.5339
 195  757.5191
 196  235.145
 197  603.9958
 198  860.7002
 199  472.4095
 200  441.4221
 201  241.9388
 202  380.3024
 203  111.4922
 204  227.1614
 205  485.3393
 206  769.2853
 207  1012.115
 208  843.296
 209  742.1705
 210  323.4879
 211  195.0013
 212  -100.4172
 213  307.521
 214  440.3319
 215  485.1945
 216  816.0256
 217  421.8522
 218  354.3984
 219  380.8388
 220  380.4981
 221  603.2077
 222  189.2543
 223  103.249
 224  344.405
 225  455.231
 226  563.4365
 227  289.626
 228  316.593
 229  361.9885
 230  198.6773
 231  274.8872
 232  227.5381
 233  440.2236
 234  621.7231
 235  387.5247
 236  198.5337
 237  102.7987
 238  546.9463
 239  515.7471
 240  -112.4045
 241  180.4569
 242  370.9703
 243  654.8873
 244  489.8344
 245  311.5774
 246  464.3379
 247  549.2288
 248  126.4801
 249  232.4487
 250  147.3388
 251  351.579
 252  259.3456
 253  325.7428
 254  370.9205
 255  546.2465
 256  389.8773
 257  405.8667
 258  197.0886
 259  236.9095
 260  339.9357
 261  469.9304
 262  453.3383
 263  219.2949
 264  274.8615
 265  109.4266
 266  308.1651
 267  12.38467
 268  -57.08464
 269  92.49664
 270  9.645856
 271  86.22019
 272  193.3165
 273  -169.4184
 274  -4.16536
 275  -91.59122
 276  -22.46023
 277  -191.6504
 278  -90.80604
 279  24.32488
 280  -51.28129
 281  216.8088
 282  70.76894
 283  -19.96238
 284  -85.08998
 285  -365.3322
 286  -281.0607
 287  82.08332
 288  201.2156
 289  16.40597
 290  46.40744
 291  39.67516
 292  145.6497
 293  89.70576
 294  -48.09993
 295  181.5862
 296  361.1222
 297  121.6099
 298  82.6594
 299  51.38033
 300  -183.4708
 301  128.7373
 302  108.1297
 303  -112.188
 304  -243.6675
 305  83.73508
 306  251.5347
 307  296.1734
 308  284.2511
 309  334.1273
 310  -28.46339
 311  -219.68
 312  -222.8597
 313  -72.4902
 314  -11.64717
 315  48.7305
 316  257.7391
 317  -11.04539
 318  -149.1561
 319  -538.5772
 320  -506.0192
 321  -241.033
 322  16.22547
 323  -361.1017
 324  -409.1023
 325  -51.41411
 326  -137.2676
 327  -83.38365
 328  -526.306
 329  -331.4169
 330  -190.5373
 331  -80.68073
 332  -197.1195
 333  -263.0915
 334  -36.89373
 335  -201.2235
 336  -569.895
 337  -563.0561
 338  176.7832
 339  24.2269
 340  -361.5245
 341  -412.9883
 342  -345.4348
 343  -310.5044
 344  -359.5759
 345  26.70036
 346  25.21393
 347  -273.8157
 348  -145.7831
 349  -374.3385
 350  -489.7839
 351  -603.0154
 352  -601.6886
 353  -287.2769
 354  155.9843
 355  135.727
 356  208.2825
 357  -713.2319
 358  -656.4471
 359  -606.9355
 360  -473.3706
 361  -256.482
 362  214.2287
 363  236.042
 364  74.99572
 365  -228.0549
 366  -390.9691
 367  -655.3306
 368  -573.8192
 369  -381.5701
 370  -70.49874
 371  -2.728531
 372  48.86858
 373  -57.81027
 374  -563.5485
 375  -300.2375
 376  -456.5726
 377  -361.9582
 378  -211.4573
 379  94.94271
 380  305.2918
 381  -120.0809
 382  -200.7577
 383  -419.7415
 384  -256.1613
 385  -592.4532
 386  -424.5891
 387  59.72475
 388  48.6824
 389  34.54642
 390  -318.966
 391  -319.9829
 392  -369.6441
 393  -312.0084
 394  -223.7301
 395  -240.7416
 396  -306.985
 397  -262.6181
 398  -233.7188
 399  -247.235
 400  -292.4447
 401  -417.2756
 402  -616.478
 403  -514.6857
 404  -365.06
 405  -186.6465
 406  182.3614
 407  405.6537
 408  267.6437
 409  -194.5537
 410  -405.986
 411  -369.2437
 412  -191.0952
 413  89.38821
 414  -156.7685
 415  -363.0777
 416  -627.2968
 417  -460.9576
 418  -211.5881
 419  -417.0797
 420  -273.5815
 421  -143.117
 422  -147.7827
 423  -278.9417
 424  -20.46394
 425  14.66688
 426  -332.7937
 427  -361.3403
 428  -488.396
 429  -116.2688
 430  13.3961
 431  -262.4671
 432  -368.8127
 433  -211.8998
 434  -113.139
 435  -361.0557
 436  -306.0007
 437  68.04169
 438  83.46727
 439  -185.8933
 440  -163.1757
 441  -466.1268
 442  50.60042
 443  131.8357
 444  19.19822
 445  208.5311
 446  314.2462
 447  163.5529
 448  31.68876
 449  54.80215
 450  -421.4874
 451  -296.4506
 452  -215.2639
 453  86.02385
 454  189.2379
 455  260.6408
 456  221.375
 457  64.90102
 458  175.8035
 459  106.4191
 460  -154.353
 461  136.5647
 462  440.4414
 463  340.2723
 464  14.22438
 465  224.9262
 466  32.00648
 467  -103.2756
 468  -65.91338
 469  128.4862
 470  -11.55224
 471  72.52208
 472  443.2193
 473  443.8253
 474  372.7326
 475  342.3931
 476  12.17268
 477  -300.8643
 478  -263.0466
 479  -232.6338
 480  285.9592
 481  645.4396
 482  228.7701
 483  -79.21682
 484  -258.3092
 485  -117.9212
 486  176.7587
 487  340.823
 488  372.6646
 489  45.83785
 490  61.54168
 491  12.84836
 492  -14.30844
 493  273.7351
 494  682.4726
 495  425.7918
 496  267.3705
 497  202.6026
 498  90.69604
 499  -184.3578
 500  -101.6231
 501  -221.356
 502  -34.68015
 503  -219.9877
 504  -246.8204
 505  -126.7702
 506  -259.7705
 507  16.05871
 508  414.0704
 509  280.448
 510  104.0377
 511  54.56695
