# Input file       =  1190950050.106759_cleaned.dat
# Candidate        =  PSR_0332+5434
# Telescope        =  AR
# Epoch_topo       =  58028.144318365266
# Epoch_bary       =  N/A
# T_sample         =  0.002
# Data Folded      =  7340032
# Data Avg         =  0.0273452894730976
# Data StdDev      =  3.21481866065511 
# Profile Bins     =  256
# Profile Avg      =  784.286130758625 
# Profile StdDev   =  544.359083920844 
# Reduced chi-sqr  =  1.749
# Prob(Noise)      <  1.4e-12   (~7.0 sigma)
# P_topo (ms)      =  714.473575937453  +/- 0.000217
# P'_topo (s/s)    =  -0                +/- 1.15e-10
# P''_topo (s/s^2) =  0                 +/- 5.07e-14
# P_bary (ms)      =  N/A
# P'_bary (s/s)    =  N/A
# P''_bary (s/s^2) =  N/A
# P_orb (s)        =  N/A
# asin(i)/c (s)    =  N/A
# eccentricity     =  N/A
# w (rad)          =  N/A
# T_peri           =  N/A
######################################################
   0  592.0101
   1  1101.956
   2  -57.31294
   3  506.1245
   4  -30.22517
   5  -24.77362
   6  -4.332822
   7  120.8993
   8  -108.103
   9  908.651
  10  62.11183
  11  533.8347
  12  -214.2688
  13  363.7137
  14  1236.529
  15  185.6872
  16  -331.2756
  17  68.53985
  18  882.9813
  19  262.1313
  20  -517.0446
  21  1037.229
  22  604.4442
  23  241.8638
  24  859.4533
  25  768.2599
  26  804.0354
  27  513.9072
  28  -333.9144
  29  116.1802
  30  206.7512
  31  216.4275
  32  173.4252
  33  847.6016
  34  456.3928
  35  1088.594
  36  1054.174
  37  1138.078
  38  1223.52
  39  241.0118
  40  418.4593
  41  1026.332
  42  1152.223
  43  837.1271
  44  998.4044
  45  679.6067
  46  964.9784
  47  894.0165
  48  -416.8673
  49  1113.483
  50  1000.524
  51  973.1049
  52  382.2677
  53  514.4822
  54  1240.965
  55  1211.129
  56  510.3752
  57  969.8295
  58  801.0207
  59  340.3583
  60  1062.422
  61  1418.031
  62  1404.258
  63  402.0374
  64  386.7007
  65  58.86893
  66  257.7392
  67  636.5368
  68  444.4871
  69  1230.34
  70  1619.172
  71  717.9021
  72  515.3607
  73  -12.03586
  74  792.7465
  75  1348.797
  76  1151.675
  77  741.9999
  78  919.4052
  79  1783.064
  80  1275.993
  81  769.3629
  82  1458.828
  83  1362.376
  84  1842.619
  85  576.6121
  86  980.7614
  87  526.767
  88  1950.153
  89  570.3015
  90  1176.133
  91  651.566
  92  762.7898
  93  1666.139
  94  1090.632
  95  1195.932
  96  1377.627
  97  1318.661
  98  1016.328
  99  648.5889
 100  838.4271
 101  677.8801
 102  568.4842
 103  701.9397
 104  1534.77
 105  -53.72489
 106  998.205
 107  1241.838
 108  1654.144
 109  997.6412
 110  606.0334
 111  786.9357
 112  912.1268
 113  736.2912
 114  638.8622
 115  746.4266
 116  250.0949
 117  60.14896
 118  1164.013
 119  1615.138
 120  1141.734
 121  278.0049
 122  -17.69313
 123  734.7849
 124  1242.018
 125  1110.341
 126  913.8111
 127  868.0544
 128  498.883
 129  329.2403
 130  -516.6427
 131  798.0258
 132  882.127
 133  429.0524
 134  139.254
 135  1152.682
 136  987.9902
 137  2178.87
 138  1015.788
 139  789.4487
 140  665.9667
 141  245.7797
 142  512.5921
 143  578.6447
 144  576.1989
 145  358.3765
 146  1049.735
 147  607.5541
 148  410.2202
 149  562.0182
 150  1011.388
 151  1021.543
 152  903.7684
 153  708.3156
 154  1855.231
 155  2066.909
 156  1522.848
 157  918.9545
 158  2081.965
 159  4796.354
 160  4344.562
 161  3051.454
 162  2541.754
 163  1068.655
 164  1369.93
 165  667.9783
 166  1412.507
 167  2085.853
 168  1742.599
 169  1074.955
 170  972.9279
 171  418.2319
 172  -212.1652
 173  226.5172
 174  801.0251
 175  430.3137
 176  1141.746
 177  952.2447
 178  319.841
 179  629.8748
 180  1100.702
 181  1034.486
 182  465.5457
 183  421.3734
 184  1021.899
 185  789.0192
 186  723.2818
 187  726.0356
 188  508.8988
 189  502.1547
 190  574.4088
 191  586.8046
 192  440.7696
 193  321.2353
 194  1173.982
 195  1406.433
 196  628.209
 197  276.6194
 198  296.7112
 199  1328.328
 200  657.9172
 201  743.5346
 202  1058.125
 203  598.716
 204  1315.461
 205  1257.634
 206  702.8762
 207  484.0819
 208  627.941
 209  378.811
 210  778.803
 211  1034.85
 212  622.202
 213  411.0094
 214  1557.564
 215  617.4512
 216  -162.3226
 217  931.3046
 218  1111.782
 219  1112.337
 220  761.925
 221  489.6646
 222  424.6937
 223  319.7736
 224  411.7706
 225  945.1183
 226  647.7372
 227  1362.057
 228  649.2469
 229  414.5636
 230  972.6438
 231  287.6684
 232  -233.6119
 233  374.6577
 234  866.7927
 235  488.4344
 236  501.9115
 237  482.2702
 238  1076.561
 239  160.6635
 240  946.7991
 241  566.7935
 242  731.5246
 243  -376.7456
 244  163.3466
 245  820.6038
 246  1114.519
 247  840.5608
 248  463.7339
 249  700.3074
 250  -478.9188
 251  979.9045
 252  554.5273
 253  249.3834
 254  469.4339
 255  828.5811
