# Input file       =  1190762833.099269-PSRB0329-2ms-sampling-dd.dat
# Candidate        =  PSR_0332+5434
# Telescope        =  AR
# Epoch_topo       =  58025.977454852647
# Epoch_bary       =  N/A
# T_sample         =  0.002
# Data Folded      =  7340032
# Data Avg         =  1.42777461910345e-10
# Data StdDev      =  4.70541010350074 
# Profile Bins     =  512
# Profile Avg      =  0.0169296222048518
# Profile StdDev   =  563.393039090057 
# Reduced chi-sqr  =  1.007
# Prob(Noise)      <  0.45   (~0.1 sigma)
# P_topo (ms)      =  714.472059502987  +/- 0.00017
# P'_topo (s/s)    =  -0                +/- 8.95e-11
# P''_topo (s/s^2) =  0                 +/- 3.95e-14
# P_bary (ms)      =  N/A
# P'_bary (s/s)    =  N/A
# P''_bary (s/s^2) =  N/A
# P_orb (s)        =  N/A
# asin(i)/c (s)    =  N/A
# eccentricity     =  N/A
# w (rad)          =  N/A
# T_peri           =  N/A
######################################################
   0  -158.3835
   1  -202.8667
   2  279.8924
   3  136.1046
   4  -94.52473
   5  -319.6933
   6  -662.3643
   7  -372.7811
   8  -76.97559
   9  6.760367
  10  -100.7675
  11  73.07928
  12  81.30988
  13  -217.0277
  14  -349.4879
  15  -136.2499
  16  -129.5522
  17  -126.9831
  18  -144.2869
  19  -818.7184
  20  -152.0514
  21  97.32608
  22  23.41619
  23  237.2728
  24  240.4871
  25  -294.3904
  26  -388.972
  27  -11.33994
  28  294.2739
  29  32.26114
  30  11.03947
  31  -204.8064
  32  -258.3961
  33  -431.9997
  34  -604.8846
  35  -614.2078
  36  -116.8675
  37  361.1381
  38  229.1843
  39  -64.73003
  40  98.78131
  41  -70.82171
  42  -9.672482
  43  -137.1384
  44  -21.38925
  45  -448.6803
  46  172.1865
  47  230.3891
  48  -161.5359
  49  348.2844
  50  337.1805
  51  -70.73289
  52  596.3352
  53  575.0529
  54  373.7614
  55  175.4582
  56  181.5766
  57  215.817
  58  -30.65401
  59  153.5192
  60  -69.61608
  61  27.45541
  62  0.9209862
  63  -101.3493
  64  -280.1852
  65  -234.6846
  66  -124.239
  67  -81.36002
  68  -274.5972
  69  -454.1619
  70  -468.1828
  71  -205.7943
  72  -130.779
  73  354.9078
  74  225.2609
  75  -8.481401
  76  -19.66451
  77  -108.6258
  78  118.0634
  79  -92.90187
  80  -369.2437
  81  129.5594
  82  298.1564
  83  -76.18168
  84  -401.8817
  85  -135.444
  86  131.278
  87  -53.55343
  88  165.1453
  89  105.8227
  90  229.0919
  91  -4.522325
  92  -97.68069
  93  134.4262
  94  108.3146
  95  157.5092
  96  265.5952
  97  -169.8073
  98  -220.4666
  99  -91.54904
 100  -120.4148
 101  81.81161
 102  -214.062
 103  -229.3967
 104  -360.9719
 105  -540.6489
 106  -295.2594
 107  -338.1391
 108  -155.7237
 109  141.8297
 110  247.3634
 111  -61.75471
 112  -229.4929
 113  178.103
 114  -44.6281
 115  -62.96912
 116  -471.6036
 117  -146.503
 118  128.1111
 119  -41.59876
 120  -343.2112
 121  -177.8653
 122  -412.7496
 123  158.6124
 124  251.9635
 125  -384.2512
 126  -421.2897
 127  -451.9338
 128  -147.6123
 129  -243.5284
 130  -162.402
 131  262.3374
 132  134.5712
 133  155.571
 134  139.6733
 135  26.63192
 136  97.13859
 137  -97.92263
 138  316.4629
 139  310.803
 140  333.8968
 141  31.53998
 142  81.97421
 143  313.2046
 144  -102.3597
 145  241.2375
 146  137.4579
 147  -159.0156
 148  213.6084
 149  -76.94019
 150  -594.9731
 151  103.6575
 152  -303.9149
 153  -825.365
 154  774.3028
 155  -388.7648
 156  -392.4751
 157  4578.515
 158  3169.649
 159  2338.71
 160  1996.51
 161  1531.794
 162  305.2228
 163  -1187.308
 164  656.1044
 165  178.4185
 166  -442.3361
 167  -158.4893
 168  -458.5611
 169  -327.389
 170  -18.70078
 171  -407.2622
 172  287.537
 173  577.5784
 174  -242.2632
 175  -39.69805
 176  67.4317
 177  -206.1465
 178  -157.0819
 179  -174.282
 180  -158.3858
 181  -34.03195
 182  -14.64708
 183  -249.2494
 184  -166.2208
 185  -362.8542
 186  -707.4052
 187  -139.7031
 188  86.03741
 189  283.0011
 190  72.84077
 191  -499.9749
 192  -506.4862
 193  -219.6869
 194  140.4878
 195  107.6361
 196  169.1582
 197  -48.84988
 198  -189.3725
 199  -401.0558
 200  -360.9428
 201  -551.4954
 202  -293.1744
 203  -172.5663
 204  -15.62282
 205  215.1089
 206  25.02658
 207  -231.5656
 208  -337.8549
 209  269.4792
 210  337.4586
 211  178.1174
 212  -15.24434
 213  158.605
 214  -234.7826
 215  -256.4586
 216  -632.6876
 217  -192.9025
 218  -235.4911
 219  -440.9068
 220  -50.8663
 221  278.4484
 222  -121.4503
 223  -112.0737
 224  158.1211
 225  129.7608
 226  -219.4906
 227  -484.409
 228  -48.09255
 229  22.20083
 230  -223.4718
 231  -56.11408
 232  -137.7938
 233  -215.9741
 234  -433.1927
 235  -288.5828
 236  36.33414
 237  59.68975
 238  74.12789
 239  35.04605
 240  -92.30297
 241  -502.1242
 242  -299.7531
 243  -84.67689
 244  66.05135
 245  295.6577
 246  72.34573
 247  120.3383
 248  4.413071
 249  0.3609351
 250  120.4013
 251  34.11881
 252  -275.1694
 253  -112.9497
 254  72.82653
 255  -311.5852
 256  -172.1261
 257  19.37351
 258  -171.1239
 259  -280.1787
 260  -62.26138
 261  10.48748
 262  272.6402
 263  215.1465
 264  -137.9047
 265  -195.057
 266  -112.2016
 267  -414.4256
 268  66.38092
 269  -8.27395
 270  -308.4909
 271  -646.6802
 272  -190.8959
 273  -146.0062
 274  -164.5645
 275  36.66259
 276  177.39
 277  67.29777
 278  -85.64915
 279  -227.1855
 280  219.7625
 281  66.39532
 282  83.02641
 283  -0.949744
 284  9.104733
 285  -272.3883
 286  -513.3322
 287  -285.8345
 288  184.4615
 289  364.914
 290  138.978
 291  92.07562
 292  -181.0731
 293  -328.4021
 294  -20.65086
 295  142.0157
 296  340.8694
 297  49.74472
 298  136.2316
 299  403.9417
 300  86.02859
 301  -213.944
 302  -147.7604
 303  -213.2578
 304  -239.3739
 305  -356.4221
 306  -456.6207
 307  70.8718
 308  122.6318
 309  87.42788
 310  112.4042
 311  188.6919
 312  -116.1999
 313  -20.67885
 314  56.90505
 315  256.7968
 316  -158.8403
 317  2.943377
 318  7.867161
 319  13.40645
 320  -82.47308
 321  -281.0781
 322  -347.8186
 323  243.3648
 324  571.7706
 325  732.5125
 326  406.144
 327  228.7105
 328  880.5018
 329  1134.297
 330  1673.579
 331  1182.791
 332  754.6369
 333  515.1668
 334  73.39301
 335  -61.39008
 336  17.81433
 337  294.3301
 338  -59.0964
 339  -35.95465
 340  42.0799
 341  -131.0411
 342  320.1098
 343  733.8274
 344  602.0107
 345  517.5245
 346  680.0022
 347  359.4172
 348  -161.3424
 349  65.81274
 350  332.6948
 351  544.5451
 352  437.9958
 353  327.739
 354  439.0405
 355  -91.98434
 356  -46.90935
 357  -77.76995
 358  -228.2925
 359  12.79831
 360  233.0245
 361  -59.45676
 362  -388.5623
 363  -193.2989
 364  16.9032
 365  -23.99535
 366  -119.1325
 367  -184.9064
 368  -107.5779
 369  -240.8325
 370  -424.2931
 371  42.93907
 372  115.305
 373  161.8768
 374  336.9635
 375  -39.75498
 376  -209.7213
 377  -123.29
 378  -9.051191
 379  161.0883
 380  270.5178
 381  -40.21633
 382  87.0972
 383  162.3244
 384  95.59601
 385  -47.46045
 386  -111.9361
 387  94.37927
 388  -29.37511
 389  23.43053
 390  -10.6125
 391  -56.04966
 392  32.92529
 393  -11.43317
 394  20.06747
 395  -68.71919
 396  -397.1034
 397  -210.5963
 398  30.13705
 399  -37.8903
 400  -17.72111
 401  -235.7564
 402  -268.7165
 403  -63.20526
 404  -94.36582
 405  -7.791002
 406  -251.0983
 407  -518.8026
 408  96.97251
 409  354.8879
 410  57.13393
 411  -173.6396
 412  -154.8543
 413  -0.40319
 414  135.9788
 415  285.7784
 416  534.8184
 417  216.5987
 418  290.2472
 419  182.7637
 420  40.97361
 421  -14.69666
 422  -105.2857
 423  -36.72066
 424  -228.3038
 425  -278.4561
 426  -338.6801
 427  -321.2225
 428  -292.9628
 429  -284.1569
 430  -94.72112
 431  290.7495
 432  545.3672
 433  364.6949
 434  -128.82
 435  -69.20886
 436  -30.37732
 437  -129.6326
 438  -116.2168
 439  68.92373
 440  207.3118
 441  -449.4484
 442  -369.8429
 443  11.01309
 444  71.82307
 445  -34.80661
 446  -43.3536
 447  -638.0326
 448  -637.7462
 449  -411.4437
 450  -160.7625
 451  -38.88261
 452  -192.011
 453  -23.26285
 454  52.15115
 455  105.6317
 456  160.4637
 457  2.043351
 458  -138.3409
 459  -365.1983
 460  -52.03241
 461  213.1224
 462  50.73302
 463  151.498
 464  399.623
 465  152.3484
 466  82.11197
 467  -237.897
 468  -8.571119
 469  286.9283
 470  4.202263
 471  81.96252
 472  532.4321
 473  706.414
 474  385.4517
 475  203.8266
 476  94.76228
 477  -361.1014
 478  -660.6584
 479  -179.602
 480  323.7243
 481  443.3492
 482  38.03629
 483  -163.4195
 484  -103.9689
 485  -145.6949
 486  -458.3386
 487  -250.4094
 488  -101.2395
 489  -347.1969
 490  -137.8232
 491  -172.3554
 492  -423.9598
 493  -369.506
 494  -358.232
 495  -267.8874
 496  -628.8433
 497  -339.3242
 498  62.98919
 499  87.01352
 500  111.425
 501  135.5325
 502  169.4173
 503  18.7385
 504  61.38748
 505  167.9964
 506  519.9424
 507  106.7979
 508  -109.6739
 509  69.92946
 510  141.0642
 511  -94.71458
