# Input file       =  1190762833.099269_cleaned.dat
# Candidate        =  PSR_0332+5434
# Telescope        =  AR
# Epoch_topo       =  58025.977454852647
# Epoch_bary       =  N/A
# T_sample         =  0.002
# Data Folded      =  7340032
# Data Avg         =  0.0260706076171898
# Data StdDev      =  2.57302942817282 
# Profile Bins     =  512
# Profile Avg      =  373.7700335271   
# Profile StdDev   =  308.076626121906 
# Reduced chi-sqr  =  1.224
# Prob(Noise)      <  0.000382   (~3.4 sigma)
# P_topo (ms)      =  714.472059571158  +/- 0.000135
# P'_topo (s/s)    =  -0                +/- 7.13e-11
# P''_topo (s/s^2) =  0                 +/- 3.15e-14
# P_bary (ms)      =  N/A
# P'_bary (s/s)    =  N/A
# P''_bary (s/s^2) =  N/A
# P_orb (s)        =  N/A
# asin(i)/c (s)    =  N/A
# eccentricity     =  N/A
# w (rad)          =  N/A
# T_peri           =  N/A
######################################################
   0  539.4263
   1  465.0875
   2  601.975
   3  568.0753
   4  162.5735
   5  324.5047
   6  232.9809
   7  219.8642
   8  342.8738
   9  -106.2455
  10  -102.8057
  11  371.7128
  12  118.0281
  13  325.6866
  14  576.7455
  15  262.0892
  16  -4.465667
  17  185.4561
  18  560.6445
  19  551.3723
  20  357.3239
  21  239.1964
  22  95.11366
  23  217.0576
  24  9.244598
  25  -94.42575
  26  198.129
  27  672.7784
  28  694.5471
  29  331.6082
  30  390.4482
  31  381.8975
  32  355.3409
  33  315.4834
  34  459.7865
  35  161.1389
  36  98.39887
  37  417.2645
  38  77.09
  39  203.4697
  40  638.7242
  41  129.3594
  42  489.9891
  43  762.7431
  44  483.5449
  45  294.8205
  46  275.5037
  47  465.0817
  48  438.7059
  49  401.0219
  50  454.6706
  51  190.52
  52  526.787
  53  356.9717
  54  314.4497
  55  189.2526
  56  266.1326
  57  218.3235
  58  89.08092
  59  -60.19812
  60  -174.1013
  61  112.0295
  62  127.7099
  63  429.2059
  64  585.163
  65  250.2478
  66  310.5087
  67  341.0181
  68  377.208
  69  549.5529
  70  38.396
  71  295.2774
  72  509.6035
  73  263.806
  74  -66.77476
  75  -97.87479
  76  504.7812
  77  358.3951
  78  576.4402
  79  473.4095
  80  485.4893
  81  569.1292
  82  513.0081
  83  691.3252
  84  651.7972
  85  467.9867
  86  634.2269
  87  385.8486
  88  233.9401
  89  382.674
  90  375.5015
  91  434.895
  92  350.2385
  93  142.5531
  94  10.59636
  95  -105.1217
  96  33.80691
  97  274.747
  98  234.7814
  99  460.8903
 100  713.7283
 101  387.296
 102  93.3847
 103  361.4747
 104  506.2823
 105  336.2419
 106  204.346
 107  106.275
 108  497.6986
 109  514.9677
 110  211.5549
 111  278.5859
 112  118.7181
 113  386.7062
 114  768.3118
 115  209.3274
 116  -75.70703
 117  -51.64282
 118  154.2447
 119  277.5576
 120  223.9317
 121  625.7164
 122  633.4188
 123  580.0868
 124  629.798
 125  632.8442
 126  637.0956
 127  336.3674
 128  456.9709
 129  688.1068
 130  585.8578
 131  496.578
 132  492.4676
 133  449.5038
 134  535.1664
 135  526.5428
 136  503.4742
 137  353.8666
 138  417.8966
 139  417.8485
 140  255.2365
 141  236.6378
 142  207.2837
 143  177.9956
 144  305.0194
 145  412.9703
 146  409.412
 147  191.8862
 148  613.4694
 149  343.8912
 150  405.936
 151  352.894
 152  351.4139
 153  112.4778
 154  262.127
 155  472.1451
 156  409.0868
 157  -58.33561
 158  -103.8025
 159  146.9004
 160  395.6701
 161  106.7644
 162  584.9178
 163  798.1318
 164  416.0106
 165  128.6926
 166  361.9893
 167  277.231
 168  221.3394
 169  372.5047
 170  252.6569
 171  432.0493
 172  363.8987
 173  281.0358
 174  248.497
 175  248.7789
 176  -12.01634
 177  162.0428
 178  445.7852
 179  579.3908
 180  542.6521
 181  216.9322
 182  -54.83074
 183  287.0565
 184  486.811
 185  515.5994
 186  536.1744
 187  387.569
 188  364.5723
 189  134.3124
 190  315.2907
 191  170.9928
 192  150.7477
 193  304.2212
 194  265.2742
 195  568.0802
 196  521.8718
 197  373.1065
 198  154.4138
 199  410.0344
 200  659.1588
 201  502.1157
 202  307.4042
 203  516.9776
 204  319.0965
 205  254.8604
 206  110.8092
 207  108.7395
 208  364.7576
 209  189.1354
 210  349.7482
 211  860.7734
 212  581.7815
 213  309.2403
 214  424.5954
 215  576.3277
 216  242.9562
 217  66.3777
 218  206.6071
 219  577.3769
 220  304.8704
 221  299.7455
 222  372.4192
 223  226.3894
 224  181.7948
 225  67.21461
 226  490.8265
 227  512.6219
 228  497.237
 229  375.1745
 230  223.8266
 231  22.28102
 232  -139.4792
 233  141.1686
 234  125.6464
 235  304.1422
 236  487.0177
 237  229.7989
 238  296.2659
 239  87.67719
 240  171.3457
 241  356.9874
 242  128.954
 243  266.7639
 244  493.8729
 245  235.4168
 246  176.1889
 247  419.0133
 248  489.9021
 249  188.3839
 250  391.8489
 251  191.2435
 252  537.3177
 253  653.2101
 254  426.1664
 255  207.3409
 256  355.8326
 257  55.16164
 258  297.7369
 259  442.8762
 260  319.6325
 261  -315.1183
 262  -31.47722
 263  182.9569
 264  58.10209
 265  287.7649
 266  407.0684
 267  507.5016
 268  244.8317
 269  -30.85975
 270  332.853
 271  414.0838
 272  385.6389
 273  301.3336
 274  509.4773
 275  355.1976
 276  15.37335
 277  92.16875
 278  348.6427
 279  621.2148
 280  391.9727
 281  456.7151
 282  247.3614
 283  142.0913
 284  185.0778
 285  395.53
 286  515.5549
 287  503.0594
 288  357.1965
 289  539.3939
 290  536.346
 291  315.4079
 292  361.1586
 293  188.4873
 294  54.81652
 295  78.5275
 296  -37.95176
 297  183.3199
 298  475.4769
 299  561.4865
 300  353.433
 301  621.017
 302  364.7847
 303  390.2004
 304  335.591
 305  569.4028
 306  450.3127
 307  266.2348
 308  418.9818
 309  455.9242
 310  638.2589
 311  327.2278
 312  168.2819
 313  484.5537
 314  921.0566
 315  1001.812
 316  1093.368
 317  631.4503
 318  1173.741
 319  1586.011
 320  1921.438
 321  1968.674
 322  1158.676
 323  1008.133
 324  675.9536
 325  480.3098
 326  533.4655
 327  647.0347
 328  429.9768
 329  114.5452
 330  371.8696
 331  359.1748
 332  503.0139
 333  868.0959
 334  846.6818
 335  533.586
 336  826.459
 337  783.8741
 338  473.886
 339  211.795
 340  463.4217
 341  735.9411
 342  366.3782
 343  330.9688
 344  477.2898
 345  614.0767
 346  234.8088
 347  307.8564
 348  300.479
 349  262.5217
 350  703.7381
 351  526.1299
 352  1.896311
 353  6.033412
 354  392.985
 355  376.3042
 356  329.2543
 357  298.3626
 358  374.0773
 359  390.8605
 360  29.49986
 361  229.7653
 362  402.5526
 363  400.124
 364  506.0665
 365  491.5269
 366  283.3868
 367  323.5608
 368  347.219
 369  643.5712
 370  668.9208
 371  545.1748
 372  296.2717
 373  657.4002
 374  521.0614
 375  516.2149
 376  390.4247
 377  555.4557
 378  584.2026
 379  396.8267
 380  462.2753
 381  377.3279
 382  466.7251
 383  566.484
 384  438.9454
 385  494.291
 386  119.1243
 387  204.0256
 388  395.0455
 389  387.6785
 390  402.8925
 391  315.4662
 392  107.685
 393  323.0281
 394  276.1323
 395  341.152
 396  338.8997
 397  -96.6984
 398  331.9987
 399  745.7889
 400  524.9036
 401  152.4549
 402  224.6205
 403  363.5392
 404  600.529
 405  562.2303
 406  764.5973
 407  552.0774
 408  581.8674
 409  658.8871
 410  524.5143
 411  424.9092
 412  446.4731
 413  440.1306
 414  355.4975
 415  108.0396
 416  98.66822
 417  141.7857
 418  313.5708
 419  290.7856
 420  238.1279
 421  677.8709
 422  885.8689
 423  926.5047
 424  510.5044
 425  408.9544
 426  572.1502
 427  341.4209
 428  397.7333
 429  393.0038
 430  625.2711
 431  109.114
 432  -73.24664
 433  426.5523
 434  794.8628
 435  599.2048
 436  605.7838
 437  77.60629
 438  -201.548
 439  -92.0071
 440  192.4623
 441  345.9288
 442  231.0394
 443  294.28
 444  456.1477
 445  500.5208
 446  381.7393
 447  285.957
 448  189.4835
 449  111.7176
 450  302.8643
 451  661.4301
 452  490.5782
 453  435.5974
 454  612.3027
 455  391.1102
 456  197.5742
 457  300.3708
 458  180.6364
 459  652.9064
 460  270.1531
 461  64.69176
 462  443.0371
 463  733.9315
 464  860.0157
 465  766.0031
 466  578.4796
 467  275.2395
 468  -99.9094
 469  90.39732
 470  596.24
 471  738.3431
 472  533.6887
 473  250.86
 474  213.8359
 475  432.5387
 476  131.0992
 477  147.9411
 478  469.8448
 479  408.2426
 480  362.9939
 481  489.7496
 482  197.9508
 483  145.3591
 484  145.2777
 485  353.1057
 486  36.78267
 487  30.16198
 488  450.9252
 489  494.5422
 490  378.3422
 491  389.6072
 492  495.4261
 493  527.3085
 494  686.7122
 495  577.0995
 496  860.9791
 497  640.4454
 498  169.1303
 499  295.842
 500  397.4112
 501  498.2357
 502  353.3016
 503  309.0721
 504  652.5042
 505  721.852
 506  401.562
 507  274.0087
 508  11.89473
 509  -51.86545
 510  449.3988
 511  586.3246
