# Input file       =  1190582619.116545_cleaned.dat
# Candidate        =  PSR_0332+5434
# Telescope        =  AR
# Epoch_topo       =  58023.891644867421
# Epoch_bary       =  N/A
# T_sample         =  0.002
# Data Folded      =  7340032
# Data Avg         =  0.0109285406718787
# Data StdDev      =  1.00007150301202 
# Profile Bins     =  512
# Profile Avg      =  156.414897281483 
# Profile StdDev   =  119.741597649506 
# Reduced chi-sqr  =  2.206
# Prob(Noise)      <  2.02e-48   (~14.6 sigma)
# P_topo (ms)      =  714.470927534234  +/- 0.000178
# P'_topo (s/s)    =  -0                +/- 9.41e-11
# P''_topo (s/s^2) =  0                 +/- 4.16e-14
# P_bary (ms)      =  N/A
# P'_bary (s/s)    =  N/A
# P''_bary (s/s^2) =  N/A
# P_orb (s)        =  N/A
# asin(i)/c (s)    =  N/A
# eccentricity     =  N/A
# w (rad)          =  N/A
# T_peri           =  N/A
######################################################
   0  103.462
   1  23.66544
   2  35.16461
   3  17.89745
   4  191.0264
   5  183.657
   6  154.3656
   7  162.005
   8  118.6661
   9  236.2645
  10  277.7505
  11  287.2299
  12  238.3194
  13  176.3025
  14  50.30523
  15  -20.01488
  16  164.3109
  17  138.0615
  18  71.05539
  19  90.93238
  20  318.5419
  21  286.943
  22  89.21473
  23  266.2705
  24  363.967
  25  246.0994
  26  242.5239
  27  277.6322
  28  328.7893
  29  266.1829
  30  184.3699
  31  250.2867
  32  212.4668
  33  199.065
  34  370.3175
  35  318.9114
  36  84.30333
  37  163.5564
  38  256.5384
  39  353.3192
  40  399.5835
  41  223.6608
  42  101.4104
  43  218.3871
  44  120.5881
  45  141.3448
  46  124.4657
  47  124.6025
  48  129.1303
  49  76.88318
  50  165.1511
  51  255.9537
  52  302.7751
  53  165.7476
  54  272.2599
  55  210.72
  56  193.9131
  57  29.16031
  58  -24.2798
  59  64.66819
  60  1.257553
  61  110.6837
  62  35.77597
  63  56.89806
  64  193.5702
  65  202.3394
  66  213.8011
  67  287.154
  68  379.4729
  69  266.8992
  70  116.3844
  71  152.6009
  72  228.0179
  73  252.2059
  74  314.2742
  75  236.2438
  76  212.3575
  77  225.0351
  78  121.085
  79  20.16624
  80  183.9543
  81  42.83739
  82  46.17646
  83  162.8364
  84  182.1258
  85  39.75728
  86  66.58817
  87  62.66261
  88  125.9288
  89  132.8801
  90  75.10417
  91  167.5294
  92  287.9457
  93  172.3444
  94  -12.99935
  95  40.78695
  96  84.96545
  97  200.0492
  98  22.56145
  99  -9.642868
 100  159.1082
 101  189.4618
 102  80.14754
 103  114.0017
 104  196.725
 105  250.6656
 106  78.42516
 107  60.78709
 108  74.71259
 109  187.4244
 110  111.243
 111  160.7211
 112  126.1089
 113  -19.47903
 114  103.4207
 115  114.7231
 116  245.2967
 117  176.8337
 118  212.8844
 119  275.0095
 120  295.7155
 121  261.0835
 122  250.9698
 123  152.8146
 124  191.6024
 125  100.8571
 126  154.1549
 127  200.8431
 128  122.3215
 129  107.4761
 130  55.34362
 131  75.63417
 132  74.48
 133  9.089899
 134  83.76441
 135  140.3851
 136  154.9954
 137  167.5589
 138  49.7402
 139  16.1776
 140  114.3101
 141  43.92452
 142  123.5641
 143  203.8164
 144  352.1805
 145  219.8967
 146  195.7074
 147  230.979
 148  254.5714
 149  206.8652
 150  211.9225
 151  174.9319
 152  207.693
 153  48.93406
 154  -146.412
 155  -89.78764
 156  -73.46436
 157  82.78814
 158  127.6873
 159  213.7607
 160  140.7242
 161  132.3179
 162  239.7551
 163  235.9499
 164  136.0705
 165  155.4159
 166  228.6563
 167  97.36693
 168  138.4628
 169  77.77216
 170  104.9662
 171  116.1599
 172  83.56293
 173  225.8657
 174  194.5891
 175  240.7822
 176  150.9539
 177  121.8381
 178  87.47539
 179  116.0452
 180  37.66174
 181  128.3006
 182  136.6101
 183  109.2539
 184  132.6028
 185  108.5602
 186  159.2973
 187  260.9932
 188  215.2442
 189  143.0702
 190  43.82307
 191  88.65868
 192  134.928
 193  161.9508
 194  18.84909
 195  96.51305
 196  211.8262
 197  122.7967
 198  90.37421
 199  48.52502
 200  138.1667
 201  185.6212
 202  185.5338
 203  216.0315
 204  227.0918
 205  190.2917
 206  100.5496
 207  63.59836
 208  64.62473
 209  157.2527
 210  91.14103
 211  168.7908
 212  246.1538
 213  175.315
 214  112.9824
 215  61.73219
 216  269.4099
 217  296.4976
 218  123.7038
 219  39.37452
 220  181.8356
 221  163.5648
 222  160.8
 223  76.6904
 224  201.2888
 225  279.5901
 226  106.6551
 227  140.3259
 228  135.2026
 229  144.6311
 230  283.227
 231  259.5573
 232  225.9454
 233  139.9805
 234  -4.654178
 235  10.98439
 236  160.6104
 237  196.0112
 238  158.8905
 239  245.382
 240  220.7955
 241  208.8699
 242  122.7638
 243  125.5117
 244  159.6082
 245  116.5155
 246  128.1649
 247  209.6943
 248  192.0038
 249  172.9618
 250  197.5523
 251  237.9447
 252  242.7379
 253  321.6677
 254  591.1429
 255  612.3099
 256  602.7943
 257  844.3704
 258  1083.902
 259  1265.27
 260  1123.248
 261  806.4128
 262  489.6031
 263  317.9514
 264  95.17782
 265  67.35446
 266  184.5549
 267  207.7408
 268  256.41
 269  385.2415
 270  294.5568
 271  327.7825
 272  292.2839
 273  308.7919
 274  357.9578
 275  295.6203
 276  198.4726
 277  182.684
 278  203.4467
 279  153.3626
 280  150.8259
 281  87.41035
 282  265.2092
 283  241.2894
 284  338.9844
 285  304.3035
 286  64.47
 287  125.4508
 288  201.8855
 289  221.8467
 290  122.9708
 291  18.93159
 292  37.86004
 293  121.435
 294  279.2114
 295  96.0518
 296  41.12999
 297  208.1414
 298  226.523
 299  113.3626
 300  146.0236
 301  168.4856
 302  39.64963
 303  172.5859
 304  166.3992
 305  25.5669
 306  142.7847
 307  160.1908
 308  73.57785
 309  94.57932
 310  153.9552
 311  87.4257
 312  142.6035
 313  97.27128
 314  74.4553
 315  37.57866
 316  61.59538
 317  192.1576
 318  247.5931
 319  -7.94189
 320  -9.812534
 321  50.55583
 322  108.3342
 323  134.3592
 324  116.1572
 325  106.0088
 326  213.9389
 327  187.223
 328  67.07363
 329  88.40022
 330  222.0613
 331  139.3415
 332  212.6684
 333  213.8373
 334  211.5285
 335  185.9394
 336  181.1639
 337  205.9422
 338  199.1596
 339  214.4765
 340  111.2349
 341  77.8971
 342  49.97943
 343  52.00147
 344  173.7059
 345  164.6572
 346  122.7947
 347  129.737
 348  91.3172
 349  94.08077
 350  118.8939
 351  130.141
 352  129.3801
 353  150.6417
 354  82.36709
 355  89.4139
 356  106.6892
 357  212.9928
 358  109.7937
 359  186.2895
 360  146.4077
 361  57.49778
 362  54.70571
 363  104.8386
 364  131.1084
 365  308.3936
 366  250.9357
 367  146.0527
 368  71.3797
 369  79.59152
 370  -44.81598
 371  27.58104
 372  268.232
 373  287.1209
 374  260.5708
 375  224.2707
 376  123.9566
 377  148.4628
 378  185.0724
 379  309.7472
 380  181.4818
 381  93.08543
 382  105.9759
 383  125.2787
 384  4.35914
 385  107.4443
 386  90.80965
 387  18.27691
 388  76.97023
 389  91.94494
 390  75.25547
 391  180.637
 392  217.1687
 393  68.90038
 394  148.5665
 395  224.3408
 396  153.5078
 397  117.9996
 398  3.402209
 399  -4.118371
 400  54.95935
 401  122.9582
 402  69.72793
 403  -32.498
 404  62.94628
 405  118.2849
 406  15.94582
 407  -131.7968
 408  -47.20628
 409  92.20681
 410  8.611159
 411  4.234332
 412  82.51424
 413  83.41996
 414  98.25928
 415  93.73037
 416  92.78926
 417  -62.09774
 418  -47.31892
 419  82.37905
 420  49.3846
 421  142.6085
 422  83.82325
 423  -45.88473
 424  156.0701
 425  158.9589
 426  139.6656
 427  100.2818
 428  196.4217
 429  166.3838
 430  180.9198
 431  213.5122
 432  128.4568
 433  197.9955
 434  163.2746
 435  254.5589
 436  139.1363
 437  149.6876
 438  -16.35046
 439  53.8295
 440  62.74892
 441  52.53777
 442  -50.10606
 443  60.11509
 444  95.55556
 445  218.4126
 446  201.3068
 447  255.5083
 448  156.2824
 449  152.2413
 450  140.1436
 451  155.9368
 452  135.8761
 453  170.6642
 454  64.26323
 455  119.4308
 456  33.88252
 457  96.56089
 458  204.926
 459  104.8228
 460  102.5288
 461  93.9159
 462  122.3027
 463  104.6542
 464  71.64271
 465  132.1547
 466  156.8165
 467  113.7965
 468  236.2708
 469  251.9705
 470  94.87227
 471  99.23991
 472  205.1019
 473  54.51744
 474  -16.33787
 475  152.8663
 476  232.9461
 477  156.4754
 478  154.1217
 479  184.3021
 480  168.2533
 481  228.1401
 482  158.7126
 483  116.8084
 484  69.31342
 485  180.6286
 486  196.714
 487  140.452
 488  155.3797
 489  165.4845
 490  128.8929
 491  -14.94087
 492  -117.5696
 493  120.8709
 494  156.5987
 495  108.2384
 496  140.7825
 497  52.82586
 498  150.9944
 499  210.7893
 500  130.5357
 501  163.9213
 502  244.1283
 503  157.5208
 504  127.8694
 505  93.47567
 506  193.667
 507  172.5439
 508  142.3419
 509  171.829
 510  136.6613
 511  20.16796
