# Input file       =  1190777738.109756_cleaned.dat
# Candidate        =  PSR_0332+5434
# Telescope        =  AR
# Epoch_topo       =  58026.149966548102
# Epoch_bary       =  N/A
# T_sample         =  0.002
# Data Folded      =  7340032
# Data Avg         =  0.0342849414332055
# Data StdDev      =  3.0177436802083  
# Profile Bins     =  512
# Profile Avg      =  491.427233306515 
# Profile StdDev   =  361.323613838137 
# Reduced chi-sqr  =  1.317
# Prob(Noise)      <  1.76e-06   (~4.6 sigma)
# P_topo (ms)      =  714.472486353979  +/- 0.000224
# P'_topo (s/s)    =  -0                +/- 1.18e-10
# P''_topo (s/s^2) =  0                 +/- 5.21e-14
# P_bary (ms)      =  N/A
# P'_bary (s/s)    =  N/A
# P''_bary (s/s^2) =  N/A
# P_orb (s)        =  N/A
# asin(i)/c (s)    =  N/A
# eccentricity     =  N/A
# w (rad)          =  N/A
# T_peri           =  N/A
######################################################
   0  812.9415
   1  685.8456
   2  522.7714
   3  642.1715
   4  729.0179
   5  595.0213
   6  -54.62684
   7  439.1494
   8  386.5269
   9  579.452
  10  741.5817
  11  821.8882
  12  424.804
  13  504.3127
  14  353.7123
  15  369.2112
  16  567.7635
  17  399.4971
  18  250.16
  19  756.5952
  20  695.0184
  21  737.7742
  22  716.258
  23  438.3243
  24  272.2516
  25  275.7892
  26  282.1803
  27  439.3505
  28  570.5914
  29  297.0887
  30  454.5007
  31  382.1622
  32  471.1386
  33  378.939
  34  481.0972
  35  927.2976
  36  1601.857
  37  1686.773
  38  1896.317
  39  1986.289
  40  2019.223
  41  2163.863
  42  1602.655
  43  938.1074
  44  850.2817
  45  533.3863
  46  555.2877
  47  628.7676
  48  411.538
  49  419.3002
  50  661.6954
  51  611.7467
  52  118.4106
  53  491.2998
  54  752.4721
  55  449.8282
  56  611.3091
  57  521.1802
  58  250.9628
  59  206.15
  60  418.179
  61  290.8778
  62  134.1667
  63  293.8884
  64  294.9532
  65  234.5414
  66  268.7901
  67  222.092
  68  112.4616
  69  520.6188
  70  319.249
  71  6.384134
  72  153.9622
  73  133.2539
  74  178.7264
  75  260.5206
  76  94.71305
  77  272.4731
  78  134.8263
  79  174.3502
  80  203.063
  81  396.877
  82  303.2903
  83  430.7365
  84  412.8207
  85  623.243
  86  699.0394
  87  182.7683
  88  225.045
  89  312.4356
  90  594.7057
  91  501.452
  92  662.7449
  93  860.2047
  94  464.9517
  95  980.0965
  96  957.3276
  97  539.6008
  98  418.43
  99  436.0578
 100  617.4456
 101  315.3682
 102  427.1542
 103  479.6094
 104  264.5658
 105  363.0048
 106  406.4805
 107  664.9049
 108  454.3595
 109  615.512
 110  525.986
 111  582.1097
 112  983.6305
 113  905.7887
 114  502.659
 115  298.1063
 116  653.202
 117  488.5962
 118  310.9564
 119  813.475
 120  759.9657
 121  433.1788
 122  484.0889
 123  538.1739
 124  693.1959
 125  868.2412
 126  1051.285
 127  741.118
 128  752.8182
 129  701.7528
 130  605.8514
 131  515.1645
 132  272.0822
 133  923.5596
 134  1387.646
 135  753.2216
 136  415.7024
 137  473.1313
 138  537.5142
 139  75.29027
 140  139.8802
 141  610.7936
 142  249.6286
 143  266.9914
 144  798.8115
 145  716.2339
 146  1098.494
 147  1024.634
 148  797.124
 149  765.8753
 150  240.3812
 151  739.081
 152  604.1492
 153  551.6988
 154  1136.28
 155  799.4849
 156  582.5175
 157  619.8456
 158  678.0154
 159  562.96
 160  224.2151
 161  306.6297
 162  951.53
 163  892.7667
 164  706.8686
 165  588.0185
 166  408.0168
 167  184.2652
 168  178.5837
 169  590.4249
 170  563.9753
 171  261.847
 172  193.7891
 173  436.0988
 174  583.3619
 175  210.5112
 176  469.6918
 177  727.0343
 178  895.8651
 179  1203.787
 180  447.9987
 181  212.1744
 182  90.04128
 183  216.4316
 184  662.7
 185  515.3746
 186  340.4653
 187  740.7518
 188  799.9713
 189  604.7433
 190  -38.41888
 191  -143.2031
 192  606.2923
 193  1013.601
 194  719.0866
 195  911.6149
 196  564.5479
 197  481.6189
 198  535.1198
 199  294.1212
 200  422.6353
 201  602.7898
 202  513.6165
 203  399.9354
 204  484.7088
 205  694.8279
 206  445.2664
 207  863.0129
 208  754.2488
 209  248.918
 210  173.7433
 211  314.5053
 212  278.2214
 213  342.7994
 214  216.1118
 215  480.2585
 216  431.2039
 217  439.5742
 218  220.6608
 219  410.0238
 220  722.749
 221  278.3877
 222  257.4973
 223  567.9771
 224  609.8735
 225  318.8598
 226  336.3055
 227  190.9093
 228  302.5768
 229  114.4824
 230  158.1539
 231  297.5758
 232  599.0134
 233  487.5574
 234  438.6461
 235  706.7281
 236  461.3247
 237  616.8566
 238  888.6802
 239  891.9291
 240  403.849
 241  163.2699
 242  498.6648
 243  424.3621
 244  584.3051
 245  699.7307
 246  288.9595
 247  366.6238
 248  279.8041
 249  348.2575
 250  438.1345
 251  444.7719
 252  351.5525
 253  284.7286
 254  355.3806
 255  771.6857
 256  610.3909
 257  264.2718
 258  373.6478
 259  460.5981
 260  643.5028
 261  861.8242
 262  721.2967
 263  420.9753
 264  335.2347
 265  395.9082
 266  265.056
 267  -6.295362
 268  469.9138
 269  759.0102
 270  611.9173
 271  334.7156
 272  11.09425
 273  147.2273
 274  267.2142
 275  476.5028
 276  395.2421
 277  244.5486
 278  191.2419
 279  -203.7594
 280  75.47828
 281  322.0777
 282  681.0442
 283  933.0452
 284  384.2468
 285  201.0701
 286  339.2523
 287  645.5019
 288  606.5017
 289  588.2228
 290  907.0445
 291  730.8143
 292  996.5611
 293  632.6807
 294  891.2946
 295  723.7178
 296  123.249
 297  402.1852
 298  681.0333
 299  603.7864
 300  508.5811
 301  594.9826
 302  667.0508
 303  754.9482
 304  335.9935
 305  710.9108
 306  633.5222
 307  550.8715
 308  444.0462
 309  846.397
 310  669.6983
 311  881.9349
 312  607.5869
 313  133.5588
 314  -53.34073
 315  -110.7576
 316  180.2818
 317  213.817
 318  394.2004
 319  462.6861
 320  308.3116
 321  313.5952
 322  475.7029
 323  408.7843
 324  546.3351
 325  807.2015
 326  801.8416
 327  218.1581
 328  19.98141
 329  -15.15271
 330  10.01928
 331  258.078
 332  238.0101
 333  -0.1147205
 334  375.31
 335  177.3931
 336  69.7582
 337  144.4735
 338  116.8043
 339  -90.56966
 340  13.14954
 341  253.064
 342  139.0768
 343  499.2543
 344  275.1394
 345  464.0481
 346  447.5533
 347  516.6522
 348  473.5221
 349  456.8477
 350  712.076
 351  675.8358
 352  451.5129
 353  458.329
 354  488.4196
 355  -79.78554
 356  95.63949
 357  361.1324
 358  846.1824
 359  856.6081
 360  311.7505
 361  261.6891
 362  553.6813
 363  798.4229
 364  1022.332
 365  630.8614
 366  653.9008
 367  508.8399
 368  220.1469
 369  175.3748
 370  233.7859
 371  -20.24588
 372  357.2224
 373  438.4528
 374  104.6988
 375  152.353
 376  194.5247
 377  308.4765
 378  347.1473
 379  313.1469
 380  791.7563
 381  684.3488
 382  12.96947
 383  443.4193
 384  441.0633
 385  240.599
 386  415.8421
 387  508.6728
 388  566.0945
 389  164.8205
 390  194.5284
 391  487.5801
 392  562.2173
 393  524.5995
 394  756.1998
 395  295.3116
 396  409.6057
 397  722.3046
 398  546.1794
 399  613.022
 400  508.5696
 401  224.6252
 402  415.2085
 403  105.5873
 404  319.4411
 405  671.5814
 406  341.0355
 407  327.2703
 408  717.2476
 409  520.3907
 410  194.2148
 411  281.6457
 412  344.2581
 413  809.8343
 414  658.7376
 415  430.1466
 416  637.2259
 417  1138.927
 418  916.0611
 419  420.3728
 420  329.2276
 421  994.952
 422  1068.641
 423  694.7404
 424  803.9149
 425  765.7527
 426  530.379
 427  552.7845
 428  592.9377
 429  509.2587
 430  364.7788
 431  672.8594
 432  509.545
 433  388.347
 434  643.4164
 435  851.6969
 436  319.3689
 437  486.0696
 438  571.4121
 439  215.0297
 440  299.835
 441  462.3596
 442  455.6664
 443  532.3674
 444  77.17298
 445  472.5464
 446  843.3696
 447  436.2094
 448  152.5543
 449  291.0489
 450  702.687
 451  648.7679
 452  700.2086
 453  450.3835
 454  416.6662
 455  462.3104
 456  329.6604
 457  6.736839
 458  96.62495
 459  706.941
 460  536.4229
 461  104.2393
 462  518.9252
 463  353.6936
 464  449.8227
 465  443.2183
 466  574.7054
 467  683.9702
 468  408.1167
 469  277.944
 470  465.6788
 471  655.8989
 472  449.5134
 473  1025.743
 474  769.7628
 475  637.3391
 476  326.4458
 477  341.2396
 478  -89.29156
 479  -181.6584
 480  621.5773
 481  1004.774
 482  1039.376
 483  413.5545
 484  127.5881
 485  288.5156
 486  247.8656
 487  347.0007
 488  201.4727
 489  415.162
 490  130.5779
 491  278.0536
 492  426.2466
 493  90.33167
 494  655.0062
 495  555.8105
 496  756.3726
 497  331.5644
 498  131.482
 499  442.8701
 500  175.1482
 501  333.7836
 502  781.7683
 503  497.1326
 504  465.6683
 505  353.8941
 506  498.9923
 507  663.6274
 508  696.1903
 509  827.8539
 510  981.3268
 511  685.3848
