# Input file       =  1190950050.106759_cleaned.dat
# Candidate        =  PSR_0332+5434
# Telescope        =  AR
# Epoch_topo       =  58028.144318365266
# Epoch_bary       =  N/A
# T_sample         =  0.002
# Data Folded      =  7340032
# Data Avg         =  0.0273452894730976
# Data StdDev      =  3.21481866065511 
# Profile Bins     =  512
# Profile Avg      =  392.143065438185 
# Profile StdDev   =  384.919999640926 
# Reduced chi-sqr  =  1.483
# Prob(Noise)      <  7.11e-12   (~6.8 sigma)
# P_topo (ms)      =  714.473576084747  +/- 0.000202
# P'_topo (s/s)    =  -0                +/- 1.06e-10
# P''_topo (s/s^2) =  0                 +/- 4.7e-14
# P_bary (ms)      =  N/A
# P'_bary (s/s)    =  N/A
# P''_bary (s/s^2) =  N/A
# P_orb (s)        =  N/A
# asin(i)/c (s)    =  N/A
# eccentricity     =  N/A
# w (rad)          =  N/A
# T_peri           =  N/A
######################################################
   0  -161.727
   1  -202.7338
   2  -90.54411
   3  269.5367
   4  193.3313
   5  -44.98353
   6  138.0746
   7  104.669
   8  149.0917
   9  35.00291
  10  432.3869
  11  424.4716
  12  89.6587
  13  409.9884
  14  620.6735
  15  461.2979
  16  535.0068
  17  542.3148
  18  574.1282
  19  592.984
  20  733.1404
  21  416.3951
  22  133.8362
  23  130.4417
  24  293.4767
  25  107.7623
  26  515.6584
  27  552.2151
  28  607.9238
  29  523.989
  30  399.3122
  31  470.753
  32  679.9369
  33  246.0965
  34  375.613
  35  378.4136
  36  479.3302
  37  433.7324
  38  488.3567
  39  369.5549
  40  -240.5999
  41  -181.7531
  42  412.0154
  43  843.3217
  44  555.6322
  45  338.4247
  46  504.3464
  47  472.9221
  48  283.0177
  49  27.8538
  50  124.0826
  51  481.6971
  52  420.5547
  53  923.3726
  54  905.7072
  55  83.15396
  56  87.18005
  57  553.7979
  58  323.329
  59  718.9039
  60  575.5435
  61  73.27561
  62  37.50369
  63  402.8327
  64  508.5238
  65  547.1435
  66  639.8571
  67  787.7357
  68  692.5085
  69  645.0517
  70  226.0146
  71  149.5867
  72  293.3584
  73  37.28867
  74  -143.6728
  75  272.3001
  76  222.2425
  77  -13.41866
  78  286.5812
  79  421.6178
  80  276.9734
  81  140.0591
  82  606.3967
  83  710.2195
  84  631.6158
  85  1068.241
  86  401.1441
  87  177.2709
  88  202.7314
  89  279.3755
  90  -74.50852
  91  94.13006
  92  249.6515
  93  635.0074
  94  661.0006
  95  729.0689
  96  771.3132
  97  212.4088
  98  282.9577
  99  523.4424
 100  342.6388
 101  587.2734
 102  796.3366
 103  1046.238
 104  618.2883
 105  563.5403
 106  192.9645
 107  641.4496
 108  718.7522
 109  753.0049
 110  501.6325
 111  938.8347
 112  1043.745
 113  701.4983
 114  307.6613
 115  234.873
 116  631.4988
 117  313.1792
 118  139.6766
 119  444.7145
 120  1047.282
 121  910.7937
 122  288.5004
 123  239.9783
 124  698.4194
 125  453.1412
 126  358.0366
 127  283.5154
 128  398.0997
 129  422.4434
 130  913.0487
 131  749.8991
 132  516.4524
 133  579.7064
 134  527.7906
 135  680.2462
 136  611.8209
 137  833.314
 138  842.5284
 139  348.2149
 140  388.1635
 141  634.095
 142  351.0642
 143  307.8257
 144  345.7212
 145  501.555
 146  419.451
 147  229.2432
 148  254.0057
 149  289.9112
 150  292.8445
 151  491.878
 152  753.4747
 153  736.5402
 154  -34.12616
 155  -71.40991
 156  559.35
 157  502.1201
 158  574.7937
 159  720.9769
 160  948.5463
 161  608.3631
 162  222.1685
 163  904.7628
 164  411.5242
 165  64.70491
 166  438.6604
 167  338.0052
 168  353.538
 169  659.7917
 170  358.6355
 171  310.5858
 172  356.1002
 173  322.4125
 174  386.9414
 175  314.473
 176  73.18045
 177  138.7794
 178  -136.0193
 179  270.2521
 180  424.4968
 181  834.494
 182  841.3352
 183  727.7109
 184  721.4534
 185  326.5559
 186  186.0694
 187  59.89932
 188  -45.14405
 189  49.99991
 190  432.0696
 191  326.7687
 192  551.826
 193  758.6506
 194  532.8201
 195  617.6127
 196  591.9374
 197  223.6176
 198  489.2058
 199  367.3913
 200  204.2445
 201  270.0684
 202  192.4494
 203  131.5227
 204  -288.5408
 205  -258.4472
 206  434.0774
 207  424.9041
 208  393.4641
 209  514.835
 210  245.4364
 211  83.05699
 212  16.4887
 213  189.2506
 214  532.1816
 215  661.0457
 216  336.7752
 217  707.027
 218  972.0735
 219  1245.399
 220  582.5781
 221  337.5457
 222  419.9513
 223  366.8864
 224  451.3758
 225  127.829
 226  19.21925
 227  267.4109
 228  134.1281
 229  387.7022
 230  296.6933
 231  260.2258
 232  360.087
 233  250.8812
 234  171.4449
 235  201.2755
 236  541.8005
 237  510.5365
 238  270.3732
 239  308.577
 240  196.8495
 241  164.6799
 242  174.7024
 243  500.2838
 244  568.8975
 245  357.7222
 246  308.2806
 247  826.8937
 248  580.9958
 249  209.2505
 250  60.85421
 251  806.6232
 252  898.4532
 253  942.7247
 254  1094.089
 255  970.7265
 256  656.8175
 257  837.6503
 258  504.4776
 259  388.596
 260  925.1341
 261  1341.42
 262  2413.942
 263  2482.104
 264  2131.114
 265  2191.061
 266  1631.213
 267  1312.389
 268  1425.847
 269  952.294
 270  480.7178
 271  584.9649
 272  776.1559
 273  563.0181
 274  172.6793
 275  550.4226
 276  597.7246
 277  874.008
 278  948.246
 279  1178.489
 280  1017.316
 281  588.8853
 282  436.5345
 283  649.005
 284  427.8126
 285  562.116
 286  372.7231
 287  -101.5645
 288  -85.53793
 289  -45.58758
 290  172.037
 291  27.82043
 292  372.6955
 293  478.6158
 294  242.508
 295  180.145
 296  738.0366
 297  376.1685
 298  540.4602
 299  435.4352
 300  226.1022
 301  52.14205
 302  355.2658
 303  268.8495
 304  427.4626
 305  760.3329
 306  559.4541
 307  458.7277
 308  342.2716
 309  17.42381
 310  145.6523
 311  355.3969
 312  394.7211
 313  669.878
 314  460.4453
 315  275.9412
 316  469.1848
 317  226.3089
 318  330.009
 319  431.5219
 320  223.5725
 321  291.4572
 322  335.1579
 323  99.46622
 324  178.7195
 325  480.3126
 326  176.2997
 327  401.8496
 328  336.2881
 329  21.91589
 330  60.60202
 331  347.6143
 332  586.6728
 333  634.8622
 334  669.5427
 335  765.1929
 336  381.0682
 337  183.8539
 338  316.8957
 339  -188.5828
 340  -6.815453
 341  496.587
 342  617.9174
 343  692.0325
 344  415.9217
 345  135.6839
 346  162.765
 347  725.8514
 348  712.4427
 349  221.9717
 350  109.7095
 351  602.5753
 352  718.4352
 353  572.587
 354  677.6624
 355  528.3605
 356  311.6609
 357  375.9575
 358  214.9612
 359  308.1007
 360  453.4149
 361  76.69321
 362  201.619
 363  185.8066
 364  363.8989
 365  493.6537
 366  572.1288
 367  474.4724
 368  450.1431
 369  80.33896
 370  87.00994
 371  438.0941
 372  601.9409
 373  1054.535
 374  526.8286
 375  -149.1155
 376  -275.2457
 377  238.7386
 378  612.6061
 379  262.4672
 380  434.9638
 381  749.0074
 382  536.093
 383  625.94
 384  542.237
 385  60.03067
 386  139.1177
 387  409.4825
 388  159.1771
 389  242.5382
 390  204.5005
 391  57.87811
 392  22.9308
 393  496.7893
 394  540.7724
 395  335.4141
 396  226.2033
 397  527.2872
 398  760.3378
 399  575.1168
 400  435.1481
 401  132.1661
 402  184.1514
 403  293.9135
 404  369.8035
 405  656.8142
 406  370.291
 407  -256.0802
 408  -8.350418
 409  -178.999
 410  320.3279
 411  27.58167
 412  359.5793
 413  591.6254
 414  265.3043
 415  189.901
 416  134.1421
 417  363.0233
 418  246.9103
 419  268.3304
 420  636.5267
 421  393.8822
 422  -60.82378
 423  311.8605
 424  563.0522
 425  344.0533
 426  392.1849
 427  139.8247
 428  411.518
 429  273.9348
 430  -261.7176
 431  -96.09791
 432  -29.24875
 433  253.5566
 434  381.2776
 435  498.1435
 436  650.7794
 437  418.0888
 438  332.1662
 439  496.3902
 440  253.3421
 441  186.5741
 442  470.158
 443  154.947
 444  -354.2887
 445  -58.55777
 446  510.4121
 447  493.7806
 448  161.5365
 449  437.2446
 450  194.5373
 451  -22.7541
 452  274.7818
 453  256.6608
 454  526.5959
 455  247.1855
 456  92.32655
 457  579.4507
 458  459.5988
 459  618.0205
 460  19.80291
 461  -127.8577
 462  460.3636
 463  -21.81875
 464  -2.894929
 465  -1.592139
 466  -138.0344
 467  140.2629
 468  81.31091
 469  -114.3848
 470  -105.9114
 471  289.6202
 472  -107.9629
 473  -59.90524
 474  289.8323
 475  716.3591
 476  39.4946
 477  -47.88995
 478  216.3653
 479  378.6757
 480  -36.75431
 481  -307.5277
 482  20.66902
 483  503.186
 484  660.568
 485  514.2248
 486  80.39888
 487  42.01354
 488  -162.7894
 489  -201.4538
 490  -172.4599
 491  398.0971
 492  495.5599
 493  304.3495
 494  277.2721
 495  -82.92209
 496  -247.4977
 497  -237.6536
 498  450.6635
 499  686.9852
 500  448.1025
 501  65.37626
 502  180.0056
 503  102.505
 504  382.5099
 505  506.8024
 506  293.8659
 507  518.5184
 508  449.5364
 509  323.73
 510  295.6699
 511  144.7519
