# Input file       =  1190748188.106715_cleaned.dat
# Candidate        =  PSR_0332+5434
# Telescope        =  AR
# Epoch_topo       =  58025.807952624018
# Epoch_bary       =  N/A
# T_sample         =  0.002
# Data Folded      =  7208960
# Data Avg         =  0.0246006300301066
# Data StdDev      =  0.999942161722719
# Profile Bins     =  512
# Profile Avg      =  346.346518830272 
# Profile StdDev   =  118.652312751219 
# Reduced chi-sqr  =  1.486
# Prob(Noise)      <  5.15e-12   (~6.8 sigma)
# P_topo (ms)      =  714.471955218984  +/- 0.000282
# P'_topo (s/s)    =  -0                +/- 1.51e-10
# P''_topo (s/s^2) =  0                 +/- 6.81e-14
# P_bary (ms)      =  N/A
# P'_bary (s/s)    =  N/A
# P''_bary (s/s^2) =  N/A
# P_orb (s)        =  N/A
# asin(i)/c (s)    =  N/A
# eccentricity     =  N/A
# w (rad)          =  N/A
# T_peri           =  N/A
######################################################
   0  468.6652
   1  426.6948
   2  387.0293
   3  343.8003
   4  306.1036
   5  371.2051
   6  367.6416
   7  299.4206
   8  301.1416
   9  352.3355
  10  398.4976
  11  325.1882
  12  203.062
  13  232.0452
  14  379.7878
  15  460.2617
  16  312.487
  17  190.1346
  18  306.8519
  19  508.1894
  20  367.9262
  21  326.1488
  22  255.0697
  23  271.533
  24  177.9916
  25  169.4864
  26  310.5531
  27  342.3735
  28  373.6382
  29  321.666
  30  302.9631
  31  301.7708
  32  270.1296
  33  365.4686
  34  260.29
  35  207.9848
  36  224.5732
  37  404.7733
  38  573.3754
  39  426.4127
  40  374.4107
  41  320.2171
  42  350.936
  43  385.084
  44  402.4672
  45  427.3974
  46  354.2872
  47  180.9243
  48  284.9373
  49  328.5407
  50  313.7199
  51  398.5706
  52  345.5477
  53  276.0454
  54  410.2483
  55  377.7791
  56  338.7808
  57  336.014
  58  355.6001
  59  301.3759
  60  278.7386
  61  440.5846
  62  381.7039
  63  342.9625
  64  325.6416
  65  375.7677
  66  335.619
  67  408.7039
  68  478.1529
  69  399.5917
  70  389.9359
  71  359.8108
  72  358.6183
  73  252.0105
  74  334.1804
  75  220.5206
  76  308.5234
  77  494.8776
  78  464.6263
  79  309.0475
  80  306.1413
  81  362.9921
  82  265.5487
  83  240.7805
  84  250.9035
  85  256.5161
  86  308.0777
  87  346.4397
  88  438.2155
  89  375.4899
  90  256.2186
  91  273.0618
  92  371.6254
  93  356.3643
  94  380.1687
  95  397.9015
  96  343.4979
  97  343.1554
  98  355.4276
  99  340.2013
 100  306.1016
 101  332.2847
 102  197.8504
 103  233.8104
 104  436.5156
 105  348.4387
 106  368.3368
 107  253.705
 108  276.2656
 109  350.691
 110  213.362
 111  442.3519
 112  354.9262
 113  358.2176
 114  392.7456
 115  314.5611
 116  374.3974
 117  396.9526
 118  382.3223
 119  340.0325
 120  315.324
 121  287.1723
 122  361.8181
 123  399.2092
 124  422.5669
 125  393.8926
 126  269.4977
 127  335.6561
 128  326.6737
 129  334.2904
 130  494.8262
 131  393.9516
 132  320.0591
 133  288.0899
 134  297.501
 135  400.2415
 136  334.8413
 137  462.7035
 138  355.0298
 139  315.903
 140  339.2514
 141  389.3462
 142  525.284
 143  599.3386
 144  623.0236
 145  725.0742
 146  989.3813
 147  1047.217
 148  1027.099
 149  961.0194
 150  799.9097
 151  650.2288
 152  528.286
 153  372.7335
 154  394.2245
 155  297.6908
 156  284.5909
 157  383.0765
 158  408.3537
 159  395.8247
 160  402.413
 161  374.7601
 162  414.9195
 163  350.5963
 164  385.9962
 165  476.2526
 166  504.5305
 167  340.2654
 168  401.124
 169  520.9432
 170  326.1396
 171  334.3625
 172  303.013
 173  353.4822
 174  254.2009
 175  197.0224
 176  279.71
 177  216.5749
 178  322.0488
 179  293.5787
 180  218.2313
 181  231.4249
 182  286.7881
 183  406.4525
 184  401.2051
 185  447.1162
 186  347.1932
 187  406.7992
 188  421.7891
 189  417.8065
 190  324.4914
 191  284.451
 192  298.2897
 193  397.673
 194  442.6477
 195  320.2644
 196  267.955
 197  252.7934
 198  323.2817
 199  408.4215
 200  332.492
 201  271.6106
 202  318.6242
 203  201.8994
 204  175.0706
 205  279.3141
 206  263.6313
 207  251.1164
 208  327.177
 209  366.3127
 210  456.9471
 211  269.4122
 212  353.7568
 213  331.0946
 214  277.7894
 215  358.3593
 216  412.22
 217  401.8376
 218  324.4446
 219  381.5227
 220  419.982
 221  415.2369
 222  382.2981
 223  264.0971
 224  257.9951
 225  311.4748
 226  400.7579
 227  399.1003
 228  497.9509
 229  481.5012
 230  314.3341
 231  247.9151
 232  214.0439
 233  277.0158
 234  183.057
 235  226.7318
 236  279.564
 237  242.2417
 238  230.449
 239  379.824
 240  503.833
 241  436.3428
 242  354.218
 243  162.1247
 244  365.0925
 245  372.1197
 246  443.508
 247  399.9337
 248  219.6859
 249  204.2116
 250  280.2026
 251  286.4766
 252  268.7806
 253  301.7579
 254  360.5411
 255  223.8583
 256  227.5493
 257  245.1725
 258  189.3074
 259  154.7784
 260  336.2361
 261  452.3148
 262  338.0245
 263  378.9782
 264  292.5309
 265  424.7326
 266  394.8225
 267  395.8813
 268  532.0464
 269  418.2011
 270  318.6814
 271  376.0514
 272  306.2986
 273  449.1961
 274  413.5055
 275  304.3958
 276  371.0271
 277  409.7769
 278  451.8295
 279  476.4268
 280  449.5652
 281  373.6975
 282  267.9965
 283  265.7552
 284  331.8361
 285  421.6874
 286  363.0526
 287  371.9525
 288  367.1524
 289  335.0323
 290  291.4478
 291  388.7968
 292  381.1271
 293  362.3025
 294  391.5833
 295  353.7252
 296  191.8313
 297  163.0378
 298  297.8119
 299  323.2171
 300  295.1897
 301  361.8814
 302  348.802
 303  178.2686
 304  171.7472
 305  215.1978
 306  210.6398
 307  116.7916
 308  274.5526
 309  343.9611
 310  383.469
 311  343.7043
 312  343.7327
 313  160.5572
 314  261.5636
 315  327.2568
 316  282.3559
 317  328.5534
 318  319.744
 319  448.4984
 320  489.0024
 321  418.5845
 322  398.8552
 323  513.2507
 324  561.4761
 325  452.4907
 326  367.9342
 327  352.0302
 328  445.1413
 329  467.6944
 330  304.7958
 331  296.371
 332  348.1619
 333  316.4352
 334  331.0852
 335  379.9172
 336  321.0588
 337  393.1946
 338  354.5404
 339  350.8097
 340  272.6108
 341  262.68
 342  298.5077
 343  354.3208
 344  185.8151
 345  327.9357
 346  419.2164
 347  564.5677
 348  432.4503
 349  288.5464
 350  273.1041
 351  366.1343
 352  451.1789
 353  495.6781
 354  280.4272
 355  235.9511
 356  412.6245
 357  378.4923
 358  302.7365
 359  239.3754
 360  317.126
 361  327.4507
 362  349.8717
 363  200.897
 364  267.8306
 365  366.8946
 366  514.1813
 367  401.0152
 368  287.1981
 369  195.1166
 370  407.2617
 371  470.2935
 372  289.2635
 373  234.7035
 374  352.7995
 375  311.0399
 376  320.6243
 377  292.0538
 378  308.5909
 379  349.6652
 380  274.9777
 381  319.3714
 382  376.8648
 383  275.3966
 384  350.4305
 385  304.3826
 386  345.5081
 387  333.6381
 388  345.366
 389  422.3997
 390  266.1
 391  282.4848
 392  440.9962
 393  475.7787
 394  474.9725
 395  489.2444
 396  532.5778
 397  434.592
 398  298.0916
 399  290.146
 400  309.8948
 401  254.3935
 402  340.6587
 403  312.8404
 404  271.3842
 405  218.7371
 406  341.0328
 407  399.8087
 408  173.4714
 409  270.7935
 410  375.9307
 411  476.0889
 412  372.4789
 413  341.1926
 414  354.0035
 415  310.4022
 416  274.39
 417  257.6999
 418  286.6306
 419  304.3961
 420  235.1237
 421  247.676
 422  310.3151
 423  358.9387
 424  374.8988
 425  369.9987
 426  259.5561
 427  284.0937
 428  437.2524
 429  452.4346
 430  474.1718
 431  392.0406
 432  439.3672
 433  332.6644
 434  243.7705
 435  280.6933
 436  281.6432
 437  292.7152
 438  340.192
 439  389.8612
 440  368.7792
 441  429.0075
 442  430.8685
 443  372.1955
 444  394.3768
 445  376.1695
 446  431.2819
 447  232.1587
 448  198.7622
 449  241.9426
 450  346.9577
 451  476.7479
 452  509.2429
 453  503.9732
 454  467.1571
 455  364.6042
 456  423.4717
 457  345.5716
 458  321.0462
 459  321.5059
 460  321.0267
 461  231.612
 462  88.47009
 463  171.9363
 464  298.8332
 465  299.76
 466  279.6573
 467  302.1173
 468  320.1035
 469  226.2901
 470  278.6921
 471  337.3894
 472  303.1107
 473  269.5206
 474  133.3123
 475  284.4862
 476  451.2596
 477  351.2089
 478  274.738
 479  314.4789
 480  298.57
 481  281.9395
 482  367.5523
 483  347.4821
 484  311.1785
 485  304.783
 486  282.0406
 487  356.5151
 488  330.756
 489  231.0066
 490  278.4442
 491  279.3997
 492  260.7198
 493  197.0612
 494  351.0145
 495  432.4305
 496  360.5958
 497  247.5769
 498  289.1489
 499  323.9333
 500  285.8161
 501  285.6408
 502  359.9191
 503  290.3908
 504  273.9257
 505  234.688
 506  471.4803
 507  314.0416
 508  334.9422
 509  482.2422
 510  335.7393
 511  391.8935
