# Input file       =  1190677245.097413_cleaned.dat
# Candidate        =  PSR_0332+5434
# Telescope        =  AR
# Epoch_topo       =  58024.986852979317
# Epoch_bary       =  N/A
# T_sample         =  0.002
# Data Folded      =  7340032
# Data Avg         =  0.0108679952016192
# Data StdDev      =  1.000020954176   
# Profile Bins     =  512
# Profile Avg      =  155.897208905972 
# Profile StdDev   =  119.735545283883 
# Reduced chi-sqr  =  2.004
# Prob(Noise)      <  1.4e-36   (~12.6 sigma)
# P_topo (ms)      =  714.471549964824  +/- 0.00014
# P'_topo (s/s)    =  -0                +/- 7.36e-11
# P''_topo (s/s^2) =  0                 +/- 3.25e-14
# P_bary (ms)      =  N/A
# P'_bary (s/s)    =  N/A
# P''_bary (s/s^2) =  N/A
# P_orb (s)        =  N/A
# asin(i)/c (s)    =  N/A
# eccentricity     =  N/A
# w (rad)          =  N/A
# T_peri           =  N/A
######################################################
   0  189.4125
   1  99.60901
   2  91.12537
   3  -58.84159
   4  -25.69951
   5  111.8243
   6  172.9383
   7  124.6122
   8  199.9604
   9  296.167
  10  128.3652
  11  69.27606
  12  160.368
  13  158.4958
  14  128.2592
  15  99.78417
  16  137.4842
  17  207.7802
  18  312.4617
  19  216.3321
  20  194.2697
  21  73.24851
  22  57.50352
  23  15.33067
  24  4.6714
  25  112.011
  26  75.2738
  27  41.44116
  28  153.1447
  29  8.31886
  30  35.59901
  31  -43.51175
  32  129.0929
  33  202.9098
  34  314.5928
  35  124.5311
  36  144.8878
  37  144.0683
  38  73.96992
  39  48.07943
  40  107.0871
  41  199.8757
  42  231.637
  43  126.5983
  44  37.59781
  45  150.7957
  46  343.6622
  47  206.6527
  48  141.7976
  49  210.4075
  50  93.69159
  51  163.1259
  52  118.2487
  53  185.9215
  54  59.47109
  55  21.38663
  56  88.65527
  57  100.7152
  58  78.75992
  59  119.2879
  60  174.5526
  61  228.4022
  62  200.8055
  63  88.18984
  64  90.5527
  65  127.7547
  66  57.74077
  67  161.3353
  68  102.0482
  69  156.649
  70  179.7566
  71  183.729
  72  164.982
  73  67.57422
  74  110.191
  75  153.1307
  76  165.9997
  77  271.9107
  78  213.8678
  79  153.9615
  80  229.4069
  81  194.2801
  82  213.6467
  83  292.3755
  84  274.9153
  85  213.2901
  86  237.567
  87  273.3351
  88  254.5369
  89  119.3475
  90  -30.39968
  91  119.8399
  92  82.09572
  93  82.12511
  94  157.8255
  95  304.5851
  96  249.8214
  97  129.1096
  98  191.1041
  99  268.9554
 100  258.3053
 101  84.06202
 102  129.3926
 103  106.6979
 104  136.2285
 105  175.3208
 106  246.6472
 107  157.1685
 108  47.9397
 109  196.0036
 110  344.3429
 111  190.0945
 112  116.3231
 113  17.04838
 114  48.16819
 115  109.9231
 116  120.2447
 117  127.6796
 118  254.809
 119  311.1444
 120  133.1548
 121  92.55159
 122  125.1167
 123  94.58982
 124  149.689
 125  188.4475
 126  59.25302
 127  112.0858
 128  238.7021
 129  151.3622
 130  3.508083
 131  217.0847
 132  252.575
 133  151.6962
 134  -53.62448
 135  83.02111
 136  145.9597
 137  219.0112
 138  283.6037
 139  171.1063
 140  1.982098
 141  89.88514
 142  208.7188
 143  201.3345
 144  225.3004
 145  67.06068
 146  269.6226
 147  238.2046
 148  75.93717
 149  81.73222
 150  217.9452
 151  207.6166
 152  95.65414
 153  68.33897
 154  264.8068
 155  198.583
 156  60.98319
 157  212.5606
 158  129.7266
 159  159.0906
 160  130.9003
 161  187.0372
 162  174.2111
 163  102.5956
 164  148.492
 165  135.7843
 166  187.3994
 167  163.6683
 168  157.8653
 169  93.23948
 170  41.21034
 171  108.8286
 172  205.4944
 173  201.0065
 174  220.1588
 175  82.75951
 176  89.68536
 177  233.6703
 178  244.5353
 179  243.8022
 180  196.0448
 181  288.5883
 182  112.7838
 183  49.34597
 184  -38.8228
 185  128.2239
 186  186.9753
 187  158.73
 188  183.2358
 189  114.3135
 190  95.25725
 191  223.4554
 192  192.6085
 193  198.8543
 194  147.926
 195  113.3918
 196  92.69435
 197  93.49782
 198  336.9571
 199  305.1578
 200  71.9202
 201  67.74429
 202  91.33027
 203  244.4077
 204  236.7705
 205  164.3174
 206  69.64854
 207  80.17113
 208  149.3442
 209  219.2292
 210  -119.8189
 211  -179.7564
 212  21.70208
 213  181.1994
 214  248.8448
 215  187.2068
 216  327.181
 217  281.2169
 218  134.3369
 219  119.4531
 220  74.37737
 221  89.93847
 222  120.1632
 223  266.3797
 224  177.2957
 225  88.53615
 226  1.968661
 227  114.9347
 228  40.73169
 229  -41.00834
 230  77.99324
 231  216.15
 232  216.7448
 233  173.9645
 234  43.57788
 235  40.99501
 236  46.07484
 237  127.4397
 238  157.9834
 239  72.5899
 240  67.13008
 241  31.85646
 242  140.3708
 243  67.84129
 244  126.3492
 245  143.5451
 246  141.2233
 247  112.1986
 248  136.3015
 249  111.1181
 250  41.57571
 251  94.19106
 252  86.55404
 253  112.3582
 254  182.1634
 255  43.18224
 256  144.4338
 257  131.1634
 258  85.13993
 259  171.719
 260  235.7486
 261  180.738
 262  144.8505
 263  162.3069
 264  209.9099
 265  117.6001
 266  190.3476
 267  275.9552
 268  250.1885
 269  144.0999
 270  181.7546
 271  188.8751
 272  241.8571
 273  172.3308
 274  189.0665
 275  329.8563
 276  165.7496
 277  38.61998
 278  6.481125
 279  132.3598
 280  190.5182
 281  319.1323
 282  372.4868
 283  192.0647
 284  246.0748
 285  178.4317
 286  45.84715
 287  24.84058
 288  165.5334
 289  302.7351
 290  183.7697
 291  111.3985
 292  198.2641
 293  225.3217
 294  337.1972
 295  337.8346
 296  248.0144
 297  317.2297
 298  590.9237
 299  962.7639
 300  1094.006
 301  1063.763
 302  1031.965
 303  831.0198
 304  478.8718
 305  266.6874
 306  164.2054
 307  234.6689
 308  230.9231
 309  110.7899
 310  154.8096
 311  160.4631
 312  216.6067
 313  91.09573
 314  107.2782
 315  165.6265
 316  96.08171
 317  82.11441
 318  125.308
 319  -64.51692
 320  21.71383
 321  80.16071
 322  127.7341
 323  147.5619
 324  220.0497
 325  191.9237
 326  106.9114
 327  -118.118
 328  -60.93728
 329  58.26249
 330  175.2601
 331  275.4529
 332  351.9516
 333  255.7161
 334  171.2577
 335  213.5278
 336  76.61131
 337  166.4515
 338  346.1974
 339  383.7654
 340  141.3436
 341  121.0069
 342  114.2463
 343  -66.04506
 344  -33.97036
 345  82.14546
 346  73.63745
 347  30.65144
 348  27.65918
 349  138.0916
 350  169.4115
 351  252.3989
 352  173.5916
 353  155.9827
 354  150.8631
 355  223.236
 356  151.5391
 357  139.7418
 358  194.279
 359  114.154
 360  140.0661
 361  229.5674
 362  209.8528
 363  197.8637
 364  101.8812
 365  28.56277
 366  213.5847
 367  189.9407
 368  151.9263
 369  103.8257
 370  97.60763
 371  107.8134
 372  85.47889
 373  155.3172
 374  234.3364
 375  94.25143
 376  20.61063
 377  50.46524
 378  215.276
 379  147.9208
 380  116.6188
 381  262.5871
 382  214.1397
 383  237.3249
 384  98.39662
 385  188.4327
 386  -13.55686
 387  -4.640153
 388  11.57794
 389  111.1383
 390  117.9791
 391  119.5198
 392  69.06462
 393  26.98802
 394  181.8816
 395  123.0999
 396  134.3352
 397  145.4731
 398  40.93021
 399  38.84497
 400  89.09665
 401  129.0559
 402  -7.933531
 403  -24.6709
 404  48.47063
 405  148.4668
 406  191.9023
 407  311.3182
 408  108.6313
 409  -28.69186
 410  46.82463
 411  206.7757
 412  203.236
 413  -34.20578
 414  -56.75559
 415  157.8279
 416  116.8207
 417  167.5178
 418  69.55758
 419  9.277675
 420  46.51751
 421  119.9464
 422  135.5169
 423  181.7118
 424  238.9469
 425  233.5125
 426  207.2998
 427  199.3913
 428  194.7631
 429  193.6692
 430  132.039
 431  218.2393
 432  177.4378
 433  142.0748
 434  242.7999
 435  131.4677
 436  186.5316
 437  278.8242
 438  318.3011
 439  178.6563
 440  126.9237
 441  128.4326
 442  269.8664
 443  118.5283
 444  103.6724
 445  126.7545
 446  191.2433
 447  228.2589
 448  178.5999
 449  97.46512
 450  64.70147
 451  196.5292
 452  192.0923
 453  121.0518
 454  215.162
 455  172.2793
 456  152.3266
 457  164.2905
 458  154.9317
 459  145.5369
 460  164.3551
 461  59.39219
 462  -86.9115
 463  75.26142
 464  219.6644
 465  282.7198
 466  276.52
 467  266.1692
 468  153.0515
 469  118.4774
 470  133.0127
 471  49.69537
 472  168.672
 473  256.3418
 474  312.1768
 475  249.4377
 476  207.9083
 477  224.8361
 478  104.1887
 479  59.91314
 480  108.3594
 481  253.1982
 482  100.1509
 483  171.6592
 484  42.36473
 485  74.68258
 486  54.15274
 487  -36.90285
 488  74.9508
 489  246.5253
 490  207.3766
 491  214.5379
 492  136.716
 493  82.18346
 494  46.24414
 495  161.3847
 496  210.1861
 497  41.25435
 498  76.32429
 499  255.0836
 500  175.4073
 501  177.5258
 502  57.65236
 503  48.82535
 504  147.5232
 505  359.5842
 506  233.0061
 507  214.8155
 508  244.9574
 509  185.2491
 510  129.6758
 511  276.2698
