# Input file       =  1190777738.109756_cleaned.dat
# Candidate        =  PSR_0332+5434
# Telescope        =  AR
# Epoch_topo       =  58026.149966548102
# Epoch_bary       =  N/A
# T_sample         =  0.002
# Data Folded      =  7340032
# Data Avg         =  0.00986663961825098
# Data StdDev      =  1.00007722235275 
# Profile Bins     =  512
# Profile Avg      =  141.407530160839 
# Profile StdDev   =  119.742282443536 
# Reduced chi-sqr  =  1.366
# Prob(Noise)      <  6.32e-08   (~5.3 sigma)
# P_topo (ms)      =  714.472486353979  +/- 0.000222
# P'_topo (s/s)    =  -0                +/- 1.17e-10
# P''_topo (s/s^2) =  0                 +/- 5.18e-14
# P_bary (ms)      =  N/A
# P'_bary (s/s)    =  N/A
# P''_bary (s/s^2) =  N/A
# P_orb (s)        =  N/A
# asin(i)/c (s)    =  N/A
# eccentricity     =  N/A
# w (rad)          =  N/A
# T_peri           =  N/A
######################################################
   0  233.5911
   1  193.0734
   2  163.9918
   3  180.5191
   4  201.0896
   5  172.3514
   6  -54.62677
   7  93.40739
   8  70.87183
   9  143.3534
  10  230.8708
  11  268.8365
  12  112.9444
  13  139.3972
  14  113.8373
  15  114.9587
  16  180.5565
  17  122.3089
  18  67.72014
  19  236.8103
  20  237.8384
  21  229.1314
  22  215.5068
  23  142.0441
  24  83.81917
  25  86.96967
  26  74.75946
  27  118.7142
  28  140.1265
  29  70.87691
  30  132.8852
  31  119.0659
  32  171.5374
  33  119.1279
  34  138.9927
  35  293.378
  36  528.1541
  37  576.2107
  38  649.0839
  39  698.1164
  40  691.1487
  41  711.5965
  42  546.3748
  43  322.0835
  44  296.1454
  45  160.8135
  46  163.1231
  47  210.4446
  48  133.3448
  49  139.8831
  50  229.6346
  51  224.0675
  52  31.23365
  53  133.1601
  54  239.9566
  55  151.2401
  56  198.883
  57  168.1305
  58  53.22204
  59  66.29356
  60  127.4286
  61  72.65674
  62  -2.344887
  63  64.5593
  64  107.8968
  65  75.16457
  66  65.33419
  67  27.30393
  68  23.59645
  69  158.4066
  70  70.3111
  71  -37.07156
  72  60.57364
  73  59.57767
  74  36.01429
  75  42.95135
  76  -4.05538
  77  48.90113
  78  12.62444
  79  78.95108
  80  72.82065
  81  116.0819
  82  68.51998
  83  104.2972
  84  116.6253
  85  187.9974
  86  225.7143
  87  45.91891
  88  59.83087
  89  82.70576
  90  179.147
  91  163.0323
  92  201.8943
  93  260.0903
  94  131.5636
  95  296.8909
  96  284.5634
  97  147.53
  98  103.458
  99  90.21623
 100  165.4091
 101  80.30132
 102  103.6588
 103  112.9541
 104  65.87673
 105  80.55464
 106  121.2397
 107  205.4846
 108  126.5771
 109  185.1797
 110  167.2514
 111  160.4752
 112  274.8656
 113  257.2513
 114  138.3136
 115  76.9246
 116  147.8452
 117  108.7616
 118  70.6973
 119  248.7679
 120  210.5045
 121  119.2832
 122  151.1262
 123  148.5786
 124  186.4516
 125  241.3235
 126  301.839
 127  201.0257
 128  208.7589
 129  221.3859
 130  179.0105
 131  135.4086
 132  10.33047
 133  264.5448
 134  423.0121
 135  219.8406
 136  125.3515
 137  145.9945
 138  151.5513
 139  -19.02106
 140  -2.851126
 141  152.9313
 142  49.00227
 143  51.1375
 144  225.0854
 145  180.4483
 146  334.4769
 147  319.4968
 148  193.3283
 149  207.8754
 150  41.24053
 151  217.8276
 152  169.6119
 153  161.5952
 154  363.1373
 155  216.3903
 156  151.4278
 157  172.9124
 158  206.3491
 159  172.5878
 160  41.25525
 161  60.47507
 162  279.4396
 163  265.7784
 164  195.0647
 165  144.2881
 166  114.1023
 167  42.23997
 168  16.17679
 169  170.4205
 170  171.6206
 171  69.83756
 172  53.83007
 173  134.7704
 174  193.2275
 175  52.21457
 176  127.4082
 177  217.8302
 178  258.0072
 179  371.59
 180  120.6175
 181  35.1177
 182  8.849541
 183  44.20188
 184  192.4255
 185  144.6824
 186  96.51949
 187  221.1403
 188  240.7913
 189  169.3364
 190  -63.92301
 191  -85.73417
 192  174.0963
 193  327.5613
 194  237.2653
 195  302.2645
 196  179.9093
 197  136.9948
 198  137.1776
 199  57.18101
 200  118.9561
 201  168.7614
 202  129.158
 203  105.5754
 204  138.0643
 205  196.3557
 206  114.5914
 207  236.6677
 208  214.8714
 209  50.22694
 210  38.69543
 211  75.65457
 212  67.35664
 213  66.77464
 214  12.89847
 215  119.3297
 216  93.87923
 217  80.77599
 218  22.2974
 219  117.7272
 220  194.4086
 221  35.54068
 222  51.36958
 223  148.0335
 224  147.1476
 225  72.01407
 226  95.0904
 227  42.49554
 228  81.66969
 229  11.03791
 230  14.84164
 231  63.32361
 232  189.3399
 233  155.7467
 234  103.2588
 235  196.7501
 236  129.5857
 237  184.3941
 238  268.1008
 239  258.0493
 240  104.7832
 241  37.94412
 242  141.3331
 243  125.6833
 244  155.3877
 245  202.2191
 246  76.41151
 247  85.61141
 248  66.6048
 249  101.7671
 250  119.2446
 251  134.0207
 252  99.45921
 253  83.40395
 254  105.8858
 255  263.0085
 256  213.4146
 257  86.96957
 258  115.3896
 259  105.5973
 260  182.6989
 261  258.3894
 262  215.5696
 263  125.6596
 264  73.12406
 265  132.029
 266  74.50107
 267  -30.82615
 268  130.0953
 269  226.5096
 270  164.9995
 271  81.28612
 272  -24.36651
 273  19.94541
 274  66.40777
 275  123.7918
 276  91.11061
 277  34.95101
 278  29.56942
 279  -87.02207
 280  -5.761839
 281  71.81834
 282  209.4205
 283  293.4257
 284  91.95116
 285  21.54625
 286  87.22324
 287  198.1143
 288  168.4324
 289  154.0133
 290  261.6235
 291  213.3585
 292  285.4099
 293  170.5475
 294  277.0281
 295  217.3633
 296  13.11972
 297  129.5087
 298  203.9559
 299  176.2468
 300  154.9257
 301  174.9768
 302  189.0043
 303  201.7294
 304  94.62834
 305  211.2158
 306  177.1784
 307  154.8904
 308  124.7983
 309  267.41
 310  208.2666
 311  256.3098
 312  189.1031
 313  12.15636
 314  -52.73341
 315  -62.93501
 316  44.91397
 317  45.46702
 318  115.6529
 319  126.3775
 320  68.2906
 321  78.73656
 322  148.8777
 323  136.1487
 324  162.6348
 325  236.0894
 326  236.6841
 327  58.67694
 328  -19.48344
 329  -24.12379
 330  -6.154657
 331  67.53518
 332  56.37413
 333  -32.24474
 334  120.2408
 335  47.65827
 336  6.095313
 337  40.38043
 338  22.38414
 339  -35.6699
 340  32.87224
 341  86.05992
 342  28.05069
 343  148.236
 344  68.19325
 345  122.8297
 346  137.7141
 347  167.2791
 348  153.5925
 349  143.5696
 350  209.3926
 351  195.2325
 352  134.0693
 353  144.2507
 354  157.0447
 355  -34.75986
 356  22.27351
 357  113.1582
 358  282.4362
 359  263.532
 360  111.1456
 361  109.7268
 362  201.735
 363  269.6713
 364  343.4668
 365  195.9039
 366  190.8204
 367  140.4595
 368  56.13353
 369  44.09056
 370  85.51132
 371  7.795382
 372  120.3309
 373  118.1139
 374  11.94868
 375  58.23052
 376  70.74512
 377  70.341
 378  101.136
 379  103.8501
 380  249.4188
 381  198.6327
 382  -9.494826
 383  122.3234
 384  104.5882
 385  48.85791
 386  125.3718
 387  151.6523
 388  174.545
 389  56.26692
 390  63.66011
 391  169.265
 392  175.5819
 393  132.1013
 394  235.674
 395  94.53464
 396  124.7096
 397  195.255
 398  118.3882
 399  150.9312
 400  139.3615
 401  53.11092
 402  105.8772
 403  37.11557
 404  77.41196
 405  205.2914
 406  77.42741
 407  71.75587
 408  228.9929
 409  155.2431
 410  44.28339
 411  85.98022
 412  99.35323
 413  252.3104
 414  209.7728
 415  107.5483
 416  170.9399
 417  347.1349
 418  289.5076
 419  109.7515
 420  82.03024
 421  314.2807
 422  325.1764
 423  200.8195
 424  235.1401
 425  224.2625
 426  174.9555
 427  178.638
 428  155.8353
 429  135.9353
 430  100.0408
 431  205.3894
 432  124.0906
 433  107.1146
 434  203.8098
 435  274.5193
 436  86.83473
 437  136.7816
 438  151.1039
 439  39.69416
 440  99.04373
 441  169.3759
 442  137.9043
 443  174.2258
 444  20.58652
 445  139.0096
 446  265.8745
 447  125.1448
 448  28.55347
 449  64.67099
 450  236.1103
 451  192.0726
 452  226.7914
 453  160.3133
 454  141.9231
 455  151.1439
 456  112.2497
 457  -19.18066
 458  10.95538
 459  214.9485
 460  160.9067
 461  31.30458
 462  163.642
 463  89.39254
 464  145.645
 465  129.7389
 466  156.7655
 467  187.4115
 468  104.4794
 469  71.81797
 470  154.8823
 471  212.3145
 472  128.6194
 473  317.9632
 474  227.8393
 475  193.7982
 476  98.90104
 477  118.6057
 478  -18.59483
 479  -75.6579
 480  172.8945
 481  289.4591
 482  323.8394
 483  123.2125
 484  23.70002
 485  89.01634
 486  77.07488
 487  122.0367
 488  56.95555
 489  136.153
 490  53.66059
 491  82.2911
 492  134.425
 493  19.24323
 494  195.1935
 495  146.207
 496  214.8794
 497  96.5583
 498  36.38315
 499  128.6943
 500  26.11569
 501  99.02335
 502  244.4911
 503  139.1717
 504  130.8817
 505  90.68939
 506  132.0858
 507  189.5291
 508  194.4903
 509  231.0996
 510  309.5127
 511  207.5235
