# Input file       =  1190612441.145066_cleaned.dat
# Candidate        =  PSR_0332+5434
# Telescope        =  AR
# Epoch_topo       =  58024.236807234563
# Epoch_bary       =  N/A
# T_sample         =  0.002
# Data Folded      =  7340032
# Data Avg         =  0.0154304418642174
# Data StdDev      =  2.6211084277947  
# Profile Bins     =  512
# Profile Avg      =  221.058256312735 
# Profile StdDev   =  313.833270732592 
# Reduced chi-sqr  =  1.622
# Prob(Noise)      <  1.81e-17   (~8.4 sigma)
# P_topo (ms)      =  714.471665950646  +/- 0.000189
# P'_topo (s/s)    =  -0                +/- 9.96e-11
# P''_topo (s/s^2) =  0                 +/- 4.4e-14
# P_bary (ms)      =  N/A
# P'_bary (s/s)    =  N/A
# P''_bary (s/s^2) =  N/A
# P_orb (s)        =  N/A
# asin(i)/c (s)    =  N/A
# eccentricity     =  N/A
# w (rad)          =  N/A
# T_peri           =  N/A
######################################################
   0  388.8968
   1  624.5618
   2  531.9404
   3  182.3394
   4  47.65893
   5  360.4348
   6  122.7918
   7  -165.1061
   8  2.027682
   9  292.6161
  10  -288.3169
  11  -46.86412
  12  408.7765
  13  563.3458
  14  301.3917
  15  30.16717
  16  3.184647
  17  195.5501
  18  506.5015
  19  2.360531
  20  49.3971
  21  75.16647
  22  -96.13007
  23  -183.3563
  24  278.2454
  25  619.7856
  26  478.0377
  27  331.4525
  28  359.3676
  29  214.3223
  30  37.37531
  31  -33.63908
  32  87.68539
  33  55.70152
  34  155.3228
  35  474.4453
  36  328.0137
  37  -41.59552
  38  -178.4018
  39  268.5058
  40  568.3437
  41  695.0289
  42  723.7602
  43  575.1442
  44  119.1679
  45  18.52697
  46  370.8845
  47  163.4346
  48  141.9968
  49  174.2804
  50  -243.4675
  51  -358.8724
  52  -81.82147
  53  201.7475
  54  98.48318
  55  -140.8298
  56  301.1167
  57  388.6001
  58  -5.608072
  59  -78.80112
  60  161.25
  61  354.9861
  62  191.8043
  63  -0.9594046
  64  147.0789
  65  60.85607
  66  18.23282
  67  161.1643
  68  173.7105
  69  54.11781
  70  -2.805188
  71  -169.7645
  72  -127.6385
  73  47.67984
  74  285.1919
  75  -248.0551
  76  -209.5568
  77  402.5609
  78  448.8236
  79  552.5763
  80  272.3323
  81  493.7201
  82  315.1388
  83  158.3025
  84  422.9264
  85  207.5757
  86  34.75779
  87  130.4173
  88  141.3089
  89  -91.28632
  90  -29.91471
  91  516.9628
  92  400.9223
  93  225.1864
  94  346.3349
  95  423.3468
  96  390.5533
  97  90.69426
  98  378.0791
  99  132.3987
 100  2.787518
 101  -154.0866
 102  365.4798
 103  365.173
 104  243.9213
 105  346.4933
 106  122.2416
 107  215.9552
 108  -146.2566
 109  -139.1467
 110  -191.66
 111  -39.1874
 112  219.3628
 113  172.8976
 114  198.0507
 115  131.0895
 116  -84.36775
 117  9.629363
 118  600.82
 119  175.4029
 120  80.69043
 121  30.39768
 122  255.9661
 123  352.1537
 124  114.5361
 125  214.9446
 126  206.0917
 127  420.6506
 128  262.1923
 129  -14.55968
 130  131.1893
 131  156.7671
 132  329.4124
 133  476.1085
 134  99.70406
 135  -130.7106
 136  -13.52882
 137  -69.60375
 138  258.8153
 139  468.2263
 140  287.6978
 141  68.06033
 142  76.65651
 143  73.97055
 144  499.4051
 145  514.9628
 146  324.8897
 147  324.8719
 148  47.56484
 149  292.2533
 150  330.9285
 151  310.4728
 152  315.9047
 153  116.0738
 154  111.647
 155  -10.16686
 156  19.24643
 157  -78.6859
 158  -139.9992
 159  -192.8446
 160  -123.7649
 161  276.78
 162  449.358
 163  -3.740367
 164  -79.68285
 165  234.3331
 166  369.1701
 167  174.019
 168  261.7607
 169  269.1181
 170  375.4991
 171  417.3673
 172  327.3955
 173  -9.61804
 174  -262.4558
 175  -145.7228
 176  -22.64213
 177  -79.54771
 178  5.743591
 179  42.06979
 180  -336.7202
 181  -136.5088
 182  75.54263
 183  201.3756
 184  83.25047
 185  85.84704
 186  238.9697
 187  2.506888
 188  -394.6201
 189  -436.7151
 190  -207.2108
 191  119.3726
 192  458.6891
 193  170.2028
 194  -54.56815
 195  -326.1261
 196  -369.3429
 197  272.4901
 198  700.0046
 199  473.2
 200  531.4268
 201  553.4496
 202  473.0072
 203  236.6267
 204  306.2141
 205  449.3657
 206  260.3686
 207  131.4438
 208  15.46131
 209  39.98834
 210  158.1283
 211  479.7367
 212  643.3358
 213  386.1461
 214  69.19802
 215  96.6463
 216  353.1215
 217  321.8214
 218  659.14
 219  621.6497
 220  107.4375
 221  -88.28687
 222  177.1334
 223  368.7051
 224  439.0634
 225  131.2336
 226  147.9915
 227  86.39004
 228  -10.36406
 229  216.511
 230  54.80646
 231  -115.1788
 232  -325.6302
 233  199.017
 234  587.8871
 235  128.9867
 236  0.4094501
 237  -3.955461
 238  -253.0083
 239  -266.9421
 240  18.70966
 241  426.9506
 242  222.4046
 243  -248.5516
 244  -186.498
 245  473.9069
 246  532.9694
 247  368.5724
 248  537.5093
 249  434.4118
 250  80.28868
 251  389.2621
 252  378.7068
 253  565.7123
 254  240.1379
 255  460.8554
 256  935.1312
 257  911.3168
 258  1627.661
 259  1906.723
 260  2233.785
 261  2056.02
 262  1523.028
 263  1073.543
 264  425.1133
 265  49.16516
 266  -105.1206
 267  -80.27166
 268  15.90097
 269  258.3555
 270  510.8484
 271  747.4509
 272  508.9603
 273  435.2269
 274  522.5886
 275  781.1967
 276  319.5174
 277  -145.6906
 278  122.4102
 279  77.45683
 280  88.32625
 281  88.68021
 282  199.8344
 283  356.1343
 284  290.8372
 285  334.1633
 286  430.8832
 287  387.1714
 288  -4.583796
 289  433.173
 290  650.6661
 291  314.9896
 292  192.7864
 293  516.7485
 294  384.2119
 295  272.8772
 296  276.6625
 297  638.4316
 298  584.8192
 299  519.9813
 300  286.8258
 301  50.60297
 302  165.5587
 303  214.1758
 304  278.9583
 305  33.82711
 306  230.3687
 307  131.9547
 308  268.4363
 309  287.2878
 310  447.7324
 311  373.5574
 312  413.6426
 313  549.8999
 314  411.606
 315  250.943
 316  232.1325
 317  266.7191
 318  133.495
 319  315.7098
 320  475.0422
 321  468.9354
 322  65.66549
 323  130.327
 324  194.1242
 325  208.0069
 326  -78.3143
 327  -38.70825
 328  119.032
 329  412.6921
 330  510.7941
 331  316.7734
 332  216.5863
 333  -82.31886
 334  57.69265
 335  161.0916
 336  43.15454
 337  -153.5124
 338  496.6991
 339  459.2241
 340  235.8127
 341  139.9778
 342  384.2082
 343  198.1183
 344  196.6824
 345  -33.92855
 346  16.15688
 347  264.6343
 348  248.6189
 349  -67.12859
 350  -140.5953
 351  263.6621
 352  348.4155
 353  238.3022
 354  51.04395
 355  34.02303
 356  -148.1349
 357  72.72092
 358  -23.97789
 359  -232.2165
 360  -143.1086
 361  292.2582
 362  334.7956
 363  259.8082
 364  325.3843
 365  728.7919
 366  865.3354
 367  409.3833
 368  243.1465
 369  176.583
 370  429.5302
 371  443.3353
 372  5.366824
 373  205.5261
 374  493.2613
 375  227.5498
 376  136.0181
 377  104.8381
 378  27.43311
 379  295.686
 380  483.0007
 381  466.6747
 382  272.559
 383  398.9415
 384  279.1186
 385  250.5037
 386  670.7325
 387  583.2556
 388  366.5641
 389  202.7636
 390  193.1691
 391  721.7748
 392  245.464
 393  -41.19225
 394  473.9606
 395  679.9347
 396  498.9679
 397  7.657519
 398  3.058904
 399  -18.80571
 400  111.7396
 401  96.12065
 402  310.2224
 403  107.7374
 404  249.9143
 405  478.0329
 406  163.4004
 407  -0.6590328
 408  -85.28661
 409  109.8042
 410  250.6936
 411  161.7767
 412  384.0162
 413  148.7121
 414  77.22924
 415  -159.4988
 416  -106.2337
 417  131.6639
 418  332.8916
 419  63.01635
 420  125.8056
 421  -264.3363
 422  -103.724
 423  193.8334
 424  68.29047
 425  222.1849
 426  361.8308
 427  517.0255
 428  340.1218
 429  -101.2601
 430  168.041
 431  28.35918
 432  61.48628
 433  535.5289
 434  646.4176
 435  646.7971
 436  407.6871
 437  235.6408
 438  454.275
 439  19.37764
 440  -16.22968
 441  173.8575
 442  52.11517
 443  -131.4393
 444  221.3966
 445  389.8166
 446  20.56035
 447  303.3842
 448  674.3909
 449  390.8197
 450  -23.66223
 451  6.763997
 452  251.8074
 453  186.3204
 454  12.86596
 455  322.5839
 456  273.7287
 457  492.528
 458  204.2936
 459  63.8093
 460  309.7804
 461  -8.577635
 462  -41.00783
 463  252.4947
 464  42.75746
 465  33.1416
 466  37.24561
 467  176.0457
 468  456.601
 469  122.1933
 470  293.5387
 471  118.3219
 472  -86.19934
 473  49.86894
 474  281.9688
 475  208.6382
 476  670.8187
 477  643.1712
 478  444.4243
 479  273.0159
 480  338.6076
 481  486.2994
 482  147.2441
 483  121.3693
 484  201.8437
 485  174.4662
 486  461.0702
 487  210.9268
 488  35.01622
 489  -186.2585
 490  -79.87458
 491  77.78678
 492  638.9783
 493  332.2145
 494  4.838994
 495  -155.3899
 496  126.1339
 497  19.39261
 498  70.54454
 499  115.4919
 500  -169.6585
 501  -139.2322
 502  -32.74409
 503  151.268
 504  516.0262
 505  400.8014
 506  305.5235
 507  542.0573
 508  315.9264
 509  327.5464
 510  484.4967
 511  431.5836
