# Input file       =  1190863929.112254_cleaned.dat
# Candidate        =  PSR_0332+5434
# Telescope        =  AR
# Epoch_topo       =  58027.147547595530
# Epoch_bary       =  N/A
# T_sample         =  0.002
# Data Folded      =  7340032
# Data Avg         =  0.0330181708756883
# Data StdDev      =  3.21506074996213 
# Profile Bins     =  256
# Profile Avg      =  946.500062380066 
# Profile StdDev   =  544.400076439335 
# Reduced chi-sqr  =  1.619
# Prob(Noise)      <  1.42e-09   (~5.9 sigma)
# P_topo (ms)      =  714.473025195524  +/- 0.000261
# P'_topo (s/s)    =  -0                +/- 1.38e-10
# P''_topo (s/s^2) =  0                 +/- 6.08e-14
# P_bary (ms)      =  N/A
# P'_bary (s/s)    =  N/A
# P''_bary (s/s^2) =  N/A
# P_orb (s)        =  N/A
# asin(i)/c (s)    =  N/A
# eccentricity     =  N/A
# w (rad)          =  N/A
# T_peri           =  N/A
######################################################
   0  126.8103
   1  651.8903
   2  1734.574
   3  994.5696
   4  452.575
   5  346.9517
   6  401.0302
   7  1286.377
   8  1426.043
   9  1144.486
  10  337.9717
  11  504.005
  12  1077.838
  13  579.0783
  14  976.2928
  15  231.1108
  16  928.1171
  17  -147.5302
  18  455.2381
  19  390.0708
  20  865.2778
  21  975.9465
  22  1237.632
  23  1116.208
  24  801.7457
  25  1243.386
  26  1578.122
  27  1051.829
  28  1024.683
  29  1101.104
  30  394.8629
  31  1012.982
  32  703.1609
  33  -150.7284
  34  556.674
  35  685.3182
  36  845.011
  37  962.7108
  38  322.7067
  39  1402.897
  40  1993.634
  41  1057.327
  42  237.4722
  43  874.5963
  44  1143.391
  45  616.2779
  46  423.0917
  47  -388.0683
  48  686.9017
  49  1253.992
  50  607.9186
  51  960.0736
  52  1099.913
  53  396.1027
  54  468.9335
  55  587.6075
  56  -12.58893
  57  1080.371
  58  1773.961
  59  880.6248
  60  703.6536
  61  697.001
  62  1064.756
  63  418.5982
  64  425.4602
  65  1352.798
  66  513.6223
  67  122.812
  68  926.8941
  69  1551.869
  70  1185.232
  71  1268.448
  72  883.1924
  73  936.0613
  74  1180.635
  75  1212.071
  76  1546.681
  77  1271.512
  78  441.7689
  79  800.5004
  80  540.1041
  81  396.4482
  82  736.5558
  83  985.0745
  84  714.1222
  85  728.1183
  86  451.896
  87  1844.516
  88  518.2999
  89  526.4055
  90  870.2617
  91  1283.942
  92  1771.946
  93  1929.626
  94  711.9779
  95  819.936
  96  797.3782
  97  549.5764
  98  20.81693
  99  689.8143
 100  1384.867
 101  665.4601
 102  498.5849
 103  1268.622
 104  981.1422
 105  982.0156
 106  936.1429
 107  591.9759
 108  835.0526
 109  793.7081
 110  1996.666
 111  702.6743
 112  1432.979
 113  1522.534
 114  1316.68
 115  643.9828
 116  1231.705
 117  808.3019
 118  1631.904
 119  979.975
 120  855.4505
 121  1096.413
 122  1821.276
 123  1739.152
 124  1069.911
 125  1631.787
 126  621.7975
 127  928.2917
 128  1256.608
 129  1059.238
 130  1378.265
 131  236.1046
 132  1684.402
 133  754.2658
 134  553.8445
 135  392.5306
 136  862.8024
 137  775.922
 138  665.3612
 139  -47.48109
 140  827.2089
 141  715.4832
 142  65.89873
 143  1080.892
 144  779.037
 145  1564.737
 146  1104.072
 147  580.3484
 148  1071.137
 149  949.166
 150  766.4568
 151  1844.859
 152  1699.565
 153  1328.265
 154  1566.456
 155  2174.448
 156  1660.544
 157  1501.327
 158  2938.625
 159  4241.372
 160  4921.037
 161  3178.564
 162  1857.222
 163  1422.492
 164  318.5887
 165  1000.834
 166  1002.25
 167  1893.83
 168  1372.752
 169  1536.982
 170  827.6716
 171  552.0731
 172  1148.36
 173  1005.204
 174  1002.561
 175  -205.8987
 176  967.5334
 177  -229.4322
 178  -40.46553
 179  526.5724
 180  209.9322
 181  1190.315
 182  1097.649
 183  1536.208
 184  641.2029
 185  140.7804
 186  290.7471
 187  563.0934
 188  1350.736
 189  96.21455
 190  372.3236
 191  1084.58
 192  13.92046
 193  567.3548
 194  1138.409
 195  1639.402
 196  1057.215
 197  1275.565
 198  722.0641
 199  619.1793
 200  907.864
 201  927.5597
 202  584.9418
 203  787.9398
 204  1060.692
 205  686.5523
 206  1319.807
 207  1063.167
 208  924.3681
 209  1652.365
 210  488.2883
 211  533.6941
 212  959.8646
 213  1237.077
 214  1131.781
 215  1135.533
 216  818.5532
 217  622.7798
 218  949.7931
 219  653.1469
 220  42.05898
 221  1136.47
 222  579.059
 223  888.0294
 224  839.0223
 225  318.8161
 226  558.1841
 227  708.8558
 228  654.1918
 229  779.062
 230  485.9847
 231  496.0996
 232  1362.723
 233  1080.867
 234  517.0473
 235  385.0866
 236  713.3792
 237  684.5619
 238  948.8255
 239  1236.555
 240  1219.557
 241  780.2471
 242  1773.822
 243  1524.967
 244  1068.411
 245  1112.421
 246  595.7207
 247  957.7676
 248  1076.853
 249  1484.76
 250  1379.571
 251  821.8423
 252  770.0746
 253  547.4537
 254  1417.649
 255  1484.873
