# Input file       =  1190612441.145066-PSRB0329-2ms-sampling-dd.dat
# Candidate        =  PSR_0332+5434
# Telescope        =  AR
# Epoch_topo       =  58024.236807234563
# Epoch_bary       =  N/A
# T_sample         =  0.002
# Data Folded      =  7340032
# Data Avg         =  3.25334195362367e-10
# Data StdDev      =  7.57367621680531 
# Profile Bins     =  512
# Profile Avg      =  -0.0338396207899886
# Profile StdDev   =  906.819249972599 
# Reduced chi-sqr  =  0.899
# Prob(Noise)      <  0.951   (~0.0 sigma)
# P_topo (ms)      =  714.471665950646  +/- 7.38e-05
# P'_topo (s/s)    =  -0                +/- 3.89e-11
# P''_topo (s/s^2) =  0                 +/- 1.72e-14
# P_bary (ms)      =  N/A
# P'_bary (s/s)    =  N/A
# P''_bary (s/s^2) =  N/A
# P_orb (s)        =  N/A
# asin(i)/c (s)    =  N/A
# eccentricity     =  N/A
# w (rad)          =  N/A
# T_peri           =  N/A
######################################################
   0  2004.965
   1  1087.783
   2  73.32803
   3  56.8588
   4  -211.0595
   5  -60.27818
   6  -634.4841
   7  -962.989
   8  -816.5286
   9  -628.6917
  10  -1077.482
  11  -444.2188
  12  46.58838
  13  139.9071
  14  106.7632
  15  -38.74158
  16  -279.873
  17  -381.2814
  18  -142.1774
  19  -547.2327
  20  -58.18528
  21  -588.5808
  22  -530.8964
  23  -451.4223
  24  -165.5089
  25  279.9445
  26  32.52942
  27  -86.66389
  28  -784.3068
  29  -915.3563
  30  -1016.028
  31  -632.4509
  32  -440.6552
  33  -452.1354
  34  -193.9714
  35  -585.2396
  36  -665.3928
  37  -787.1357
  38  -912.1965
  39  3.822029
  40  684.2849
  41  877.9263
  42  606.3669
  43  456.5244
  44  -536.3134
  45  -515.6946
  46  135.2737
  47  799.2006
  48  278.8921
  49  -123.8179
  50  -759.0116
  51  -1349.064
  52  -810.7666
  53  -515.3251
  54  -520.1135
  55  -685.4008
  56  -363.92
  57  -74.96284
  58  -472.9834
  59  -351.7736
  60  -109.0706
  61  -192.8748
  62  -596.6694
  63  -913.3371
  64  -447.208
  65  -406.4649
  66  -375.0648
  67  -69.01782
  68  -152.9542
  69  -404.2668
  70  -754.5101
  71  -622.9479
  72  -939.7711
  73  -401.0491
  74  162.7002
  75  -554.5228
  76  -653.0574
  77  -119.206
  78  124.4039
  79  -32.22252
  80  -0.1950731
  81  486.3322
  82  721.1537
  83  137.1478
  84  16.97991
  85  -326.3844
  86  -214.5433
  87  -226.1587
  88  -373.6669
  89  -73.25003
  90  -265.4888
  91  104.8609
  92  -21.00694
  93  -109.9222
  94  -196.0405
  95  -348.8167
  96  -287.8936
  97  -803.7284
  98  -247.0841
  99  -509.947
 100  -308.9033
 101  -322.6021
 102  -27.94921
 103  84.22833
 104  -257.5337
 105  86.07178
 106  125.7715
 107  217.5161
 108  -8.925256
 109  355.7199
 110  83.97407
 111  -39.71659
 112  353.1444
 113  29.47391
 114  -298.5139
 115  -81.57599
 116  -568.4811
 117  -245.0616
 118  511.065
 119  191.3437
 120  -106.3484
 121  -612.0944
 122  -370.0294
 123  -257.6064
 124  -166.9844
 125  -30.49667
 126  75.85962
 127  191.4546
 128  -60.03304
 129  -649.0464
 130  -287.0226
 131  -208.583
 132  420.2401
 133  508.9595
 134  -124.9403
 135  -520.397
 136  -880.7329
 137  -800.0553
 138  -289.6736
 139  111.9046
 140  290.5919
 141  53.18252
 142  -516.0478
 143  -697.0722
 144  -220.6398
 145  -61.83844
 146  -325.1462
 147  388.9244
 148  197.9082
 149  304.7838
 150  -204.0767
 151  -343.2227
 152  -127.5864
 153  -279.7412
 154  337.7813
 155  367.6578
 156  480.021
 157  70.10393
 158  -184.2904
 159  -245.2661
 160  -187.9543
 161  564.9235
 162  728.9824
 163  -2.473108
 164  -26.19613
 165  115.076
 166  351.1127
 167  530.4465
 168  685.0268
 169  432.8338
 170  7.699951
 171  -361.9833
 172  -367.5767
 173  -285.083
 174  236.5244
 175  463.7901
 176  376.6818
 177  35.67307
 178  -713.6255
 179  -801.9833
 180  -1153.508
 181  -429.8789
 182  -86.73231
 183  70.12609
 184  96.361
 185  -222.9157
 186  -189.5099
 187  -636.9657
 188  -754.3383
 189  -442.4331
 190  -284.5047
 191  219.0242
 192  681.5176
 193  453.9343
 194  463.3969
 195  -47.2062
 196  -261.3568
 197  239.5885
 198  646.7877
 199  408.4486
 200  556.702
 201  638.3553
 202  491.246
 203  274.4742
 204  107.0814
 205  -102.3565
 206  163.2681
 207  211.4997
 208  171.8579
 209  335.6979
 210  354.4208
 211  538.1003
 212  56.98869
 213  -193.5588
 214  -613.6086
 215  -390.6432
 216  110.2977
 217  477.5151
 218  1160.165
 219  765.2891
 220  -486.429
 221  -598.534
 222  -107.7111
 223  319.3948
 224  978.364
 225  606.7771
 226  353.5628
 227  343.4771
 228  271.573
 229  538.9501
 230  405.5291
 231  341.8457
 232  141.6414
 233  712.5834
 234  327.0776
 235  -647.7527
 236  -617.3507
 237  -812.5389
 238  -515.753
 239  -149.5561
 240  757.9052
 241  685.3708
 242  240.4471
 243  -508.1935
 244  -799.8041
 245  -148.8984
 246  227.3099
 247  615.4249
 248  740.9933
 249  319.0255
 250  -307.1973
 251  -144.1809
 252  -231.821
 253  89.09267
 254  -89.95497
 255  -100.8851
 256  213.028
 257  422.7425
 258  1333.685
 259  1752.146
 260  2224.822
 261  2229.774
 262  1659.088
 263  1156.835
 264  -42.61586
 265  -711.8846
 266  -586.3628
 267  -497.9899
 268  247.999
 269  729.9261
 270  509.1543
 271  316.959
 272  99.45575
 273  113.5043
 274  436.701
 275  812.2868
 276  464.9901
 277  -263.4026
 278  -386.1749
 279  -766.1385
 280  -593.9851
 281  -121.7713
 282  452.7604
 283  621.6315
 284  405.8502
 285  -221.5646
 286  -698.9158
 287  -693.5789
 288  -555.0085
 289  500.2702
 290  1211.508
 291  1040.772
 292  337.8853
 293  -38.81459
 294  -311.8941
 295  169.0763
 296  669.4705
 297  1265.145
 298  1046.244
 299  397.4308
 300  -299.9345
 301  -350.1829
 302  -202.6118
 303  6.405777
 304  539.1227
 305  420.6615
 306  104.3287
 307  -325.4586
 308  -488.2637
 309  -318.2438
 310  394.1093
 311  569.8135
 312  783.7476
 313  584.2311
 314  297.6373
 315  0.06283478
 316  265.7787
 317  297.2216
 318  -96.60166
 319  214.807
 320  -134.9444
 321  -81.52256
 322  -487.7831
 323  85.35479
 324  158.8586
 325  415.1058
 326  -122.9222
 327  -608.4434
 328  -363.1063
 329  194.0395
 330  837.3046
 331  788.2464
 332  850.3573
 333  291.6758
 334  -103.3682
 335  -330.3475
 336  -560.27
 337  -497.215
 338  343.1932
 339  493.7611
 340  472.2558
 341  -1.973946
 342  184.4353
 343  49.84925
 344  -13.1164
 345  -101.4802
 346  178.6095
 347  261.028
 348  289.3914
 349  -18.7431
 350  -83.30981
 351  736.6662
 352  700.1393
 353  830.8373
 354  726.9858
 355  502.59
 356  -193.3972
 357  7.369682
 358  -87.25925
 359  -302.4899
 360  199.4373
 361  766.1866
 362  692.3309
 363  232.5
 364  -54.22247
 365  252.4548
 366  568.4431
 367  248.8027
 368  16.75208
 369  -180.5418
 370  14.1127
 371  119.7366
 372  -417.8613
 373  -481.3997
 374  -26.46147
 375  -362.5761
 376  -383.3393
 377  -457.5445
 378  -508.897
 379  -145.2219
 380  -252.3859
 381  -244.4652
 382  -364.6253
 383  -129.2088
 384  -248.3208
 385  -347.9651
 386  -230.3205
 387  -35.42406
 388  -364.5031
 389  -707.477
 390  -390.7647
 391  217.3828
 392  -247.9075
 393  -715.5231
 394  -58.00385
 395  468.9248
 396  420.646
 397  -392.5566
 398  -548.34
 399  -712.1164
 400  -1065.083
 401  -782.1208
 402  24.75857
 403  45.70948
 404  159.8122
 405  453.5795
 406  -366.0872
 407  -969.1915
 408  -993.8472
 409  -634.7837
 410  -237.9749
 411  84.29034
 412  400.9253
 413  -64.67754
 414  -309.144
 415  -558.6328
 416  -433.4122
 417  -152.4496
 418  40.15833
 419  -408.5314
 420  -497.5078
 421  -1097.883
 422  -527.5003
 423  149.9613
 424  306.3599
 425  592.6799
 426  554.27
 427  -187.0027
 428  -428.7015
 429  -720.9617
 430  -783.2869
 431  -669.4131
 432  -421.7035
 433  331.8144
 434  240.5121
 435  197.1539
 436  -185.5842
 437  -798.9095
 438  -682.8438
 439  -1112.86
 440  -838.8459
 441  -443.5478
 442  -355.8093
 443  -391.1442
 444  -194.9553
 445  131.2912
 446  -617.0706
 447  -263.0773
 448  95.32993
 449  -133.8969
 450  -438.4338
 451  -221.295
 452  221.9686
 453  -253.4857
 454  -566.5509
 455  -554.9894
 456  -456.5991
 457  -230.4593
 458  -248.0734
 459  -371.1357
 460  -282.1046
 461  -642.532
 462  -823.0427
 463  -381.8854
 464  -711.2076
 465  -354.4346
 466  -481.8063
 467  -318.9737
 468  -89.41249
 469  -272.0007
 470  130.9478
 471  -385.6479
 472  -572.3169
 473  -513.3568
 474  -355.1344
 475  -116.781
 476  543.2598
 477  624.1827
 478  243.873
 479  103.9804
 480  -227.2604
 481  -156.571
 482  -466.6583
 483  53.46518
 484  384.7286
 485  424.7996
 486  627.3555
 487  -173.6651
 488  -449.3076
 489  -561.4619
 490  307.3842
 491  609.6379
 492  769.1737
 493  550.9052
 494  23.07545
 495  -570.6255
 496  -14.61568
 497  508.5056
 498  1186.207
 499  612.3863
 500  81.13984
 501  33.9906
 502  298.9942
 503  555.8308
 504  1186.534
 505  2744.507
 506  1129.353
 507  717.4472
 508  1416.292
 509  4032.371
 510  4818.053
 511  3930.576
