# Input file       =  1190920557.109346_cleaned.dat
# Candidate        =  PSR_0332+5434
# Telescope        =  AR
# Epoch_topo       =  58027.802964228540
# Epoch_bary       =  N/A
# T_sample         =  0.002
# Data Folded      =  7143424
# Data Avg         =  0.127487291584065
# Data StdDev      =  3.59678310428912 
# Profile Bins     =  512
# Profile Avg      =  1778.62713041891 
# Profile StdDev   =  424.846928966927 
# Reduced chi-sqr  =  0.760
# Prob(Noise)      <  1   (~0.0 sigma)
# P_topo (ms)      =  714.473035496353  +/- 0.000501
# P'_topo (s/s)    =  -0                +/- 2.72e-10
# P''_topo (s/s^2) =  0                 +/- 1.23e-13
# P_bary (ms)      =  N/A
# P'_bary (s/s)    =  N/A
# P''_bary (s/s^2) =  N/A
# P_orb (s)        =  N/A
# asin(i)/c (s)    =  N/A
# eccentricity     =  N/A
# w (rad)          =  N/A
# T_peri           =  N/A
######################################################
   0  1729.512
   1  1677.891
   2  1770.084
   3  1410.509
   4  1127.578
   5  1879.244
   6  2284.177
   7  2243.25
   8  1902.341
   9  1838.526
  10  1618.008
  11  1548.885
  12  1452.233
  13  1609.082
  14  1654.615
  15  1846.957
  16  1710.244
  17  1493.746
  18  1421.659
  19  1406.314
  20  1371.437
  21  1659.166
  22  1888.73
  23  2038.827
  24  1931.843
  25  1503.033
  26  1357.939
  27  1231.147
  28  1258.636
  29  1714.935
  30  1993.43
  31  1937.182
  32  1922.991
  33  1600.771
  34  1462.466
  35  1700.989
  36  1844.136
  37  1775.938
  38  1808.323
  39  1784.216
  40  1567.134
  41  1598.314
  42  1622.736
  43  1841.617
  44  1508.085
  45  1406.946
  46  1476.305
  47  1674.171
  48  1870.381
  49  1616.748
  50  1470.749
  51  1550.142
  52  1528.137
  53  1582.926
  54  1696.495
  55  1869.972
  56  1830.259
  57  1573.994
  58  1705.012
  59  2210.766
  60  2054.709
  61  1637.4
  62  1326.029
  63  1603.996
  64  1950.538
  65  1902.928
  66  1735.428
  67  1620.689
  68  1410.887
  69  1471.157
  70  1592.011
  71  1343.856
  72  1612.21
  73  1501.522
  74  1845.125
  75  1710.91
  76  1706.568
  77  1829.088
  78  1877.093
  79  1518.286
  80  1574.894
  81  1693.129
  82  1656.624
  83  1574.593
  84  1937.055
  85  1708.106
  86  1923.597
  87  1805.147
  88  1509.285
  89  1790.927
  90  1785.19
  91  1574.372
  92  1429.276
  93  1366.262
  94  1693.144
  95  1725.911
  96  2022.01
  97  1786.912
  98  1856.529
  99  2129.976
 100  1718.133
 101  1395.123
 102  1320.861
 103  1726.271
 104  1797.668
 105  1702.295
 106  1939.421
 107  1861.96
 108  1890.406
 109  2319.595
 110  1995.696
 111  1791.551
 112  1449.763
 113  1769.869
 114  1548.157
 115  1607.536
 116  1667.489
 117  1931.608
 118  2110.305
 119  2209.683
 120  1658.703
 121  1521.574
 122  1286.321
 123  1670.818
 124  1942.206
 125  1971.041
 126  1901.635
 127  1478.942
 128  1540.22
 129  1676.278
 130  1693.694
 131  1564.997
 132  1821.98
 133  1918.609
 134  1748.132
 135  1608.713
 136  1400.876
 137  1640.102
 138  1857.472
 139  1711.749
 140  1652.71
 141  1585.761
 142  1646.426
 143  1618.276
 144  1560.213
 145  1448.221
 146  1776.484
 147  1418.629
 148  1614.249
 149  1431.79
 150  1698.546
 151  2060.432
 152  1833.733
 153  1901.044
 154  1867.79
 155  1555.993
 156  1428.379
 157  1468.573
 158  1835.411
 159  1786.322
 160  1809.454
 161  1699.756
 162  1593.717
 163  1903.262
 164  1570.225
 165  1956.149
 166  1931.247
 167  1845.479
 168  1783.375
 169  1561.627
 170  1522.428
 171  1643.896
 172  2285.094
 173  2339.667
 174  1988.271
 175  1560.919
 176  1629.235
 177  1441.505
 178  1512.866
 179  1977.222
 180  2199.009
 181  1784.213
 182  1896.471
 183  1841.234
 184  1901.42
 185  2010.087
 186  1848.505
 187  1850.629
 188  2113.383
 189  2099.472
 190  1839.953
 191  1929.9
 192  2188.551
 193  1817.609
 194  1377.803
 195  1783.464
 196  1718.733
 197  1682.549
 198  1767.4
 199  1985.779
 200  2151.408
 201  1773.052
 202  1869.657
 203  1822.557
 204  1809.461
 205  1403.113
 206  1554.812
 207  1595.062
 208  1631.987
 209  1592.235
 210  1690.645
 211  1446.419
 212  1478.073
 213  1838.453
 214  1757.539
 215  1817.769
 216  1697.683
 217  1353.427
 218  1688.796
 219  1784.647
 220  1596.968
 221  1953.713
 222  1732.964
 223  1716.841
 224  1742.905
 225  1839.204
 226  1441.973
 227  1498.029
 228  1779.806
 229  2089.342
 230  2115.645
 231  1891.178
 232  1671.585
 233  1739.384
 234  1763.41
 235  2001.006
 236  1905.574
 237  1872.948
 238  1878.283
 239  1874.745
 240  1661.341
 241  1706.501
 242  1837.217
 243  1943.165
 244  1791.713
 245  1945.557
 246  1730.89
 247  1336.273
 248  1604.89
 249  1580.158
 250  1863.209
 251  1813.028
 252  1735.603
 253  1912.52
 254  2024.378
 255  1689.214
 256  1468.616
 257  1925.7
 258  1931.685
 259  1743.937
 260  1827.856
 261  2063.655
 262  2267.061
 263  2020.396
 264  2162.648
 265  2005.014
 266  1560.855
 267  1863.99
 268  2042.739
 269  1685.789
 270  1487.014
 271  1750.753
 272  1802.71
 273  1759.828
 274  1369.898
 275  1891.791
 276  2065.941
 277  2140.467
 278  1836.115
 279  1625.607
 280  1615.382
 281  1651.301
 282  1957.787
 283  1805.233
 284  1713.718
 285  1571.203
 286  1876.307
 287  1658.112
 288  1999.909
 289  1726.408
 290  1813.522
 291  1976.295
 292  1308.775
 293  1353.03
 294  1549.609
 295  1991.698
 296  2057.543
 297  1496.91
 298  1568.653
 299  1704.834
 300  1910.104
 301  1791.662
 302  1749.826
 303  1840.358
 304  1918.958
 305  1790.251
 306  1647.13
 307  1777.104
 308  2041.605
 309  1932.727
 310  1949.939
 311  1937.873
 312  1810.304
 313  2040.192
 314  1395.338
 315  1206.032
 316  1461.232
 317  1540.345
 318  1758.197
 319  2140.56
 320  2145.006
 321  1894.785
 322  1536.487
 323  1600.08
 324  1700.953
 325  1891.489
 326  2020.147
 327  2000.024
 328  1673.421
 329  1915.718
 330  1903.262
 331  1769.951
 332  1771.885
 333  1911.093
 334  1800.881
 335  1518.013
 336  1541.97
 337  1570.99
 338  1782.869
 339  1988.73
 340  2000.658
 341  1648.464
 342  1637.048
 343  1748.656
 344  1798.891
 345  1741.877
 346  2207.689
 347  2119.481
 348  1843.03
 349  1868.24
 350  2100.99
 351  1584.937
 352  1752.094
 353  1900.23
 354  2147.83
 355  1681.084
 356  1805.806
 357  1707.005
 358  1576.673
 359  1664.562
 360  1799.828
 361  2124.114
 362  2015.088
 363  1635.017
 364  1817.765
 365  1921.612
 366  2075.543
 367  1927.333
 368  1812.765
 369  1436.752
 370  1619.062
 371  1554.2
 372  1633.533
 373  1802.377
 374  1773.614
 375  2019.833
 376  1930.079
 377  2119.74
 378  2274.365
 379  2155.484
 380  1745.977
 381  1390.634
 382  1536.469
 383  1526.645
 384  1641.103
 385  1728.844
 386  1794.258
 387  1402.547
 388  1316.397
 389  1853.335
 390  1469.979
 391  1492.1
 392  1906.556
 393  2076.44
 394  2017.159
 395  1607.039
 396  1613.548
 397  1638.015
 398  1409.483
 399  1658.942
 400  1888.948
 401  1950.034
 402  2130.206
 403  2245.126
 404  2123.466
 405  1946.175
 406  1369.473
 407  1471.882
 408  1507.619
 409  1920.531
 410  2241.334
 411  2198.756
 412  1651.105
 413  1538.231
 414  1352.302
 415  1391.442
 416  1627.058
 417  1763.69
 418  1943.345
 419  2038.409
 420  2020.545
 421  1602.785
 422  1437.163
 423  1669.969
 424  1410.651
 425  1537.177
 426  1949.528
 427  2072.063
 428  1991.19
 429  1620.164
 430  1851.328
 431  1611.311
 432  1683.011
 433  1809.774
 434  1624.648
 435  1381.272
 436  1732.624
 437  2123.601
 438  1976.495
 439  2088.268
 440  1795.366
 441  2084.884
 442  2070.281
 443  1958.934
 444  2092.37
 445  2468.165
 446  2479.979
 447  3084.761
 448  3442.924
 449  3545.619
 450  3371.142
 451  2697.193
 452  2068.233
 453  1632.287
 454  1573.877
 455  1710.241
 456  1826.8
 457  1663.137
 458  1748.602
 459  1884.091
 460  2159.008
 461  2083.427
 462  1989.982
 463  1858.079
 464  1988.661
 465  2011.297
 466  2104.856
 467  2199.424
 468  1892.475
 469  1807.869
 470  1797.259
 471  1917.208
 472  1618.483
 473  1439.799
 474  1797.874
 475  2098.922
 476  2075.502
 477  2066.659
 478  2003.219
 479  1913.518
 480  1424.68
 481  1896.166
 482  2106.669
 483  1706.433
 484  1603.305
 485  1925.49
 486  1837.957
 487  1608.605
 488  1654.182
 489  1574.895
 490  1619.778
 491  1844.403
 492  1917.948
 493  1815.222
 494  1930.333
 495  1845.533
 496  1807.501
 497  1771.07
 498  1772.505
 499  2025.734
 500  1901.619
 501  1600.542
 502  1570.854
 503  1648.648
 504  1605.415
 505  1661.732
 506  1885.272
 507  1571.944
 508  1568.344
 509  1649.686
 510  1762.113
 511  1753.614
