# Input file       =  1190748188.106715_cleaned.dat
# Candidate        =  PSR_0332+5434
# Telescope        =  AR
# Epoch_topo       =  58025.807952624018
# Epoch_bary       =  N/A
# T_sample         =  0.002
# Data Folded      =  7208960
# Data Avg         =  0.157158996139399
# Data StdDev      =  3.73444658485272 
# Profile Bins     =  256
# Profile Avg      =  4425.46293955603 
# Profile StdDev   =  626.675299393974 
# Reduced chi-sqr  =  0.830
# Prob(Noise)      <  0.978   (~0.0 sigma)
# P_topo (ms)      =  714.471955192486  +/- 0.000264
# P'_topo (s/s)    =  -0                +/- 1.42e-10
# P''_topo (s/s^2) =  0                 +/- 6.38e-14
# P_bary (ms)      =  N/A
# P'_bary (s/s)    =  N/A
# P''_bary (s/s^2) =  N/A
# P_orb (s)        =  N/A
# asin(i)/c (s)    =  N/A
# eccentricity     =  N/A
# w (rad)          =  N/A
# T_peri           =  N/A
######################################################
   0  3934.61
   1  4172.819
   2  4045.754
   3  5168.017
   4  5101.439
   5  4010.098
   6  4829.631
   7  3950.446
   8  4558.923
   9  4123.053
  10  4254.122
  11  4310.304
  12  4412.859
  13  4844.31
  14  4050.844
  15  4479.812
  16  3924.782
  17  4096.972
  18  4322.865
  19  4532.767
  20  4150.647
  21  4372.204
  22  4309.366
  23  4132.1
  24  4527.859
  25  3939.649
  26  4834.869
  27  4913.672
  28  4981.185
  29  4116.16
  30  4478.433
  31  4164.833
  32  3859.955
  33  4148.283
  34  3895.32
  35  4976.976
  36  4955.011
  37  4431.701
  38  4197.324
  39  4149.19
  40  3989.205
  41  4286.663
  42  4329.383
  43  4400.176
  44  5015.572
  45  5296.396
  46  4764.985
  47  4395.069
  48  4366.732
  49  4302.128
  50  4616.999
  51  4958.871
  52  5013.704
  53  4550.766
  54  4084.139
  55  4671.887
  56  5106.746
  57  4584.344
  58  4535.262
  59  4608.947
  60  4072.086
  61  3536.127
  62  4259.643
  63  4248.417
  64  4109.173
  65  3837.503
  66  3873.137
  67  3855.208
  68  4887.668
  69  4153.255
  70  3793.399
  71  4445.967
  72  4462.951
  73  4036.325
  74  4237.271
  75  3745.635
  76  4138.126
  77  4352.796
  78  4370.829
  79  3984.377
  80  4274.057
  81  4167.926
  82  4078.312
  83  4524.168
  84  4167.278
  85  4608.055
  86  4978.408
  87  4451.234
  88  4314.461
  89  4530.71
  90  4219.811
  91  4476.534
  92  3639.849
  93  4890.964
  94  4472.417
  95  4461.001
  96  4465.595
  97  4349.825
  98  3581.956
  99  3857.395
 100  4700.877
 101  4113.479
 102  3956.375
 103  3894.493
 104  4016.409
 105  5261.797
 106  4543.697
 107  4168.369
 108  4469.607
 109  4368.13
 110  4065.342
 111  4379.884
 112  4148.332
 113  4745.234
 114  4225.94
 115  4276.307
 116  3969.629
 117  4560.409
 118  4519.539
 119  4583.849
 120  4926.55
 121  4762.797
 122  4571.31
 123  4299.507
 124  4404.421
 125  4700.461
 126  4578.458
 127  4534.599
 128  4338.616
 129  4478.362
 130  4772.111
 131  4193.035
 132  4515.678
 133  4756.696
 134  4859.186
 135  4583.518
 136  4335.879
 137  3592.884
 138  4792.676
 139  4270.831
 140  3870.397
 141  4098.374
 142  5049.353
 143  4647.966
 144  4572.074
 145  4706.218
 146  4354.215
 147  4212.288
 148  4683.655
 149  4060.14
 150  4390.812
 151  4765.481
 152  4310.405
 153  4200.807
 154  4505.766
 155  4574.552
 156  4056.062
 157  5149.355
 158  5694.302
 159  7559.597
 160  7767.88
 161  6567.997
 162  5250.779
 163  4848.354
 164  4058.42
 165  4540.392
 166  4672.802
 167  4477.028
 168  4681.048
 169  5190.78
 170  4689.91
 171  4309.756
 172  4195.149
 173  3979.601
 174  4173.351
 175  4272.949
 176  3875.297
 177  4340.865
 178  4902.713
 179  4449.204
 180  4489.855
 181  4590.679
 182  3812.308
 183  4544.993
 184  3948.944
 185  4558.818
 186  4817.154
 187  4264.852
 188  3369.271
 189  3763.905
 190  4389.06
 191  4566.697
 192  4306.22
 193  4154.107
 194  4504.114
 195  4738.567
 196  5117.123
 197  4438.449
 198  4064.371
 199  4558.269
 200  5382.346
 201  4614.756
 202  3945.516
 203  3870.382
 204  4295.465
 205  4082.537
 206  4698.697
 207  4057.205
 208  4376.58
 209  4783.615
 210  4000.864
 211  4521.524
 212  4011.273
 213  4382.191
 214  4247.453
 215  3499.412
 216  4301.06
 217  4690.601
 218  4654.749
 219  4669.064
 220  5016.992
 221  4253.431
 222  4286.462
 223  4575.87
 224  4357.636
 225  4554.063
 226  4773.111
 227  4293.348
 228  4450.493
 229  4384.305
 230  4175.947
 231  3992.693
 232  4609.388
 233  4523.888
 234  3720.41
 235  3933.838
 236  4319.689
 237  4382.802
 238  3740.3
 239  3201.125
 240  3813.551
 241  4292.323
 242  4324.562
 243  3968.421
 244  4347.666
 245  4481.644
 246  4872.459
 247  4751.628
 248  4969.106
 249  4552.937
 250  4913.404
 251  4599.773
 252  4463.766
 253  4808.033
 254  4377.149
 255  4364.905
