# Input file       =  1190920557.109346-PSRB0329-2ms-sampling-dd.dat
# Candidate        =  PSR_0332+5434
# Telescope        =  AR
# Epoch_topo       =  58027.802964228540
# Epoch_bary       =  N/A
# T_sample         =  0.002
# Data Folded      =  7208960
# Data Avg         =  -6.3749378513014e-10
# Data StdDev      =  4.76280073393025 
# Profile Bins     =  512
# Profile Avg      =  -0.0651663319963285
# Profile StdDev   =  565.150009556986 
# Reduced chi-sqr  =  0.710
# Prob(Noise)      <  1   (~0.0 sigma)
# P_topo (ms)      =  714.473035380455  +/- 0.00162
# P'_topo (s/s)    =  -0                +/- 8.68e-10
# P''_topo (s/s^2) =  0                 +/- 3.9e-13
# P_bary (ms)      =  N/A
# P'_bary (s/s)    =  N/A
# P''_bary (s/s^2) =  N/A
# P_orb (s)        =  N/A
# asin(i)/c (s)    =  N/A
# eccentricity     =  N/A
# w (rad)          =  N/A
# T_peri           =  N/A
######################################################
   0  -80.13627
   1  -248.759
   2  -215.447
   3  -582.9968
   4  -805.8956
   5  -60.09262
   6  232.6411
   7  238.4803
   8  -179.5576
   9  -322.2897
  10  -519.4517
  11  -451.405
  12  -619.9067
  13  -492.7476
  14  -522.5441
  15  -294.2914
  16  -322.1245
  17  -437.6063
  18  -523.6035
  19  -526.2324
  20  -580.3701
  21  -392.9801
  22  -183.626
  23  54.11773
  24  59.81738
  25  -442.7711
  26  -647.0303
  27  -690.6714
  28  -659.3337
  29  -202.5831
  30  43.90263
  31  -93.33855
  32  -105.7617
  33  -405.6883
  34  -562.7596
  35  -378.0347
  36  -77.11875
  37  -199.5112
  38  -167.2995
  39  -148.4681
  40  -264.7032
  41  -296.1718
  42  -334.3227
  43  -163.8467
  44  -292.9495
  45  -285.5685
  46  -369.6579
  47  -249.9568
  48  -92.33871
  49  -287.3319
  50  -406.8644
  51  -383.2613
  52  -382.7097
  53  -165.1881
  54  -131.9278
  55  -51.8232
  56  59.069
  57  -256.5949
  58  -233.8444
  59  462.9641
  60  422.4449
  61  -1.813871
  62  -319.7529
  63  -144.3285
  64  16.79253
  65  -14.83594
  66  -120.8112
  67  -119.77
  68  -290.2058
  69  -253.0708
  70  -124.4074
  71  -479.4983
  72  -287.3491
  73  -244.6474
  74  202.147
  75  -38.73645
  76  -2.361241
  77  129.5247
  78  187.5004
  79  -382.7141
  80  -271.6819
  81  -161.1226
  82  -131.2554
  83  -85.68569
  84  278.7867
  85  58.62217
  86  88.28188
  87  -98.067
  88  -244.4515
  89  102.1829
  90  84.64362
  91  -132.1516
  92  -326.2915
  93  -308.4535
  94  0.8471482
  95  -86.65569
  96  182.8903
  97  -30.94753
  98  65.71192
  99  323.213
 100  -147.9811
 101  -441.0234
 102  -500.6375
 103  -14.89027
 104  40.33218
 105  -8.761307
 106  161.8842
 107  99.37717
 108  6.072636
 109  436.3017
 110  209.3834
 111  35.22896
 112  -293.361
 113  -113.3408
 114  -193.8935
 115  -40.73299
 116  -5.752418
 117  308.2955
 118  268.28
 119  353.4675
 120  -180.4717
 121  49.4472
 122  -91.1516
 123  305.8291
 124  359.752
 125  327.6678
 126  311.8252
 127  58.30942
 128  119.0134
 129  64.2828
 130  -4.822421
 131  -240.8058
 132  -99.54299
 133  35.96805
 134  -128.5289
 135  -234.8783
 136  -393.5095
 137  -172.1889
 138  75.16448
 139  24.15337
 140  -57.99556
 141  -49.30984
 142  -92.75871
 143  -48.96336
 144  -7.242481
 145  -143.2204
 146  62.25776
 147  -270.7755
 148  -31.17563
 149  -336.4987
 150  -171.4828
 151  294.5814
 152  88.32964
 153  45.91278
 154  2.582323
 155  -320.7059
 156  -303.0051
 157  -279.4194
 158  45.9752
 159  52.78185
 160  48.30444
 161  -40.03116
 162  -212.6121
 163  103.2149
 164  -159.3064
 165  231.6803
 166  80.26929
 167  -63.70945
 168  -59.63727
 169  -338.4594
 170  -286.0622
 171  -116.741
 172  599.4863
 173  507.3098
 174  63.73088
 175  -384.4609
 176  -272.4996
 177  -402.2144
 178  -230.3407
 179  316.1332
 180  463.7495
 181  86.41428
 182  115.9602
 183  10.21688
 184  16.33342
 185  246.8129
 186  130.4117
 187  91.55423
 188  377.8753
 189  333.4325
 190  71.28345
 191  78.48893
 192  408.5434
 193  196.3911
 194  -350.73
 195  -36.88309
 196  -30.49739
 197  -67.45597
 198  115.4281
 199  266.9399
 200  419.7023
 201  78.4946
 202  111.0205
 203  24.08428
 204  -185.3263
 205  -572.756
 206  -450.071
 207  -331.9704
 208  -231.3383
 209  -178.8787
 210  45.28675
 211  -312.3427
 212  -367.9236
 213  -2.448369
 214  -1.482852
 215  -107.933
 216  -227.3405
 217  -578.0808
 218  -332.7425
 219  -357.3261
 220  -439.6751
 221  81.37461
 222  -207.907
 223  -241.7576
 224  -121.2029
 225  0.3946413
 226  -405.2767
 227  -335.8567
 228  -125.7505
 229  -39.12151
 230  85.14109
 231  3.988168
 232  -153.0452
 233  -279.9597
 234  -400.4826
 235  -58.61066
 236  -222.7213
 237  -329.9407
 238  -306.3539
 239  -272.7234
 240  -383.6714
 241  -10.6216
 242  98.22675
 243  157.3642
 244  135.185
 245  86.32592
 246  -71.16621
 247  -488.1087
 248  -75.88612
 249  -119.5235
 250  166.1593
 251  270.8747
 252  -268.5094
 253  -149.0161
 254  124.2064
 255  -182.427
 256  -362.1019
 257  194.5425
 258  142.7313
 259  -127.7367
 260  -200.2838
 261  -20.22483
 262  357.623
 263  179.5334
 264  241.8414
 265  12.04645
 266  -398.3968
 267  -248.891
 268  12.20527
 269  -290.6791
 270  -439.3859
 271  -244.0872
 272  -268.3275
 273  -274.3654
 274  -720.8547
 275  -189.2403
 276  0.8561009
 277  -5.372059
 278  -305.2909
 279  -397.2246
 280  -377.6866
 281  -247.0947
 282  -39.77673
 283  -256.4718
 284  -370.543
 285  -484.1815
 286  -152.3043
 287  -373.2928
 288  100.4909
 289  -224.5627
 290  -176.9616
 291  -9.361713
 292  -724.9382
 293  -639.1435
 294  -525.6924
 295  -95.02312
 296  73.38185
 297  -309.332
 298  -214.7069
 299  -157.5464
 300  142.106
 301  -7.199171
 302  -20.44672
 303  108.0612
 304  39.32658
 305  -76.9584
 306  -233.6652
 307  55.8116
 308  316.214
 309  391.6829
 310  418.2649
 311  295.3856
 312  131.0646
 313  422.5133
 314  -92.74313
 315  -391.66
 316  -73.81264
 317  -65.82161
 318  53.18254
 319  423.7104
 320  435.6951
 321  216.8865
 322  -261.4488
 323  -192.2725
 324  -83.74633
 325  168.6321
 326  252.9854
 327  380.0041
 328  132.3329
 329  402.7973
 330  317.9643
 331  221.1647
 332  217.1303
 333  319.2987
 334  299.6643
 335  127.8029
 336  80.16663
 337  170.8884
 338  269.1716
 339  490.2705
 340  328.3485
 341  31.2457
 342  108.9645
 343  364.6961
 344  400.2828
 345  314.4455
 346  808.7672
 347  632.0404
 348  373.8333
 349  288.4469
 350  499.4636
 351  -16.00095
 352  142.8327
 353  326.1738
 354  592.1232
 355  121.7323
 356  207.0587
 357  208.2058
 358  144.7107
 359  286.5818
 360  339.9177
 361  530.6576
 362  465.1853
 363  211.9016
 364  506.3552
 365  578.629
 366  694.7484
 367  382.1255
 368  245.9903
 369  -172.4382
 370  -14.76325
 371  24.28314
 372  198.8685
 373  384.9863
 374  332.0925
 375  417.7769
 376  210.1312
 377  385.7169
 378  601.0486
 379  618.5804
 380  193.0483
 381  -121.0681
 382  -23.26516
 383  -62.59908
 384  -62.07368
 385  37.55382
 386  169.4073
 387  -205.6545
 388  -222.3217
 389  105.7112
 390  -241.1867
 391  -188.2417
 392  313.358
 393  546.1295
 394  496.125
 395  -9.868971
 396  25.33206
 397  -84.03504
 398  -427.0831
 399  -95.32774
 400  166.797
 401  324.4769
 402  534.3221
 403  663.5516
 404  325.7127
 405  -37.07304
 406  -645.6117
 407  -506.9858
 408  -228.0503
 409  264.8347
 410  596.9536
 411  383.036
 412  -343.2144
 413  -457.1171
 414  -647.2333
 415  -530.3609
 416  -195.3962
 417  -135.5943
 418  19.68093
 419  199.6528
 420  292.1369
 421  -56.22025
 422  -187.0546
 423  108.3488
 424  -32.61305
 425  49.35849
 426  268.0636
 427  385.5781
 428  266.7179
 429  -103.4343
 430  99.24552
 431  -165.9989
 432  -174.8533
 433  -84.10016
 434  -214.6828
 435  -513.058
 436  -221.8855
 437  114.2475
 438  158.0037
 439  198.2889
 440  -144.2944
 441  103.4005
 442  127.521
 443  66.34805
 444  256.7508
 445  814.4479
 446  795.5762
 447  1237.385
 448  1493.641
 449  1667.027
 450  1518.023
 451  847.7868
 452  179.9361
 453  -231.7471
 454  -320.4524
 455  -209.4545
 456  6.850425
 457  -172.1394
 458  -139.3757
 459  71.19846
 460  377.9761
 461  204.1447
 462  223.4085
 463  108.5451
 464  99.67381
 465  165.4402
 466  364.1467
 467  656.8936
 468  396.9808
 469  318.0196
 470  146.4051
 471  -22.17885
 472  -392.9088
 473  -454.9315
 474  300.7162
 475  656.2604
 476  496.5645
 477  444.2664
 478  109.5268
 479  -92.928
 480  -531.3129
 481  -70.56742
 482  657.2255
 483  729.6477
 484  1375.744
 485  1830.36
 486  1457.513
 487  518.515
 488  -239.0944
 489  -84.02129
 490  548.4868
 491  217.1561
 492  335.1148
 493  273.0883
 494  240.7754
 495  26.70699
 496  -162.538
 497  -187.8837
 498  -255.7834
 499  43.27246
 500  9.764625
 501  -277.6372
 502  -369.2959
 503  -270.7088
 504  -360.9308
 505  -434.038
 506  -134.9038
 507  -298.3593
 508  -187.3251
 509  -160.8457
 510  -140.8525
 511  -132.3419
