# Input file       =  1190582619.116545_cleaned.dat
# Candidate        =  PSR_0332+5434
# Telescope        =  AR
# Epoch_topo       =  58023.891644867421
# Epoch_bary       =  N/A
# T_sample         =  0.002
# Data Folded      =  7340032
# Data Avg         =  0.0254157740231937
# Data StdDev      =  2.21615493231198 
# Profile Bins     =  512
# Profile Avg      =  363.764225167388 
# Profile StdDev   =  265.34695912706  
# Reduced chi-sqr  =  1.974
# Prob(Noise)      <  6.43e-35   (~12.3 sigma)
# P_topo (ms)      =  714.470927534234  +/- 0.000177
# P'_topo (s/s)    =  -0                +/- 9.33e-11
# P''_topo (s/s^2) =  0                 +/- 4.12e-14
# P_bary (ms)      =  N/A
# P'_bary (s/s)    =  N/A
# P''_bary (s/s^2) =  N/A
# P_orb (s)        =  N/A
# asin(i)/c (s)    =  N/A
# eccentricity     =  N/A
# w (rad)          =  N/A
# T_peri           =  N/A
######################################################
   0  152.1524
   1  -19.436
   2  103.8767
   3  79.09378
   4  381.8771
   5  372.904
   6  364.3732
   7  405.1678
   8  283.4247
   9  508.2525
  10  572.9055
  11  623.5597
  12  592.681
  13  440.4293
  14  120.3731
  15  -29.34624
  16  344.4456
  17  287.0142
  18  143.1945
  19  208.9392
  20  755.4617
  21  651.6736
  22  230.3753
  23  535.1492
  24  719.8284
  25  555.8798
  26  550.6166
  27  649.936
  28  698.8945
  29  517.4519
  30  325.6552
  31  477.691
  32  462.2465
  33  429.3429
  34  766.5264
  35  681.9935
  36  218.811
  37  385.0118
  38  521.1764
  39  702.4156
  40  810.1107
  41  470.7044
  42  222.1223
  43  435.2188
  44  263.9142
  45  301.2796
  46  265.8137
  47  302.5083
  48  283.3488
  49  206.5551
  50  406.7965
  51  565.9113
  52  659.2458
  53  457.4184
  54  637.1738
  55  478.502
  56  458.8609
  57  110.874
  58  -30.63287
  59  152.0535
  60  9.552749
  61  261.9604
  62  91.62386
  63  161.3544
  64  437.4396
  65  397.0034
  66  423.3646
  67  609.0018
  68  805.1243
  69  619.822
  70  230.2994
  71  259.8375
  72  431.9563
  73  437.1411
  74  610.3959
  75  430.6414
  76  390.9178
  77  464.821
  78  264.4041
  79  60.10956
  80  382.862
  81  132.3813
  82  96.38448
  83  400.7518
  84  407.3632
  85  146.2565
  86  210.4644
  87  135.9514
  88  297.9242
  89  352.2415
  90  265.3456
  91  429.6646
  92  677.0918
  93  450.0095
  94  26.6243
  95  89.65267
  96  193.2906
  97  468.7805
  98  116.1499
  99  54.24838
 100  391.2564
 101  401.9749
 102  133.6004
 103  195.2417
 104  405.4451
 105  561.3057
 106  218.0502
 107  162.4538
 108  209.4702
 109  400.1996
 110  220.8328
 111  414.3888
 112  304.3908
 113  56.98321
 114  240.2118
 115  259.9172
 116  540.97
 117  393.6703
 118  536.259
 119  628.8823
 120  644.6684
 121  577.3558
 122  567.9935
 123  371.8362
 124  457.4898
 125  275.4579
 126  379.5432
 127  528.0428
 128  358.379
 129  295.4636
 130  105.2909
 131  198.3392
 132  175.8092
 133  98.49699
 134  278.2702
 135  382.543
 136  352.6932
 137  340.8365
 138  147.423
 139  73.58046
 140  304.7744
 141  128.0746
 142  304.4071
 143  441.3839
 144  780.1074
 145  511.3835
 146  487.5675
 147  522.7932
 148  572.3938
 149  539.021
 150  580.4619
 151  424.0439
 152  531.4244
 153  198.2467
 154  -284.8332
 155  -172.5445
 156  -126.8408
 157  244.9
 158  310.6081
 159  510.2188
 160  390.0045
 161  307.8156
 162  506.3443
 163  552.9785
 164  361.9745
 165  412.1745
 166  515.5108
 167  336.2935
 168  372.1587
 169  157.8003
 170  191.3801
 171  213.7299
 172  202.8596
 173  541.4169
 174  481.9628
 175  572.4899
 176  332.7939
 177  229.8593
 178  194.9846
 179  283.4511
 180  132.1111
 181  284.4389
 182  352.5817
 183  305.6177
 184  316.9944
 185  332.6219
 186  409.26
 187  578.991
 188  522.4633
 189  326.9771
 190  158.2056
 191  192.8797
 192  311.9995
 193  435.508
 194  170.2608
 195  244.9348
 196  445.433
 197  365.9853
 198  244.1816
 199  124.2034
 200  313.9962
 201  476.2403
 202  444.9228
 203  431.0037
 204  455.0629
 205  355.1964
 206  213.941
 207  187.5839
 208  156.6848
 209  377.5814
 210  240.3087
 211  385.3956
 212  578.6553
 213  404.2433
 214  290.791
 215  177.9933
 216  661.3128
 217  732.3205
 218  315.6149
 219  107.4995
 220  406.7086
 221  309.6945
 222  406.9301
 223  181.9744
 224  467.4788
 225  572.9496
 226  268.5739
 227  367.573
 228  279.4797
 229  207.4013
 230  496.1512
 231  541.5608
 232  594.2342
 233  463.9969
 234  96.3664
 235  76.39783
 236  282.1507
 237  345.2712
 238  313.1447
 239  538.037
 240  532.8257
 241  493.3064
 242  328.297
 243  282.8928
 244  346.3373
 245  283.0494
 246  353.2003
 247  514.121
 248  434.2681
 249  387.6379
 250  446.7646
 251  538.3201
 252  547.502
 253  660.5113
 254  1279.393
 255  1387.767
 256  1335.114
 257  1791.105
 258  2283.918
 259  2675.963
 260  2376.068
 261  1673.661
 262  1083.113
 263  678.7949
 264  178.5024
 265  146.9558
 266  412.1154
 267  508.2538
 268  593.0248
 269  804.9429
 270  575.9296
 271  681.8464
 272  578.5468
 273  601.6814
 274  763.4429
 275  669.6629
 276  479.896
 277  380.6874
 278  405.293
 279  305.5258
 280  273.0085
 281  183.7528
 282  638.2141
 283  615.8031
 284  730.229
 285  664.2474
 286  161.5585
 287  340.3396
 288  460.9461
 289  502.6136
 290  307.498
 291  140.9677
 292  172.2751
 293  318.5002
 294  605.0206
 295  220.314
 296  138.683
 297  469.4835
 298  489.8697
 299  297.7582
 300  334.7206
 301  476.2965
 302  133.5357
 303  363.4497
 304  356.8112
 305  47.07264
 306  289.8741
 307  407.4239
 308  217.3304
 309  188.6639
 310  360.6949
 311  225.0026
 312  282.0161
 313  192.8695
 314  233.1878
 315  215.5627
 316  276.4213
 317  544.3047
 318  601.467
 319  -12.29818
 320  33.1027
 321  193.3296
 322  287.0825
 323  360.1352
 324  305.7554
 325  266.8787
 326  427.821
 327  384.8828
 328  186.2973
 329  243.0683
 330  504.4945
 331  285.1321
 332  472.6607
 333  517.6395
 334  514.5159
 335  460.0768
 336  454.4452
 337  532.5661
 338  460.2164
 339  457.232
 340  262.629
 341  184.0552
 342  108.6226
 343  110.5844
 344  426.6146
 345  396.1778
 346  282.6556
 347  232.1416
 348  190.4807
 349  238.5077
 350  353.613
 351  301.4146
 352  314.9412
 353  343.5127
 354  223.7135
 355  286.6985
 356  297.0559
 357  554.0571
 358  338.5198
 359  532.8341
 360  340.842
 361  104.9999
 362  128.5134
 363  272.2539
 364  325.4089
 365  683.4433
 366  595.5362
 367  420.7158
 368  192.2209
 369  152.7445
 370  -147.7912
 371  41.73726
 372  564.6313
 373  620.7703
 374  561.1467
 375  528.553
 376  285.625
 377  349.6568
 378  450.7661
 379  660.7289
 380  414.5533
 381  282.6943
 382  322.3629
 383  337.0477
 384  101.9973
 385  307.5029
 386  197.6718
 387  130.9075
 388  218.2047
 389  289.0104
 390  203.5262
 391  409.8579
 392  478.583
 393  99.72816
 394  328.5991
 395  452.3675
 396  420.6419
 397  343.0213
 398  131.4602
 399  134.2166
 400  132.476
 401  228.4001
 402  168.8781
 403  30.65764
 404  201.3028
 405  225.9853
 406  9.725697
 407  -280.0103
 408  -138.2914
 409  155.4933
 410  51.46275
 411  88.06138
 412  215.4683
 413  178.1487
 414  223.7403
 415  220.3055
 416  189.2757
 417  -147.6803
 418  -97.19878
 419  136.574
 420  64.12058
 421  322.2075
 422  151.1384
 423  -67.2486
 424  429.0676
 425  446.7702
 426  396.4343
 427  153.4672
 428  393.7256
 429  353.6055
 430  354.3089
 431  491.2183
 432  341.011
 433  523.3201
 434  427.6261
 435  624.6504
 436  411.2495
 437  401.7525
 438  59.31978
 439  187.6993
 440  228.4146
 441  186.56
 442  -108.6189
 443  151.6732
 444  215.9269
 445  455.478
 446  426.6964
 447  600.8787
 448  435.841
 449  416.6646
 450  368.0405
 451  385.3183
 452  383.6285
 453  432.897
 454  167.5024
 455  234.8219
 456  59.9688
 457  233.7736
 458  471.3405
 459  249.1113
 460  186.2186
 461  219.5831
 462  296.8915
 463  274.6704
 464  222.3412
 465  337.0959
 466  383.4425
 467  221.6542
 468  505.1914
 469  542.5306
 470  288.2331
 471  313.5758
 472  493.4235
 473  162.2715
 474  -12.3367
 475  340.0265
 476  490.9738
 477  376.4931
 478  361.3597
 479  460.7065
 480  418.5642
 481  505.2497
 482  386.7539
 483  195.1514
 484  163.2523
 485  436.4233
 486  448.6518
 487  294.1896
 488  313.2353
 489  383.1191
 490  299.4424
 491  92.66181
 492  -171.7283
 493  337.983
 494  302.3699
 495  188.8202
 496  280.2797
 497  144.929
 498  449.8046
 499  538.3127
 500  369.2018
 501  387.6339
 502  545.6329
 503  390.5658
 504  324.5347
 505  253.6944
 506  465.4966
 507  454.0609
 508  280.5959
 509  388.8359
 510  322.3842
 511  21.67715
