# Input file       =  1190612441.145066_cleaned.dat
# Candidate        =  PSR_0332+5434
# Telescope        =  AR
# Epoch_topo       =  58024.236807234563
# Epoch_bary       =  N/A
# T_sample         =  0.002
# Data Folded      =  7340032
# Data Avg         =  0.00572439857757228
# Data StdDev      =  1.00001252845649 
# Profile Bins     =  512
# Profile Avg      =  81.9930039434988 
# Profile StdDev   =  119.734536446902 
# Reduced chi-sqr  =  1.786
# Prob(Noise)      <  4.45e-25   (~10.3 sigma)
# P_topo (ms)      =  714.471664656718  +/- 0.000205
# P'_topo (s/s)    =  -0                +/- 1.08e-10
# P''_topo (s/s^2) =  0                 +/- 4.79e-14
# P_bary (ms)      =  N/A
# P'_bary (s/s)    =  N/A
# P''_bary (s/s^2) =  N/A
# P_orb (s)        =  N/A
# asin(i)/c (s)    =  N/A
# eccentricity     =  N/A
# w (rad)          =  N/A
# T_peri           =  N/A
######################################################
   0  950.6898
   1  803.6415
   2  574.3209
   3  348.5691
   4  138.9329
   5  3.014188
   6  -7.343745
   7  -23.77793
   8  25.94916
   9  108.6089
  10  302.4215
  11  256.7021
  12  206.2507
  13  178.9875
  14  268.0509
  15  263.8963
  16  62.21769
  17  -35.2669
  18  46.83135
  19  18.00107
  20  48.82543
  21  63.48609
  22  119.9707
  23  149.1422
  24  94.37805
  25  114.233
  26  144.8869
  27  117.4141
  28  66.91828
  29  233.8254
  30  249.2749
  31  129.468
  32  136.3721
  33  197.6808
  34  120.6814
  35  99.37664
  36  128.6743
  37  296.5022
  38  208.4864
  39  178.7163
  40  79.69703
  41  28.33783
  42  73.38576
  43  77.22916
  44  82.55966
  45  -9.717905
  46  34.41134
  47  45.66395
  48  134.0538
  49  116.2122
  50  145.8112
  51  113.9492
  52  175.6156
  53  167.0821
  54  107.9132
  55  71.14348
  56  92.3023
  57  78.36179
  58  65.12524
  59  121.8044
  60  164.8324
  61  109.1586
  62  49.46127
  63  72.51912
  64  149.4725
  65  46.72935
  66  -28.0579
  67  4.592629
  68  78.93796
  69  175.1288
  70  171.2668
  71  114.2233
  72  39.60731
  73  -54.17302
  74  33.85147
  75  52.10574
  76  5.354387
  77  -10.58414
  78  234.3726
  79  160.4776
  80  116.6097
  81  70.24779
  82  121.2855
  83  78.90606
  84  78.09809
  85  -29.21216
  86  -2.904575
  87  123.7651
  88  58.96648
  89  -40.65568
  90  -80.65287
  91  119.6588
  92  114.1241
  93  75.53622
  94  -8.839167
  95  -19.39068
  96  -18.41377
  97  35.60753
  98  -37.80146
  99  -76.46567
 100  -7.446935
 101  94.24019
 102  103.2771
 103  98.8059
 104  171.6826
 105  350.7177
 106  260.4565
 107  119.338
 108  78.68736
 109  21.73503
 110  152.358
 111  95.35768
 112  -37.28846
 113  89.80784
 114  181.3389
 115  48.38319
 116  80.62477
 117  1.844266
 118  40.63525
 119  109.6506
 120  182.7387
 121  156.1312
 122  53.59844
 123  189.3657
 124  72.83385
 125  154.7387
 126  252.7179
 127  222.6972
 128  107.8705
 129  61.60197
 130  120.0962
 131  260.2385
 132  33.03714
 133  32.20753
 134  191.3222
 135  224.0656
 136  141.6682
 137  -2.950804
 138  -1.480593
 139  10.55323
 140  65.66432
 141  43.6433
 142  150.3348
 143  1.120441
 144  115.0466
 145  146.7449
 146  9.999958
 147  -6.98159
 148  -27.64732
 149  82.16604
 150  124.2591
 151  79.08403
 152  161.5401
 153  14.68097
 154  12.29366
 155  -75.81841
 156  -18.24651
 157  80.78759
 158  67.38319
 159  53.20954
 160  27.00018
 161  -124.7461
 162  4.985713
 163  72.41045
 164  5.912221
 165  100.8311
 166  142.8689
 167  178.6135
 168  72.60805
 169  -50.49833
 170  76.16588
 171  -31.70856
 172  10.01232
 173  229.2386
 174  256.4595
 175  235.305
 176  117.2956
 177  87.06981
 178  127.5574
 179  -42.08644
 180  4.316215
 181  84.89422
 182  8.220675
 183  -34.90296
 184  108.9701
 185  115.4838
 186  -31.98292
 187  162.1015
 188  202.3512
 189  92.04091
 190  23.91497
 191  64.72537
 192  134.7621
 193  50.57637
 194  46.10982
 195  110.4357
 196  74.32637
 197  169.8263
 198  21.92292
 199  49.99819
 200  129.5284
 201  -18.80395
 202  77.31084
 203  50.40128
 204  7.846659
 205  -4.604609
 206  15.18633
 207  106.582
 208  156.8879
 209  20.06332
 210  98.197
 211  -28.55947
 212  -71.15525
 213  34.37178
 214  57.02894
 215  92.9894
 216  262.2113
 217  198.5603
 218  153.0155
 219  90.21209
 220  161.1758
 221  162.3768
 222  32.18774
 223  48.79147
 224  59.90804
 225  90.89185
 226  183.6828
 227  72.55698
 228  -22.14867
 229  -100.757
 230  -54.82107
 231  80.25979
 232  261.4122
 233  79.01633
 234  7.842898
 235  -22.31396
 236  57.95118
 237  0.4568037
 238  27.98386
 239  -12.65245
 240  -73.37046
 241  -46.81108
 242  -10.63869
 243  128.601
 244  203.2858
 245  119.9118
 246  127.7425
 247  174.861
 248  72.23791
 249  143.0632
 250  146.6341
 251  154.4402
 252  187.2322
 253  243.1633
 254  200.5274
 255  40.67838
 256  97.21743
 257  114.0258
 258  4.332686
 259  -35.90112
 260  56.30772
 261  68.80191
 262  -161.3781
 263  -35.95977
 264  152.6272
 265  169.4833
 266  43.75833
 267  11.57668
 268  -40.83525
 269  66.58855
 270  138.933
 271  -58.57192
 272  46.43008
 273  1.382889
 274  -53.15044
 275  -41.06793
 276  137.903
 277  209.3984
 278  155.9465
 279  121.7998
 280  126.6227
 281  87.66268
 282  72.1925
 283  -17.11421
 284  26.38697
 285  -30.39579
 286  75.16428
 287  173.1163
 288  116.7502
 289  -64.93264
 290  -39.43563
 291  141.5099
 292  211.4622
 293  233.2448
 294  256.7885
 295  213.4272
 296  8.831878
 297  54.6422
 298  102.1577
 299  -8.523791
 300  13.78328
 301  -11.23644
 302  -154.6694
 303  -141.3867
 304  7.447093
 305  43.78299
 306  4.145576
 307  -95.43736
 308  85.8114
 309  90.0395
 310  -74.52341
 311  6.638278
 312  58.2422
 313  132.6321
 314  17.09208
 315  -16.35866
 316  67.99395
 317  0.7641764
 318  1.041938
 319  64.42112
 320  64.63339
 321  -13.6003
 322  -11.72742
 323  -43.45618
 324  -1.164485
 325  87.01068
 326  23.30556
 327  -135.3719
 328  -38.54234
 329  197.6017
 330  188.5824
 331  225.5916
 332  78.63401
 333  192.2425
 334  84.85091
 335  97.37099
 336  171.8008
 337  40.03627
 338  8.551682
 339  39.11902
 340  44.549
 341  -50.49974
 342  62.7371
 343  207.3195
 344  151.0396
 345  84.21105
 346  152.0034
 347  183.8271
 348  112.5183
 349  53.22838
 350  130.4873
 351  22.26301
 352  -14.21199
 353  -81.83389
 354  243.7565
 355  109.4625
 356  140.9363
 357  55.71135
 358  103.4463
 359  28.33924
 360  -45.42703
 361  -71.49619
 362  -74.75895
 363  22.58323
 364  70.42571
 365  55.62336
 366  48.31061
 367  41.25456
 368  -103.7932
 369  102.2281
 370  217.9534
 371  49.36134
 372  34.60678
 373  -4.577513
 374  88.32928
 375  77.90513
 376  58.0745
 377  145.6447
 378  133.467
 379  174.996
 380  44.13852
 381  -5.253107
 382  75.26431
 383  56.92083
 384  153.1044
 385  184.1964
 386  55.06016
 387  -52.81885
 388  -14.97022
 389  -27.47014
 390  173.1273
 391  186.1569
 392  74.78017
 393  23.81012
 394  9.735471
 395  45.84028
 396  242.076
 397  165.1823
 398  129.7164
 399  108.9312
 400  14.00012
 401  146.6312
 402  130.86
 403  163.7279
 404  74.23315
 405  68.21371
 406  24.16635
 407  -10.45348
 408  6.041213
 409  1.503569
 410  -13.63391
 411  -71.27699
 412  -15.37961
 413  130.1588
 414  133.6911
 415  -21.97705
 416  -26.10081
 417  132.2416
 418  160.8926
 419  56.18005
 420  86.52625
 421  92.5976
 422  125.3574
 423  129.8992
 424  88.88898
 425  -82.44428
 426  -117.0903
 427  -43.72594
 428  2.51985
 429  6.723077
 430  33.32246
 431  -10.50645
 432  -131.7016
 433  -55.10025
 434  43.0904
 435  44.94416
 436  15.81411
 437  20.44791
 438  59.62268
 439  -57.93687
 440  -219.3516
 441  -174.958
 442  -68.45611
 443  77.06866
 444  131.5985
 445  10.19338
 446  -15.63664
 447  -140.8077
 448  -73.6488
 449  126.6004
 450  214.8786
 451  138.341
 452  239.7321
 453  216.4509
 454  152.2326
 455  66.05789
 456  160.036
 457  182.2984
 458  68.17583
 459  40.8041
 460  26.12832
 461  46.14671
 462  108.6803
 463  211.3816
 464  260.365
 465  83.56803
 466  27.09181
 467  61.99723
 468  157.5592
 469  109.6847
 470  280.6437
 471  148.2029
 472  -14.01311
 473  -9.998635
 474  110.5273
 475  126.8628
 476  146.8495
 477  2.827641
 478  87.37904
 479  -16.07366
 480  24.17712
 481  22.36956
 482  21.27445
 483  -60.31422
 484  -85.61395
 485  151.6049
 486  197.2348
 487  31.88219
 488  17.49278
 489  21.1697
 490  -127.9992
 491  -111.9243
 492  49.9432
 493  173.815
 494  29.30126
 495  -84.79366
 496  27.45584
 497  246.3358
 498  143.0775
 499  158.7229
 500  237.9974
 501  121.1454
 502  55.8691
 503  215.8408
 504  147.903
 505  244.1075
 506  113.922
 507  313.5517
 508  343.5342
 509  427.2046
 510  697.1072
 511  801.9725
