# Input file       =  1190692150.109053_cleaned.dat
# Candidate        =  PSR_0332+5434
# Telescope        =  AR
# Epoch_topo       =  58025.159364688116
# Epoch_bary       =  N/A
# T_sample         =  0.002
# Data Folded      =  7340032
# Data Avg         =  0.0359153978507884
# Data StdDev      =  3.13193126875775 
# Profile Bins     =  256
# Profile Avg      =  1029.84443891537 
# Profile StdDev   =  530.32392067072  
# Reduced chi-sqr  =  1.133
# Prob(Noise)      <  0.0704   (~1.5 sigma)
# P_topo (ms)      =  714.471981045721  +/- 0.000182
# P'_topo (s/s)    =  -0                +/- 9.59e-11
# P''_topo (s/s^2) =  0                 +/- 4.24e-14
# P_bary (ms)      =  N/A
# P'_bary (s/s)    =  N/A
# P''_bary (s/s^2) =  N/A
# P_orb (s)        =  N/A
# asin(i)/c (s)    =  N/A
# eccentricity     =  N/A
# w (rad)          =  N/A
# T_peri           =  N/A
######################################################
   0  1268.106
   1  1337.74
   2  1209.085
   3  943.9725
   4  493.7444
   5  1597.644
   6  568.2006
   7  1280.297
   8  527.3182
   9  1274.503
  10  987.2878
  11  1055.462
  12  1267.484
  13  1278.395
  14  1235.047
  15  1385.668
  16  1575.977
  17  1092.651
  18  714.3823
  19  767.5463
  20  964.007
  21  745.0207
  22  1197.173
  23  1224.562
  24  739.3798
  25  454.4299
  26  1153.512
  27  1417.071
  28  1228.258
  29  1229.596
  30  1175.567
  31  1308.801
  32  1466.733
  33  1027.12
  34  707.6639
  35  1171.74
  36  783.6894
  37  892.3827
  38  749.5178
  39  996.2512
  40  449.4848
  41  158.5288
  42  527.308
  43  675.0062
  44  1300.766
  45  1754.305
  46  938.6122
  47  1413.321
  48  1151.66
  49  1116.255
  50  1155.321
  51  1293.777
  52  735.7304
  53  503.192
  54  812.6563
  55  562.9121
  56  987.4536
  57  604.5585
  58  1059.408
  59  904.932
  60  1421.189
  61  864.2114
  62  1061.941
  63  1243.806
  64  2131.536
  65  941.9856
  66  1017.763
  67  1158.345
  68  1310.072
  69  999.533
  70  1606.77
  71  1350.323
  72  1440.412
  73  1182.718
  74  1334.99
  75  1407.495
  76  694.2998
  77  912.666
  78  985.986
  79  850.7623
  80  722.9559
  81  990.0255
  82  244.3589
  83  618.2477
  84  1238.941
  85  1023.844
  86  1021.563
  87  1152.566
  88  1280.92
  89  430.6527
  90  872.7328
  91  928.1397
  92  1433.141
  93  1401.434
  94  502.1348
  95  572.5187
  96  1376.432
  97  797.1365
  98  1417.513
  99  983.3242
 100  250.8735
 101  207.5699
 102  540.0136
 103  1569.662
 104  1164.318
 105  1062.814
 106  672.9225
 107  621.9969
 108  1403.17
 109  485.7027
 110  445.7059
 111  645.5529
 112  845.2484
 113  2136.979
 114  1206.169
 115  639.6282
 116  421.9552
 117  1403.8
 118  1699.488
 119  330.9933
 120  451.6143
 121  1008.362
 122  1074.761
 123  950.6042
 124  645.9988
 125  1294.81
 126  1825.191
 127  642.0539
 128  699.0723
 129  1045.699
 130  815.2774
 131  629.2726
 132  -27.8929
 133  110.9175
 134  1190.649
 135  1279.547
 136  1070.721
 137  1.847599
 138  1095.917
 139  357.8179
 140  477.3041
 141  537.8635
 142  546.7607
 143  300.2193
 144  839.362
 145  901.239
 146  537.4253
 147  1259.167
 148  666.7195
 149  358.7692
 150  1172.953
 151  925.6501
 152  506.7041
 153  650.3904
 154  941.864
 155  1027.269
 156  1484.736
 157  642.9732
 158  2306.365
 159  3593.248
 160  3916.941
 161  2542.789
 162  1272.481
 163  1339.304
 164  868.2369
 165  1516.46
 166  1889.184
 167  1213.505
 168  757.4866
 169  599.8074
 170  1487.182
 171  1623.431
 172  772.2645
 173  569.4868
 174  1332.947
 175  1782.802
 176  1098.362
 177  755.9465
 178  685.3234
 179  762.4501
 180  379.2693
 181  1073.805
 182  2416.388
 183  966.3483
 184  1459.85
 185  1432.396
 186  1595.434
 187  502.4153
 188  745.0649
 189  837.9061
 190  274.3958
 191  630.6691
 192  1576.265
 193  1693.416
 194  1483.507
 195  1138.626
 196  910.3596
 197  1164.992
 198  1588.182
 199  1188.65
 200  1532.707
 201  1412.466
 202  656.6631
 203  1548.012
 204  1708.26
 205  1263.543
 206  749.2802
 207  1300.576
 208  1794.075
 209  1099.227
 210  863.6707
 211  1173.833
 212  752.6516
 213  659.8638
 214  372.2625
 215  851.551
 216  1342.717
 217  1181.658
 218  622.6655
 219  862.194
 220  899.3414
 221  951.1547
 222  671.8347
 223  320.1038
 224  1206.926
 225  935.7722
 226  1109.446
 227  235.5393
 228  291.422
 229  968.3068
 230  1067.702
 231  335.9023
 232  1171.03
 233  1408.549
 234  1154.343
 235  1021.517
 236  1140.295
 237  905.0342
 238  1310.617
 239  1097.495
 240  1223.728
 241  836.4876
 242  1188.504
 243  1141.028
 244  1259.75
 245  396.7122
 246  1485.405
 247  1073
 248  799.0419
 249  1116.91
 250  1537.962
 251  339.8044
 252  844.8538
 253  776.2408
 254  1119.538
 255  1589.325
