# Input file       =  1191897833.137104_cleaned.dat
# Candidate        =  PSR_0332+5434
# Telescope        =  AR
# Epoch_topo       =  58039.114029364631
# Epoch_bary       =  N/A
# T_sample         =  0.002
# Data Folded      =  7340032
# Data Avg         =  0.0102440284794252
# Data StdDev      =  1.0000699977071  
# Profile Bins     =  512
# Profile Avg      =  146.592963066931 
# Profile StdDev   =  119.741417414777 
# Reduced chi-sqr  =  1.792
# Prob(Noise)      <  2.24e-25   (~10.3 sigma)
# P_topo (ms)      =  714.480520167145  +/- 0.000238
# P'_topo (s/s)    =  -0                +/- 1.26e-10
# P''_topo (s/s^2) =  0                 +/- 5.55e-14
# P_bary (ms)      =  N/A
# P'_bary (s/s)    =  N/A
# P''_bary (s/s^2) =  N/A
# P_orb (s)        =  N/A
# asin(i)/c (s)    =  N/A
# eccentricity     =  N/A
# w (rad)          =  N/A
# T_peri           =  N/A
######################################################
   0  176.5238
   1  85.96449
   2  -17.96846
   3  29.90115
   4  141.27
   5  112.4833
   6  120.1937
   7  175.9775
   8  126.0428
   9  235.5242
  10  99.46264
  11  212.8622
  12  286.3895
  13  150.6724
  14  142.889
  15  175.0308
  16  243.4053
  17  95.57083
  18  -24.16164
  19  40.87469
  20  155.9626
  21  200.3738
  22  109.6566
  23  37.6575
  24  173.0136
  25  129.9051
  26  61.716
  27  180.8557
  28  289.2971
  29  153.8946
  30  151.7045
  31  202.2865
  32  98.38319
  33  19.98173
  34  107.0747
  35  116.0448
  36  -101.9875
  37  31.55554
  38  9.047153
  39  79.23642
  40  190.341
  41  140.159
  42  -68.33525
  43  125.138
  44  148.2534
  45  151.7341
  46  201.1632
  47  202.799
  48  276.5734
  49  178.3227
  50  130.851
  51  89.57533
  52  34.97689
  53  83.72932
  54  142.9794
  55  59.56256
  56  190.5914
  57  216.0454
  58  138.0109
  59  143.3328
  60  138.248
  61  51.63148
  62  59.65507
  63  168.9593
  64  161.5313
  65  68.71932
  66  180.7736
  67  110.5608
  68  70.89858
  69  65.81549
  70  219.4984
  71  162.1073
  72  152.88
  73  233.564
  74  147.5897
  75  142.2439
  76  155.4862
  77  301.1403
  78  218.3919
  79  124.6031
  80  162.6759
  81  232.7365
  82  201.906
  83  209.5222
  84  111.1526
  85  98.04961
  86  297.0432
  87  353.0804
  88  373.5009
  89  208.7128
  90  287.6746
  91  287.5089
  92  173.6889
  93  155.2197
  94  133.5275
  95  105.3959
  96  146.3047
  97  331.5673
  98  180.16
  99  -47.65794
 100  -18.44863
 101  134.9304
 102  147.5218
 103  38.58182
 104  70.49482
 105  265.5601
 106  73.73602
 107  151.6129
 108  116.555
 109  -4.227327
 110  75.66838
 111  170.9172
 112  155.0022
 113  79.19757
 114  117.392
 115  67.65516
 116  85.71958
 117  162.2034
 118  181.2615
 119  299.0004
 120  340.8383
 121  282.7449
 122  139.6712
 123  150.4806
 124  206.265
 125  143.2745
 126  92.10107
 127  152.2237
 128  193.6461
 129  132.323
 130  221.3602
 131  198.5927
 132  270.6939
 133  250.5126
 134  282.655
 135  190.0142
 136  188.6751
 137  134.4336
 138  302.894
 139  266.084
 140  214.4361
 141  200.9557
 142  310.5818
 143  305.8882
 144  276.0807
 145  249.4891
 146  280.7823
 147  399.2577
 148  438.1291
 149  454.7245
 150  495.8427
 151  620.4882
 152  815.7066
 153  824.0507
 154  1026.745
 155  970.0375
 156  590.6058
 157  376.3145
 158  236.1304
 159  177.0233
 160  164.3551
 161  165.7861
 162  242.8191
 163  207.9808
 164  334.6014
 165  425.7069
 166  315.9393
 167  165.7778
 168  233.6864
 169  339.7195
 170  267.8799
 171  307.9972
 172  311.0632
 173  246.2535
 174  185.9451
 175  182.1418
 176  210.8571
 177  151.9486
 178  88.23118
 179  140.6122
 180  185.0306
 181  225.5168
 182  75.65809
 183  185.1368
 184  239.9197
 185  248.0346
 186  208.031
 187  136.6107
 188  173.5849
 189  252.5288
 190  70.93608
 191  26.88066
 192  250.6258
 193  182.5865
 194  70.311
 195  144.5269
 196  164.1782
 197  156.5995
 198  161.429
 199  172.0123
 200  156.0624
 201  187.6702
 202  187.2819
 203  229.7446
 204  143.4135
 205  307.9015
 206  347.4787
 207  149.7917
 208  102.664
 209  42.9979
 210  74.73377
 211  6.71695
 212  -2.160528
 213  39.81113
 214  84.77908
 215  95.81245
 216  61.409
 217  199.3887
 218  99.50688
 219  183.1394
 220  253.9131
 221  206.5857
 222  155.1152
 223  -23.24615
 224  5.704556
 225  174.4074
 226  199.476
 227  51.89442
 228  10.56575
 229  -27.42814
 230  -31.97166
 231  62.30936
 232  76.55976
 233  142.6809
 234  67.4049
 235  137.2383
 236  118.7678
 237  138.3773
 238  213.9974
 239  222.6335
 240  107.7963
 241  200.1387
 242  243.8397
 243  193.7326
 244  92.70425
 245  68.05003
 246  -12.53986
 247  53.36984
 248  148.5687
 249  126.0744
 250  23.24143
 251  -5.438263
 252  53.37408
 253  41.65082
 254  -23.89905
 255  69.11629
 256  112.1643
 257  81.01344
 258  136.7253
 259  217.9996
 260  139.9704
 261  105.5216
 262  162.9546
 263  271.0663
 264  279.8748
 265  158.5576
 266  147.2501
 267  177.3023
 268  130.4826
 269  272.7338
 270  254.2744
 271  209.3809
 272  47.06508
 273  146.4304
 274  176.0501
 275  147.8012
 276  205.8665
 277  162.5507
 278  149.7097
 279  194.5577
 280  129.0911
 281  301.6231
 282  148.904
 283  107.4638
 284  166.7016
 285  181.9324
 286  250.5217
 287  201.9998
 288  159.2623
 289  111.3041
 290  62.49202
 291  33.11944
 292  58.33803
 293  70.53589
 294  121.4181
 295  223.4309
 296  189.1812
 297  70.1247
 298  174.5549
 299  238.3381
 300  222.6307
 301  218.0156
 302  182.6677
 303  155.1171
 304  116.4258
 305  127.2333
 306  192.9905
 307  91.07419
 308  97.28571
 309  180.5815
 310  143.9644
 311  31.6502
 312  106.902
 313  149.5861
 314  228.6937
 315  120.494
 316  159.9148
 317  199.1129
 318  280.7129
 319  275.6454
 320  212.3685
 321  173.7078
 322  109.9497
 323  -4.911274
 324  104.9279
 325  227.5436
 326  179.996
 327  185.5778
 328  121.3641
 329  81.13846
 330  75.77634
 331  183.5458
 332  198.5314
 333  60.78176
 334  106.2776
 335  177.6166
 336  192.2827
 337  151.0507
 338  211.4852
 339  107.975
 340  75.39812
 341  152.6194
 342  188.2424
 343  175.2923
 344  16.26846
 345  160.7498
 346  180.0488
 347  122.7663
 348  98.31889
 349  87.67479
 350  205.0824
 351  192.0762
 352  160.7862
 353  144.306
 354  177.1593
 355  120.7109
 356  169.5339
 357  197.6369
 358  180.5848
 359  67.18595
 360  48.40755
 361  123.5189
 362  191.7795
 363  117.4453
 364  201.0166
 365  134.5479
 366  184.2761
 367  242.9082
 368  241.4629
 369  201.3164
 370  185.8878
 371  233.1231
 372  186.7394
 373  39.6894
 374  176.6119
 375  201.002
 376  163.6902
 377  185.3647
 378  30.60258
 379  98.63251
 380  55.28896
 381  118.7656
 382  133.6332
 383  126.9822
 384  210.8295
 385  122.4014
 386  8.467629
 387  51.9557
 388  -37.24854
 389  100.1138
 390  165.6072
 391  84.73869
 392  186.5362
 393  193.7635
 394  192.6908
 395  165.1924
 396  24.889
 397  42.31499
 398  211.6361
 399  93.87028
 400  65.25995
 401  182.9666
 402  120.1362
 403  -19.35227
 404  -32.26399
 405  70.42052
 406  70.1921
 407  181.8723
 408  130.4408
 409  161.2266
 410  203.7242
 411  118.3513
 412  -0.4854231
 413  190.8761
 414  122.1493
 415  33.644
 416  9.850067
 417  31.14896
 418  142.4401
 419  145.0733
 420  133.441
 421  27.01408
 422  74.05581
 423  -35.55983
 424  55.10937
 425  119.1408
 426  -24.42917
 427  -4.609517
 428  -65.73836
 429  -42.4844
 430  104.62
 431  81.48745
 432  163.0751
 433  40.14148
 434  71.48724
 435  213.5633
 436  114.4119
 437  68.23876
 438  138.7904
 439  93.65603
 440  115.4568
 441  82.95422
 442  129.0858
 443  102.877
 444  64.47538
 445  184.7367
 446  197.2034
 447  164.5252
 448  85.19463
 449  175.7124
 450  264.3119
 451  182.1609
 452  172.842
 453  91.74093
 454  115.5822
 455  88.5901
 456  37.13353
 457  -23.41222
 458  -8.652011
 459  59.98262
 460  149.0131
 461  32.36603
 462  -186.5048
 463  -63.23558
 464  69.40977
 465  32.23184
 466  138.534
 467  -11.80101
 468  60.93809
 469  82.29709
 470  211.7973
 471  145.4156
 472  57.81373
 473  -9.505301
 474  19.3648
 475  48.0792
 476  -31.90662
 477  -61.81047
 478  57.73277
 479  138.2333
 480  114.7084
 481  28.69942
 482  78.46238
 483  48.4461
 484  36.71429
 485  33.78112
 486  1.852138
 487  42.60131
 488  66.7355
 489  38.66643
 490  120.3711
 491  127.5516
 492  127.2583
 493  74.73249
 494  26.73332
 495  -89.92914
 496  79.08377
 497  182.0653
 498  -24.93744
 499  55.64267
 500  73.32841
 501  120.3454
 502  78.7003
 503  94.82664
 504  122.0977
 505  110.9754
 506  146.4127
 507  149.3721
 508  108.2881
 509  76.05426
 510  102.607
 511  199.2099
