# Input file       =  1191695979.111746-PSRB0329-2ms-sampling-dd.dat
# Candidate        =  PSR_0332+5434
# Telescope        =  AR
# Epoch_topo       =  58036.777755922987
# Epoch_bary       =  N/A
# T_sample         =  0.002
# Data Folded      =  7208960
# Data Avg         =  -9.34536991024116e-11
# Data StdDev      =  5.04222564485595 
# Profile Bins     =  512
# Profile Avg      =  -0.0229637081233719
# Profile StdDev   =  598.306339183611 
# Reduced chi-sqr  =  0.647
# Prob(Noise)      <  1   (~0.0 sigma)
# P_topo (ms)      =  714.478556635194  +/- 0.00203
# P'_topo (s/s)    =  -0                +/- 1.09e-09
# P''_topo (s/s^2) =  0                 +/- 4.91e-13
# P_bary (ms)      =  N/A
# P'_bary (s/s)    =  N/A
# P''_bary (s/s^2) =  N/A
# P_orb (s)        =  N/A
# asin(i)/c (s)    =  N/A
# eccentricity     =  N/A
# w (rad)          =  N/A
# T_peri           =  N/A
######################################################
   0  -200.9433
   1  -50.10915
   2  -359.9008
   3  141.7651
   4  -297.8832
   5  -257.0872
   6  -220.9165
   7  -140.5577
   8  -294.4521
   9  -373.5381
  10  -168.0584
  11  -113.7798
  12  -236.9518
  13  -450.2746
  14  -362.6873
  15  -541.9341
  16  -254.6595
  17  -191.3152
  18  -467.9515
  19  -413.9941
  20  -124.9179
  21  54.18216
  22  -232.8459
  23  -466.2037
  24  -59.79509
  25  -147.0804
  26  -740.08
  27  -716.72
  28  -757.3576
  29  -23.27168
  30  93.02874
  31  -252.8353
  32  3.616116
  33  7.884132
  34  -53.52471
  35  -173.1991
  36  92.48972
  37  5.420482
  38  -277.2518
  39  -258.5211
  40  -111.0829
  41  55.69837
  42  156.9285
  43  215.8473
  44  -173.9673
  45  -1.898624
  46  -23.39193
  47  -26.84096
  48  80.83595
  49  249.6438
  50  160.2464
  51  -81.07092
  52  -60.51192
  53  34.06003
  54  193.7129
  55  -67.64719
  56  -137.8418
  57  154.8943
  58  58.10166
  59  208.4519
  60  146.5927
  61  -92.54224
  62  -134.5146
  63  157.6173
  64  115.2275
  65  -74.24371
  66  -78.78136
  67  -50.07306
  68  -28.25425
  69  109.7099
  70  -32.13862
  71  -18.8897
  72  -5.131808
  73  276.893
  74  247.9233
  75  111.4952
  76  92.89517
  77  -323.0282
  78  -193.2545
  79  -326.7955
  80  -333.9681
  81  139.7684
  82  373.1831
  83  353.6963
  84  -47.26426
  85  -26.05154
  86  -344.8293
  87  111.7826
  88  -54.49234
  89  -199.1394
  90  264.896
  91  117.2455
  92  199.6873
  93  -162.087
  94  -368.4845
  95  -676.0848
  96  -400.1096
  97  -66.52254
  98  366.2276
  99  345.3376
 100  -56.78352
 101  -4.790236
 102  -246.9154
 103  -207.6797
 104  -136.992
 105  -64.24053
 106  -172.8572
 107  75.35564
 108  -22.99093
 109  151.0371
 110  141.9983
 111  204.3406
 112  433.7141
 113  211.6431
 114  460.884
 115  78.77682
 116  443.6914
 117  471.7189
 118  1096.846
 119  1648.235
 120  1617.513
 121  1372.309
 122  702.3082
 123  485.759
 124  680.8328
 125  153.8568
 126  57.99572
 127  71.92841
 128  -613.6408
 129  -515.934
 130  -123.1014
 131  100.0788
 132  450.3686
 133  381.6056
 134  59.10105
 135  -118.5727
 136  -212.6764
 137  -229.5181
 138  -6.659842
 139  -51.08691
 140  -159.803
 141  -276.7776
 142  -50.31105
 143  187.8037
 144  -165.9088
 145  -555.9802
 146  -739.062
 147  -720.9361
 148  -657.5959
 149  -332.0789
 150  24.80833
 151  40.41592
 152  209.7441
 153  -459.692
 154  -441.488
 155  -494.3991
 156  -403.8472
 157  319.9776
 158  331.0747
 159  516.7746
 160  -125.7153
 161  -371.4483
 162  -674.9425
 163  -463.5675
 164  -514.5218
 165  -31.76966
 166  304.3774
 167  409.7159
 168  -8.521116
 169  -630.6007
 170  -385.7817
 171  108.5557
 172  40.08241
 173  -46.70215
 174  -248.7832
 175  -475.3302
 176  -489.3254
 177  -72.62177
 178  -63.12188
 179  -169.3359
 180  -126.0531
 181  -84.06133
 182  -481.8308
 183  -181.8741
 184  -352.6871
 185  -167.1573
 186  -185.5029
 187  65.86841
 188  -117.34
 189  -442.0685
 190  -267.8643
 191  -190.0918
 192  -11.01596
 193  413.3636
 194  335.6264
 195  -190.8758
 196  -434.029
 197  -290.7332
 198  13.49624
 199  -79.7591
 200  138.7007
 201  136.3658
 202  -166.307
 203  -64.43733
 204  -416.36
 205  -208.6689
 206  -99.70271
 207  -8.177065
 208  316.3846
 209  -46.6706
 210  -208.4991
 211  -664.3995
 212  -439.8921
 213  -472.8052
 214  -154.1792
 215  -451.221
 216  -176.1085
 217  -174.5847
 218  -32.70288
 219  -239.3987
 220  -476.3585
 221  -477.6155
 222  -282.6651
 223  -74.47054
 224  216.9579
 225  344.2945
 226  162.4178
 227  -47.92102
 228  -160.4143
 229  -267.037
 230  28.19285
 231  -37.10331
 232  324.8614
 233  496.0772
 234  218.5291
 235  10.95203
 236  39.30493
 237  186.1187
 238  308.0799
 239  480.1723
 240  293.9973
 241  316.3878
 242  -264.7832
 243  155.5319
 244  -97.96379
 245  -400.2721
 246  -328.0611
 247  -231.3253
 248  -82.47363
 249  25.43249
 250  289.4509
 251  194.6754
 252  159.4094
 253  -214.2651
 254  -514.9159
 255  -116.4224
 256  -85.15216
 257  133.7767
 258  59.90659
 259  116.3975
 260  -10.92148
 261  423.2888
 262  53.34658
 263  313.4562
 264  189.9355
 265  -45.6228
 266  39.77667
 267  455.7539
 268  701.2643
 269  646.0643
 270  485.3558
 271  138.6726
 272  82.0477
 273  370.4264
 274  562.2458
 275  476.9651
 276  358.4662
 277  213.5687
 278  143.688
 279  64.63227
 280  6.00594
 281  497.5336
 282  600.7205
 283  169.733
 284  12.54221
 285  228.841
 286  47.79414
 287  425.6954
 288  203.4967
 289  238.4176
 290  361.1512
 291  441.3152
 292  364.8787
 293  241.5983
 294  485.1115
 295  386.7297
 296  96.66463
 297  -0.04676874
 298  159.3271
 299  326.5337
 300  545.5681
 301  285.0212
 302  -50.3475
 303  -139.7262
 304  -58.63999
 305  191.5499
 306  537.8488
 307  640.9144
 308  559.8467
 309  284.2524
 310  -185.7219
 311  -234.1879
 312  302.7077
 313  424.3073
 314  546.2975
 315  560.438
 316  623.9362
 317  425.8195
 318  170.3333
 319  21.11
 320  -361.4102
 321  -82.01664
 322  330.7251
 323  517.0194
 324  535.8478
 325  331.319
 326  363.7395
 327  457.7833
 328  433.7072
 329  436.8714
 330  130.7228
 331  185.4153
 332  490.1591
 333  377.8876
 334  553.4943
 335  838.55
 336  894.6862
 337  853.7285
 338  261.607
 339  177.626
 340  227.195
 341  600.4926
 342  109.2933
 343  -42.95141
 344  198.6865
 345  113.0004
 346  477.1541
 347  511.2102
 348  577.7074
 349  349.1858
 350  441.1245
 351  533.2636
 352  162.8246
 353  213.2594
 354  488.0277
 355  671.7334
 356  408.5122
 357  501.0731
 358  421.5389
 359  238.7161
 360  470.0697
 361  349.2209
 362  417.1651
 363  476.6066
 364  619.5774
 365  1018.845
 366  509.3074
 367  268.0176
 368  -60.93852
 369  -126.8566
 370  209.5235
 371  396.7747
 372  412.0957
 373  -156.7456
 374  -76.99126
 375  53.98961
 376  131.4581
 377  272.7051
 378  425.7486
 379  597.4619
 380  222.9552
 381  289.6459
 382  500.1659
 383  234.7298
 384  62.79135
 385  -107.7103
 386  -266.2946
 387  -171.5138
 388  208.8767
 389  102.1847
 390  -214.6633
 391  -461.5214
 392  201.5128
 393  -501.55
 394  -315.0776
 395  -342.989
 396  -88.87086
 397  49.35102
 398  -126.307
 399  280.7406
 400  -62.42674
 401  -71.02538
 402  -164.7816
 403  -20.09376
 404  115.5537
 405  -216.4772
 406  -238.3981
 407  -266.8829
 408  -121.6047
 409  -418.2604
 410  -183.6282
 411  -123.7588
 412  -254.2466
 413  -312.5557
 414  -298.5152
 415  -133.2599
 416  -213.9325
 417  -111.3573
 418  62.19183
 419  112.8652
 420  35.97135
 421  -172.399
 422  -296.9553
 423  -33.57188
 424  21.56088
 425  -209.1046
 426  -385.8307
 427  -498.0569
 428  -790.3853
 429  -515.5919
 430  -337.3249
 431  -239.4897
 432  -159.7247
 433  -547.8469
 434  -425.9747
 435  -523.2064
 436  -667.5585
 437  -391.4557
 438  -260.5812
 439  42.35462
 440  -234.1568
 441  -483.0304
 442  -428.7372
 443  -535.0087
 444  -301.9709
 445  -229.3476
 446  -147.3354
 447  -318.9955
 448  -558.5679
 449  -93.20252
 450  192.6863
 451  -72.00042
 452  241.7195
 453  35.95726
 454  -141.6078
 455  -352.8255
 456  -581.541
 457  -548.9918
 458  -167.8882
 459  101.5874
 460  82.364
 461  -233.6755
 462  39.3491
 463  59.90874
 464  239.1295
 465  340.3776
 466  277.4932
 467  224.0855
 468  196.8095
 469  -65.24831
 470  -191.3416
 471  -383.0454
 472  -194.5777
 473  39.64531
 474  -285.5815
 475  -175.0311
 476  -279.8136
 477  138.892
 478  78.18674
 479  133.3055
 480  -126.6257
 481  29.52794
 482  -80.84566
 483  -8.684157
 484  -35.26904
 485  42.33144
 486  124.8513
 487  48.58711
 488  50.14059
 489  -311.5162
 490  -390.2538
 491  -534.5986
 492  -307.7378
 493  -605.8127
 494  -519.0095
 495  -432.2106
 496  -444.9401
 497  -266.7168
 498  -913.6234
 499  -357.155
 500  -217.1085
 501  -126.7767
 502  -239.2603
 503  -301.3129
 504  -357.1579
 505  -646.2452
 506  -618.0153
 507  -539.7157
 508  -389.2332
 509  -552.9886
 510  -324.3094
 511  -222.7881
