# Input file       =  1191265216.114095-PSRB0329-2ms-sampling-dd.dat
# Candidate        =  PSR_0332+5434
# Telescope        =  AR
# Epoch_topo       =  58031.792073079800
# Epoch_bary       =  N/A
# T_sample         =  0.002
# Data Folded      =  7208960
# Data Avg         =  -7.53900852882078e-10
# Data StdDev      =  5.25283802605818 
# Profile Bins     =  512
# Profile Avg      =  0.0658420134300595
# Profile StdDev   =  623.29743074898  
# Reduced chi-sqr  =  0.815
# Prob(Noise)      <  0.999   (~0.0 sigma)
# P_topo (ms)      =  714.475358367298  +/- 0.000554
# P'_topo (s/s)    =  -0                +/- 2.97e-10
# P''_topo (s/s^2) =  0                 +/- 1.34e-13
# P_bary (ms)      =  N/A
# P'_bary (s/s)    =  N/A
# P''_bary (s/s^2) =  N/A
# P_orb (s)        =  N/A
# asin(i)/c (s)    =  N/A
# eccentricity     =  N/A
# w (rad)          =  N/A
# T_peri           =  N/A
######################################################
   0  -493.7154
   1  -511.7751
   2  -660.6567
   3  -726.0163
   4  -765.2285
   5  -333.1275
   6  -271.3127
   7  -367.8888
   8  -718.1924
   9  -704.4002
  10  -1110.959
  11  -736.0708
  12  -0.01303683
  13  121.5672
  14  149.4197
  15  94.21378
  16  -470.9491
  17  -675.463
  18  -718.0084
  19  -606.278
  20  -617.098
  21  -609.7643
  22  -280.4117
  23  -170.431
  24  -52.03512
  25  -309.4737
  26  -500.0085
  27  -708.2958
  28  -581.1199
  29  -250.7592
  30  -134.8884
  31  -33.81726
  32  -177.8153
  33  -114.8872
  34  -240.1685
  35  -424.6159
  36  -657.7612
  37  -624.8672
  38  -636.2554
  39  -430.6951
  40  -515.4771
  41  -534.1569
  42  -433.6203
  43  -448.0277
  44  -214.5442
  45  -119.007
  46  26.77674
  47  -175.1939
  48  -377.9015
  49  126.6931
  50  88.52042
  51  -41.67216
  52  -247.3037
  53  -367.4704
  54  -254.5551
  55  -85.74691
  56  -29.63147
  57  -627.6024
  58  -548.4579
  59  -168.801
  60  5.667487
  61  81.29785
  62  26.23003
  63  -224.7006
  64  -378.5186
  65  -632.8331
  66  -372.5299
  67  -106.9127
  68  -236.8054
  69  -125.3446
  70  -165.509
  71  -86.356
  72  -309.1189
  73  -377.1755
  74  -69.07369
  75  58.36927
  76  -156.2794
  77  -193.3049
  78  416.4202
  79  1065.553
  80  945.593
  81  961.8679
  82  625.3854
  83  -255.0516
  84  83.78667
  85  291.6974
  86  552.0428
  87  504.3122
  88  414.9901
  89  219.5663
  90  -342.1486
  91  -287.3931
  92  -476.5635
  93  -262.9614
  94  29.877
  95  -22.65205
  96  -86.46663
  97  64.56246
  98  313.2547
  99  209.1835
 100  455.9065
 101  346.6635
 102  -7.090423
 103  108.4848
 104  177.2879
 105  55.33958
 106  -145.4869
 107  -166.45
 108  -121.9892
 109  -227.0358
 110  -359.349
 111  153.9115
 112  204.2856
 113  202.2239
 114  248.1799
 115  1.525256
 116  95.10046
 117  273.1409
 118  442.0623
 119  190.328
 120  68.53249
 121  151.3357
 122  121.7771
 123  43.13233
 124  259.0763
 125  177.6819
 126  -231.6
 127  -119.6267
 128  499.5876
 129  352.1913
 130  -90.82008
 131  -325.6723
 132  -112.0242
 133  -169.3597
 134  -211.0741
 135  -244.01
 136  -412.4565
 137  -321.5034
 138  -30.16963
 139  -327.7117
 140  -431.0711
 141  -383.4582
 142  19.95238
 143  -184.7635
 144  -376.6375
 145  -55.85262
 146  233.9395
 147  132.9488
 148  -34.23274
 149  -353.9075
 150  -388.7913
 151  22.83108
 152  -267.1067
 153  -543.6578
 154  -367.8875
 155  -108.3819
 156  -356.7376
 157  -547.1122
 158  -93.36751
 159  -94.74454
 160  -711.0611
 161  -751.624
 162  10.78339
 163  -83.05635
 164  -35.00247
 165  -476.5599
 166  -434.979
 167  -331.2122
 168  -746.8928
 169  -486.6644
 170  -191.331
 171  -651.7679
 172  -630.0734
 173  -514.4785
 174  -309.2875
 175  71.20435
 176  -46.35852
 177  -73.05177
 178  -1.693553
 179  -45.95184
 180  119.581
 181  -46.45963
 182  188.4632
 183  155.4519
 184  -316.7364
 185  61.89965
 186  -280.1275
 187  -422.5029
 188  -105.0228
 189  -153.2869
 190  -402.9352
 191  -507.763
 192  -601.2388
 193  -319.0192
 194  -377.1439
 195  -370.1206
 196  -108.1685
 197  -410.3028
 198  -728.6607
 199  -633.1236
 200  -376.3881
 201  -449.5229
 202  -523.8691
 203  -625.6375
 204  -460.9245
 205  -258.7512
 206  -480.1726
 207  -863.4504
 208  -951.7701
 209  -485.0803
 210  -146.6573
 211  131.7835
 212  -103.985
 213  -191.9231
 214  -274.6354
 215  -362.1888
 216  -546.6924
 217  -271.3491
 218  -328.5738
 219  -510.8661
 220  -39.58725
 221  25.93915
 222  -278.0077
 223  -278.9655
 224  -234.1949
 225  -24.47737
 226  -41.71309
 227  -142.241
 228  149.3015
 229  91.41724
 230  53.72357
 231  -281.0857
 232  -466.3721
 233  -429.2649
 234  -161.499
 235  -19.52508
 236  179.918
 237  -161.3796
 238  -63.85886
 239  -30.53464
 240  -164.7355
 241  -87.46784
 242  130.7796
 243  -135.1802
 244  176.1123
 245  200.768
 246  362.4521
 247  454.8199
 248  363.1834
 249  297.0846
 250  550.5259
 251  574.506
 252  541.303
 253  731.0877
 254  595.954
 255  621.4456
 256  173.2106
 257  360.6981
 258  694.2393
 259  682.5359
 260  336.7925
 261  477.4815
 262  549.2175
 263  554.1606
 264  476.9472
 265  421.1952
 266  639.9493
 267  449.4407
 268  174.8516
 269  356.1885
 270  804.2386
 271  819.9283
 272  808.0502
 273  571.98
 274  286.6479
 275  610.6863
 276  846.4642
 277  770.3369
 278  271.1036
 279  192.4993
 280  185.9353
 281  97.72678
 282  590.7341
 283  619.025
 284  446.4441
 285  591.3849
 286  423.8288
 287  629.9094
 288  321.3705
 289  129.0249
 290  81.77518
 291  338.727
 292  252.5551
 293  274.0325
 294  244.0202
 295  361.1561
 296  457.8946
 297  225.9375
 298  604.2388
 299  273.5629
 300  780.3021
 301  775.6313
 302  913.6421
 303  1021.731
 304  601.1821
 305  206.3296
 306  337.0178
 307  434.5944
 308  533.1906
 309  518.178
 310  522.329
 311  536.5309
 312  555.0502
 313  385.1581
 314  414.414
 315  513.0713
 316  629.8588
 317  225.8655
 318  537.3232
 319  320.1636
 320  140.1259
 321  -21.30947
 322  66.78384
 323  -102.5725
 324  15.33785
 325  214.2702
 326  26.45409
 327  -48.668
 328  -604.6754
 329  -122.65
 330  260.1438
 331  612.9684
 332  771.8056
 333  482.5241
 334  561.943
 335  219.8092
 336  777.6508
 337  1188.643
 338  1261.168
 339  1334.946
 340  1006.937
 341  709.4772
 342  441.6946
 343  313.7639
 344  224.6108
 345  75.90969
 346  589.5874
 347  461.1554
 348  491.392
 349  410.9508
 350  328.5678
 351  10.067
 352  -371.9509
 353  269.3075
 354  335.8703
 355  446.0077
 356  406.4004
 357  261.7148
 358  -42.03491
 359  -251.5795
 360  164.7795
 361  112.9603
 362  -93.68507
 363  -338.1031
 364  -662.0807
 365  -433.2002
 366  -263.7201
 367  79.05157
 368  104.72
 369  71.27493
 370  228.9767
 371  60.5625
 372  -230.4239
 373  -88.62469
 374  89.30711
 375  -170.6122
 376  -98.23392
 377  -366.5801
 378  -292.9749
 379  -317.7198
 380  -115.0059
 381  -88.81769
 382  -218.7617
 383  -74.80388
 384  -9.657974
 385  17.03143
 386  241.1922
 387  208.3314
 388  391.0926
 389  552.2559
 390  1070.017
 391  1381.466
 392  1135.552
 393  967.1628
 394  624.5263
 395  -74.67773
 396  -488.535
 397  -268.8939
 398  -336.2353
 399  -134.8381
 400  -522.5945
 401  -392.0872
 402  -348.5751
 403  -20.01995
 404  215.1558
 405  69.57226
 406  87.36243
 407  -257.6644
 408  146.7753
 409  316.024
 410  247.1596
 411  -74.09694
 412  -274.5774
 413  -354.7944
 414  -129.8557
 415  -238.8524
 416  -371.4605
 417  -455.7368
 418  -107.44
 419  133.4682
 420  239.1632
 421  160.6501
 422  -457.5826
 423  -368.6728
 424  -480.7494
 425  -212.067
 426  -126.1318
 427  332.1433
 428  31.03974
 429  -307.9478
 430  -601.3407
 431  -748.0958
 432  -598.8439
 433  -557.6317
 434  -55.31536
 435  -140.9722
 436  -199.3551
 437  -120.8659
 438  161.9766
 439  66.28233
 440  26.10316
 441  405.9998
 442  359.3658
 443  350.6063
 444  275.7616
 445  464.9003
 446  232.7179
 447  434.1738
 448  328.6713
 449  144.2661
 450  53.96849
 451  54.38994
 452  188.8462
 453  209.841
 454  142.547
 455  94.19971
 456  -414.7249
 457  -308.4095
 458  -46.34194
 459  273.2131
 460  316.038
 461  328.5827
 462  172.111
 463  27.26709
 464  -203.4559
 465  -473.3315
 466  -376.8564
 467  -271.2268
 468  131.0667
 469  6.923451
 470  -291.2541
 471  -8.188742
 472  -356.7992
 473  -228.9111
 474  -528.95
 475  -120.5943
 476  232.0736
 477  142.4245
 478  375.8064
 479  185.3509
 480  -62.43581
 481  -220.9768
 482  220.6736
 483  464.1701
 484  900.1291
 485  834.1318
 486  431.463
 487  -85.22916
 488  -373.5213
 489  -545.204
 490  -191.3926
 491  71.77785
 492  781.2034
 493  98.89122
 494  143.6216
 495  13.15279
 496  -200.6343
 497  -60.86306
 498  -445.0042
 499  -406.8818
 500  -255.5721
 501  -275.8367
 502  -337.4615
 503  -205.9338
 504  -212.4058
 505  -72.14915
 506  -91.51867
 507  -340.9143
 508  -208.931
 509  -304.2409
 510  -180.9977
 511  -389.6736
