# Input file       =  1191954469.124143_cleaned.dat
# Candidate        =  PSR_0332+5434
# Telescope        =  AR
# Epoch_topo       =  58039.769538473876
# Epoch_bary       =  N/A
# T_sample         =  0.002
# Data Folded      =  7208960
# Data Avg         =  0.0169293766164885
# Data StdDev      =  1.00003345408402 
# Profile Bins     =  512
# Profile Avg      =  238.319870391044 
# Profile StdDev   =  118.663145427568 
# Reduced chi-sqr  =  2.094
# Prob(Noise)      <  9.78e-42   (~13.5 sigma)
# P_topo (ms)      =  714.480637239277  +/- 0.000159
# P'_topo (s/s)    =  -0                +/- 8.55e-11
# P''_topo (s/s^2) =  0                 +/- 3.84e-14
# P_bary (ms)      =  N/A
# P'_bary (s/s)    =  N/A
# P''_bary (s/s^2) =  N/A
# P_orb (s)        =  N/A
# asin(i)/c (s)    =  N/A
# eccentricity     =  N/A
# w (rad)          =  N/A
# T_peri           =  N/A
######################################################
   0  1386.889
   1  1147.1
   2  928.3114
   3  651.2454
   4  391.2404
   5  351.5785
   6  371.6285
   7  237.3312
   8  252.5874
   9  348.2002
  10  379.8997
  11  324.3297
  12  341.6383
  13  380.5967
  14  460.1914
  15  350.1952
  16  415.452
  17  406.7022
  18  313.3204
  19  262.4889
  20  262.8454
  21  167.8622
  22  239.0909
  23  279.1195
  24  214.0168
  25  192.3964
  26  112.6526
  27  261.9713
  28  300.1238
  29  222.882
  30  78.40154
  31  219.6818
  32  264.0475
  33  358.9166
  34  258.3967
  35  191.7566
  36  267.6945
  37  137.0638
  38  147.7248
  39  109.0591
  40  133.0269
  41  298.474
  42  195.6653
  43  146.9846
  44  121.6881
  45  162.8947
  46  86.82681
  47  92.92464
  48  247.4215
  49  212.5307
  50  166.2894
  51  203.3523
  52  271.8846
  53  263.6638
  54  267.2057
  55  257.9033
  56  215.2624
  57  143.0653
  58  240.8524
  59  238.8965
  60  196.3394
  61  183.2553
  62  235.7666
  63  137.9129
  64  149.8079
  65  143.1617
  66  224.8843
  67  183.7087
  68  212.2305
  69  265.3511
  70  230.1339
  71  398.116
  72  314.1788
  73  180.5492
  74  321.8668
  75  284.7186
  76  212.333
  77  180.9334
  78  101.907
  79  189.5402
  80  319.4117
  81  367.6858
  82  159.1721
  83  167.161
  84  36.38087
  85  102.7415
  86  103.3193
  87  70.57468
  88  113.2636
  89  205.3951
  90  242.0805
  91  242.4218
  92  155.2196
  93  270.181
  94  181.6113
  95  225.6241
  96  119.4791
  97  237.3641
  98  221.2761
  99  166.8729
 100  203.4806
 101  200.3925
 102  282.6944
 103  352.06
 104  340.0542
 105  159.1729
 106  58.37636
 107  301.5963
 108  272.2661
 109  237.6267
 110  202.1015
 111  233.0111
 112  236.8516
 113  290.3192
 114  250.6833
 115  208.1348
 116  247.6452
 117  190.4629
 118  312.0217
 119  170.463
 120  279.7952
 121  368.1136
 122  340.2722
 123  271.3078
 124  250.5969
 125  135.9139
 126  254.583
 127  307.541
 128  218.6523
 129  129.2991
 130  121.5953
 131  299.2134
 132  293.1565
 133  198.6949
 134  341.5398
 135  229.6742
 136  169.0307
 137  248.2332
 138  342.5759
 139  259.4396
 140  290.7748
 141  307.2025
 142  128.6627
 143  219.339
 144  183.673
 145  209.1584
 146  151.919
 147  236.509
 148  289.1392
 149  283.2116
 150  317.7651
 151  292.6826
 152  348.7223
 153  187.3446
 154  146.456
 155  169.0436
 156  287.1124
 157  333.8855
 158  353.7368
 159  316.4375
 160  161.2492
 161  233.174
 162  269.303
 163  228.5309
 164  280.6768
 165  202.9564
 166  189.2106
 167  41.52488
 168  98.03392
 169  261.7126
 170  259.2647
 171  200.4619
 172  244.9252
 173  225.8727
 174  212.2943
 175  148.919
 176  185.3218
 177  230.8333
 178  157.9798
 179  204.8498
 180  280.64
 181  234.4878
 182  230.3241
 183  225.9857
 184  159.651
 185  271.3859
 186  258.3198
 187  325.7314
 188  235.8467
 189  224.7157
 190  294.0871
 191  322.9574
 192  192.0479
 193  199.4548
 194  164.6203
 195  182.4932
 196  259.0888
 197  367.7288
 198  335.2742
 199  299.3705
 200  196.2929
 201  99.73349
 202  107.5478
 203  286.6187
 204  251.2109
 205  158.1633
 206  234.3036
 207  253.0287
 208  245.0975
 209  369.6444
 210  322.0669
 211  228.9058
 212  192.8485
 213  159.6812
 214  95.79731
 215  199.3074
 216  231.2275
 217  186.4667
 218  261.9632
 219  150.9812
 220  271.6422
 221  293.5256
 222  208.3273
 223  233.0253
 224  322.5464
 225  199.2886
 226  111.8519
 227  123.0534
 228  269.9281
 229  379.5246
 230  400.4351
 231  358.5847
 232  267.3107
 233  144.7852
 234  238.7591
 235  239.3425
 236  257.1388
 237  121.4363
 238  79.44856
 239  194.0304
 240  251.9154
 241  219.3377
 242  269.4858
 243  171.4251
 244  152.6499
 245  282.331
 246  330.1001
 247  271.6351
 248  273.596
 249  367.0062
 250  261.232
 251  250.2045
 252  407.3367
 253  201.9182
 254  101.2583
 255  221.7124
 256  157.8634
 257  115.928
 258  113.1048
 259  161.7265
 260  144.8884
 261  117.3579
 262  167.6263
 263  230.8089
 264  153.5392
 265  272.9773
 266  336.0164
 267  221.8543
 268  126.9561
 269  195.9523
 270  141.5686
 271  87.65453
 272  191.0325
 273  172.8229
 274  243.8201
 275  267.327
 276  211.9359
 277  133.8731
 278  49.03509
 279  192.5439
 280  116.9186
 281  86.65299
 282  157.9991
 283  211.8129
 284  276.9936
 285  273.032
 286  201.7409
 287  196.1467
 288  244.8324
 289  241.9007
 290  225.178
 291  264.785
 292  179.2602
 293  92.62769
 294  152.0038
 295  226.2047
 296  264.6791
 297  247.7002
 298  81.3543
 299  215.8265
 300  289.64
 301  234.4871
 302  180.219
 303  214.3507
 304  187.4677
 305  144.8242
 306  142.4314
 307  189.6478
 308  281.59
 309  240.0649
 310  196.3102
 311  123.0888
 312  52.45421
 313  74.41842
 314  178.3686
 315  234.3425
 316  252.2874
 317  218.9824
 318  355.1546
 319  307.5843
 320  299.5138
 321  339.1697
 322  306.1096
 323  233.1829
 324  247.8475
 325  169.2267
 326  181.4478
 327  249.9795
 328  295.2654
 329  141.46
 330  242.6786
 331  164.0838
 332  195.4175
 333  150.2687
 334  116.7822
 335  125.1268
 336  160.6922
 337  159.4224
 338  228.2693
 339  123.2089
 340  132.7907
 341  136.6318
 342  249.1392
 343  261.526
 344  205.7203
 345  205.5961
 346  319.4664
 347  215.0493
 348  196.976
 349  264.7261
 350  226.3729
 351  327.1453
 352  342.8267
 353  362.1508
 354  251.3499
 355  148.0015
 356  207.4449
 357  377.5273
 358  248.814
 359  168.2777
 360  105.8174
 361  281.8763
 362  313.6292
 363  363.8374
 364  237.9817
 365  247.9198
 366  327.8244
 367  363.7915
 368  194.1805
 369  199.9595
 370  319.4959
 371  227.6487
 372  221.4428
 373  231.5064
 374  145.0387
 375  286.1348
 376  370.4355
 377  315.5515
 378  305.9026
 379  197.2268
 380  177.3075
 381  192.3485
 382  261.3783
 383  159.0077
 384  142.0664
 385  149.6538
 386  239.903
 387  338.9494
 388  247.3939
 389  212.353
 390  131.6622
 391  173.4915
 392  233.7792
 393  239.1655
 394  362.6458
 395  234.6103
 396  162.3149
 397  214.9859
 398  151.0291
 399  74.13936
 400  193.7023
 401  266.3416
 402  204.5438
 403  193.7677
 404  270.776
 405  289.4829
 406  240.8252
 407  210.4931
 408  209.344
 409  123.9755
 410  202.828
 411  164.2219
 412  107.3068
 413  148.321
 414  218.2546
 415  128.0402
 416  116.3489
 417  128.3846
 418  122.6181
 419  229.5237
 420  274.8871
 421  302.8951
 422  259.4573
 423  263.2697
 424  314.7912
 425  330.4464
 426  204.6379
 427  131.3346
 428  202.424
 429  243.6323
 430  374.716
 431  391.1789
 432  171.3322
 433  250.6534
 434  99.09818
 435  200.7213
 436  158.1446
 437  226.5563
 438  379.6052
 439  348.0429
 440  199.8844
 441  -23.20396
 442  -6.195335
 443  120.427
 444  86.01267
 445  188.1793
 446  225.3919
 447  128.4716
 448  265.637
 449  185.0648
 450  152.1905
 451  133.2648
 452  185.463
 453  98.88903
 454  238.8595
 455  227.3256
 456  240.5542
 457  230.9303
 458  190.8647
 459  296.7742
 460  183.3343
 461  156.5619
 462  218.6754
 463  268.9349
 464  239.322
 465  123.7621
 466  273.8595
 467  391.6574
 468  262.0594
 469  189.1517
 470  144.2237
 471  271.9928
 472  347.2489
 473  393.5926
 474  293.3938
 475  196.2475
 476  215.8876
 477  165.3282
 478  246.3572
 479  291.3269
 480  399.2487
 481  294.4611
 482  196.1384
 483  266.8146
 484  259.0738
 485  270.6555
 486  209.8397
 487  233.4202
 488  313.6841
 489  239.2606
 490  192.7914
 491  239.0846
 492  247.4477
 493  270.2565
 494  241.0959
 495  271.8788
 496  323.097
 497  264.5727
 498  256.8558
 499  160.3569
 500  180.3483
 501  286.1077
 502  176.8372
 503  320.4536
 504  463.6557
 505  436.5064
 506  333.6314
 507  448.14
 508  570.1619
 509  726.8667
 510  1029.575
 511  1219.062
