# Input file       =  1191811690.126897-PSRB0329-2ms-sampling-dd.dat
# Candidate        =  PSR_0332+5434
# Telescope        =  AR
# Epoch_topo       =  58038.117003783533
# Epoch_bary       =  N/A
# T_sample         =  0.002
# Data Folded      =  7340032
# Data Avg         =  -4.15291932135874e-10
# Data StdDev      =  5.93032796097601 
# Profile Bins     =  512
# Profile Avg      =  0.0552814466599192
# Profile StdDev   =  710.056173477694 
# Reduced chi-sqr  =  0.737
# Prob(Noise)      <  1   (~0.0 sigma)
# P_topo (ms)      =  714.479822246949  +/- 8.23e-05
# P'_topo (s/s)    =  -0                +/- 4.34e-11
# P''_topo (s/s^2) =  0                 +/- 1.92e-14
# P_bary (ms)      =  N/A
# P'_bary (s/s)    =  N/A
# P''_bary (s/s^2) =  N/A
# P_orb (s)        =  N/A
# asin(i)/c (s)    =  N/A
# eccentricity     =  N/A
# w (rad)          =  N/A
# T_peri           =  N/A
######################################################
   0  -742.6539
   1  -251.4619
   2  -627.6805
   3  -471.6927
   4  -217.3594
   5  550.8553
   6  -100.7214
   7  -311.1003
   8  -61.41515
   9  474.2365
  10  -234.8096
  11  -783.0342
  12  -813.2603
  13  -399.7536
  14  -895.6134
  15  -245.6245
  16  -142.9615
  17  161.9116
  18  -325.3197
  19  -350.1581
  20  -526.7222
  21  -361.6108
  22  13.00877
  23  -24.53601
  24  718.4185
  25  492.2827
  26  348.933
  27  163.6331
  28  -537.5208
  29  -572.0859
  30  -147.6122
  31  76.0756
  32  -203.0289
  33  107.534
  34  433.521
  35  271.6239
  36  -289.8381
  37  295.3275
  38  267.2969
  39  -8.964509
  40  -42.53579
  41  867.3318
  42  348.2847
  43  262.8334
  44  -30.71745
  45  -249.4185
  46  -339.2746
  47  -174.4034
  48  527.9724
  49  555.4692
  50  439.1598
  51  131.17
  52  374.2828
  53  243.1161
  54  -259.0269
  55  15.83803
  56  225.0947
  57  398.881
  58  503.0441
  59  860.3912
  60  227.8175
  61  -57.20132
  62  -46.26428
  63  453.5418
  64  282.9632
  65  94.57611
  66  805.2717
  67  -57.04378
  68  560.3094
  69  337.7274
  70  -181.968
  71  -77.83903
  72  -261.5232
  73  36.13022
  74  414.4487
  75  1124.117
  76  795.8381
  77  -332.0711
  78  -340.1675
  79  -526.9103
  80  -511.8004
  81  -158.5475
  82  828.5366
  83  665.7676
  84  153.3929
  85  -134.7262
  86  -182.8583
  87  -177.7072
  88  268.644
  89  -193.7565
  90  308.17
  91  243.6886
  92  966.1988
  93  801.6904
  94  353.3404
  95  165.6297
  96  274.8947
  97  -153.5602
  98  273.8691
  99  185.6652
 100  336.0042
 101  217.0499
 102  341.0791
 103  -62.38782
 104  -267.5316
 105  -347.4317
 106  -491.3556
 107  -638.846
 108  93.17695
 109  -222.296
 110  -140.4899
 111  -334.3466
 112  396.9685
 113  -367.3404
 114  -539.459
 115  184.8988
 116  467.1454
 117  78.29173
 118  16.81992
 119  -155.168
 120  -117.4737
 121  -283.2878
 122  473.3161
 123  1057.115
 124  1136.334
 125  756.4176
 126  744.8265
 127  154.4253
 128  76.66854
 129  198.5459
 130  800.3922
 131  363.2432
 132  330.7919
 133  843.7758
 134  820.3143
 135  201.7417
 136  -2.845734
 137  306.4005
 138  231.6004
 139  276.7187
 140  424.3308
 141  716.9561
 142  661.1921
 143  162.0807
 144  402.0427
 145  292.1777
 146  -22.06865
 147  -72.2307
 148  -21.06199
 149  768.9357
 150  33.18623
 151  -242.3825
 152  -124.2432
 153  -119.7806
 154  -63.06672
 155  143.6411
 156  -25.02797
 157  166.6798
 158  221.0949
 159  657.5691
 160  -107.9008
 161  -234.761
 162  261.0333
 163  331.743
 164  185.6369
 165  790.2683
 166  701.8934
 167  564.5858
 168  216.1312
 169  727.4506
 170  415.3736
 171  625.9315
 172  364.1887
 173  -45.20774
 174  -271.7473
 175  491.3942
 176  1021.045
 177  1212.699
 178  341.6442
 179  170.4013
 180  -525.2543
 181  -110.534
 182  433.2068
 183  584.9932
 184  574.4427
 185  933.3384
 186  -102.2677
 187  -289.1245
 188  -666.7225
 189  -318.5376
 190  -69.8009
 191  636.9926
 192  493.0251
 193  488.4795
 194  200.2513
 195  252.7726
 196  -105.5127
 197  276.4913
 198  568.6991
 199  464.5851
 200  419.8032
 201  612.4782
 202  247.5806
 203  154.9847
 204  57.287
 205  199.9657
 206  323.225
 207  378.9849
 208  189.6951
 209  286.6637
 210  -120.2522
 211  -329.3271
 212  -359.0434
 213  -29.26159
 214  -172.7348
 215  100.8175
 216  223.3821
 217  441.3701
 218  602.1609
 219  232.5276
 220  -385.386
 221  -348.1284
 222  -340.7101
 223  249.9684
 224  398.9639
 225  405.4018
 226  503.0134
 227  -17.4486
 228  -0.2202716
 229  -4.571379
 230  114.7792
 231  331.6606
 232  211.204
 233  552.0061
 234  701.3719
 235  211.3617
 236  49.3956
 237  94.63829
 238  367.9178
 239  675.7981
 240  1302.899
 241  439.826
 242  49.38325
 243  -191.3201
 244  -99.86935
 245  -39.56559
 246  -94.89153
 247  -64.23109
 248  739.7671
 249  84.37625
 250  -672.8322
 251  -634.8398
 252  238.2267
 253  -304.7598
 254  -506.1336
 255  -670.5429
 256  -126.6621
 257  -467.6697
 258  -220.4444
 259  -355.4706
 260  -174.2951
 261  -433.173
 262  -306.4796
 263  -290.0638
 264  -351.5555
 265  -416.3215
 266  -167.7428
 267  -36.02463
 268  388.9665
 269  288.8947
 270  601.6173
 271  -193.7795
 272  -96.65039
 273  -456.2009
 274  -427.4383
 275  -971.6417
 276  -387.8796
 277  -208.8944
 278  -39.73514
 279  -292.9886
 280  168.9033
 281  116.9111
 282  9.216634
 283  -452.364
 284  -431.7241
 285  -456.4657
 286  -486.1463
 287  -799.6158
 288  -334.0636
 289  -582.8166
 290  -477.0871
 291  -553.7452
 292  -686.2603
 293  -306.0303
 294  235.2969
 295  80.05323
 296  -418.5325
 297  -305.2291
 298  132.721
 299  244.8715
 300  731.8441
 301  -40.84992
 302  334.2641
 303  -267.8728
 304  -221.7868
 305  69.47164
 306  380.4046
 307  221.0616
 308  -124.051
 309  -71.96078
 310  250.8267
 311  272.6198
 312  241.193
 313  188.7202
 314  98.15086
 315  -229.1857
 316  -536.0267
 317  -670.8914
 318  -293.8422
 319  -133.8685
 320  53.71704
 321  -193.7327
 322  -580.6957
 323  -629.9544
 324  -1002.29
 325  -880.3369
 326  -288.6919
 327  335.6277
 328  87.0486
 329  -20.67474
 330  -306.7872
 331  61.90485
 332  -850.2003
 333  -342.4691
 334  297.7022
 335  651.1302
 336  551.8845
 337  794.4752
 338  101.1369
 339  -318.5956
 340  -401.0088
 341  -291.5819
 342  -281.4707
 343  -43.7991
 344  -154.3468
 345  37.82317
 346  -190.4232
 347  112.6263
 348  -245.8642
 349  -15.07563
 350  -312.3476
 351  314.5691
 352  694.7297
 353  667.8882
 354  160.9356
 355  886.7401
 356  1183.953
 357  1443.027
 358  1288.053
 359  1304.02
 360  752.6171
 361  336.574
 362  -400.1083
 363  -212.2465
 364  -325.3165
 365  -83.05846
 366  88.12056
 367  567.9
 368  -259.4263
 369  -558.3838
 370  -745.3328
 371  -143.2702
 372  -101.8468
 373  58.5021
 374  -105.5304
 375  -797.5021
 376  -528.2097
 377  -286.9865
 378  -578.5419
 379  -389.4062
 380  -491.7206
 381  -75.41692
 382  -794.5511
 383  -224.7293
 384  -178.341
 385  -31.22018
 386  -50.97337
 387  -229.9713
 388  37.83956
 389  -329.9431
 390  -743.9228
 391  -209.7354
 392  -252.7791
 393  -494.5478
 394  -559.1006
 395  -128.3869
 396  -40.158
 397  -577.9048
 398  -306.7422
 399  38.25975
 400  7.399638
 401  -42.59237
 402  137.4974
 403  455.1696
 404  -198.8275
 405  -513.7856
 406  268.3449
 407  -37.96546
 408  -218.5995
 409  -37.12167
 410  -83.13858
 411  -284.1617
 412  -456.4345
 413  -151.0079
 414  -281.1174
 415  -526.2637
 416  -419.7633
 417  0.6954542
 418  129.7365
 419  -466.4673
 420  -236.9171
 421  -529.0949
 422  -620.179
 423  -923.5158
 424  -860.7876
 425  -948.7018
 426  -725.528
 427  -109.7465
 428  840.5834
 429  188.5067
 430  48.54922
 431  -248.7598
 432  35.23148
 433  543.2778
 434  776.5278
 435  480.6432
 436  327.5462
 437  -159.1626
 438  -439.1075
 439  -134.0585
 440  -210.4975
 441  -394.4863
 442  279.8041
 443  318.9547
 444  564.7344
 445  56.09901
 446  -98.72363
 447  -757.47
 448  -554.4805
 449  -258.8939
 450  232.4239
 451  396.158
 452  165.6794
 453  -71.20902
 454  -118.4072
 455  -497.8792
 456  -497.2893
 457  -941.7283
 458  -280.8674
 459  -382.1336
 460  234.1421
 461  -482.4932
 462  -107.7181
 463  4.180723
 464  -167.1379
 465  -587.3526
 466  -206.9167
 467  -217.1124
 468  -306.5871
 469  -85.20216
 470  729.3313
 471  286.7467
 472  -129.0577
 473  -24.56766
 474  298.0774
 475  -10.47372
 476  -207.2585
 477  -208.9135
 478  -33.30322
 479  -149.7934
 480  -336.8061
 481  -134.723
 482  -121.54
 483  -335.9905
 484  191.9056
 485  446.3554
 486  170.4444
 487  251.104
 488  404.313
 489  -445.6809
 490  -960.7929
 491  -927.767
 492  -331.247
 493  -103.6696
 494  -415.6173
 495  -104.489
 496  -237.7567
 497  -561.6741
 498  -925.0977
 499  -232.9604
 500  -145.3953
 501  -105.0236
 502  307.3966
 503  68.19691
 504  20.6132
 505  -506.1288
 506  -539.6899
 507  -573.4594
 508  -1048.523
 509  -888.5703
 510  -1147.694
 511  -740.5047
