# Input file       =  1191452153.131497_cleaned.dat
# Candidate        =  PSR_0332+5434
# Telescope        =  AR
# Epoch_topo       =  58033.955695966397
# Epoch_bary       =  N/A
# T_sample         =  0.002
# Data Folded      =  7340032
# Data Avg         =  0.0119366698192279
# Data StdDev      =  1.00017003663176 
# Profile Bins     =  512
# Profile Avg      =  171.138177517883 
# Profile StdDev   =  119.753395378982 
# Reduced chi-sqr  =  1.755
# Prob(Noise)      <  1.36e-23   (~9.9 sigma)
# P_topo (ms)      =  714.476720836795  +/- 0.000164
# P'_topo (s/s)    =  -0                +/- 8.66e-11
# P''_topo (s/s^2) =  0                 +/- 3.82e-14
# P_bary (ms)      =  N/A
# P'_bary (s/s)    =  N/A
# P''_bary (s/s^2) =  N/A
# P_orb (s)        =  N/A
# asin(i)/c (s)    =  N/A
# eccentricity     =  N/A
# w (rad)          =  N/A
# T_peri           =  N/A
######################################################
   0  192.338
   1  91.59961
   2  86.45061
   3  172.079
   4  178.0201
   5  235.6982
   6  307.5583
   7  285.8884
   8  107.9905
   9  224.7525
  10  400.2707
  11  249.7123
  12  179.6356
  13  207.1911
  14  132.1649
  15  209.6875
  16  263.2551
  17  164.1246
  18  217.7347
  19  195.5241
  20  116.95
  21  70.52318
  22  132.5766
  23  112.8393
  24  162.8598
  25  104.3232
  26  87.51688
  27  3.419783
  28  127.3112
  29  188.2424
  30  185.2973
  31  169.3977
  32  220.9637
  33  314.4483
  34  349.0185
  35  156.4038
  36  8.896812
  37  127.0689
  38  235.9431
  39  342.1412
  40  269.8426
  41  284.4253
  42  164.4221
  43  199.3295
  44  308.504
  45  262.1284
  46  132.8884
  47  20.34422
  48  202.0633
  49  193.5438
  50  119.2909
  51  219.6856
  52  288.7854
  53  158.0787
  54  80.43613
  55  35.76287
  56  116.1672
  57  162.5751
  58  230.6415
  59  235.7472
  60  160.3728
  61  219.017
  62  153.9734
  63  155.3012
  64  43.76009
  65  129.9764
  66  270.2451
  67  244.5862
  68  204.9196
  69  66.32567
  70  41.48626
  71  138.3488
  72  172.6674
  73  130.0833
  74  89.01921
  75  205.5312
  76  221.4688
  77  162.316
  78  137.1419
  79  188.3082
  80  211.9794
  81  159.6933
  82  89.91594
  83  109.9235
  84  204.3564
  85  181.1605
  86  112.497
  87  134.4739
  88  127.8865
  89  132.1182
  90  19.14817
  91  86.73844
  92  116.5108
  93  76.38879
  94  184.9132
  95  215.9028
  96  264.2074
  97  213.7361
  98  163.2208
  99  105.5109
 100  123.237
 101  262.947
 102  146.2825
 103  81.3288
 104  193.3401
 105  245.787
 106  294.2328
 107  171.3046
 108  97.42171
 109  196.0882
 110  227.5885
 111  152.0144
 112  199.7913
 113  233.7418
 114  271.3466
 115  106.6788
 116  125.9816
 117  244.2346
 118  218.2875
 119  140.6933
 120  114.3697
 121  144.5295
 122  187.7182
 123  306.7741
 124  200.056
 125  -0.6916867
 126  -74.59503
 127  77.81866
 128  55.18233
 129  -23.0973
 130  147.2694
 131  251.2359
 132  205.4627
 133  107.6817
 134  126.8804
 135  115.6731
 136  88.61107
 137  107.1464
 138  172.1545
 139  114.7661
 140  142.2814
 141  259.255
 142  208.1105
 143  154.2095
 144  32.50912
 145  158.304
 146  240.3341
 147  118.0729
 148  139.1512
 149  97.40896
 150  81.67186
 151  197.3876
 152  205.9027
 153  148.0898
 154  114.911
 155  51.25214
 156  167.1316
 157  338.9811
 158  150.4532
 159  105.4638
 160  89.11376
 161  131.4185
 162  137.2488
 163  187.528
 164  289.4671
 165  192.9793
 166  221.8611
 167  92.88864
 168  17.20831
 169  44.67351
 170  174.7477
 171  228.1909
 172  57.29128
 173  -31.9381
 174  110.6892
 175  249.3749
 176  208.5658
 177  188.5061
 178  266.2255
 179  345.408
 180  272.2384
 181  126.2214
 182  260.1518
 183  177.4953
 184  45.38182
 185  134.7487
 186  228.9188
 187  286.1133
 188  202.3898
 189  225.073
 190  235.6527
 191  111.138
 192  175.0421
 193  165.3803
 194  221.6955
 195  261.1354
 196  183.833
 197  143.4291
 198  119.4588
 199  196.5427
 200  141.4249
 201  194.3325
 202  150.094
 203  160.9662
 204  156.3165
 205  297.8766
 206  316.9053
 207  296.3315
 208  237.9959
 209  232.9154
 210  117.1094
 211  11.41246
 212  97.49821
 213  76.12698
 214  166.1975
 215  203.6885
 216  90.76395
 217  133.1933
 218  133.8959
 219  206.6115
 220  169.5544
 221  84.75346
 222  20.78306
 223  152.5948
 224  109.4762
 225  61.24266
 226  180.0163
 227  261.8581
 228  278.2339
 229  184.7103
 230  23.82118
 231  42.16837
 232  176.1226
 233  152.5966
 234  6.249077
 235  24.31759
 236  149.2733
 237  86.17796
 238  159.7169
 239  131.8114
 240  120.2161
 241  40.13102
 242  54.29761
 243  78.67586
 244  148.2659
 245  226.0902
 246  221.4413
 247  234.6138
 248  167.7221
 249  75.75239
 250  174.4205
 251  103.8279
 252  81.83304
 253  99.78931
 254  191.9088
 255  177.7402
 256  87.81552
 257  129.2736
 258  298.2372
 259  142.3292
 260  32.0899
 261  173.4869
 262  196.9483
 263  60.82805
 264  108.2596
 265  86.52681
 266  214.8449
 267  174.6059
 268  184.8131
 269  236.6448
 270  179.6098
 271  84.58152
 272  20.9799
 273  -29.55335
 274  57.47792
 275  60.75605
 276  32.65477
 277  30.28116
 278  9.074548
 279  90.80986
 280  112.9281
 281  171.5492
 282  238.6847
 283  169.9979
 284  133.8524
 285  104.7455
 286  108.8396
 287  155.1861
 288  193.0912
 289  226.9535
 290  169.4234
 291  106.4813
 292  258.9818
 293  229.6734
 294  -58.28423
 295  -64.56933
 296  191.4335
 297  261.7069
 298  271.0373
 299  313.9572
 300  177.7839
 301  179.3655
 302  158.2907
 303  212.4195
 304  241.7703
 305  153.0775
 306  185.5055
 307  312.2999
 308  240.5951
 309  241.7786
 310  127.2232
 311  44.28063
 312  170.0439
 313  150.7819
 314  31.7268
 315  136.7443
 316  205.4116
 317  145.6308
 318  133.0166
 319  229.2014
 320  259.0279
 321  175.5122
 322  203.8737
 323  222.1052
 324  -28.37583
 325  156.5692
 326  285.6824
 327  90.26984
 328  16.38409
 329  51.04771
 330  92.87597
 331  4.318468
 332  258.3868
 333  207.4828
 334  -26.79693
 335  28.25251
 336  158.768
 337  163.8055
 338  228.5529
 339  191.2604
 340  185.9674
 341  109.931
 342  135.799
 343  130.3595
 344  189.7502
 345  181.3523
 346  42.20113
 347  131.4655
 348  259.0439
 349  121.7624
 350  58.48235
 351  145.546
 352  234.3208
 353  164.6419
 354  64.63991
 355  52.42378
 356  153.1982
 357  165.2128
 358  211.1689
 359  90.55893
 360  202.2227
 361  202.0183
 362  122.5117
 363  125.8881
 364  173.9464
 365  195.6843
 366  301.2516
 367  397.5695
 368  313.7875
 369  201.4594
 370  160.5568
 371  208.0766
 372  164.685
 373  269.6244
 374  337.8504
 375  211.55
 376  82.52175
 377  79.56855
 378  212.6888
 379  237.8638
 380  345.9154
 381  324.5045
 382  309.5169
 383  312.8478
 384  514.2617
 385  575.0541
 386  860.3386
 387  1060.103
 388  1089.053
 389  954.7215
 390  678.9045
 391  353.111
 392  121.1049
 393  105.4919
 394  97.59083
 395  131.4624
 396  74.17007
 397  97.23911
 398  179.6492
 399  161.0836
 400  252.7897
 401  305.5555
 402  215.2994
 403  279.4816
 404  317.1931
 405  257.8665
 406  210.2715
 407  234.0399
 408  169.1247
 409  89.05019
 410  8.873858
 411  35.72399
 412  22.8235
 413  125.6483
 414  125.2812
 415  149.2967
 416  241.1693
 417  202.6739
 418  311.1791
 419  132.8007
 420  103.4177
 421  43.51041
 422  234.8024
 423  430.1263
 424  270.799
 425  236.8539
 426  264.0644
 427  281.1778
 428  203.2015
 429  167.4694
 430  194.1762
 431  161.8522
 432  133.5289
 433  27.46314
 434  116.9412
 435  191.2213
 436  148.5541
 437  87.45522
 438  64.8369
 439  71.22773
 440  103.3635
 441  138.4348
 442  225.4935
 443  168.1676
 444  41.76573
 445  246.4011
 446  179.144
 447  26.65264
 448  209.5211
 449  163.7708
 450  30.65173
 451  87.9245
 452  151.7068
 453  111.5889
 454  88.19135
 455  185.6095
 456  258.8534
 457  66.22836
 458  132.2786
 459  107.6935
 460  174.1495
 461  253.8196
 462  190.0669
 463  36.40578
 464  86.04731
 465  149.133
 466  98.76366
 467  -7.728848
 468  49.36971
 469  151.4249
 470  185.7124
 471  168.7386
 472  210.5415
 473  135.9097
 474  120.978
 475  136.6273
 476  336.2343
 477  293.0276
 478  237.7852
 479  156.5177
 480  243.4056
 481  278.8684
 482  338.4455
 483  295.8549
 484  193.4696
 485  172.9152
 486  111.9526
 487  -12.55025
 488  240.1052
 489  295.9353
 490  136.5029
 491  140.0349
 492  234.8283
 493  226.9588
 494  161.3067
 495  94.45766
 496  199.1561
 497  189.639
 498  36.48664
 499  176.6918
 500  160.72
 501  83.82196
 502  136.369
 503  193.4753
 504  214.7974
 505  69.34237
 506  105.4724
 507  90.02628
 508  120.0284
 509  277.9688
 510  282.7494
 511  214.3366
