# Input file       =  1191366003.118769_cleaned.dat
# Candidate        =  PSR_0332+5434
# Telescope        =  AR
# Epoch_topo       =  58032.958589337606
# Epoch_bary       =  N/A
# T_sample         =  0.002
# Data Folded      =  7340032
# Data Avg         =  0.0264335354149807
# Data StdDev      =  2.2736668075604  
# Profile Bins     =  512
# Profile Avg      =  379.125882045871 
# Profile StdDev   =  272.233030578276 
# Reduced chi-sqr  =  1.142
# Prob(Noise)      <  0.0143   (~2.2 sigma)
# P_topo (ms)      =  714.476092622875  +/- 0.000166
# P'_topo (s/s)    =  -0                +/- 8.77e-11
# P''_topo (s/s^2) =  0                 +/- 3.87e-14
# P_bary (ms)      =  N/A
# P'_bary (s/s)    =  N/A
# P''_bary (s/s^2) =  N/A
# P_orb (s)        =  N/A
# asin(i)/c (s)    =  N/A
# eccentricity     =  N/A
# w (rad)          =  N/A
# T_peri           =  N/A
######################################################
   0  77.57745
   1  198.6122
   2  242.4222
   3  110.679
   4  291.5947
   5  446.0486
   6  391.4324
   7  364.7277
   8  368.7133
   9  501.1266
  10  -18.48142
  11  -33.64917
  12  249.7392
  13  509.9497
  14  396.7326
  15  437.6385
  16  300.2885
  17  253.1817
  18  548.1787
  19  355.4907
  20  560.256
  21  656.2191
  22  132.0387
  23  178.7233
  24  443.4481
  25  426.1234
  26  436.0533
  27  456.1751
  28  430.3555
  29  601.4941
  30  689.2501
  31  423.2553
  32  204.4091
  33  459.2848
  34  686.6906
  35  528.3859
  36  512.5508
  37  566.748
  38  433.5522
  39  399.8315
  40  605.0013
  41  460.864
  42  104.5489
  43  183.695
  44  528.831
  45  634.248
  46  704.8229
  47  867.3301
  48  494.4786
  49  94.939
  50  123.526
  51  69.41523
  52  132.2723
  53  377.7173
  54  444.3118
  55  273.3748
  56  344.5006
  57  394.7417
  58  179.3822
  59  488.6357
  60  472.2024
  61  351.714
  62  379.568
  63  411.3834
  64  153.7133
  65  282.7588
  66  90.51881
  67  -42.44112
  68  26.68817
  69  392.5302
  70  589.8193
  71  238.5484
  72  444.8219
  73  304.5375
  74  105.5935
  75  111.4139
  76  226.9575
  77  306.1339
  78  189.1166
  79  113.1926
  80  217.8315
  81  141.7735
  82  360.4578
  83  547.7311
  84  299.9429
  85  191.614
  86  563.8792
  87  691.155
  88  360.9662
  89  61.56853
  90  27.09373
  91  201.5674
  92  258.0592
  93  158.4897
  94  268.1648
  95  343.9423
  96  443.4199
  97  489.9681
  98  441.1253
  99  233.9012
 100  43.32729
 101  106.3948
 102  313.2186
 103  594.5369
 104  506.6204
 105  403.8244
 106  253.0569
 107  199.4325
 108  518.091
 109  624.4848
 110  495.7454
 111  299.6733
 112  180.3043
 113  162.4939
 114  164.6783
 115  277.1439
 116  349.4998
 117  405.8422
 118  587.9758
 119  743.6478
 120  627.8245
 121  481.6852
 122  429.7017
 123  474.5312
 124  410.6924
 125  463.5981
 126  204.1138
 127  383.671
 128  534.7859
 129  455.7354
 130  401.6841
 131  473.5278
 132  279.5617
 133  396.2929
 134  282.541
 135  660.1453
 136  634.8802
 137  311.4917
 138  273.1905
 139  351.0524
 140  369.793
 141  394.6847
 142  429.4549
 143  403.9489
 144  494.632
 145  408.4727
 146  386.9102
 147  172.6828
 148  325.5045
 149  316.3981
 150  198.1628
 151  335.4514
 152  429.8726
 153  274.7897
 154  554.0038
 155  518.2173
 156  171.4089
 157  -28.42123
 158  252.4314
 159  261.2851
 160  256.7199
 161  321.2897
 162  307.7387
 163  167.5124
 164  233.1521
 165  471.7964
 166  503.7489
 167  190.2458
 168  279.1576
 169  441.6895
 170  538.9995
 171  516.0604
 172  156.52
 173  355.688
 174  711.6089
 175  904.1837
 176  553.0714
 177  391.6989
 178  117.6663
 179  100.3747
 180  456.458
 181  300.2475
 182  229.2881
 183  206.0622
 184  567.0096
 185  391.4283
 186  380.6957
 187  378.9543
 188  317.5133
 189  250.594
 190  232.8221
 191  203.4688
 192  435.6996
 193  505.4918
 194  464.0814
 195  666.9399
 196  470.2854
 197  482.687
 198  452.8105
 199  194.4702
 200  376.8227
 201  573.3543
 202  721.9501
 203  646.6528
 204  469.5077
 205  354.5858
 206  532.1
 207  449.2941
 208  269.0721
 209  146.9884
 210  393.2404
 211  512.9133
 212  169.6372
 213  409.4634
 214  478.9095
 215  634.4536
 216  428.8918
 217  251.7269
 218  456.4852
 219  417.1902
 220  528.9613
 221  321.8187
 222  405.9291
 223  707.6862
 224  396.2394
 225  399.4302
 226  341.4495
 227  417.5001
 228  62.5236
 229  -223.8726
 230  115.4426
 231  451.761
 232  263.0345
 233  228.2083
 234  185.9334
 235  248.1546
 236  426.6339
 237  611.0617
 238  165.0307
 239  -12.73895
 240  15.39729
 241  321.0878
 242  49.71348
 243  56.35269
 244  329.1029
 245  623.7756
 246  316.114
 247  574.1028
 248  597.0714
 249  461.5621
 250  364.1864
 251  -18.83092
 252  306.0006
 253  444.6601
 254  338.2593
 255  285.0014
 256  340.7421
 257  595.549
 258  326.5815
 259  383.2504
 260  513.9888
 261  426.6944
 262  438.5312
 263  530.561
 264  724.6211
 265  490.366
 266  555.1523
 267  619.5517
 268  598.5638
 269  528.1302
 270  441.7674
 271  510.9274
 272  510.0239
 273  431.8389
 274  72.58772
 275  -54.93594
 276  17.63425
 277  267.7052
 278  319.9336
 279  517.0026
 280  460.0417
 281  416.0186
 282  462.2982
 283  427.972
 284  334.0426
 285  331.3895
 286  372.1684
 287  252.6235
 288  210.9176
 289  255.7268
 290  277.4331
 291  317.8377
 292  179.5964
 293  382.5184
 294  479.3477
 295  499.8026
 296  181.8328
 297  194.4771
 298  345.6126
 299  316.6478
 300  278.6134
 301  208.7506
 302  164.9256
 303  72.25589
 304  674.7983
 305  600.9301
 306  391.0761
 307  500.2177
 308  471.8807
 309  469.057
 310  322.2446
 311  342.6112
 312  401.3915
 313  197.0853
 314  471.819
 315  835.1274
 316  808.3406
 317  925.4869
 318  1564.185
 319  1740.564
 320  1647.21
 321  1502.46
 322  1002.545
 323  598.7991
 324  750.191
 325  576.9254
 326  267.0517
 327  121.5668
 328  205.1176
 329  284.5568
 330  393.0659
 331  594.9783
 332  831.3656
 333  545.9985
 334  360.1032
 335  379.5356
 336  460.418
 337  377.9689
 338  384.5064
 339  520.6295
 340  362.1851
 341  -6.251687
 342  -118.3779
 343  123.1221
 344  113.4228
 345  37.42304
 346  307.7359
 347  366.5012
 348  467.4767
 349  561.3177
 350  233.5199
 351  438.8288
 352  490.6977
 353  435.001
 354  308.0285
 355  427.3769
 356  635.3734
 357  699.7006
 358  457.1355
 359  310.5633
 360  248.5663
 361  370.5857
 362  422.3808
 363  559.062
 364  579.1172
 365  390.9458
 366  339.8895
 367  347.2106
 368  353.5884
 369  124.1566
 370  279.0099
 371  429.1049
 372  483.5172
 373  534.2887
 374  370.2401
 375  183.2687
 376  290.9171
 377  373.6302
 378  402.3437
 379  275.3054
 380  344.8936
 381  234.9513
 382  119.4989
 383  272.1861
 384  494.4869
 385  251.3829
 386  6.081523
 387  66.84753
 388  80.57233
 389  279.6949
 390  300.8008
 391  171.3611
 392  385.11
 393  353.3596
 394  420.0944
 395  621.4808
 396  394.1619
 397  575.9434
 398  486.822
 399  107.6473
 400  166.0206
 401  121.1195
 402  257.8856
 403  228.8691
 404  628.179
 405  518.2334
 406  442.3703
 407  506.5467
 408  309.3862
 409  246.4678
 410  499.8235
 411  551.8619
 412  736.3967
 413  813.2903
 414  218.0877
 415  174.9617
 416  359.3575
 417  503.8993
 418  363.8407
 419  309.5208
 420  411.0349
 421  181.3135
 422  115.7474
 423  387.354
 424  224.6606
 425  144.3971
 426  181.1884
 427  440.5155
 428  513.5824
 429  448.4504
 430  470.6553
 431  706.178
 432  499.3583
 433  364.5284
 434  498.2675
 435  301.7667
 436  170.0694
 437  377.4591
 438  312.9993
 439  327.762
 440  405.1867
 441  395.8109
 442  374.0943
 443  473.4792
 444  383.5399
 445  357.3274
 446  220.4481
 447  633.4357
 448  554.0128
 449  238.6208
 450  172.1695
 451  289.9156
 452  208.122
 453  476.874
 454  421.0854
 455  358.4006
 456  264.4951
 457  434.2682
 458  316.6874
 459  302.3829
 460  259.5103
 461  613.4643
 462  402.3752
 463  257.248
 464  144.8811
 465  -46.15468
 466  238.1049
 467  350.6645
 468  353.9403
 469  752.1259
 470  640.5935
 471  499.5407
 472  617.8595
 473  579.8074
 474  486.8137
 475  477.966
 476  342.0853
 477  305.6912
 478  363.4613
 479  379.7298
 480  277.5529
 481  306.8006
 482  483.9905
 483  247.8617
 484  198.1689
 485  50.16395
 486  238.6564
 487  642.4304
 488  553.161
 489  183.6951
 490  -41.94627
 491  109.3949
 492  449.1363
 493  611.2779
 494  686.8469
 495  572.0718
 496  274.6933
 497  617.9747
 498  385.8686
 499  468.801
 500  574.7827
 501  478.4348
 502  347.5712
 503  416.6956
 504  485.7356
 505  333.6604
 506  206.8873
 507  284.8153
 508  573.0679
 509  361.2291
 510  335.1393
 511  529.442
