# Input file       =  1191725510.105498_cleaned.dat
# Candidate        =  PSR_0332+5434
# Telescope        =  AR
# Epoch_topo       =  58037.119549832154
# Epoch_bary       =  N/A
# T_sample         =  0.002
# Data Folded      =  7340032
# Data Avg         =  0.064353766961306
# Data StdDev      =  2.86458059235493 
# Profile Bins     =  1024
# Profile Avg      =  461.239666838683 
# Profile StdDev   =  242.526971451944 
# Reduced chi-sqr  =  1.298
# Prob(Noise)      <  3.34e-10   (~6.2 sigma)
# P_topo (ms)      =  714.479137031707  +/- 0.000289
# P'_topo (s/s)    =  -0                +/- 1.53e-10
# P''_topo (s/s^2) =  0                 +/- 6.73e-14
# P_bary (ms)      =  N/A
# P'_bary (s/s)    =  N/A
# P''_bary (s/s^2) =  N/A
# P_orb (s)        =  N/A
# asin(i)/c (s)    =  N/A
# eccentricity     =  N/A
# w (rad)          =  N/A
# T_peri           =  N/A
######################################################
   0  119.6793
   1  338.9864
   2  368.5271
   3  418.997
   4  289.454
   5  371.9886
   6  444.2754
   7  475.5695
   8  395.1851
   9  310.1401
  10  320.694
  11  308.0793
  12  311.1359
  13  296.4329
  14  231.9463
  15  293.059
  16  217.7413
  17  323.877
  18  252.9345
  19  389.7168
  20  381.7583
  21  412.664
  22  325.6171
  23  240.5541
  24  311.0618
  25  391.9296
  26  489.6456
  27  472.3597
  28  485.9677
  29  503.7486
  30  472.9165
  31  473.2692
  32  457.9062
  33  525.8441
  34  559.6962
  35  558.1262
  36  539.1431
  37  534.6707
  38  454.5763
  39  379.7636
  40  251.9104
  41  267.1964
  42  327.8145
  43  417.8049
  44  480.5596
  45  448.4003
  46  443.3001
  47  449.4313
  48  534.0142
  49  672.2189
  50  668.1556
  51  545.882
  52  434.9179
  53  464.1539
  54  521.5997
  55  519.7966
  56  518.6393
  57  452.7237
  58  482.8595
  59  515.3471
  60  642.9126
  61  589.9274
  62  531.4448
  63  404.8596
  64  428.3267
  65  385.6839
  66  550.4847
  67  558.152
  68  489.4341
  69  360.4796
  70  390.0601
  71  527.575
  72  508.0999
  73  400.6571
  74  380.6574
  75  372.85
  76  491.5698
  77  611.4203
  78  548.0171
  79  378.36
  80  390.9358
  81  552.5589
  82  631.6733
  83  622.104
  84  608.6992
  85  595.2627
  86  510.5367
  87  460.2747
  88  451.537
  89  417.7786
  90  317.0302
  91  380.5834
  92  433.4407
  93  500.9291
  94  419.3745
  95  449.4325
  96  509.6594
  97  435.4791
  98  376.3134
  99  472.2528
 100  537.4282
 101  473.353
 102  379.0914
 103  425.8798
 104  431.1978
 105  381.5643
 106  288.9274
 107  378.9589
 108  478.9945
 109  541.3276
 110  559.7471
 111  568.7844
 112  514.2144
 113  439.1105
 114  386.787
 115  513.9838
 116  620.9518
 117  623.8126
 118  428.919
 119  304.8019
 120  344.9071
 121  338.7089
 122  364.2337
 123  414.3679
 124  479.4412
 125  358.4729
 126  354.1537
 127  373.8114
 128  377.6971
 129  264.4311
 130  296.2851
 131  410.0811
 132  545.9258
 133  384.3472
 134  295.2594
 135  287.7212
 136  358.87
 137  380.5312
 138  350.3923
 139  444.6294
 140  384.4701
 141  428.2092
 142  462.0687
 143  569.7067
 144  503.7582
 145  403.8821
 146  438.1522
 147  485.7818
 148  476.3098
 149  448.9375
 150  555.1091
 151  631.2783
 152  726.6458
 153  683.276
 154  626.6838
 155  429.3707
 156  397.1411
 157  351.326
 158  409.0073
 159  320.3602
 160  379.3153
 161  392.9403
 162  403.2921
 163  363.0514
 164  407.7388
 165  557.0923
 166  536.86
 167  492.9118
 168  382.5668
 169  313.8046
 170  315.9831
 171  366.7058
 172  294.2087
 173  240.233
 174  168.7591
 175  217.9977
 176  180.1129
 177  222.3471
 178  279.4677
 179  426.2076
 180  479.4514
 181  476.3715
 182  387.2893
 183  391.5931
 184  384.4723
 185  442.0312
 186  438.1318
 187  582.0228
 188  468.4012
 189  460.1117
 190  433.1697
 191  509.0305
 192  576.7573
 193  650.9807
 194  654.1984
 195  621.6979
 196  555.1241
 197  557.3458
 198  536.8169
 199  518.0813
 200  442.8705
 201  541.2078
 202  528.6089
 203  592.1386
 204  521.9631
 205  501.1514
 206  427.9142
 207  370.0425
 208  344.2849
 209  361.6296
 210  375.5327
 211  490.2079
 212  487.4717
 213  540.885
 214  452.569
 215  378.6198
 216  324.8258
 217  382.215
 218  374.3879
 219  365.5713
 220  365.6936
 221  444.1956
 222  428.7862
 223  413.3662
 224  355.3369
 225  397.1842
 226  323.5123
 227  284.8558
 228  187.8484
 229  230.4173
 230  376.1223
 231  400.1067
 232  401.2856
 233  302.0155
 234  251.7664
 235  300.7526
 236  473.3116
 237  549.6877
 238  570.7407
 239  513.9176
 240  599.7549
 241  494.985
 242  369.2829
 243  237.5601
 244  198.2271
 245  261.474
 246  235.4243
 247  151.8283
 248  -0.9317566
 249  37.63431
 250  269.7212
 251  328.3692
 252  379.2999
 253  364.4594
 254  482.3298
 255  453.3596
 256  363.2326
 257  262.2939
 258  281.7962
 259  336.4688
 260  311.3568
 261  326.0362
 262  362.1075
 263  332.6263
 264  364.8891
 265  429.4427
 266  610.2151
 267  599.5303
 268  561.6904
 269  528.298
 270  414.6755
 271  415.5356
 272  311.9984
 273  422.4116
 274  502.3782
 275  582.8325
 276  579.0799
 277  486.0981
 278  461.2207
 279  394.7955
 280  348.9442
 281  404.4299
 282  419.9891
 283  503.1295
 284  533.7484
 285  586.0201
 286  560.1888
 287  378.3112
 288  392.8187
 289  539.5857
 290  655.4288
 291  620.2321
 292  434.055
 293  311.1256
 294  222.4804
 295  271.0903
 296  392.0069
 297  383.4593
 298  341.2636
 299  375.7648
 300  458.5023
 301  521.3708
 302  468.5073
 303  505.7817
 304  430.6575
 305  401.053
 306  346.2
 307  393.9096
 308  501.2021
 309  482.7133
 310  535.7916
 311  515.6884
 312  511.914
 313  383.5785
 314  325.0366
 315  183.9235
 316  256.2656
 317  449.3492
 318  647.465
 319  495.0565
 320  483.4502
 321  569.6608
 322  659.777
 323  461.5458
 324  383.2574
 325  483.9168
 326  572.093
 327  619.9157
 328  625.5739
 329  657.1567
 330  566.7369
 331  554.3857
 332  691.6649
 333  696.9544
 334  566.2538
 335  433.7139
 336  516.4179
 337  598.8619
 338  608.9136
 339  599.1602
 340  671.6754
 341  604.1232
 342  483.7878
 343  393.2621
 344  443.5316
 345  537.7328
 346  486.7169
 347  422.3492
 348  357.909
 349  310.4937
 350  314.9067
 351  424.3535
 352  464.2919
 353  491.8076
 354  306.7409
 355  298.7208
 356  327.3812
 357  401.1006
 358  422.9988
 359  440.8942
 360  511.6681
 361  431.1063
 362  288.3917
 363  158.6739
 364  149.6265
 365  282.494
 366  374.697
 367  494.0296
 368  544.2497
 369  568.3361
 370  501.636
 371  488.1844
 372  519.6559
 373  467.5076
 374  393.8975
 375  421.0202
 376  494.0206
 377  538.4413
 378  401.1835
 379  456.4688
 380  394.721
 381  444.6845
 382  271.7784
 383  299.7287
 384  241.4265
 385  367.7812
 386  339.822
 387  265.1165
 388  333.9502
 389  465.0771
 390  547.1959
 391  489.7563
 392  578.2863
 393  615.9227
 394  601.0034
 395  437.2653
 396  374.2551
 397  319.9262
 398  274.5529
 399  215.4563
 400  232.1389
 401  463.4492
 402  630.9466
 403  609.7735
 404  511.8512
 405  353.3406
 406  410.727
 407  475.8055
 408  522.5977
 409  350.8103
 410  280.062
 411  341.0699
 412  459.1883
 413  395.1795
 414  293.6296
 415  363.2263
 416  408.8055
 417  423.843
 418  398.2996
 419  357.7083
 420  396.5721
 421  397.5127
 422  578.1732
 423  600.4901
 424  520.8658
 425  367.7559
 426  324.6339
 427  333.4911
 428  385.5388
 429  503.5792
 430  442.0913
 431  481.2025
 432  453.6679
 433  561.9208
 434  655.087
 435  735.109
 436  648.1947
 437  409.9485
 438  437.9453
 439  500.2772
 440  550.6221
 441  444.8468
 442  486.4608
 443  511.533
 444  547.2736
 445  483.889
 446  452.04
 447  515.4656
 448  468.7005
 449  403.5306
 450  369.2364
 451  383.9286
 452  418.6823
 453  358.5013
 454  336.6412
 455  262.8784
 456  375.2978
 457  450.2255
 458  484.3933
 459  495.8948
 460  540.1827
 461  678.657
 462  645.754
 463  595.0854
 464  527.0212
 465  686.6139
 466  697.5986
 467  760.2654
 468  651.7371
 469  649.89
 470  591.4025
 471  606.353
 472  618.3015
 473  613.5416
 474  694.5631
 475  571.6285
 476  497.1666
 477  350.535
 478  391.0707
 479  391.148
 480  508.4748
 481  593.7559
 482  559.4121
 483  484.5116
 484  554.3154
 485  641.5908
 486  646.1455
 487  584.8502
 488  545.6861
 489  549.526
 490  504.2877
 491  429.5006
 492  423.1227
 493  517.6243
 494  662.0827
 495  706.6968
 496  656.3739
 497  513.898
 498  578.2402
 499  647.0818
 500  699.962
 501  620.0154
 502  542.5688
 503  509.437
 504  506.5827
 505  498.4289
 506  451.3026
 507  492.551
 508  488.4834
 509  526.1795
 510  425.9237
 511  456.7781
 512  365.5415
 513  310.2902
 514  272.7248
 515  329.9407
 516  392.9614
 517  519.1123
 518  473.6563
 519  367.4009
 520  245.8578
 521  335.7092
 522  403.1525
 523  329.481
 524  265.569
 525  330.0076
 526  424.9667
 527  429.1
 528  395.8373
 529  412.9001
 530  506.59
 531  721.8707
 532  721.0009
 533  700.4499
 534  680.52
 535  648.2144
 536  582.8846
 537  545.8682
 538  608.7744
 539  724.6091
 540  719.2837
 541  749.9555
 542  768.9053
 543  708.5187
 544  602.5754
 545  499.1904
 546  620.4147
 547  626.6795
 548  540.7858
 549  539.5759
 550  595.1294
 551  635.1786
 552  474.9415
 553  422.0331
 554  313.8337
 555  390.9356
 556  470.1008
 557  548.5495
 558  481.0924
 559  423.1765
 560  428.8919
 561  472.8513
 562  559.8685
 563  542.898
 564  490.8382
 565  495.815
 566  572.9937
 567  637.2097
 568  639.6561
 569  595.2215
 570  524.7951
 571  435.7728
 572  443.7103
 573  470.2777
 574  512.9627
 575  380.4403
 576  379.0955
 577  398.3088
 578  434.6807
 579  437.8048
 580  469.4009
 581  534.9522
 582  537.3894
 583  553.9901
 584  584.2033
 585  533.2917
 586  438.9159
 587  399.5795
 588  435.559
 589  547.7654
 590  576.8619
 591  566.6158
 592  422.4714
 593  392.1827
 594  400.128
 595  404.3134
 596  531.31
 597  631.26
 598  771.3471
 599  777.3243
 600  704.2164
 601  682.0353
 602  540.2505
 603  481.4306
 604  305.6678
 605  308.1866
 606  320.0126
 607  336.5621
 608  371.4817
 609  370.7463
 610  393.9868
 611  324.7556
 612  419.0509
 613  487.5922
 614  497.9953
 615  400.3689
 616  424.709
 617  464.5916
 618  464.2928
 619  484.8146
 620  454.1589
 621  546.8047
 622  463.6719
 623  532.1167
 624  485.9481
 625  604.1871
 626  624.0612
 627  700.4443
 628  727.9146
 629  874.3256
 630  963.4244
 631  997.2108
 632  1078.623
 633  1117.232
 634  1270.458
 635  1314.462
 636  1471.036
 637  1464.902
 638  1462.187
 639  1422.871
 640  1358.441
 641  1266.947
 642  1136.25
 643  943.141
 644  858.1843
 645  771.4856
 646  603.0835
 647  393.3874
 648  255.1884
 649  332.8411
 650  402.4838
 651  413.5916
 652  563.0556
 653  551.2498
 654  556.5806
 655  476.8087
 656  509.2176
 657  543.9713
 658  516.0247
 659  452.6019
 660  493.1697
 661  406.7339
 662  418.1631
 663  359.649
 664  513.6741
 665  565.4299
 666  554.3911
 667  525.5439
 668  585.9955
 669  591.1652
 670  621.912
 671  587.3284
 672  567.0651
 673  443.5957
 674  432.4744
 675  413.1845
 676  425.9756
 677  346.5306
 678  390.996
 679  383.4064
 680  439.1957
 681  425.6498
 682  545.5173
 683  521.6642
 684  541.5652
 685  425.7895
 686  381.1657
 687  342.4945
 688  442.4338
 689  475.2514
 690  444.528
 691  526.5029
 692  635.3407
 693  610.0117
 694  428.1564
 695  381.9727
 696  450.984
 697  515.3631
 698  470.1257
 699  461.3706
 700  448.8623
 701  470.4341
 702  516.6804
 703  547.7953
 704  572.4272
 705  511.9305
 706  436.4629
 707  416.5892
 708  376.0301
 709  416.0704
 710  334.6763
 711  421.5306
 712  412.3093
 713  409.7659
 714  367.2422
 715  405.7344
 716  415.276
 717  423.576
 718  439.0954
 719  523.4059
 720  667.9452
 721  579.6638
 722  516.6693
 723  217.8872
 724  184.0782
 725  151.6278
 726  298.7518
 727  444.1192
 728  539.2488
 729  544.0963
 730  559.5902
 731  645.5266
 732  724.0899
 733  621.3945
 734  536.1567
 735  514.2946
 736  568.7384
 737  506.0779
 738  406.2148
 739  350.0047
 740  481.1579
 741  532.616
 742  620.322
 743  580.0492
 744  693.0914
 745  657.8373
 746  584.9725
 747  594.9444
 748  739.1335
 749  662.4399
 750  601.5319
 751  528.7498
 752  717.2029
 753  768.0793
 754  703.8159
 755  548.6429
 756  490.5079
 757  492.556
 758  493.8013
 759  438.0409
 760  441.0724
 761  429.0167
 762  482.1353
 763  474.2867
 764  519.9062
 765  544.6968
 766  533.8743
 767  524.5642
 768  511.2242
 769  557.7737
 770  594.4366
 771  619.9005
 772  542.7165
 773  439.7677
 774  341.7299
 775  502.7905
 776  500.8314
 777  540.3059
 778  417.9569
 779  410.2255
 780  431.0646
 781  412.2817
 782  557.4304
 783  589.7277
 784  639.8095
 785  625.9627
 786  574.8788
 787  527.9777
 788  430.0634
 789  422.0488
 790  360.5985
 791  458.7227
 792  550.074
 793  617.8378
 794  469.418
 795  450.7015
 796  419.2776
 797  495.6668
 798  403.9496
 799  403.9341
 800  386.9013
 801  444.58
 802  400.5864
 803  328.9707
 804  211.9195
 805  205.5824
 806  205.7934
 807  333.7221
 808  384.7235
 809  393.3954
 810  394.8694
 811  432.0583
 812  426.9624
 813  423.0072
 814  429.7394
 815  512.1035
 816  520.3799
 817  534.3634
 818  501.25
 819  441.8524
 820  373.2277
 821  294.37
 822  296.1639
 823  308.6949
 824  423.1794
 825  435.0155
 826  443.9406
 827  486.8674
 828  537.0218
 829  516.5884
 830  414.8859
 831  324.5285
 832  377.8074
 833  469.6918
 834  518.765
 835  552.858
 836  458.8353
 837  582.5153
 838  594.0015
 839  588.9131
 840  399.4053
 841  416.412
 842  589.3544
 843  561.4239
 844  475.454
 845  311.7499
 846  419.5633
 847  477.3166
 848  522.6443
 849  450.3894
 850  414.022
 851  498.7656
 852  391.4967
 853  243.4337
 854  212.7382
 855  382.1953
 856  462.3324
 857  364.2935
 858  381.926
 859  465.0721
 860  519.9968
 861  476.0124
 862  410.5912
 863  450.7161
 864  388.2535
 865  312.4645
 866  255.5974
 867  352.8333
 868  429.451
 869  376.4877
 870  379.1091
 871  394.5029
 872  310.9611
 873  294.8171
 874  219.816
 875  220.4059
 876  226.8037
 877  380.5583
 878  493.5956
 879  466.9133
 880  404.8395
 881  349.5805
 882  365.3295
 883  376.837
 884  397.7778
 885  406.5983
 886  544.5042
 887  514.8759
 888  433.1141
 889  357.9629
 890  436.463
 891  533.4841
 892  588.5662
 893  592.8498
 894  598.0379
 895  655.5149
 896  572.6871
 897  512.3087
 898  359.7124
 899  377.7914
 900  298.9586
 901  320.0772
 902  344.8043
 903  426.1837
 904  581.359
 905  660.9023
 906  616.4762
 907  502.4375
 908  397.9333
 909  404.0028
 910  475.8442
 911  402.0859
 912  429.0888
 913  501.2924
 914  492.0274
 915  400.4489
 916  371.0517
 917  440.0698
 918  419.8948
 919  417.017
 920  540.1509
 921  530.6341
 922  471.1732
 923  459.1273
 924  549.9301
 925  538.1022
 926  591.368
 927  542.9105
 928  546.2591
 929  454.2311
 930  438.9166
 931  366.0278
 932  240.9834
 933  178.8521
 934  273.9239
 935  401.2445
 936  437.484
 937  437.743
 938  457.1324
 939  484.3483
 940  429.8376
 941  437.7528
 942  435.0974
 943  446.7697
 944  395.6641
 945  356.7647
 946  332.387
 947  327.5986
 948  375.9767
 949  453.9156
 950  539.1822
 951  482.3129
 952  283.9388
 953  220.3507
 954  202.4018
 955  286.0431
 956  256.3146
 957  227.7904
 958  317.0797
 959  355.8286
 960  405.6214
 961  364.431
 962  330.3919
 963  319.6948
 964  336.6206
 965  364.4745
 966  367.4345
 967  298.2984
 968  370.9704
 969  440.6085
 970  489.9749
 971  422.4399
 972  337.5939
 973  250.5127
 974  278.3878
 975  406.8846
 976  545.1284
 977  506.1724
 978  436.7111
 979  377.5098
 980  521.582
 981  459.3099
 982  279.6942
 983  98.94355
 984  213.8697
 985  292.858
 986  232.28
 987  180.0535
 988  407.9274
 989  564.5453
 990  650.5748
 991  449.9508
 992  258.0466
 993  165.0573
 994  148.8907
 995  186.0124
 996  239.5954
 997  270.7384
 998  198.6905
 999  155.8214
1000  217.0054
1001  394.8497
1002  374.8694
1003  300.8657
1004  282.8759
1005  338.889
1006  450.2858
1007  463.1902
1008  402.9138
1009  333.6674
1010  254.0573
1011  307.9386
1012  420.4304
1013  495.1342
1014  460.798
1015  489.9641
1016  564.4553
1017  546.1954
1018  383.3544
1019  183.1866
1020  240.5607
1021  293.7596
1022  337.1191
1023  182.1951
