# Input file       =  1191021321.110226_cleaned.dat
# Candidate        =  PSR_0332+5434
# Telescope        =  AR
# Epoch_topo       =  58028.969214238728
# Epoch_bary       =  N/A
# T_sample         =  0.002
# Data Folded      =  7340032
# Data Avg         =  0.0279908903082417
# Data StdDev      =  2.5577372972     
# Profile Bins     =  512
# Profile Avg      =  403.990766954185 
# Profile StdDev   =  306.245652847859 
# Reduced chi-sqr  =  1.309
# Prob(Noise)      <  3.02e-06   (~4.5 sigma)
# P_topo (ms)      =  714.473707779392  +/- 0.000352
# P'_topo (s/s)    =  -0                +/- 1.86e-10
# P''_topo (s/s^2) =  0                 +/- 8.21e-14
# P_bary (ms)      =  N/A
# P'_bary (s/s)    =  N/A
# P''_bary (s/s^2) =  N/A
# P_orb (s)        =  N/A
# asin(i)/c (s)    =  N/A
# eccentricity     =  N/A
# w (rad)          =  N/A
# T_peri           =  N/A
######################################################
   0  -66.21188
   1  314.4229
   2  355.2397
   3  574.0156
   4  527.3638
   5  195.885
   6  90.23428
   7  63.61003
   8  284.1121
   9  135.1223
  10  248.5344
  11  390.0815
  12  378.8407
  13  647.6698
  14  439.9655
  15  592.1401
  16  538.4923
  17  240.6455
  18  663.3687
  19  623.4261
  20  271.7595
  21  242.3717
  22  205.0069
  23  399.2202
  24  298.7422
  25  361.0991
  26  138.7205
  27  201.5268
  28  362.7028
  29  471.72
  30  258.8412
  31  7.396438
  32  -96.27796
  33  -344.3179
  34  301.1034
  35  359.5197
  36  473.5649
  37  194.5377
  38  -41.93493
  39  180.1912
  40  544.3183
  41  150.4896
  42  234.5405
  43  334.5367
  44  43.89031
  45  182.3643
  46  290.1459
  47  310.6698
  48  624.5651
  49  407.7053
  50  432.9474
  51  603.1168
  52  487.7586
  53  148.1388
  54  115.6008
  55  435.6311
  56  370.523
  57  70.67583
  58  476.6325
  59  713.176
  60  854.212
  61  138.3409
  62  41.76747
  63  414.2839
  64  417.2117
  65  433.1429
  66  215.4035
  67  143.2832
  68  182.2856
  69  420.5792
  70  545.9056
  71  640.4822
  72  713.7178
  73  658.9311
  74  466.5602
  75  760.1463
  76  867.8439
  77  578.2125
  78  420.4203
  79  267.4292
  80  388.6561
  81  425.633
  82  363.5713
  83  60.36432
  84  379.0504
  85  370.1472
  86  435.2387
  87  281.4406
  88  -61.52689
  89  -68.90678
  90  432.3694
  91  357.6339
  92  555.9308
  93  471.5128
  94  282.047
  95  531.4431
  96  653.3048
  97  427.0078
  98  203.2048
  99  595.6222
 100  467.762
 101  443.3177
 102  316.8601
 103  -28.33036
 104  -78.02776
 105  6.143243
 106  225.1709
 107  307.9086
 108  205.1221
 109  240.8481
 110  189.4314
 111  163.4951
 112  400.7804
 113  392.0063
 114  553.6011
 115  635.7172
 116  794.6429
 117  603.6479
 118  682.1413
 119  343.9393
 120  365.1173
 121  357.2878
 122  417.5713
 123  547.4484
 124  390.0383
 125  592.0304
 126  460.9389
 127  422.9278
 128  660.7101
 129  436.7934
 130  501.5897
 131  472.5943
 132  403.5501
 133  385.7147
 134  276.3683
 135  610.0292
 136  574.6041
 137  294.0932
 138  522.9014
 139  249.2745
 140  473.3241
 141  758.6259
 142  693.3196
 143  419.5515
 144  255.9655
 145  302.9145
 146  306.4758
 147  121.0901
 148  744.6113
 149  926.9689
 150  673.4226
 151  453.7763
 152  303.3166
 153  621.9688
 154  461.445
 155  402.1761
 156  475.5023
 157  327.6643
 158  707.019
 159  500.079
 160  485.4206
 161  245.8242
 162  266.8449
 163  156.9071
 164  428.8787
 165  382.4062
 166  553.6218
 167  622.6505
 168  490.539
 169  314.4377
 170  372.5011
 171  566.9856
 172  472.0424
 173  321.0003
 174  922.3192
 175  737.282
 176  570.9716
 177  718.1535
 178  639.4987
 179  490.0174
 180  556.8452
 181  480.1559
 182  260.4222
 183  355.469
 184  552.1115
 185  598.8094
 186  708.2281
 187  630.8895
 188  451.2075
 189  782.8011
 190  755.3109
 191  377.7618
 192  585.3278
 193  674.6213
 194  759.6251
 195  485.5848
 196  653.9329
 197  848.0746
 198  757.3095
 199  1040.707
 200  710.7424
 201  182.4251
 202  543.9784
 203  650.9976
 204  758.0579
 205  231.7271
 206  299.0115
 207  417.9226
 208  434.0259
 209  417.0937
 210  485.9242
 211  563.7965
 212  324.1246
 213  364.5391
 214  262.1936
 215  325.6674
 216  346.1218
 217  256.9346
 218  275.2184
 219  372.7934
 220  524.4977
 221  532.3854
 222  257.7277
 223  268.3039
 224  596.8716
 225  490.9904
 226  633.7211
 227  872.1738
 228  761.0157
 229  272.5735
 230  58.33046
 231  345.3418
 232  495.6519
 233  283.9822
 234  207.1405
 235  317.3544
 236  465.2887
 237  182.7526
 238  -3.11659
 239  274.0055
 240  36.0624
 241  144.2741
 242  243.3275
 243  41.24983
 244  127.8537
 245  38.81533
 246  536.8826
 247  374.8152
 248  106.7476
 249  142.5728
 250  344.1523
 251  129.8222
 252  104.0059
 253  279.1909
 254  461.3321
 255  281.5112
 256  144.7992
 257  256.1869
 258  574.4579
 259  438.9905
 260  589.6056
 261  549.4274
 262  554.3265
 263  579.5821
 264  358.2448
 265  487.5583
 266  304.5646
 267  420.9587
 268  652.6963
 269  539.7409
 270  682.9171
 271  559.6381
 272  429.8167
 273  320.5782
 274  314.6801
 275  682.0604
 276  567.1057
 277  269.175
 278  287.174
 279  500.885
 280  520.114
 281  624.8399
 282  228.5502
 283  153.6791
 284  343.8154
 285  489.0183
 286  755.9043
 287  518.0103
 288  413.5671
 289  403.6678
 290  445.7887
 291  323.5812
 292  130.6159
 293  49.78289
 294  266.8499
 295  316.544
 296  335.5701
 297  509.222
 298  21.42622
 299  455.9407
 300  246.4046
 301  364.2634
 302  493.6302
 303  484.8401
 304  597.6147
 305  263.4157
 306  266.8833
 307  667.8134
 308  538.0681
 309  645.263
 310  543.0214
 311  346.7621
 312  524.1455
 313  888.9028
 314  632.2363
 315  754.6571
 316  796.8082
 317  1280.559
 318  1485.779
 319  1648.624
 320  1859.362
 321  1526.512
 322  1561.795
 323  1269.434
 324  589.5653
 325  312.4292
 326  567.8632
 327  499.3572
 328  511.6788
 329  494.7847
 330  380.851
 331  331.6334
 332  566.7212
 333  840.6879
 334  455.2683
 335  519.5983
 336  522.2374
 337  897.3105
 338  630.8892
 339  485.8352
 340  352.0808
 341  379.7606
 342  149.0915
 343  23.31859
 344  390.6018
 345  638.1804
 346  174.7311
 347  -44.4087
 348  311.1692
 349  624.5896
 350  751.317
 351  255.4211
 352  262.2502
 353  57.75107
 354  522.6947
 355  493.8259
 356  200.3378
 357  106.3044
 358  116.529
 359  99.24974
 360  419.0904
 361  345.6754
 362  688.008
 363  711.1611
 364  540.9477
 365  517.3959
 366  569.717
 367  621.3005
 368  508.5724
 369  27.61095
 370  -28.62902
 371  261.9859
 372  511.6299
 373  606.9059
 374  346.2212
 375  511.7052
 376  466.2182
 377  403.9389
 378  185.3367
 379  48.65825
 380  386.7299
 381  307.3299
 382  167.0243
 383  -44.32178
 384  230.0934
 385  489.0924
 386  425.9823
 387  633.3858
 388  600.2377
 389  165.6868
 390  347.4372
 391  62.61671
 392  288.1516
 393  713.6248
 394  597.146
 395  328.4178
 396  472.5884
 397  613.1012
 398  191.0619
 399  476.1736
 400  236.2978
 401  231.1893
 402  289.5435
 403  482.8697
 404  658.084
 405  231.9893
 406  161.7135
 407  355.1632
 408  115.8878
 409  -174.8991
 410  -330.8278
 411  232.9875
 412  333.6064
 413  174.3283
 414  360.5056
 415  394.856
 416  215.3617
 417  -130.0089
 418  700.9117
 419  538.64
 420  208.8253
 421  510.1018
 422  342.5217
 423  298.3045
 424  633.0392
 425  694.3347
 426  721.6683
 427  182.8462
 428  99.94863
 429  166.7482
 430  183.8106
 431  121.2324
 432  382.8319
 433  251.6696
 434  252.0588
 435  409.0604
 436  454.4799
 437  552.4067
 438  221.1011
 439  3.957068
 440  156.4849
 441  167.3833
 442  -0.6858642
 443  569.3937
 444  335.2037
 445  124.0437
 446  186.6488
 447  382.1924
 448  112.3781
 449  188.4596
 450  347.6783
 451  620.6505
 452  416.3218
 453  294.9649
 454  340.4584
 455  290.2957
 456  196.1215
 457  284.2594
 458  287.5723
 459  173.9398
 460  205.6396
 461  603.0381
 462  429.6439
 463  138.9721
 464  282.5383
 465  513.0721
 466  598.8321
 467  389.2357
 468  598.6336
 469  304.8049
 470  135.2319
 471  163.2521
 472  317.0289
 473  429.289
 474  639.8948
 475  230.1216
 476  285.3063
 477  601.8144
 478  230.7861
 479  -24.97931
 480  154.1908
 481  386.0144
 482  651.3081
 483  320.3326
 484  70.8344
 485  453.5677
 486  495.6514
 487  557.8415
 488  388.3078
 489  97.09009
 490  300.0286
 491  336.6219
 492  672.0571
 493  648.1765
 494  765.8865
 495  766.3828
 496  217.3566
 497  206.91
 498  542.6007
 499  520.9878
 500  155.0375
 501  -94.94666
 502  -284.6172
 503  -93.44067
 504  419.5796
 505  680.5204
 506  521.9105
 507  636.9456
 508  394.5625
 509  293.9948
 510  694.2709
 511  420.1105
