# Input file       =  1191639351.117412_cleaned.dat
# Candidate        =  PSR_0332+5434
# Telescope        =  AR
# Epoch_topo       =  58036.122339321897
# Epoch_bary       =  N/A
# T_sample         =  0.002
# Data Folded      =  7340032
# Data Avg         =  0.0469039186947547
# Data StdDev      =  2.70868182711814 
# Profile Bins     =  1024
# Profile Avg      =  336.186744340941 
# Profile StdDev   =  229.327951851349 
# Reduced chi-sqr  =  1.409
# Prob(Noise)      <  9.27e-17   (~8.2 sigma)
# P_topo (ms)      =  714.478466306929  +/- 0.00019
# P'_topo (s/s)    =  -0                +/- 1e-10
# P''_topo (s/s^2) =  0                 +/- 4.43e-14
# P_bary (ms)      =  N/A
# P'_bary (s/s)    =  N/A
# P''_bary (s/s^2) =  N/A
# P_orb (s)        =  N/A
# asin(i)/c (s)    =  N/A
# eccentricity     =  N/A
# w (rad)          =  N/A
# T_peri           =  N/A
######################################################
   0  145.3459
   1  197.8007
   2  316.9105
   3  426.8185
   4  490.9603
   5  484.7559
   6  349.4187
   7  325.636
   8  412.6494
   9  539.9268
  10  387.264
  11  342.2951
  12  265.3649
  13  411.8833
  14  395.8031
  15  369.0348
  16  379.4658
  17  362.2201
  18  465.3976
  19  426.252
  20  431.4022
  21  391.3705
  22  451.1949
  23  483.226
  24  385.0772
  25  218.215
  26  215.5002
  27  248.581
  28  289.1125
  29  249.3614
  30  329.8959
  31  281.8588
  32  204.5576
  33  237.1831
  34  291.0719
  35  296.7836
  36  296.8513
  37  396.866
  38  498.5827
  39  631.4554
  40  743.1813
  41  547.277
  42  446.8286
  43  357.6147
  44  343.5959
  45  292.1873
  46  310.413
  47  407.3849
  48  440.6689
  49  471.1591
  50  377.8084
  51  300.5046
  52  285.2758
  53  340.0757
  54  378.5288
  55  366.5188
  56  446.6332
  57  445.6056
  58  353.08
  59  296.3365
  60  227.1173
  61  178.4607
  62  110.6265
  63  209.3428
  64  334.4154
  65  466.0644
  66  487.9516
  67  497.7418
  68  419.7638
  69  442.6512
  70  446.0213
  71  397.0647
  72  382.1684
  73  361.3381
  74  310.9433
  75  265.9003
  76  278.3427
  77  334.5239
  78  239.7809
  79  149.3783
  80  136.6507
  81  248.9827
  82  346.3834
  83  445.9302
  84  462.5845
  85  426.268
  86  451.3474
  87  473.9536
  88  448.157
  89  327.8645
  90  342.7869
  91  443.2274
  92  548.3795
  93  481.7745
  94  458.4153
  95  474.3517
  96  556.9611
  97  480.8966
  98  414.5911
  99  394.0954
 100  405.2108
 101  340.7573
 102  322.5512
 103  270.0294
 104  283.0009
 105  197.9561
 106  251.667
 107  250.1314
 108  290.907
 109  297.0327
 110  371.9089
 111  364.2412
 112  304.0023
 113  178.985
 114  229.6703
 115  282.2327
 116  292.9799
 117  250.056
 118  224.0569
 119  299.0407
 120  332.4205
 121  319.4199
 122  187.67
 123  258.964
 124  313.3051
 125  364.0731
 126  296.1599
 127  215.7327
 128  186.2925
 129  117.1117
 130  75.55387
 131  89.86219
 132  159.9074
 133  239.6559
 134  322.3822
 135  305.5368
 136  248.8846
 137  224.7235
 138  281.5416
 139  303.0992
 140  205.201
 141  143.9267
 142  191.3096
 143  181.744
 144  299.7644
 145  372.672
 146  368.1016
 147  306.1304
 148  359.4666
 149  514.1399
 150  465.3447
 151  309.1323
 152  248.3017
 153  183.1939
 154  157.1763
 155  194.8602
 156  313.421
 157  318.8101
 158  368.6676
 159  242.8062
 160  211.2505
 161  139.7253
 162  354.0761
 163  428.9445
 164  464.2664
 165  338.1075
 166  307.0239
 167  384.2682
 168  480.6776
 169  424.8581
 170  346.2367
 171  389.2867
 172  425.6203
 173  403.1243
 174  176.6012
 175  147.9236
 176  149.9684
 177  277.4872
 178  251.0499
 179  233.3383
 180  342.8274
 181  375.085
 182  326.0078
 183  30.33497
 184  32.78315
 185  30.93913
 186  55.64994
 187  71.4659
 188  142.3327
 189  241.7789
 190  284.4431
 191  346.8644
 192  343.2347
 193  271.4624
 194  259.3572
 195  302.7388
 196  437.9569
 197  416.6797
 198  338.9874
 199  225.0557
 200  259.0741
 201  456.6662
 202  539.1426
 203  507.1909
 204  350.2076
 205  206.5302
 206  248.338
 207  281.6845
 208  407.4698
 209  442.4581
 210  402.2035
 211  260.1602
 212  150.3484
 213  204.3797
 214  299.6801
 215  413.4432
 216  452.2731
 217  415.6001
 218  360.7786
 219  402.8192
 220  505.1227
 221  464.8022
 222  376.1213
 223  221.6797
 224  162.6077
 225  116.7955
 226  238.0874
 227  361.5638
 228  603.1951
 229  524.6553
 230  285.2995
 231  25.13973
 232  48.00411
 233  251.8704
 234  307.0503
 235  354.4715
 236  418.8191
 237  448.2681
 238  417.3996
 239  237.1975
 240  198.5429
 241  97.48048
 242  62.56752
 243  40.75202
 244  126.9874
 245  186.7131
 246  298.3154
 247  320.1882
 248  321.0672
 249  188.8292
 250  156.8092
 251  190.0677
 252  378.2053
 253  457.2818
 254  415.6686
 255  357.6051
 256  258.8408
 257  220.265
 258  172.353
 259  176.3509
 260  131.3432
 261  164.7381
 262  219.0196
 263  204.0699
 264  104.7875
 265  153.4346
 266  214.8841
 267  264.6695
 268  278.696
 269  262.6085
 270  354.9347
 271  521.1003
 272  555.3011
 273  475.6534
 274  372.1501
 275  384.6992
 276  351.2772
 277  299.1357
 278  356.7352
 279  319.7749
 280  334.0112
 281  309.561
 282  389.2412
 283  386.9314
 284  446.6835
 285  460.0513
 286  310.2708
 287  239.6678
 288  31.61663
 289  79.7991
 290  112.6276
 291  327.7781
 292  490.7143
 293  502.0375
 294  381.5316
 295  266.9055
 296  191.0681
 297  216.0225
 298  274.7923
 299  345.6875
 300  439.9003
 301  348.4821
 302  336.1288
 303  183.8816
 304  132.7896
 305  37.1158
 306  195.3962
 307  177.1204
 308  49.4658
 309  -5.747338
 310  149.0781
 311  418.4337
 312  502.4243
 313  389.4608
 314  293.6974
 315  251.5522
 316  277.816
 317  221.4532
 318  200.5537
 319  254.8033
 320  366.0465
 321  482.6291
 322  458.5695
 323  524.9193
 324  478.6893
 325  399.9042
 326  271.2647
 327  177.0835
 328  201.0607
 329  239.1085
 330  361.7061
 331  286.6593
 332  244.072
 333  222.2966
 334  299.1319
 335  299.2896
 336  292.6443
 337  274.6338
 338  288.7753
 339  383.0615
 340  368.8302
 341  274.382
 342  251.5941
 343  295.9607
 344  217.5342
 345  119.4409
 346  205.623
 347  367.38
 348  446.0423
 349  315.222
 350  235.7912
 351  242.1674
 352  212.4382
 353  182.3969
 354  298.7573
 355  430.8127
 356  368.6548
 357  327.916
 358  219.637
 359  279.834
 360  187.3666
 361  131.9823
 362  120.9445
 363  197.8109
 364  263.3306
 365  282.3484
 366  282.9296
 367  300.593
 368  163.1313
 369  190.867
 370  329.3632
 371  476.0469
 372  419.4136
 373  361.3011
 374  372.5452
 375  380.4469
 376  394.9562
 377  362.0103
 378  366.52
 379  369.8932
 380  390.7279
 381  469.8809
 382  456.2572
 383  322.3996
 384  163.5021
 385  126.1833
 386  150.6625
 387  150.8463
 388  216.3668
 389  353.2902
 390  485.5725
 391  509.7167
 392  486.4466
 393  393.3746
 394  379.2281
 395  315.1985
 396  325.6886
 397  220.4558
 398  213.9897
 399  198.2634
 400  290.9731
 401  434.5878
 402  507.81
 403  461.9586
 404  314.9367
 405  307.0731
 406  413.208
 407  510.4073
 408  543.1639
 409  551.2662
 410  508.0534
 411  377.0352
 412  269.6052
 413  252.4803
 414  125.5751
 415  102.1874
 416  173.37
 417  255.3968
 418  237.4086
 419  244.5954
 420  317.8749
 421  315.3941
 422  204.954
 423  173.5907
 424  306.5246
 425  373.0272
 426  327.9821
 427  260.4466
 428  245.0249
 429  173.733
 430  47.55143
 431  88.30394
 432  293.5074
 433  560.5226
 434  664.5167
 435  600.697
 436  521.9553
 437  555.2347
 438  492.8612
 439  327.1106
 440  161.0313
 441  165.3082
 442  192.1728
 443  215.3759
 444  199.1402
 445  297.4868
 446  380.9149
 447  370.052
 448  343.38
 449  356.1217
 450  295.869
 451  316.9519
 452  408.7798
 453  476.5656
 454  382.3771
 455  229.0923
 456  317.002
 457  326.2678
 458  431.8299
 459  391.333
 460  320.1356
 461  275.6808
 462  272.8742
 463  364.1173
 464  407.9902
 465  287.8662
 466  234.7799
 467  215.2343
 468  309.1396
 469  253.5943
 470  265.8724
 471  370.5355
 472  404.6386
 473  405.8082
 474  320.5493
 475  338.8762
 476  399.8453
 477  388.706
 478  487.8888
 479  434.8528
 480  460.4322
 481  487.3458
 482  463.2535
 483  421.8322
 484  323.5252
 485  395.9865
 486  458.5612
 487  320.6985
 488  286.1827
 489  278.34
 490  441.0209
 491  514.2254
 492  598.8644
 493  626.9368
 494  492.9945
 495  381.5738
 496  431.2976
 497  505.3408
 498  511.3892
 499  419.8299
 500  295.8482
 501  230.2508
 502  204.3595
 503  240.9147
 504  256.7159
 505  227.8345
 506  274.7919
 507  432.5239
 508  484.2299
 509  388.8461
 510  293.9106
 511  394.692
 512  372.6716
 513  224.2219
 514  79.10867
 515  8.339065
 516  -10.52673
 517  74.03558
 518  206.1769
 519  262.6598
 520  215.1932
 521  188.6274
 522  142.0625
 523  211.563
 524  365.8759
 525  501.0829
 526  477.9763
 527  418.2577
 528  356.1704
 529  300.2488
 530  305.2697
 531  407.6804
 532  427.7188
 533  347.7213
 534  320.2374
 535  416.9086
 536  457.8287
 537  383.4261
 538  342.7789
 539  383.3562
 540  493.4175
 541  528.7168
 542  441.8926
 543  350.1896
 544  355.8058
 545  466.6778
 546  449.9326
 547  450.8686
 548  465.7663
 549  523.1614
 550  495.0759
 551  389.4118
 552  324.9522
 553  319.4489
 554  308.3599
 555  294.8729
 556  325.2262
 557  344.5959
 558  342.7946
 559  455.3225
 560  535.0264
 561  578.396
 562  393.6941
 563  277.9056
 564  290.4804
 565  262.657
 566  253.7219
 567  227.9508
 568  358.5132
 569  495.1587
 570  408.7222
 571  284.6416
 572  327.5307
 573  467.7172
 574  497.8191
 575  415.2983
 576  355.7534
 577  327.0376
 578  295.3043
 579  342.6296
 580  292.3152
 581  246.5021
 582  201.6691
 583  340.7766
 584  438.443
 585  562.8572
 586  550.9927
 587  503.8676
 588  417.7248
 589  337.9904
 590  308.4387
 591  309.8099
 592  342.9067
 593  450.9115
 594  578.5161
 595  650.1321
 596  664.5544
 597  571.7441
 598  522.339
 599  488.5526
 600  436.8492
 601  457.245
 602  441.1259
 603  420.5085
 604  303.9199
 605  331.565
 606  523.5425
 607  701.9821
 608  684.4465
 609  575.1041
 610  361.6499
 611  205.0984
 612  198.4364
 613  251.9037
 614  251.2097
 615  209.8578
 616  302.3187
 617  351.2871
 618  376.0412
 619  401.3834
 620  492.1805
 621  525.3779
 622  498.9797
 623  368.2313
 624  292.7077
 625  235.8906
 626  297.1887
 627  532.9529
 628  628.3893
 629  657.5649
 630  480.886
 631  532.5646
 632  694.3471
 633  886.6522
 634  1132.134
 635  1205.751
 636  1170.306
 637  1047.322
 638  1140.646
 639  1282.957
 640  1317.017
 641  1268.5
 642  1131.128
 643  987.6132
 644  707.2468
 645  542.0036
 646  449.1603
 647  521.99
 648  445.3427
 649  417.6047
 650  318.348
 651  242.2035
 652  121.4302
 653  188.941
 654  298.0262
 655  417.7773
 656  457.5544
 657  409.2564
 658  377.2541
 659  345.3939
 660  454.6766
 661  428.0287
 662  408.1527
 663  329.1519
 664  236.8549
 665  212.9967
 666  305.9547
 667  389.4731
 668  379.0104
 669  387.062
 670  491.5716
 671  530.9581
 672  430.0417
 673  361.6586
 674  343.0953
 675  362.835
 676  295.0746
 677  222.685
 678  183.9983
 679  264.6479
 680  328.9715
 681  344.3009
 682  320.0975
 683  238.6718
 684  239.3581
 685  245.7303
 686  313.9065
 687  362.7827
 688  277.4612
 689  299.7933
 690  323.9477
 691  428.9058
 692  434.1985
 693  424.1549
 694  348.6151
 695  362.1427
 696  362.8661
 697  380.3645
 698  375.8048
 699  434.5343
 700  509.4352
 701  495.0275
 702  440.3381
 703  340.4527
 704  429.0798
 705  399.6798
 706  505.8229
 707  532.3014
 708  578.6546
 709  572.2038
 710  493.4387
 711  413.9901
 712  269.754
 713  331.66
 714  357.6378
 715  446.513
 716  369.6556
 717  422.4171
 718  319.5276
 719  283.6764
 720  252.0557
 721  359.779
 722  443.7453
 723  369.6609
 724  235.0881
 725  253.6168
 726  360.8334
 727  474.0368
 728  405.4932
 729  457.4594
 730  394.4371
 731  328.7301
 732  228.316
 733  134.3865
 734  120.2516
 735  97.10371
 736  107.1999
 737  98.40774
 738  212.5818
 739  285.1519
 740  338.4838
 741  192.2768
 742  83.0873
 743  -12.09536
 744  52.65231
 745  26.83611
 746  162.6032
 747  205.2768
 748  344.9991
 749  341.7169
 750  328.1194
 751  252.0382
 752  301.157
 753  370.1542
 754  425.7399
 755  354.2965
 756  172.4381
 757  163.9429
 758  276.6593
 759  390.2613
 760  365.8089
 761  283.0298
 762  398.3231
 763  374.5413
 764  402.5299
 765  400.965
 766  416.8085
 767  332.0563
 768  299.5565
 769  355.2009
 770  429.4282
 771  360.3238
 772  279.6131
 773  239.5308
 774  392.506
 775  473.2464
 776  368.4772
 777  215.2243
 778  92.12595
 779  300.2177
 780  305.0133
 781  253.4528
 782  192.0665
 783  200.9076
 784  232.2276
 785  154.3769
 786  291.3229
 787  398.2721
 788  360.7799
 789  253.8963
 790  310.1936
 791  391.6989
 792  406.8711
 793  342.0407
 794  246.9279
 795  183.8229
 796  225.8737
 797  433.2617
 798  439.9437
 799  338.9503
 800  305.44
 801  308.1566
 802  310.6908
 803  214.631
 804  185.4934
 805  259.0042
 806  317.668
 807  374.149
 808  413.9139
 809  364.882
 810  396.4758
 811  327.6499
 812  320.4902
 813  246.9796
 814  251.7763
 815  232.7504
 816  178.8845
 817  141.1774
 818  199.6517
 819  351.8485
 820  270.0457
 821  147.7671
 822  17.68011
 823  48.35863
 824  113.7635
 825  146.6711
 826  176.7686
 827  173.0613
 828  287.028
 829  377.4353
 830  309.3272
 831  173.4329
 832  33.63858
 833  -64.19977
 834  18.15432
 835  207.9423
 836  332.3446
 837  269.3549
 838  328.1134
 839  330.7174
 840  233.9888
 841  140.1224
 842  124.4273
 843  299.975
 844  362.9797
 845  398.4492
 846  306.3321
 847  286.1941
 848  269.4134
 849  239.1809
 850  226.1881
 851  231.7814
 852  240.003
 853  300.2444
 854  363.0807
 855  324.9114
 856  220.4292
 857  136.0824
 858  73.54935
 859  80.82938
 860  78.46546
 861  223.5686
 862  382.1305
 863  413.3685
 864  414.6412
 865  303.0244
 866  313.9468
 867  290.672
 868  363.9745
 869  414.0649
 870  470.9279
 871  455.5644
 872  466.0844
 873  549.5223
 874  456.265
 875  444.9067
 876  391.6853
 877  370.2642
 878  270.3894
 879  258.343
 880  335.1313
 881  480.2679
 882  492.0692
 883  562.1456
 884  417.3095
 885  319.0014
 886  198.8637
 887  154.7041
 888  72.60073
 889  103.9149
 890  178.0223
 891  238.785
 892  353.845
 893  469.2606
 894  562.9672
 895  392.6014
 896  208.8478
 897  196.6609
 898  283.3733
 899  383.2097
 900  352.429
 901  299.9824
 902  260.633
 903  247.213
 904  287.1783
 905  298.9137
 906  255.965
 907  121.7227
 908  153.244
 909  184.6706
 910  165.9222
 911  47.7473
 912  192.5564
 913  372.7607
 914  460.9523
 915  412.213
 916  348.041
 917  254.4519
 918  99.75427
 919  42.08076
 920  140.2095
 921  301.5436
 922  387.8111
 923  378.4398
 924  408.0662
 925  267.7004
 926  63.41631
 927  -90.62518
 928  52.65961
 929  300.2115
 930  468.556
 931  517.905
 932  560.7986
 933  552.4446
 934  557.7267
 935  443.5856
 936  404.8574
 937  349.7948
 938  474.8476
 939  523.693
 940  499.6905
 941  393.9557
 942  421.4419
 943  489.5236
 944  458.7334
 945  445.5988
 946  485.1283
 947  409.004
 948  317.6906
 949  318.483
 950  419.6044
 951  442.035
 952  318.3128
 953  372.4023
 954  287.7436
 955  264.953
 956  220.69
 957  308.9993
 958  283.9958
 959  360.3911
 960  394.9329
 961  499.3614
 962  423.4884
 963  281.0046
 964  258.7077
 965  198.2793
 966  212.9695
 967  260.2436
 968  299.2367
 969  347.0677
 970  380.6828
 971  389.019
 972  309.8688
 973  200.3596
 974  182.5658
 975  238.5415
 976  361.8389
 977  390.1778
 978  311.865
 979  267.0269
 980  309.6837
 981  342.038
 982  289.4362
 983  415.8047
 984  433.3194
 985  454.2263
 986  398.6312
 987  387.294
 988  413.6423
 989  295.9654
 990  268.892
 991  229.595
 992  218.9138
 993  238.6872
 994  284.1613
 995  443.6597
 996  408.4543
 997  354.4438
 998  302.0844
 999  353.0957
1000  400.8014
1001  393.67
1002  298.5734
1003  321.7661
1004  333.4778
1005  342.8828
1006  303.4013
1007  340.6602
1008  423.4796
1009  404.1929
1010  384.0648
1011  422.4025
1012  546.7309
1013  585.0203
1014  506.2695
1015  502.0889
1016  380.8453
1017  359.1769
1018  383.7327
1019  447.8446
1020  441.4821
1021  400.0376
1022  345.418
1023  196.6215
