# Input file       =  1191193657.11263_cleaned.dat
# Candidate        =  PSR_0332+5434
# Telescope        =  AR
# Epoch_topo       =  58030.963843896177
# Epoch_bary       =  N/A
# T_sample         =  0.002
# Data Folded      =  7340032
# Data Avg         =  0.0332857082342213
# Data StdDev      =  2.3463827647069  
# Profile Bins     =  512
# Profile Avg      =  477.250088408602 
# Profile StdDev   =  280.939532920468 
# Reduced chi-sqr  =  1.571
# Prob(Noise)      <  2.59e-15   (~7.8 sigma)
# P_topo (ms)      =  714.474874294082  +/- 0.000313
# P'_topo (s/s)    =  -0                +/- 1.65e-10
# P''_topo (s/s^2) =  0                 +/- 7.3e-14
# P_bary (ms)      =  N/A
# P'_bary (s/s)    =  N/A
# P''_bary (s/s^2) =  N/A
# P_orb (s)        =  N/A
# asin(i)/c (s)    =  N/A
# eccentricity     =  N/A
# w (rad)          =  N/A
# T_peri           =  N/A
######################################################
   0  541.7729
   1  456.8225
   2  351.9121
   3  382.6945
   4  321.2319
   5  239.3071
   6  344.7237
   7  727.4437
   8  423.3896
   9  421.7949
  10  375.8064
  11  558.7188
  12  510.623
  13  553.4103
  14  598.939
  15  370.1151
  16  398.3198
  17  408.1483
  18  299.0967
  19  40.66798
  20  349.1789
  21  548.7568
  22  623.467
  23  481.4136
  24  356.305
  25  215.7771
  26  128.6092
  27  455.4966
  28  558.2637
  29  183.37
  30  72.95896
  31  183.6414
  32  232.8415
  33  -31.00639
  34  264.311
  35  518.5959
  36  394.0843
  37  368.3
  38  567.0599
  39  486.1369
  40  371.3067
  41  285.2873
  42  295.3816
  43  500.4019
  44  446.5774
  45  851.1497
  46  498.2416
  47  277.157
  48  123.7233
  49  -121.5387
  50  203.6635
  51  467.3294
  52  574.563
  53  424.9177
  54  470.522
  55  519.5576
  56  341.0609
  57  397.621
  58  441.6737
  59  341.6765
  60  399.4911
  61  703.6857
  62  631.6226
  63  397.2231
  64  429.2215
  65  315.0729
  66  408.7499
  67  211.708
  68  100.0576
  69  418.1267
  70  513.3983
  71  518.8206
  72  493.9169
  73  500.251
  74  207.6843
  75  -142.9337
  76  83.438
  77  264.499
  78  406.0587
  79  440.2792
  80  386.1034
  81  340.12
  82  221.6803
  83  331.6644
  84  377.6909
  85  378.0446
  86  512.1625
  87  667.3511
  88  479.6754
  89  504.7091
  90  464.1357
  91  575.1658
  92  526.3962
  93  531.6826
  94  369.6808
  95  441.4822
  96  622.0119
  97  380.213
  98  314.3193
  99  601.1264
 100  389.5391
 101  372.6729
 102  242.37
 103  668.8141
 104  579.6677
 105  451.1794
 106  522.3996
 107  792.6035
 108  468.6178
 109  612.2599
 110  828.5736
 111  859.8223
 112  400.7709
 113  333.9769
 114  505.5988
 115  605.9296
 116  582.055
 117  638.8708
 118  310.3297
 119  114.4434
 120  445.0512
 121  619.1824
 122  402.4199
 123  286.8412
 124  601.4448
 125  326.9333
 126  339.2242
 127  545.5648
 128  819.8121
 129  734.3677
 130  420.006
 131  375.1983
 132  625.9191
 133  850.8641
 134  550.4129
 135  596.9283
 136  531.595
 137  336.4101
 138  464.8706
 139  476.3635
 140  252.9967
 141  337.189
 142  451.2954
 143  384.431
 144  516.0469
 145  605.08
 146  308.9117
 147  321.9945
 148  552.527
 149  682.4437
 150  511.2363
 151  419.0226
 152  472.3876
 153  333.9968
 154  464.5223
 155  588.8696
 156  686.3133
 157  380.7757
 158  128.2448
 159  265.1438
 160  443.1747
 161  697.8695
 162  572.1362
 163  337.4736
 164  317.2949
 165  491.4195
 166  372.0326
 167  534.2063
 168  640.5222
 169  514.455
 170  477.2054
 171  242.0449
 172  427.2826
 173  591.8802
 174  666.6248
 175  422.7917
 176  201.9917
 177  212.8669
 178  -0.1268209
 179  199.2971
 180  484.2199
 181  542.167
 182  616.2161
 183  352.1572
 184  510.5822
 185  449.9787
 186  438.8315
 187  445.004
 188  273.3247
 189  547.9423
 190  591.0206
 191  657.0179
 192  502.1673
 193  311.4922
 194  585.2947
 195  990.5851
 196  757.2033
 197  502.5357
 198  493.307
 199  273.1161
 200  112.2911
 201  268.0275
 202  602.2578
 203  280.0336
 204  170.2837
 205  179.9478
 206  188.2291
 207  421.7572
 208  384.7968
 209  464.5751
 210  561.7792
 211  470.7979
 212  296.1035
 213  193.5333
 214  630.2264
 215  425.3972
 216  235.6405
 217  492.633
 218  557.4264
 219  589.8647
 220  682.3941
 221  585.2421
 222  530.9924
 223  415.3221
 224  387.6487
 225  421.7246
 226  469.3157
 227  503.3332
 228  785.6033
 229  712.3885
 230  590.6666
 231  641.2847
 232  522.0131
 233  233.0424
 234  164.053
 235  744.3522
 236  888.465
 237  653.8911
 238  565.4327
 239  496.415
 240  625.8915
 241  443.2221
 242  480.1247
 243  573.2226
 244  346.5706
 245  457.9795
 246  664.1994
 247  582.8431
 248  464.5509
 249  521.6871
 250  738.4561
 251  452.8659
 252  420.1009
 253  555.345
 254  377.257
 255  105.1749
 256  406.2131
 257  410.6962
 258  175.324
 259  0.5882301
 260  253.6096
 261  614.3256
 262  522.4878
 263  542.4875
 264  557.0954
 265  439.7969
 266  15.49151
 267  -70.55219
 268  16.8957
 269  119.896
 270  504.1689
 271  370.4828
 272  418.8115
 273  457.9402
 274  523.6096
 275  419.6321
 276  417.6805
 277  247.0375
 278  234.3976
 279  230.1866
 280  109.8122
 281  163.2496
 282  664.6899
 283  526.6455
 284  139.9383
 285  315.1758
 286  586.2921
 287  634.4265
 288  557.6528
 289  476.1803
 290  253.0412
 291  365.0927
 292  573.585
 293  841.8243
 294  538.2118
 295  603.2669
 296  610.4852
 297  520.2124
 298  813.7924
 299  698.9395
 300  392.3734
 301  485.0996
 302  623.9648
 303  824.7581
 304  603.8527
 305  711.0156
 306  503.7136
 307  332.7486
 308  391.2422
 309  619.5443
 310  618.0034
 311  591.7676
 312  542.4075
 313  468.1659
 314  573.076
 315  626.4766
 316  480.3941
 317  360.6649
 318  697.1898
 319  514.0844
 320  420.3896
 321  605.8739
 322  727.5366
 323  526.4101
 324  460.7598
 325  570.9724
 326  738.618
 327  555.7558
 328  577.8203
 329  652.6592
 330  531.6148
 331  659.8779
 332  476.8884
 333  770.1491
 334  468.7436
 335  507.4385
 336  465.5561
 337  437.6737
 338  683.8019
 339  326.8626
 340  474.748
 341  675.4634
 342  645.2559
 343  567.582
 344  263.0094
 345  178.8091
 346  421.9285
 347  600.5356
 348  429.9267
 349  267.2789
 350  653.0404
 351  646.6989
 352  411.5529
 353  467.7696
 354  483.217
 355  294.4918
 356  538.1714
 357  819.1963
 358  396.02
 359  -44.49366
 360  177.5333
 361  508.4247
 362  199.5824
 363  233.6358
 364  477.4653
 365  378.7027
 366  640.1785
 367  659.4237
 368  468.8684
 369  396.4523
 370  607.0029
 371  658.8783
 372  271.2156
 373  257.7555
 374  20.08775
 375  139.6437
 376  359.9885
 377  494.255
 378  602.6547
 379  896.4547
 380  757.5137
 381  835.0129
 382  682.9161
 383  1267.077
 384  1742.5
 385  1684.88
 386  2088.199
 387  2307.246
 388  2256.501
 389  1578.522
 390  1069.106
 391  871.3149
 392  1071.251
 393  703.4549
 394  450.8955
 395  479.2294
 396  582.6311
 397  750.313
 398  806.9485
 399  712.9541
 400  865.7428
 401  1113.502
 402  1049.161
 403  985.2067
 404  635.9665
 405  404.0063
 406  341.3913
 407  486.0768
 408  433.9887
 409  461.2064
 410  654.5492
 411  539.8546
 412  346.1658
 413  424.3495
 414  462.432
 415  482.837
 416  550.4666
 417  436.766
 418  408.2876
 419  604.0318
 420  609.8225
 421  562.5468
 422  752.8652
 423  409.1192
 424  186.7714
 425  609.9038
 426  544.4598
 427  235.9071
 428  -16.04107
 429  282.7951
 430  320.2061
 431  109.415
 432  518.4933
 433  510.654
 434  401.6067
 435  540.7278
 436  533.7702
 437  532.6556
 438  504.755
 439  714.8853
 440  501.6152
 441  279.6899
 442  505.9821
 443  529.8769
 444  248.2258
 445  433.8793
 446  607.5976
 447  408.476
 448  105.2935
 449  215.1727
 450  282.0442
 451  -71.25607
 452  57.21004
 453  369.6819
 454  239.0466
 455  273.8318
 456  620.7743
 457  614.2535
 458  447.5719
 459  390.5452
 460  378.2949
 461  318.0522
 462  483.0634
 463  520.7232
 464  413.7764
 465  699.7194
 466  504.4564
 467  388.7107
 468  208.396
 469  66.61903
 470  239.4298
 471  428.138
 472  444.4543
 473  413.0561
 474  656.999
 475  273.323
 476  276.3137
 477  59.08283
 478  -75.0897
 479  179.2703
 480  380.0772
 481  655.3008
 482  594.1957
 483  635.3508
 484  714.1977
 485  474.3082
 486  394.4443
 487  510.8488
 488  540.0019
 489  761.4664
 490  513.5594
 491  408.0141
 492  676.597
 493  603.1293
 494  425.4889
 495  328.4821
 496  430.5201
 497  514.0143
 498  400.7144
 499  479.8672
 500  373.1408
 501  312.4904
 502  297.6671
 503  675.3396
 504  734.4905
 505  688.3837
 506  521.4695
 507  779.1628
 508  404.8187
 509  189.5726
 510  247.2204
 511  289.2933
