# Input file       =  1191122437.116167_cleaned.dat
# Candidate        =  PSR_0332+5434
# Telescope        =  AR
# Epoch_topo       =  58030.139538381562
# Epoch_bary       =  N/A
# T_sample         =  0.002
# Data Folded      =  7340032
# Data Avg         =  0.0324593386321794
# Data StdDev      =  2.92981016987766 
# Profile Bins     =  256
# Profile Avg      =  930.408306897737 
# Profile StdDev   =  496.099142279948 
# Reduced chi-sqr  =  1.552
# Prob(Noise)      <  3.64e-08   (~5.4 sigma)
# P_topo (ms)      =  714.474721959186  +/- 0.000102
# P'_topo (s/s)    =  -0                +/- 5.37e-11
# P''_topo (s/s^2) =  0                 +/- 2.37e-14
# P_bary (ms)      =  N/A
# P'_bary (s/s)    =  N/A
# P''_bary (s/s^2) =  N/A
# P_orb (s)        =  N/A
# asin(i)/c (s)    =  N/A
# eccentricity     =  N/A
# w (rad)          =  N/A
# T_peri           =  N/A
######################################################
   0  278.6728
   1  358.3975
   2  916.0543
   3  996.4987
   4  786.9371
   5  978.394
   6  517.6588
   7  1150.675
   8  959.4945
   9  479.2657
  10  994.9576
  11  866.5766
  12  727.7016
  13  237.6855
  14  576.2788
  15  553.5125
  16  595.3734
  17  265.3159
  18  230.7635
  19  1385.449
  20  908.446
  21  275.8731
  22  718.4023
  23  1133.124
  24  1209.049
  25  918.7385
  26  350.7017
  27  1413.944
  28  761.0781
  29  506.1714
  30  962.3572
  31  1324.701
  32  860.3641
  33  338.6014
  34  320.7726
  35  1824.759
  36  1342.669
  37  1059.12
  38  783.8582
  39  1543.416
  40  1358.969
  41  738.6464
  42  284.8864
  43  691.8267
  44  321.7439
  45  240.7507
  46  1095.834
  47  830.1267
  48  620.436
  49  1100.041
  50  1130.174
  51  1020.543
  52  1227.806
  53  1658.896
  54  833.3959
  55  587.3842
  56  1785.695
  57  777.1693
  58  204.9281
  59  661.7627
  60  1150.215
  61  1197.315
  62  701.4813
  63  613.2944
  64  787.2725
  65  961.2914
  66  899.0378
  67  915.4204
  68  1258.763
  69  822.4697
  70  692.5944
  71  880.5339
  72  1033.752
  73  1110.866
  74  231.5141
  75  386.3155
  76  1082.281
  77  1233.84
  78  1286.551
  79  1297.71
  80  1070.772
  81  1403.317
  82  1546.755
  83  61.98701
  84  1539.316
  85  1815.745
  86  1537.111
  87  960.6951
  88  714.3037
  89  158.629
  90  1266.421
  91  108.2256
  92  582.9086
  93  407.1811
  94  492.0812
  95  429.0616
  96  227.5961
  97  665.8932
  98  476.3713
  99  781.6135
 100  169.5325
 101  1182.095
 102  778.6235
 103  785.1432
 104  616.3096
 105  665.1368
 106  476.7045
 107  999.9053
 108  364.2949
 109  616.0196
 110  715.7221
 111  498.1925
 112  1124.404
 113  723.5092
 114  1242.1
 115  550.9252
 116  935.9617
 117  127.2449
 118  892.4766
 119  1105.479
 120  951.8386
 121  892.4713
 122  389.8983
 123  669.3853
 124  704.6476
 125  849.7631
 126  660.7228
 127  1130.079
 128  815.5373
 129  299.5121
 130  339.0195
 131  781.6761
 132  478.9059
 133  853.4801
 134  1462.372
 135  980.7955
 136  1016.83
 137  1480.214
 138  972.2942
 139  357.4434
 140  353.59
 141  666.4135
 142  709.3729
 143  673.9846
 144  -72.44523
 145  421.8865
 146  310.6317
 147  1288.896
 148  773.2064
 149  940.944
 150  1805.786
 151  1571.49
 152  1055.004
 153  -104.2933
 154  1131.133
 155  1608.765
 156  1538.951
 157  1245.702
 158  2663.899
 159  4322.557
 160  4081.24
 161  2212.798
 162  1180.404
 163  1279.746
 164  569.7664
 165  1066.766
 166  1671.944
 167  1707.677
 168  1582.042
 169  1117.882
 170  935.5361
 171  1134.716
 172  901.7008
 173  1192.27
 174  816.8754
 175  994.9171
 176  1952.248
 177  881.7462
 178  -227.6291
 179  381.5327
 180  935.4376
 181  314.8738
 182  726.205
 183  672.8428
 184  605.1424
 185  676.9251
 186  920.7657
 187  1056.567
 188  898.2938
 189  867.7798
 190  1731.111
 191  86.81997
 192  428.2661
 193  649.3426
 194  725.6188
 195  1192.023
 196  975.7588
 197  1120.628
 198  261.1408
 199  524.1516
 200  1014.096
 201  1270.708
 202  859.2253
 203  920.7466
 204  1724.611
 205  1335.273
 206  1566.92
 207  1103.997
 208  1420.129
 209  948.4825
 210  488.0415
 211  853.7
 212  1603.102
 213  1510.329
 214  860.9119
 215  737.5206
 216  1451.757
 217  991.1889
 218  1343.979
 219  688.498
 220  462.5389
 221  1465.79
 222  1498.347
 223  1406.749
 224  990.5964
 225  1237.243
 226  1203.849
 227  1542.727
 228  1292.078
 229  2335.041
 230  1697.125
 231  759.2276
 232  1280.718
 233  1289.519
 234  1386.044
 235  768.5028
 236  1316.693
 237  957.5889
 238  796.451
 239  1125.464
 240  850.8287
 241  957.5083
 242  655.2924
 243  1153.377
 244  1129.514
 245  636.5741
 246  554.4487
 247  721.5403
 248  217.1829
 249  568.709
 250  1042.476
 251  1269.824
 252  326.668
 253  625.4192
 254  208.5522
 255  1023.765
