# Input file       =  1191179035.128983_cleaned.dat
# Candidate        =  PSR_0332+5434
# Telescope        =  AR
# Epoch_topo       =  58030.794607974341
# Epoch_bary       =  N/A
# T_sample         =  0.002
# Data Folded      =  7208960
# Data Avg         =  0.0192689898109091
# Data StdDev      =  0.999976366070299
# Profile Bins     =  512
# Profile Avg      =  271.286432314959 
# Profile StdDev   =  118.656371410912 
# Reduced chi-sqr  =  2.226
# Prob(Noise)      <  1.17e-49   (~14.8 sigma)
# P_topo (ms)      =  714.474757816247  +/- 0.000233
# P'_topo (s/s)    =  -0                +/- 1.25e-10
# P''_topo (s/s^2) =  0                 +/- 5.63e-14
# P_bary (ms)      =  N/A
# P'_bary (s/s)    =  N/A
# P''_bary (s/s^2) =  N/A
# P_orb (s)        =  N/A
# asin(i)/c (s)    =  N/A
# eccentricity     =  N/A
# w (rad)          =  N/A
# T_peri           =  N/A
######################################################
   0  172.192
   1  157.954
   2  351.1408
   3  389.7124
   4  426.6148
   5  388.0811
   6  286.89
   7  244.9871
   8  272.0021
   9  367.9601
  10  302.7336
  11  308.3787
  12  330.4958
  13  294.9067
  14  309.2853
  15  267.2942
  16  355.4901
  17  227.601
  18  279.0119
  19  278.9636
  20  253.0026
  21  210.8222
  22  303.9736
  23  218.4422
  24  161.702
  25  98.96549
  26  263.9867
  27  240.5041
  28  241.3447
  29  289.0338
  30  221.7234
  31  255.5158
  32  419.7161
  33  478.0028
  34  271.6526
  35  143.7418
  36  70.85631
  37  215.5348
  38  279.7615
  39  338.6161
  40  311.0452
  41  346.7309
  42  167.0375
  43  304.3847
  44  372.7886
  45  258.1504
  46  280.2613
  47  365.3474
  48  242.6649
  49  362.0882
  50  360.477
  51  374.6053
  52  421.7234
  53  382.9248
  54  530.473
  55  555.0689
  56  750.2035
  57  964.5681
  58  1201.495
  59  1358.527
  60  1308.123
  61  1096.198
  62  689.9152
  63  513.3348
  64  426.1715
  65  221.9579
  66  261.8332
  67  253.6003
  68  194.8816
  69  295.4281
  70  343.7448
  71  322.6691
  72  312.8023
  73  340.9331
  74  361.5396
  75  352.2933
  76  374.0188
  77  332.4082
  78  289.0106
  79  152.8819
  80  325.6806
  81  233.837
  82  205.5435
  83  172.5937
  84  77.10329
  85  109.103
  86  156.934
  87  168.8601
  88  164.8098
  89  247.132
  90  261.0886
  91  192.0017
  92  285.2927
  93  328.5045
  94  340.0867
  95  382.4739
  96  276.5176
  97  179.5551
  98  184.1188
  99  144.4033
 100  143.3048
 101  305.8681
 102  336.3457
 103  219.4309
 104  221.3431
 105  138.3106
 106  183.7645
 107  235.0646
 108  315.5208
 109  205.6121
 110  301.3049
 111  356.2152
 112  373.8003
 113  332.726
 114  264.0929
 115  280.76
 116  321.9922
 117  334.4431
 118  247.9382
 119  245.1343
 120  293.8033
 121  191.8155
 122  323.7219
 123  371.0941
 124  370.104
 125  289.8365
 126  133.2492
 127  304.0031
 128  271.13
 129  188.799
 130  270.5609
 131  284.8576
 132  183.0454
 133  239.3558
 134  238.49
 135  285.0518
 136  301.5886
 137  239.0038
 138  196.4146
 139  308.0825
 140  352.6017
 141  281.6795
 142  236.0882
 143  274.9728
 144  304.7326
 145  286.4031
 146  252.0493
 147  285.459
 148  185.6686
 149  218.2393
 150  308.673
 151  244.3464
 152  396.6746
 153  245.5376
 154  219.802
 155  143.1094
 156  133.8167
 157  176.8198
 158  100.6234
 159  69.20393
 160  115.3989
 161  135.8782
 162  79.55302
 163  96.39567
 164  192.1167
 165  172.1524
 166  77.65638
 167  54.45643
 168  197.3378
 169  299.2763
 170  310.5462
 171  297.146
 172  305.8615
 173  306.5076
 174  403.6417
 175  172.6812
 176  218.554
 177  318.6404
 178  289.4226
 179  145.2245
 180  205.2798
 181  311.9405
 182  113.2223
 183  171.7166
 184  361.4862
 185  213.0453
 186  181.7862
 187  68.49007
 188  85.26286
 189  131.0786
 190  97.12547
 191  210.1539
 192  239.4981
 193  295.6043
 194  293.1772
 195  200.7995
 196  104.8741
 197  250.9564
 198  285.2112
 199  257.906
 200  275.8255
 201  286.3432
 202  160.6605
 203  160.9518
 204  74.4662
 205  228.7003
 206  304.9615
 207  261.0429
 208  270.6332
 209  248.9708
 210  180.3469
 211  102.1011
 212  154.0999
 213  145.3238
 214  67.0306
 215  163.8248
 216  290.8943
 217  391.7578
 218  231.6895
 219  189.3551
 220  268.764
 221  231.7596
 222  284.3253
 223  246.2845
 224  235.4027
 225  195.9692
 226  223.1026
 227  443.8201
 228  280.504
 229  185.6308
 230  208.48
 231  271.9754
 232  236.1884
 233  188.5518
 234  183.1371
 235  178.4159
 236  84.82467
 237  235.3917
 238  263.6676
 239  251.2007
 240  267.8622
 241  218.4135
 242  259.8199
 243  258.6547
 244  300.5123
 245  379.92
 246  346.925
 247  170.5112
 248  169.5176
 249  183.9016
 250  259.8022
 251  457.8611
 252  411.2125
 253  329.7896
 254  149.1401
 255  308.186
 256  320.166
 257  267.7459
 258  341.7236
 259  358.3911
 260  196.427
 261  78.21095
 262  208.0055
 263  417.0829
 264  229.4231
 265  209.3807
 266  315.3131
 267  267.3132
 268  199.4182
 269  295.6759
 270  311.9256
 271  215.3077
 272  226.4149
 273  299.2143
 274  235.9785
 275  266.8601
 276  251.0996
 277  197.8215
 278  259.5812
 279  218.6659
 280  149.9395
 281  208.2139
 282  326.943
 283  259.7248
 284  253.5804
 285  233.9304
 286  314.5807
 287  271.0325
 288  219.8975
 289  82.35583
 290  55.39724
 291  182.8847
 292  242.2362
 293  284.9555
 294  231.6162
 295  172.2393
 296  139.8911
 297  183.2352
 298  186.4552
 299  310.1464
 300  178.7227
 301  308.3339
 302  344.8972
 303  215.601
 304  291.0474
 305  293.8062
 306  169.8838
 307  152.4594
 308  265.5771
 309  306.565
 310  221.0935
 311  172.0972
 312  127.743
 313  242.9225
 314  257.4044
 315  154.5548
 316  287.4195
 317  345.4816
 318  408.5993
 319  360.5542
 320  181.6936
 321  193.9553
 322  127.8284
 323  167.2247
 324  302.2018
 325  343.912
 326  379.3958
 327  262.5843
 328  275.4081
 329  368.8057
 330  211.5
 331  221.36
 332  177.2558
 333  270.71
 334  351.4977
 335  517.7446
 336  413.5267
 337  385.0687
 338  389.0347
 339  291.0598
 340  258.6378
 341  301.6436
 342  323.5461
 343  140.7869
 344  138.6468
 345  217.4078
 346  386.7035
 347  248.7311
 348  300.6537
 349  292.5699
 350  396.0538
 351  390.2892
 352  324.1584
 353  218.7097
 354  276.7907
 355  263.284
 356  311.7865
 357  271.6783
 358  294.0313
 359  224.6707
 360  177.6966
 361  213.6609
 362  301.1381
 363  253.2091
 364  332.3048
 365  312.2316
 366  329.2751
 367  254.2859
 368  328.1882
 369  269.2223
 370  265.8237
 371  187.8385
 372  249.4221
 373  316.5453
 374  270.9094
 375  272.0603
 376  375.4467
 377  310.1201
 378  298.2046
 379  340.722
 380  153.1459
 381  219.5724
 382  250.1299
 383  296.613
 384  257.1808
 385  205.5909
 386  366.8359
 387  269.04
 388  291.8241
 389  281.3233
 390  266.7582
 391  213.9872
 392  277.2655
 393  269.4474
 394  272.799
 395  153.9707
 396  284.2919
 397  326.8957
 398  241.6836
 399  315.3015
 400  413.1195
 401  438.0537
 402  479.534
 403  420.0364
 404  359.8774
 405  329.8969
 406  342.5012
 407  337.7892
 408  256.8636
 409  173.7696
 410  186.0794
 411  199.7798
 412  261.6241
 413  281.2639
 414  275.0055
 415  271.0883
 416  343.8171
 417  381.6804
 418  306.4686
 419  245.8436
 420  220.2361
 421  223.0685
 422  218.588
 423  200.0952
 424  253.3435
 425  250.4437
 426  282.0253
 427  223.1737
 428  308.9111
 429  348.9044
 430  317.2874
 431  416.1047
 432  369.1948
 433  372.5814
 434  296.2966
 435  307.3581
 436  330.7755
 437  384.3724
 438  375.3791
 439  174.1075
 440  308.024
 441  421.6457
 442  426.5352
 443  320.7492
 444  203.6152
 445  312.9286
 446  307.881
 447  242.5802
 448  214.3338
 449  368.4672
 450  393.35
 451  264.3449
 452  90.85198
 453  172.287
 454  256.9059
 455  258.7634
 456  106.5602
 457  121.8117
 458  226.0026
 459  267.9365
 460  209.317
 461  183.1093
 462  227.0566
 463  199.5366
 464  267.3634
 465  190.9401
 466  304.9018
 467  251.6124
 468  276.6078
 469  258.3061
 470  43.74144
 471  180.3521
 472  228.3072
 473  136.5184
 474  220.5247
 475  162.6175
 476  147.5625
 477  237.3505
 478  200.3133
 479  290.5952
 480  316.0685
 481  185.4084
 482  202.7928
 483  198.8841
 484  304.8115
 485  441.2747
 486  404.4594
 487  312.1064
 488  209.2664
 489  223.7809
 490  280.9015
 491  373.9391
 492  361.4503
 493  349.7663
 494  257.7389
 495  238.5462
 496  155.9016
 497  220.0776
 498  185.0661
 499  261.0418
 500  399.2511
 501  261.4295
 502  112.1571
 503  164.0109
 504  115.5879
 505  102.2854
 506  214.7993
 507  348.5726
 508  399.1291
 509  348.4759
 510  329.65
 511  288.3083
