# Input file       =  1191092853.127013_cleaned.dat
# Candidate        =  PSR_0332+5434
# Telescope        =  AR
# Epoch_topo       =  58029.797131099687
# Epoch_bary       =  N/A
# T_sample         =  0.002
# Data Folded      =  7208960
# Data Avg         =  0.00679604670026215
# Data StdDev      =  1.00000963460376 
# Profile Bins     =  512
# Profile Avg      =  95.5905354668742 
# Profile StdDev   =  118.660319027672 
# Reduced chi-sqr  =  1.743
# Prob(Noise)      <  5.17e-23   (~9.8 sigma)
# P_topo (ms)      =  714.474169558005  +/- 0.000183
# P'_topo (s/s)    =  -0                +/- 9.85e-11
# P''_topo (s/s^2) =  0                 +/- 4.43e-14
# P_bary (ms)      =  N/A
# P'_bary (s/s)    =  N/A
# P''_bary (s/s^2) =  N/A
# P_orb (s)        =  N/A
# asin(i)/c (s)    =  N/A
# eccentricity     =  N/A
# w (rad)          =  N/A
# T_peri           =  N/A
######################################################
   0  1008.663
   1  921.942
   2  606.3805
   3  210.0416
   4  167.4208
   5  141.383
   6  39.68654
   7  136.0981
   8  195.6294
   9  275.5534
  10  134.9249
  11  35.85794
  12  94.75094
  13  137.0548
  14  244.0945
  15  155.2043
  16  71.05751
  17  139.422
  18  0.4944288
  19  17.305
  20  126.7552
  21  87.59987
  22  52.24073
  23  145.9497
  24  102.8862
  25  69.20525
  26  74.55285
  27  193.2357
  28  64.97073
  29  57.79232
  30  53.86826
  31  -81.23581
  32  8.254876
  33  22.75121
  34  18.06148
  35  53.18782
  36  115.0751
  37  47.38607
  38  54.02356
  39  132.5772
  40  70.24073
  41  130.6775
  42  283.505
  43  109.4804
  44  111.7887
  45  1.88345
  46  93.01679
  47  182.9776
  48  180.3996
  49  117.5465
  50  -22.68188
  51  63.08221
  52  19.79719
  53  -3.231343
  54  74.59676
  55  98.66844
  56  -34.37925
  57  -69.39735
  58  41.42402
  59  105.5323
  60  144.6706
  61  69.44556
  62  185.9225
  63  37.63612
  64  1.013258
  65  163.6987
  66  167.625
  67  68.40787
  68  112.8555
  69  73.9598
  70  111.4361
  71  135.0832
  72  86.93638
  73  143.8096
  74  112.1842
  75  98.18206
  76  79.30849
  77  134.3958
  78  160.164
  79  2.293247
  80  9.427391
  81  34.36136
  82  -20.22856
  83  -6.769674
  84  119.6292
  85  46.03228
  86  -46.09671
  87  83.26894
  88  41.55579
  89  83.5852
  90  211.263
  91  197.8753
  92  206.1411
  93  83.86423
  94  -28.07057
  95  67.37498
  96  61.5815
  97  128.6284
  98  126.8067
  99  162.2307
 100  38.19025
 101  67.48174
 102  26.19994
 103  163.0702
 104  18.37045
 105  58.80246
 106  196.1663
 107  91.69678
 108  -19.23968
 109  -36.4972
 110  58.61273
 111  89.98398
 112  140.5328
 113  277.951
 114  330.8611
 115  126.3047
 116  189.9722
 117  60.56149
 118  -52.75375
 119  32.05714
 120  166.8459
 121  107.4188
 122  83.8922
 123  137.4876
 124  155.8384
 125  102.3398
 126  164.1125
 127  86.57808
 128  1.837107
 129  162.1026
 130  91.96091
 131  82.41206
 132  133.3145
 133  111.7681
 134  -14.36585
 135  -52.12095
 136  -144.8272
 137  -90.55352
 138  -139.3984
 139  -71.81427
 140  93.38197
 141  190.05
 142  77.85556
 143  133.6019
 144  81.06332
 145  68.31683
 146  49.59047
 147  41.38091
 148  113.9476
 149  146.3166
 150  185.0465
 151  253.1322
 152  114.9038
 153  5.780168
 154  71.45261
 155  68.23447
 156  121.0047
 157  102.7776
 158  54.2237
 159  11.81014
 160  -55.08517
 161  -36.39055
 162  -20.16985
 163  -78.40271
 164  23.8921
 165  126.9549
 166  57.43988
 167  -35.61155
 168  75.46415
 169  47.61502
 170  -71.79132
 171  -109.8013
 172  -14.21545
 173  110.0094
 174  252.4276
 175  178.1434
 176  191.442
 177  104.0599
 178  102.9574
 179  -7.304905
 180  -88.16761
 181  42.92582
 182  55.26089
 183  11.61064
 184  22.74922
 185  48.07734
 186  12.7433
 187  73.2808
 188  78.50431
 189  42.22535
 190  -7.855467
 191  166.0995
 192  140.2168
 193  10.67982
 194  -1.461298
 195  101.6141
 196  107.9491
 197  -9.087677
 198  29.41907
 199  154.2736
 200  133.2218
 201  81.70859
 202  3.925936
 203  -29.00197
 204  21.63285
 205  167.0785
 206  99.73395
 207  122.2138
 208  49.17173
 209  -43.92125
 210  42.80458
 211  39.55812
 212  110.5513
 213  -22.65296
 214  -23.29498
 215  42.94156
 216  43.51365
 217  81.27689
 218  152.9049
 219  223.8299
 220  156.1233
 221  -40.17554
 222  79.03103
 223  -6.670175
 224  -13.86237
 225  152.0863
 226  20.98375
 227  18.7876
 228  95.62199
 229  202.7506
 230  164.0254
 231  93.87374
 232  112.7393
 233  93.1665
 234  -26.29149
 235  91.41796
 236  50.48896
 237  -158.5552
 238  -45.31514
 239  49.45743
 240  115.4949
 241  66.65922
 242  26.71931
 243  53.34004
 244  201.0915
 245  166.0208
 246  165.4566
 247  249.8049
 248  138.9106
 249  207.7822
 250  154.4698
 251  247.5416
 252  112.2684
 253  -28.37254
 254  31.5439
 255  46.54435
 256  152.2594
 257  268.2303
 258  137.6141
 259  75.95444
 260  101.4003
 261  76.75994
 262  7.422017
 263  97.37451
 264  57.27516
 265  157.4735
 266  206.3891
 267  158.3952
 268  58.61654
 269  138.2028
 270  102.2042
 271  135.87
 272  125.999
 273  135.2536
 274  104.605
 275  38.48635
 276  21.49364
 277  110.9732
 278  62.91187
 279  40.99621
 280  -56.59666
 281  27.32907
 282  39.34449
 283  -11.48884
 284  19.81125
 285  77.79938
 286  99.02962
 287  60.03352
 288  -112.6206
 289  -35.83762
 290  31.24359
 291  62.68356
 292  -7.944818
 293  65.82485
 294  70.26246
 295  -129.29
 296  33.28323
 297  179.7207
 298  99.32824
 299  106.4017
 300  171.2066
 301  225.894
 302  80.30225
 303  41.02415
 304  223.4597
 305  104.8507
 306  90.63741
 307  175.4146
 308  149.6087
 309  51.22953
 310  -73.06639
 311  30.39221
 312  167.0135
 313  91.8334
 314  56.2369
 315  86.26707
 316  -19.44266
 317  -16.13919
 318  -70.36212
 319  58.59333
 320  89.04239
 321  31.08184
 322  -22.77726
 323  55.92871
 324  205.789
 325  185.3138
 326  221.5145
 327  211.9976
 328  180.9512
 329  66.57041
 330  -110.4412
 331  48.03799
 332  65.60482
 333  36.38279
 334  106.5397
 335  24.71511
 336  51.08229
 337  86.16361
 338  17.92445
 339  -53.46305
 340  -34.40589
 341  93.89436
 342  38.4321
 343  130.3531
 344  54.57031
 345  -37.42216
 346  81.30716
 347  94.38659
 348  78.91918
 349  128.9613
 350  96.91906
 351  113.9444
 352  10.96045
 353  -17.52963
 354  11.29523
 355  158.3792
 356  -33.7698
 357  17.86177
 358  157.3799
 359  89.74758
 360  72.9895
 361  51.45532
 362  222.5493
 363  84.5593
 364  138.8567
 365  192.2745
 366  133.0461
 367  68.35927
 368  22.11502
 369  215.4197
 370  263.2139
 371  175.8981
 372  135.1639
 373  104.91
 374  90.88113
 375  78.96511
 376  149.1425
 377  144.8992
 378  100.9498
 379  126.2096
 380  222.8585
 381  157.9194
 382  -50.37243
 383  48.57344
 384  157.5946
 385  115.0855
 386  118.3271
 387  42.26508
 388  113.251
 389  177.4037
 390  194.8833
 391  187.1559
 392  121.9238
 393  25.82493
 394  55.28199
 395  -68.00392
 396  -20.201
 397  -26.91252
 398  135.5317
 399  213.771
 400  16.51364
 401  41
 402  203.0969
 403  270.4305
 404  66.10373
 405  41.11349
 406  130.2168
 407  240.5303
 408  154.0937
 409  150.9147
 410  232.1811
 411  258.4476
 412  129.1025
 413  2.341995
 414  116.4807
 415  121.92
 416  253.4565
 417  208.5909
 418  228.5148
 419  216.7112
 420  86.00739
 421  75.4279
 422  236.4875
 423  66.54543
 424  28.20233
 425  215.4106
 426  306.6087
 427  281.9729
 428  108.2958
 429  165.9468
 430  76.43076
 431  160.6943
 432  118.1742
 433  73.82029
 434  112.8613
 435  151.6636
 436  184.044
 437  24.1743
 438  94.90773
 439  155.9498
 440  192.0083
 441  76.51201
 442  -29.59277
 443  55.69775
 444  40.14883
 445  11.40344
 446  38.23499
 447  21.90785
 448  37.42181
 449  23.35411
 450  172.0769
 451  229.7225
 452  139.8138
 453  83.67401
 454  121.776
 455  115.4479
 456  127.8109
 457  54.88197
 458  159.2082
 459  139.3709
 460  -27.22782
 461  53.46862
 462  2.803289
 463  42.64757
 464  142.4765
 465  120.7005
 466  90.56031
 467  -3.956787
 468  8.906874
 469  27.53487
 470  15.33576
 471  45.94725
 472  102.4476
 473  49.20365
 474  112.2742
 475  90.24016
 476  82.66077
 477  46.28174
 478  47.55511
 479  62.70899
 480  188.0462
 481  189.0423
 482  134.8365
 483  105.7489
 484  137.0472
 485  89.93024
 486  -38.03477
 487  92.23185
 488  201.5233
 489  121.2155
 490  -50.70724
 491  151.8914
 492  187.8005
 493  179.9039
 494  49.13709
 495  -44.81622
 496  -71.19537
 497  -76.73616
 498  98.56045
 499  71.92143
 500  113.5203
 501  260.0666
 502  224.6552
 503  151.2131
 504  163.8627
 505  197.0272
 506  279.6023
 507  177.7953
 508  258.3246
 509  502.4002
 510  705.6229
 511  990.0986
