# Input file       =  1191265216.114095_cleaned.dat
# Candidate        =  PSR_0332+5434
# Telescope        =  AR
# Epoch_topo       =  58031.792073079800
# Epoch_bary       =  N/A
# T_sample         =  0.002
# Data Folded      =  7208960
# Data Avg         =  0.0076963456546675
# Data StdDev      =  1.00006859876888 
# Profile Bins     =  512
# Profile Avg      =  108.322754852133 
# Profile StdDev   =  118.667315666906 
# Reduced chi-sqr  =  1.414
# Prob(Noise)      <  1.88e-09   (~5.9 sigma)
# P_topo (ms)      =  714.475358367298  +/- 0.000151
# P'_topo (s/s)    =  -0                +/- 8.13e-11
# P''_topo (s/s^2) =  0                 +/- 3.65e-14
# P_bary (ms)      =  N/A
# P'_bary (s/s)    =  N/A
# P''_bary (s/s^2) =  N/A
# P_orb (s)        =  N/A
# asin(i)/c (s)    =  N/A
# eccentricity     =  N/A
# w (rad)          =  N/A
# T_peri           =  N/A
######################################################
   0  -20.05964
   1  95.55684
   2  43.89631
   3  6.818807
   4  3.41691
   5  36.08119
   6  183.4766
   7  149.3997
   8  41.8306
   9  126.2097
  10  -74.15981
  11  34.34516
  12  235.1294
  13  251.4947
  14  217.0823
  15  220.456
  16  47.90389
  17  -63.40739
  18  10.79742
  19  41.95617
  20  21.49081
  21  77.22173
  22  147.8185
  23  162.7057
  24  197.7881
  25  155.0732
  26  58.83893
  27  73.55451
  28  109.4946
  29  131.1933
  30  144.6887
  31  163.5385
  32  129.0112
  33  138.1522
  34  198.5493
  35  168.1469
  36  194.9758
  37  124.6991
  38  51.58161
  39  94.23302
  40  39.46355
  41  86.97284
  42  188.3277
  43  167.0346
  44  161.035
  45  200.5473
  46  166.0285
  47  46.0554
  48  -16.16462
  49  142.5714
  50  166.2422
  51  116.4927
  52  41.89083
  53  41.44057
  54  82.40402
  55  156.8876
  56  148.2197
  57  23.03073
  58  -25.3232
  59  148.4081
  60  204.8004
  61  167.8115
  62  180.0588
  63  53.4542
  64  -31.96301
  65  -48.68594
  66  53.28334
  67  102.9107
  68  51.11384
  69  111.2159
  70  133.9446
  71  205.1224
  72  56.34468
  73  12.81848
  74  97.94829
  75  131.7197
  76  110.4946
  77  66.70197
  78  204.3984
  79  261.2184
  80  166.6671
  81  244.9624
  82  164.4709
  83  103.312
  84  100.5545
  85  90.32357
  86  12.36605
  87  2.337301
  88  21.63807
  89  -2.977397
  90  3.667533
  91  26.40804
  92  -58.10381
  93  49.87343
  94  171.4301
  95  129.2581
  96  -30.40331
  97  -30.46706
  98  68.26042
  99  44.80871
 100  129.5048
 101  185.5823
 102  107.8092
 103  120.9582
 104  188.6487
 105  123.2451
 106  9.571308
 107  -11.20213
 108  57.20205
 109  38.30288
 110  21.13199
 111  132.9816
 112  108.78
 113  74.41957
 114  91.63144
 115  64.20369
 116  23.84219
 117  81.51575
 118  69.48843
 119  10.01578
 120  105.244
 121  85.22151
 122  85.53139
 123  38.5699
 124  182.1781
 125  150.9166
 126  -50.34357
 127  9.062443
 128  232.161
 129  244.5607
 130  132.9792
 131  55.7771
 132  125.6415
 133  119.4593
 134  74.08774
 135  69.41246
 136  43.6188
 137  30.82942
 138  68.00233
 139  37.29869
 140  -70.31567
 141  27.22785
 142  153.4413
 143  109.2655
 144  -4.339763
 145  17.26265
 146  62.61525
 147  -0.49349
 148  25.04605
 149  20.03473
 150  -7.823788
 151  208.3461
 152  42.62901
 153  -15.52787
 154  99.06212
 155  141.9621
 156  -1.143698
 157  -4.347699
 158  189.368
 159  150.7607
 160  7.214686
 161  -35.62932
 162  115.9729
 163  55.93093
 164  126.9933
 165  50.08886
 166  41.24634
 167  86.72154
 168  1.028692
 169  33.16077
 170  55.00003
 171  -107.9174
 172  -27.51485
 173  22.71987
 174  27.12362
 175  220.8089
 176  202.5666
 177  110.3992
 178  144.8104
 179  131.8464
 180  191.4826
 181  77.41103
 182  169.0099
 183  232.4905
 184  88.70467
 185  197.2543
 186  113.3197
 187  11.10095
 188  132.8889
 189  158.938
 190  40.43442
 191  7.305218
 192  -91.58688
 193  57.88955
 194  20.94621
 195  110.7444
 196  225.146
 197  90.35931
 198  10.61412
 199  -5.093645
 200  84.13027
 201  120.6756
 202  39.56099
 203  -42.4462
 204  67.75926
 205  226.8307
 206  114.0664
 207  -14.47038
 208  -35.63306
 209  76.89432
 210  177.6285
 211  224.5002
 212  149.253
 213  87.89896
 214  116.4185
 215  109.7628
 216  39.52312
 217  103.1787
 218  5.057976
 219  -83.04251
 220  64.61201
 221  73.49973
 222  -16.93657
 223  113.5076
 224  49.09761
 225  109.1838
 226  80.65738
 227  10.63556
 228  131.5415
 229  129.6546
 230  179.1541
 231  7.402009
 232  -88.14983
 233  -161.1682
 234  23.73353
 235  116.6952
 236  182.7934
 237  61.21546
 238  99.82864
 239  196.5314
 240  120.045
 241  45.00597
 242  101.4303
 243  16.54564
 244  126.5765
 245  120.5906
 246  69.53749
 247  157.0004
 248  84.6095
 249  -20.55392
 250  84.44524
 251  117.4478
 252  126.8481
 253  236.9635
 254  152.5986
 255  81.45978
 256  -28.78823
 257  69.48729
 258  207.4283
 259  185.6136
 260  46.64098
 261  53.70897
 262  114.5139
 263  157.316
 264  160.7658
 265  41.98684
 266  76.17078
 267  29.72047
 268  -4.144439
 269  175.4171
 270  226.8824
 271  189.6069
 272  225.2886
 273  70.19695
 274  -6.491146
 275  101.3685
 276  158.5573
 277  197.0342
 278  78.63205
 279  37.04585
 280  47.38163
 281  9.998859
 282  158.4554
 283  162.1301
 284  62.42358
 285  84.5912
 286  114.9371
 287  236.185
 288  134.7331
 289  60.49475
 290  99.63656
 291  138.5785
 292  43.22807
 293  -5.118594
 294  -40.53249
 295  19.76027
 296  88.20506
 297  106.4829
 298  160.0196
 299  25.2287
 300  210.4244
 301  176.1691
 302  237.7134
 303  306.9431
 304  167.1362
 305  43.72205
 306  71.6145
 307  122.1275
 308  127.8703
 309  147.1561
 310  154.5477
 311  161.9956
 312  152.5374
 313  224.3288
 314  304.9396
 315  268.9506
 316  319.234
 317  83.11885
 318  166.9106
 319  82.92171
 320  70.03487
 321  17.79473
 322  95.85309
 323  13.83242
 324  51.51785
 325  135.6995
 326  30.06621
 327  -17.06052
 328  -110.0085
 329  -72.36762
 330  101.7545
 331  207.2229
 332  151.7924
 333  -39.48533
 334  31.7238
 335  100.0563
 336  145.5386
 337  125.8241
 338  113.9676
 339  133.9303
 340  37.97192
 341  48.56749
 342  -38.21342
 343  -5.53664
 344  -7.848842
 345  145.4631
 346  212.161
 347  99.04241
 348  76.95363
 349  14.92594
 350  174.9703
 351  47.66742
 352  18.49621
 353  125.1203
 354  83.12617
 355  155.9047
 356  127.9067
 357  128.2537
 358  57.33247
 359  50.37343
 360  206.6536
 361  159.5135
 362  68.06511
 363  18.34047
 364  -45.17593
 365  21.01424
 366  35.23689
 367  39.96387
 368  47.47648
 369  72.89435
 370  217.9436
 371  166.3601
 372  111.879
 373  176.8738
 374  201.5309
 375  104.7134
 376  89.70836
 377  28.44694
 378  19.92966
 379  56.44983
 380  185.4819
 381  184.7108
 382  115.9858
 383  217.0323
 384  218.2131
 385  191.9452
 386  312.7392
 387  295.8003
 388  372.9148
 389  528.5804
 390  745.4493
 391  820.9738
 392  690.7302
 393  621.9791
 394  496.489
 395  150.444
 396  27.46881
 397  127.503
 398  187.9806
 399  236.3205
 400  58.05189
 401  118.3055
 402  108.9978
 403  252.0106
 404  277.5932
 405  242.0954
 406  248.6485
 407  97.70806
 408  221.9252
 409  224.0518
 410  235.6414
 411  80.8889
 412  57.7869
 413  99.11793
 414  235.9581
 415  187.644
 416  106.2002
 417  84.90053
 418  215.2012
 419  230.1762
 420  220.862
 421  207.2629
 422  53.88292
 423  70.79932
 424  53.33292
 425  119.8943
 426  95.53775
 427  144.5988
 428  61.88579
 429  46.35487
 430  57.52493
 431  62.17239
 432  3.090591
 433  -0.07128543
 434  104.7472
 435  16.49586
 436  -3.804125
 437  42.76509
 438  68.55179
 439  55.44453
 440  66.55528
 441  139.1126
 442  182.1217
 443  116.7093
 444  145.9535
 445  102.417
 446  122.1867
 447  110.6567
 448  153.3414
 449  201.1911
 450  253.0671
 451  292.4765
 452  227.5865
 453  216.8447
 454  221.6289
 455  201.5272
 456  72.94419
 457  82.23066
 458  154.2194
 459  224.9364
 460  189.1571
 461  162.1882
 462  103.9431
 463  208.6867
 464  162.5382
 465  105.1604
 466  101.5454
 467  113.9667
 468  244.2205
 469  58.43946
 470  -63.55391
 471  108.4853
 472  81.91511
 473  80.77812
 474  32.67543
 475  24.45152
 476  106.6125
 477  73.62502
 478  115.9595
 479  117.5692
 480  -6.63136
 481  48.44339
 482  102.3631
 483  134.5934
 484  307.0578
 485  309.3433
 486  196.2032
 487  4.96209
 488  36.46929
 489  29.60145
 490  103.6787
 491  91.19305
 492  279.2116
 493  108.5485
 494  89.77257
 495  200.4646
 496  154.647
 497  197.5692
 498  147.0814
 499  137.9946
 500  194.8395
 501  74.26305
 502  68.78735
 503  179.8105
 504  182.0674
 505  223.0497
 506  269.8566
 507  147.6796
 508  125.9459
 509  20.67325
 510  37.18879
 511  -63.83673
