# Input file       =  1191366003.118769-PSRB0329-2ms-sampling-dd.dat
# Candidate        =  PSR_0332+5434
# Telescope        =  AR
# Epoch_topo       =  58032.958589337606
# Epoch_bary       =  N/A
# T_sample         =  0.002
# Data Folded      =  7340032
# Data Avg         =  -2.20042902469297e-10
# Data StdDev      =  2.86076423750446 
# Profile Bins     =  512
# Profile Avg      =  0.984574020869629
# Profile StdDev   =  342.527988514473 
# Reduced chi-sqr  =  1.003
# Prob(Noise)      <  0.473   (~0.1 sigma)
# P_topo (ms)      =  714.47609263944   +/- 0.000223
# P'_topo (s/s)    =  -0                +/- 1.18e-10
# P''_topo (s/s^2) =  0                 +/- 5.19e-14
# P_bary (ms)      =  N/A
# P'_bary (s/s)    =  N/A
# P''_bary (s/s^2) =  N/A
# P_orb (s)        =  N/A
# asin(i)/c (s)    =  N/A
# eccentricity     =  N/A
# w (rad)          =  N/A
# T_peri           =  N/A
######################################################
   0  173.772
   1  286.044
   2  -166.0522
   3  -531.9446
   4  -453.1339
   5  -435.8689
   6  -362.9329
   7  -96.3653
   8  -68.79685
   9  -281.9225
  10  -270.88
  11  -309.4685
  12  -389.4354
  13  -14.49635
  14  -107.6747
  15  -184.7971
  16  -205.075
  17  -118.8652
  18  -283.6485
  19  -136.0289
  20  -505.2369
  21  -621.7416
  22  -530.373
  23  -191.9583
  24  -30.73023
  25  -337.6854
  26  -43.11974
  27  -275.0625
  28  -492.3054
  29  -571.0966
  30  -405.3513
  31  -430.2508
  32  -558.8665
  33  -569.8187
  34  -464.2661
  35  -413.8266
  36  -207.2724
  37  -65.10799
  38  -357.1517
  39  -334.6684
  40  59.96118
  41  135.8757
  42  -184.0563
  43  -439.063
  44  -446.1467
  45  -249.2007
  46  -242.086
  47  -183.1276
  48  -142.036
  49  -78.99368
  50  72.6015
  51  68.63546
  52  38.11053
  53  -252.8051
  54  -298.5114
  55  -206.0166
  56  22.36196
  57  193.9918
  58  61.49422
  59  20.62386
  60  -72.79442
  61  -78.52541
  62  166.4554
  63  147.074
  64  -113.3574
  65  -258.7715
  66  -236.3741
  67  -163.4366
  68  -84.59479
  69  -21.40816
  70  -99.78505
  71  4.237428
  72  177.9623
  73  250.8306
  74  216.2928
  75  87.92348
  76  117.9709
  77  97.41522
  78  21.57895
  79  -52.67672
  80  -251.0856
  81  20.50663
  82  227.0555
  83  161.2634
  84  113.6586
  85  71.45378
  86  -110.3953
  87  -1.899433
  88  -4.108961
  89  428.3357
  90  212.3941
  91  -44.66846
  92  9.167197
  93  66.29816
  94  -6.730223
  95  -32.25204
  96  -71.32426
  97  -11.43985
  98  82.64323
  99  36.99553
 100  -24.8976
 101  -158.4778
 102  13.85889
 103  -90.06572
 104  -197.6471
 105  -75.34608
 106  4.801494
 107  -54.7994
 108  204.391
 109  93.38068
 110  -369.479
 111  -598.8838
 112  -296.2198
 113  -301.4799
 114  -272.6545
 115  -92.09205
 116  -103.557
 117  -185.7471
 118  -154.0122
 119  29.45947
 120  -49.19855
 121  -373.3221
 122  -130.3227
 123  81.90448
 124  137.5271
 125  145.3397
 126  -257.4367
 127  52.82088
 128  406.7836
 129  609.4824
 130  246.2104
 131  19.76396
 132  -340.8498
 133  -259.5537
 134  43.22795
 135  -96.45265
 136  -163.6623
 137  -181.9269
 138  155.6516
 139  -55.52951
 140  0.2501334
 141  -54.14364
 142  -123.4738
 143  -88.58861
 144  -153.4894
 145  -163.5918
 146  -22.92137
 147  103.0982
 148  52.13681
 149  315.2216
 150  104.5156
 151  124.8443
 152  44.85488
 153  -279.6475
 154  -75.15653
 155  243.2191
 156  269.5848
 157  261.7268
 158  118.7952
 159  39.01104
 160  79.43929
 161  -59.86551
 162  -203.2413
 163  -287.3373
 164  19.5852
 165  174.2863
 166  -182.4621
 167  103.1433
 168  131.423
 169  318.657
 170  59.02576
 171  -42.13717
 172  179.939
 173  37.71647
 174  320.0889
 175  116.7671
 176  343.5268
 177  434.77
 178  69.76471
 179  87.92134
 180  77.40536
 181  157.3417
 182  -62.77129
 183  -331.596
 184  -33.50967
 185  139.2366
 186  -59.20351
 187  -79.90559
 188  -98.51427
 189  -6.648975
 190  164.0009
 191  257.2041
 192  -185.1944
 193  -412.8939
 194  -317.506
 195  -46.28291
 196  -391.3831
 197  -253.9678
 198  113.3223
 199  298.7498
 200  34.50006
 201  277.4543
 202  295.7023
 203  232.132
 204  9.926566
 205  -367.6977
 206  -49.68448
 207  49.71577
 208  -15.06061
 209  9.802682
 210  151.7175
 211  483.9862
 212  158.5623
 213  306.7292
 214  330.3741
 215  210.2213
 216  233.708
 217  394.0771
 218  489.5064
 219  231.0001
 220  259.6912
 221  418.7049
 222  315.5367
 223  230.662
 224  229.2843
 225  240.6043
 226  206.3146
 227  171.337
 228  -136.1159
 229  -258.5634
 230  -163.2056
 231  36.91637
 232  7.44013
 233  152.2306
 234  131.6217
 235  138.3362
 236  254.3373
 237  130.797
 238  28.98545
 239  26.24156
 240  29.39241
 241  10.93082
 242  -12.36556
 243  22.14554
 244  36.08789
 245  28.90059
 246  -42.68941
 247  126.2536
 248  323.4483
 249  249.3795
 250  -23.22474
 251  79.94518
 252  155.0893
 253  160.8014
 254  62.88658
 255  -54.12406
 256  -68.66206
 257  -117.632
 258  467.2891
 259  286.125
 260  202.9036
 261  264.9002
 262  229.0864
 263  171.995
 264  -44.08642
 265  77.24851
 266  83.61549
 267  -66.87617
 268  305.282
 269  555.601
 270  572.6764
 271  738.549
 272  1349.268
 273  1449.647
 274  1403.07
 275  1155.782
 276  675.1865
 277  348.5795
 278  481.1273
 279  210.9182
 280  -53.34692
 281  -185.3774
 282  -24.25215
 283  94.76461
 284  253.1092
 285  491.121
 286  654.6078
 287  213.2481
 288  40.07372
 289  50.53141
 290  122.2458
 291  57.35233
 292  239.1866
 293  401.6861
 294  170.4264
 295  -240.7337
 296  -292.4046
 297  -79.14387
 298  -174.0716
 299  -202.1565
 300  53.05938
 301  88.80289
 302  193.3032
 303  246.9447
 304  -59.01759
 305  125.0554
 306  78.14111
 307  22.6051
 308  -81.90408
 309  116.6314
 310  385.2693
 311  383.1244
 312  166.8179
 313  -18.4683
 314  -20.1819
 315  -5.430151
 316  51.94906
 317  203.4898
 318  205.5379
 319  94.7631
 320  14.05998
 321  46.42604
 322  41.28642
 323  -329.2551
 324  -57.49112
 325  24.73079
 326  115.3065
 327  231.1892
 328  -48.7602
 329  -187.887
 330  -13.87057
 331  13.16103
 332  -21.64845
 333  -122.9146
 334  -11.20262
 335  -113.0853
 336  -166.6168
 337  10.09345
 338  47.34205
 339  -244.7484
 340  -424.8701
 341  -360.5776
 342  -246.3526
 343  -155.9274
 344  -40.37351
 345  -104.698
 346  16.00134
 347  -64.18422
 348  23.95738
 349  231.2115
 350  -39.74493
 351  255.6886
 352  84.41187
 353  -291.2657
 354  -269.8854
 355  -402.104
 356  -112.6376
 357  -152.1082
 358  248.0673
 359  85.25829
 360  82.89173
 361  133.3249
 362  -214.5461
 363  -165.3431
 364  158.3839
 365  130.0765
 366  462.7933
 367  452.4524
 368  -91.70022
 369  -189.1862
 370  -28.08674
 371  21.51521
 372  -113.3758
 373  -85.64825
 374  114.1339
 375  -182.693
 376  -218.0593
 377  79.17933
 378  -199.2604
 379  -266.7249
 380  -205.6056
 381  114.644
 382  99.92273
 383  96.14861
 384  202.4694
 385  472.3986
 386  181.6747
 387  47.65665
 388  152.21
 389  -134.0881
 390  -280.3502
 391  -22.79898
 392  -86.3325
 393  130.8906
 394  154.1211
 395  104.6825
 396  18.52933
 397  16.95141
 398  -77.32513
 399  -133.2989
 400  -122.6742
 401  338.8081
 402  246.6329
 403  -160.9067
 404  -111.0008
 405  -149.2502
 406  -151.1679
 407  138.3672
 408  67.99135
 409  -70.40587
 410  -92.42746
 411  70.40157
 412  -89.86693
 413  -49.74818
 414  -45.80585
 415  250.715
 416  77.10851
 417  -77.60898
 418  -269.1634
 419  -434.8259
 420  -154.9848
 421  -93.0181
 422  -32.01038
 423  383.3127
 424  210.0087
 425  109.3028
 426  224.9987
 427  171.054
 428  43.8554
 429  38.18124
 430  19.57365
 431  -164.6826
 432  -61.99661
 433  -62.15367
 434  -182.315
 435  -110.0156
 436  -13.1136
 437  -166.2366
 438  -230.4985
 439  -335.0016
 440  -143.8616
 441  159.2878
 442  69.09989
 443  -308.7372
 444  -376.1389
 445  -285.2931
 446  30.10275
 447  234.2906
 448  298.2293
 449  130.7614
 450  -107.2722
 451  151.3213
 452  -175.4671
 453  -101.9475
 454  23.82594
 455  -115.52
 456  -142.4972
 457  37.36302
 458  50.48885
 459  -173.2094
 460  -271.8488
 461  -231.4445
 462  -5.489383
 463  -179.8356
 464  -108.5553
 465  114.4475
 466  -307.7226
 467  -183.8456
 468  -171.112
 469  -401.3627
 470  -158.3236
 471  -39.83212
 472  -108.0024
 473  -135.7024
 474  4.160993
 475  28.25825
 476  -489.6383
 477  -493.9564
 478  -207.7214
 479  -80.8755
 480  -204.8795
 481  -42.98193
 482  -241.3114
 483  -187.0512
 484  135.091
 485  -141.2022
 486  90.81188
 487  110.7205
 488  -362.7468
 489  -257.5282
 490  -67.70102
 491  -85.19414
 492  -53.14622
 493  -55.73464
 494  -40.97614
 495  75.23488
 496  180.7461
 497  -23.69945
 498  -42.70604
 499  219.6485
 500  330.1188
 501  97.91405
 502  60.32098
 503  99.32789
 504  -37.26842
 505  23.01897
 506  231.5719
 507  63.07513
 508  -349.6296
 509  -206.5847
 510  126.3692
 511  200.2006
