# Input file       =  1191695979.111746_cleaned.dat
# Candidate        =  PSR_0332+5434
# Telescope        =  AR
# Epoch_topo       =  58036.777755922987
# Epoch_bary       =  N/A
# T_sample         =  0.002
# Data Folded      =  7208960
# Data Avg         =  0.141006043559702
# Data StdDev      =  3.61874392889164 
# Profile Bins     =  512
# Profile Avg      =  1985.35936438541 
# Profile StdDev   =  429.397172010125 
# Reduced chi-sqr  =  0.706
# Prob(Noise)      <  1   (~0.0 sigma)
# P_topo (ms)      =  714.478556810264  +/- 8.79e-05
# P'_topo (s/s)    =  -0                +/- 4.72e-11
# P''_topo (s/s^2) =  0                 +/- 2.12e-14
# P_bary (ms)      =  N/A
# P'_bary (s/s)    =  N/A
# P''_bary (s/s^2) =  N/A
# P_orb (s)        =  N/A
# asin(i)/c (s)    =  N/A
# eccentricity     =  N/A
# w (rad)          =  N/A
# T_peri           =  N/A
######################################################
   0  2193.124
   1  2361.489
   2  2135.009
   3  2232.135
   4  2191.979
   5  2100.567
   6  1998.778
   7  1599.839
   8  1647.812
   9  2065.152
  10  2296.871
  11  2209.536
  12  2087.611
  13  1928.896
  14  2212.896
  15  2132.066
  16  1935.918
  17  2048.425
  18  1991.859
  19  2321.661
  20  2321.015
  21  2200.092
  22  2341.099
  23  2394.219
  24  2288.528
  25  2113.335
  26  1961.311
  27  2036.786
  28  2307.314
  29  2102.291
  30  1641.323
  31  1711.935
  32  1704.077
  33  1762.939
  34  2187.975
  35  2249.214
  36  2113.75
  37  2079.595
  38  2233.179
  39  1826.959
  40  1705.877
  41  2048.204
  42  2327.744
  43  2206.493
  44  2239.976
  45  2360.914
  46  2134.312
  47  2121.477
  48  2116.28
  49  1911.649
  50  1954.248
  51  2119.792
  52  2626.958
  53  2375.196
  54  2111.986
  55  1813.767
  56  1686.885
  57  1849.653
  58  2266.747
  59  2573.822
  60  2062.942
  61  1874.826
  62  1884.209
  63  2073.728
  64  2019.155
  65  2141.417
  66  2364.74
  67  2179.296
  68  2195.203
  69  2333.925
  70  2169.985
  71  1799.422
  72  1921.758
  73  1730.173
  74  1787.11
  75  1986.41
  76  2168.131
  77  2033.972
  78  1689.969
  79  2277.341
  80  1719.451
  81  1639.151
  82  1651.121
  83  1771.172
  84  2110.57
  85  2180.094
  86  2387.035
  87  2278.83
  88  2083.58
  89  1916.927
  90  2039.257
  91  2137.734
  92  2107.62
  93  1977.673
  94  2028.632
  95  2055.045
  96  2063.892
  97  1955.201
  98  2132.999
  99  2052.578
 100  2066.864
 101  2008.241
 102  2011.428
 103  2002.288
 104  2036.355
 105  2334.956
 106  2324.761
 107  2106.141
 108  1925.995
 109  1651.06
 110  2066.539
 111  1991.175
 112  1951.967
 113  1743.537
 114  1633.333
 115  1364.515
 116  1411.059
 117  1732.073
 118  1765.279
 119  2078.376
 120  1829.313
 121  1827.954
 122  1802.896
 123  1663.429
 124  1722.503
 125  1793.803
 126  2011.024
 127  2225.333
 128  1844.598
 129  1713.174
 130  1827.933
 131  1728.526
 132  1778.141
 133  1720.786
 134  1723.521
 135  1468.168
 136  1583.899
 137  1903.511
 138  1681.966
 139  2069.758
 140  2140.772
 141  2251.084
 142  2127.506
 143  1718.358
 144  1603.829
 145  1842.422
 146  1787.137
 147  2035.262
 148  1937.756
 149  2010.775
 150  2192.819
 151  2240.081
 152  2291.283
 153  2147.77
 154  2052.719
 155  2337.572
 156  2080.259
 157  1940.217
 158  1712.475
 159  1995.795
 160  1997.993
 161  1888.701
 162  1855.791
 163  1795.416
 164  1907.279
 165  1984.733
 166  2029.024
 167  2019.422
 168  2080.624
 169  2022.399
 170  2126.957
 171  2096.136
 172  2091.519
 173  1941.112
 174  1928.036
 175  2121.263
 176  1962.469
 177  1767.487
 178  1593.343
 179  1731.726
 180  1723.756
 181  1729.143
 182  1917.876
 183  1742.357
 184  2123.313
 185  1512.5
 186  1775.237
 187  2074.834
 188  2176.317
 189  2082.837
 190  1980.222
 191  1762.616
 192  1766.495
 193  1526.453
 194  1805.398
 195  1926.656
 196  1672.504
 197  1831.307
 198  1769.864
 199  1772.207
 200  2191.363
 201  1969.139
 202  2231.564
 203  2014.205
 204  1642.642
 205  1776.464
 206  1746.479
 207  1666.852
 208  1565.394
 209  1744.948
 210  1955.183
 211  1901.605
 212  1783.688
 213  1634.768
 214  1706.863
 215  1884.258
 216  2072.214
 217  2156.216
 218  1749.95
 219  2030.265
 220  2188.85
 221  2194.99
 222  1617.65
 223  1976.764
 224  2162.673
 225  1663.315
 226  1727.169
 227  1380.21
 228  1994.348
 229  2247.069
 230  1915.546
 231  1891.663
 232  2108.594
 233  2051.109
 234  2114.619
 235  2164.509
 236  2061.823
 237  1801.886
 238  1534.919
 239  1851.425
 240  1924.8
 241  2115.428
 242  2295.421
 243  1958.836
 244  1839.742
 245  1864.692
 246  1922.308
 247  1922.593
 248  2171.264
 249  2121.137
 250  1841.962
 251  1845.755
 252  1767.636
 253  2101.499
 254  1886.484
 255  1696.971
 256  1847.245
 257  2022.98
 258  2129.02
 259  2256.912
 260  2106.917
 261  1679.813
 262  1993.811
 263  1962.304
 264  1787.006
 265  1806.797
 266  1865.307
 267  1854.88
 268  2165.56
 269  2030.1
 270  1936.376
 271  1847.292
 272  1932.933
 273  1980.831
 274  2065.43
 275  2115.441
 276  2005.524
 277  1989.853
 278  1731.267
 279  1662.776
 280  2007.463
 281  2312.126
 282  2358.884
 283  2251.146
 284  2216.058
 285  1895.522
 286  2154.76
 287  2191.441
 288  1849.411
 289  1907.166
 290  2133.993
 291  2315.828
 292  2137.631
 293  1870.703
 294  1532.509
 295  1505.98
 296  1718.612
 297  1930.923
 298  2128.043
 299  2037.533
 300  1979.227
 301  1861.263
 302  1613.974
 303  1711.854
 304  1700.998
 305  1721.064
 306  1911.339
 307  2063.168
 308  2024.003
 309  1951.774
 310  2071.212
 311  2241.524
 312  2187.719
 313  2367.904
 314  2092.68
 315  2299.74
 316  2553.044
 317  2907.64
 318  3462.124
 319  3682.783
 320  3519.902
 321  3036.39
 322  2488.99
 323  2552.489
 324  2277.377
 325  1877.869
 326  2231.171
 327  1649.775
 328  1316.253
 329  1581.95
 330  1984.736
 331  2264.669
 332  2376.798
 333  2188.621
 334  1927.498
 335  1891.626
 336  1567.981
 337  1957.423
 338  1788.731
 339  1917.76
 340  1763.356
 341  2044.698
 342  2193.003
 343  1986.356
 344  1769.268
 345  1512.294
 346  1618.539
 347  1617.16
 348  1853.866
 349  2106.416
 350  2202.703
 351  2151.825
 352  1867.137
 353  1595.935
 354  1634.706
 355  1818.537
 356  2186.129
 357  2161.062
 358  2298.182
 359  2021.127
 360  1592.068
 361  1399.302
 362  1736.383
 363  1533.972
 364  1676.644
 365  1849.654
 366  2230.708
 367  2055.749
 368  1721.088
 369  1766.555
 370  2116.486
 371  2140.408
 372  2038.527
 373  2082.244
 374  1876.397
 375  1957.486
 376  2093.948
 377  2224.003
 378  1807.52
 379  1740.588
 380  2110.101
 381  1976.31
 382  2265.818
 383  2074.862
 384  1954.047
 385  1533.151
 386  1839.71
 387  1986.179
 388  1896.45
 389  1938.008
 390  2054.147
 391  1830.574
 392  2012.529
 393  2149.287
 394  1841.289
 395  1854.417
 396  1844.994
 397  2360.594
 398  2017.62
 399  1898.584
 400  2079.716
 401  1821.144
 402  2046.208
 403  1883.829
 404  1964.757
 405  1913.375
 406  2138.998
 407  2217.033
 408  2108.169
 409  2003.198
 410  1543.557
 411  1611.825
 412  1658.3
 413  2026.515
 414  1815.27
 415  1816.924
 416  1910.096
 417  2312.712
 418  2041.629
 419  1815.014
 420  1527.785
 421  1979.296
 422  1935.999
 423  2379.528
 424  2382.048
 425  2188.553
 426  2190.557
 427  2001.091
 428  1976.355
 429  1836.824
 430  1959.83
 431  1936.523
 432  2189.302
 433  2209.723
 434  1902.777
 435  1769.258
 436  1598.099
 437  1883.844
 438  2142.82
 439  1990.291
 440  2235.495
 441  1647.289
 442  1931.373
 443  1933.348
 444  1526.126
 445  1719.993
 446  1884.255
 447  1966.699
 448  2033.657
 449  2281.841
 450  2096.813
 451  2048.243
 452  1852.794
 453  1655.539
 454  1837.746
 455  2080.272
 456  2112.407
 457  2083.264
 458  1949.943
 459  1991.729
 460  2269.331
 461  1907.005
 462  2226.364
 463  2068.21
 464  2017.43
 465  2027.892
 466  2108.598
 467  2166.252
 468  2193.336
 469  2187.978
 470  1996.15
 471  1990.792
 472  2119.863
 473  2396.59
 474  2185.466
 475  1907.662
 476  1750.057
 477  1783.605
 478  1806.999
 479  1809.991
 480  2216.315
 481  2440.209
 482  2206.974
 483  1668.4
 484  1969.505
 485  1615.644
 486  1723.628
 487  1752.307
 488  1834.832
 489  2021.015
 490  2140.271
 491  2257.784
 492  1872.478
 493  1988.456
 494  1761.71
 495  1885.454
 496  1797.009
 497  2150.849
 498  2255.222
 499  2519.219
 500  2180.613
 501  1902.656
 502  1831.303
 503  1871.803
 504  2143.092
 505  2217.071
 506  2217.303
 507  2238.523
 508  2121.912
 509  1768.042
 510  1562.577
 511  2020.884
