# Input file       =  1191021321.110226-PSRB0329-2ms-sampling-dd.dat
# Candidate        =  PSR_0332+5434
# Telescope        =  AR
# Epoch_topo       =  58028.969214238728
# Epoch_bary       =  N/A
# T_sample         =  0.002
# Data Folded      =  7340032
# Data Avg         =  -5.84756547091473e-11
# Data StdDev      =  3.45851375252332 
# Profile Bins     =  512
# Profile Avg      =  3.05209877502462 
# Profile StdDev   =  414.09835294042  
# Reduced chi-sqr  =  1.257
# Prob(Noise)      <  6.5e-05   (~3.8 sigma)
# P_topo (ms)      =  714.473707848654  +/- 0.00026
# P'_topo (s/s)    =  -0                +/- 1.37e-10
# P''_topo (s/s^2) =  0                 +/- 6.05e-14
# P_bary (ms)      =  N/A
# P'_bary (s/s)    =  N/A
# P''_bary (s/s^2) =  N/A
# P_orb (s)        =  N/A
# asin(i)/c (s)    =  N/A
# eccentricity     =  N/A
# w (rad)          =  N/A
# T_peri           =  N/A
######################################################
   0  933.6609
   1  858.0027
   2  1050.296
   3  -245.6518
   4  -310.8886
   5  1.281494
   6  -346.8865
   7  -385.124
   8  -262.3379
   9  -155.2378
  10  -82.85683
  11  -183.2057
  12  -241.6311
  13  -338.2844
  14  19.38494
  15  23.12269
  16  25.84326
  17  -234.9068
  18  -377.073
  19  -266.5466
  20  -389.7226
  21  -439.5778
  22  174.8115
  23  251.8149
  24  -21.83428
  25  -149.4779
  26  -299.3591
  27  -62.82013
  28  -290.1327
  29  -167.0559
  30  -205.4007
  31  -168.6805
  32  51.97722
  33  -163.5605
  34  -87.75446
  35  -341.5078
  36  -222.0485
  37  -319.8953
  38  -36.93074
  39  -201.9696
  40  -30.24095
  41  116.4394
  42  61.06223
  43  3.713935
  44  182.6919
  45  328.3245
  46  6.633506
  47  76.38669
  48  541.8116
  49  238.1898
  50  262.2776
  51  511.0829
  52  385.9007
  53  107.5209
  54  240.9072
  55  -106.8569
  56  -334.6686
  57  -64.85829
  58  329.1293
  59  350.406
  60  406.4651
  61  242.5022
  62  114.4286
  63  433.9695
  64  297.7834
  65  271.1328
  66  545.3356
  67  591.8199
  68  433.2089
  69  182.1044
  70  344.8177
  71  463.8985
  72  421.9038
  73  708.0121
  74  296.7997
  75  -144.2973
  76  250.8795
  77  126.7584
  78  247.833
  79  -222.3856
  80  66.01999
  81  126.074
  82  84.89932
  83  -3.938878
  84  29.78274
  85  176.6227
  86  -97.72338
  87  60.76101
  88  -137.6106
  89  -69.82908
  90  -174.1602
  91  -273.7103
  92  -134.3172
  93  55.05516
  94  233.8278
  95  245.8204
  96  -155.4936
  97  -103.2637
  98  56.28128
  99  87.4837
 100  282.7303
 101  502.3986
 102  161.665
 103  -278.0268
 104  -437.4105
 105  -222.6671
 106  -114.7152
 107  -157.5862
 108  -153.614
 109  -107.6358
 110  27.48278
 111  -425.7851
 112  -420.3857
 113  -267.0704
 114  -495.7678
 115  -133.8347
 116  -272.6985
 117  -400.5692
 118  -372.6397
 119  -243.4648
 120  68.01942
 121  -154.8902
 122  -370.5739
 123  -95.37499
 124  21.64297
 125  -193.117
 126  -296.1465
 127  -217.3239
 128  -100.9793
 129  -153.1604
 130  -251.3791
 131  27.81187
 132  225.0351
 133  -3.906001
 134  11.69057
 135  30.35838
 136  136.1208
 137  179.3354
 138  -19.02468
 139  12.36671
 140  -263.1285
 141  -135.1183
 142  38.86406
 143  94.01301
 144  297.3816
 145  211.1135
 146  13.77325
 147  -121.9375
 148  -91.57431
 149  265.3362
 150  36.33278
 151  -50.0693
 152  55.6292
 153  13.86546
 154  127.1714
 155  29.28489
 156  -332.1562
 157  -238.4059
 158  18.52201
 159  279.8538
 160  426.0727
 161  116.6861
 162  91.8596
 163  -128.0657
 164  110.4268
 165  13.7161
 166  -152.3911
 167  -125.3601
 168  -56.63262
 169  -86.06207
 170  -127.6547
 171  55.78099
 172  -342.4911
 173  273.2377
 174  119.1196
 175  224.8464
 176  205.6363
 177  107.2244
 178  210.1698
 179  -108.0342
 180  167.3793
 181  570.0895
 182  350.7708
 183  404.3752
 184  89.11756
 185  -114.2322
 186  264.3022
 187  709.0908
 188  424.41
 189  617.8021
 190  672.4799
 191  1044.198
 192  1055.695
 193  1348.242
 194  1664.388
 195  1471.839
 196  1609.301
 197  1178.826
 198  434.4745
 199  140.0296
 200  255.4614
 201  285.3451
 202  267.5421
 203  476.3676
 204  173.3121
 205  163.4807
 206  293.3185
 207  462.7685
 208  199.1833
 209  291.3187
 210  488.4666
 211  610.9706
 212  323.4675
 213  163.6986
 214  119.038
 215  209.5828
 216  -10.96631
 217  59.71052
 218  334.9277
 219  465.9167
 220  -115.3972
 221  -217.2626
 222  158.0197
 223  514.0874
 224  597.922
 225  96.27615
 226  109.6628
 227  -52.43713
 228  336.499
 229  189.1036
 230  -86.70772
 231  66.32451
 232  -81.92308
 233  21.84902
 234  143.6259
 235  94.47171
 236  407.4602
 237  363.1773
 238  230.8335
 239  337.6023
 240  358.3235
 241  380.4534
 242  45.00558
 243  -267.5408
 244  -197.3332
 245  83.18693
 246  394.1222
 247  283.6954
 248  171.5636
 249  170.8932
 250  129.4198
 251  63.96554
 252  -138.3123
 253  -109.7936
 254  197.9577
 255  140.8561
 256  -181.242
 257  -270.207
 258  9.384605
 259  140.1095
 260  155.0816
 261  526.6361
 262  409.5637
 263  -25.33272
 264  153.0555
 265  -174.5912
 266  210.9145
 267  489.2714
 268  456.5718
 269  189.0104
 270  441.0879
 271  316.0436
 272  46.81559
 273  311.0839
 274  -77.29892
 275  20.83438
 276  -27.08016
 277  304.509
 278  306.4089
 279  -188.9971
 280  13.85642
 281  54.46548
 282  -264.3732
 283  -668.3848
 284  -621.054
 285  -93.78323
 286  -13.11918
 287  -119.3199
 288  -54.81009
 289  -56.88068
 290  -283.3085
 291  -469.0352
 292  360.4787
 293  192.9744
 294  65.52608
 295  341.7313
 296  -15.77649
 297  156.9447
 298  373.6291
 299  432.5483
 300  275.3616
 301  -237.4204
 302  -228.9267
 303  -126.9819
 304  -103.2006
 305  -202.4068
 306  -80.23415
 307  -218.4333
 308  -123.5088
 309  -25.75495
 310  110.6563
 311  165.6737
 312  -130.907
 313  -396.1929
 314  -201.4558
 315  -342.7258
 316  -281.4577
 317  262.1879
 318  -13.09031
 319  -174.6153
 320  -165.4493
 321  -152.9027
 322  -432.781
 323  -239.6695
 324  5.809515
 325  260.2873
 326  -54.39569
 327  -133.2389
 328  21.63317
 329  -154.2607
 330  -139.4293
 331  -47.36234
 332  -73.2851
 333  -321.2886
 334  -240.4798
 335  145.116
 336  42.50062
 337  -162.5588
 338  63.08258
 339  251.8967
 340  209.996
 341  -88.56548
 342  12.71858
 343  -304.9116
 344  -240.4574
 345  -180.0673
 346  -14.70198
 347  84.77064
 348  36.1126
 349  -424.9019
 350  -239.2424
 351  -37.86189
 352  -345.0103
 353  -451.4371
 354  -332.981
 355  -87.59309
 356  114.152
 357  -291.213
 358  -437.5769
 359  41.79832
 360  33.13425
 361  133.631
 362  -316.998
 363  -389.0309
 364  -244.4219
 365  -176.4884
 366  195.2636
 367  185.3141
 368  458.5962
 369  183.099
 370  -290.6758
 371  -365.7086
 372  37.37777
 373  -113.863
 374  -427.682
 375  -599.9153
 376  -814.6415
 377  -508.511
 378  -38.64813
 379  14.71208
 380  -91.34102
 381  62.68711
 382  -211.1038
 383  -229.6796
 384  106.58
 385  -326.3787
 386  -561.2003
 387  -196.9075
 388  -195.1236
 389  131.4983
 390  -94.4985
 391  -340.5048
 392  -548.4875
 393  -450.8665
 394  -217.2183
 395  -433.2524
 396  -282.8649
 397  -254.9074
 398  -191.6696
 399  123.1613
 400  -29.89537
 401  240.0904
 402  64.20493
 403  -262.3417
 404  189.0025
 405  -2.337257
 406  -313.6148
 407  -388.4325
 408  -343.4273
 409  -174.1566
 410  -215.0689
 411  -168.5211
 412  -439.8319
 413  -397.6095
 414  -183.7814
 415  -143.8594
 416  -433.076
 417  -596.942
 418  -671.707
 419  -811.3699
 420  -154.6612
 421  -218.4763
 422  -67.36971
 423  -442.7313
 424  -787.2798
 425  -382.9007
 426  -176.6853
 427  -398.8647
 428  -228.8278
 429  -191.1224
 430  -457.7306
 431  -350.2988
 432  -432.456
 433  -390.2908
 434  -124.5763
 435  -366.9332
 436  -189.7045
 437  -27.88973
 438  -173.0837
 439  -511.5931
 440  -509.8837
 441  -216.5706
 442  -355.3637
 443  -437.9366
 444  -134.82
 445  113.1037
 446  111.7112
 447  -465.0538
 448  -343.6217
 449  -13.58912
 450  -12.12906
 451  -198.9391
 452  -282.4869
 453  -364.1863
 454  -153.4872
 455  411.1819
 456  574.0428
 457  510.3776
 458  260.2918
 459  108.3304
 460  -17.02876
 461  727.207
 462  957.7292
 463  740.5547
 464  92.02601
 465  -224.3626
 466  -113.2794
 467  -173.4587
 468  -285.996
 469  -456.3206
 470  -231.226
 471  -195.7495
 472  -21.91622
 473  -257.7714
 474  -608.6184
 475  -465.537
 476  -116.4814
 477  -287.9145
 478  -2.242718
 479  -79.078
 480  -178.4036
 481  -16.58919
 482  -11.99396
 483  -177.1037
 484  -308.083
 485  33.08487
 486  -129.2498
 487  -158.8055
 488  -383.12
 489  -656.1245
 490  -518.321
 491  -406.3995
 492  -95.21347
 493  -125.5929
 494  -323.1024
 495  -181.4771
 496  -167.3863
 497  -147.5017
 498  128.4055
 499  -5.485678
 500  116.9402
 501  310.3942
 502  248.4707
 503  100.4547
 504  327.4564
 505  -319.3025
 506  -130.3762
 507  204.173
 508  -276.256
 509  446.5666
 510  1018.986
 511  1226.92
