# Input file       =  1191193657.11263_cleaned.dat
# Candidate        =  PSR_0332+5434
# Telescope        =  AR
# Epoch_topo       =  58030.963843896177
# Epoch_bary       =  N/A
# T_sample         =  0.002
# Data Folded      =  7340032
# Data Avg         =  0.0332857082342213
# Data StdDev      =  2.3463827647069  
# Profile Bins     =  512
# Profile Avg      =  477.250088383044 
# Profile StdDev   =  280.939532920468 
# Reduced chi-sqr  =  1.575
# Prob(Noise)      <  1.75e-15   (~7.9 sigma)
# P_topo (ms)      =  714.474874193134  +/- 0.000312
# P'_topo (s/s)    =  -0                +/- 1.65e-10
# P''_topo (s/s^2) =  0                 +/- 7.27e-14
# P_bary (ms)      =  N/A
# P'_bary (s/s)    =  N/A
# P''_bary (s/s^2) =  N/A
# P_orb (s)        =  N/A
# asin(i)/c (s)    =  N/A
# eccentricity     =  N/A
# w (rad)          =  N/A
# T_peri           =  N/A
######################################################
   0  131.2355
   1  164.7326
   2  421.9788
   3  543.8276
   4  522.2394
   5  469.7076
   6  512.0518
   7  57.95514
   8  -93.9317
   9  118.5723
  10  313.4957
  11  384.3903
  12  473.8148
  13  356.4562
  14  339.8311
  15  193.2021
  16  384.6964
  17  363.552
  18  404.7521
  19  524.0296
  20  656.9308
  21  469.1291
  22  491.7262
  23  498.4036
  24  545.0963
  25  569.2532
  26  476.5702
  27  378.4803
  28  467.9558
  29  636.6023
  30  277.0045
  31  410.9992
  32  539.7214
  33  435.471
  34  309.4285
  35  320.7926
  36  678.9827
  37  559.3855
  38  446.5044
  39  571.1583
  40  753.2384
  41  460.3835
  42  641.728
  43  907.2828
  44  762.5051
  45  348.6139
  46  352.6761
  47  542.5045
  48  606.3637
  49  572.9822
  50  623.3975
  51  226.4377
  52  171.5512
  53  499.478
  54  597.3793
  55  326.4374
  56  373.0058
  57  579.6142
  58  291.8037
  59  377.0373
  60  579.1535
  61  854.2402
  62  675.8406
  63  383.3764
  64  401.8029
  65  705.4694
  66  775.2325
  67  570.6506
  68  584.4105
  69  516.5993
  70  319.9541
  71  494.2673
  72  445.4925
  73  248.1018
  74  358.7024
  75  452.6658
  76  368.8748
  77  577.2603
  78  539.5444
  79  290.2231
  80  352.3199
  81  603.4003
  82  653.7809
  83  490.4376
  84  419.2182
  85  471.4444
  86  339.5876
  87  496.8001
  88  598.5693
  89  675.761
  90  295.4961
  91  142.7371
  92  293.5671
  93  488.7654
  94  701.9423
  95  521.9612
  96  307.6558
  97  355.7278
  98  490.9952
  99  386.3423
 100  566.0026
 101  629.075
 102  503.4564
 103  444.9414
 104  212.1089
 105  497.882
 106  589.7432
 107  668.9972
 108  357.6513
 109  191.5469
 110  201.6653
 111  -11.01326
 112  269.2888
 113  509.6809
 114  540.6122
 115  597.4725
 116  317.5892
 117  566.4972
 118  377.5862
 119  509.3244
 120  367.1946
 121  330.3944
 122  589.2044
 123  564.9431
 124  677.7016
 125  424.9078
 126  347.4008
 127  664.8961
 128  1010.892
 129  693.889
 130  465.0261
 131  496.3681
 132  200.078
 133  125.3181
 134  353.8063
 135  576.3837
 136  227.8239
 137  154.6516
 138  196.8674
 139  186.9754
 140  490.928
 141  334.4484
 142  538.3715
 143  518.6194
 144  484.9543
 145  222.7691
 146  261.9588
 147  662.3973
 148  336.3152
 149  290.0664
 150  505.2162
 151  577.6287
 152  598.9319
 153  680.3513
 154  572.7705
 155  509.8422
 156  388.9311
 157  387.2074
 158  441.5699
 159  471.2974
 160  526.1028
 161  823.0898
 162  662.6807
 163  620.9015
 164  622.2974
 165  491.1057
 166  172.1249
 167  250.8079
 168  818.0436
 169  856.9053
 170  604.7473
 171  554.5114
 172  525.246
 173  624.4968
 174  397.6909
 175  547.3668
 176  516.5226
 177  346.45
 178  491.0417
 179  681.1208
 180  548.7272
 181  450.9616
 182  587.1733
 183  683.3104
 184  433.8588
 185  430.0459
 186  573.6192
 187  280.5727
 188  137.8065
 189  465.2009
 190  352.7775
 191  138.9012
 192  -2.577756
 193  371.0383
 194  611.5258
 195  513.8664
 196  544.0386
 197  558.9353
 198  380.1248
 199  -76.8651
 200  -11.88283
 201  -1.514404
 202  194.0154
 203  526.9001
 204  336.2369
 205  444.4281
 206  454.706
 207  540.9403
 208  389.4937
 209  428.9058
 210  206.0218
 211  267.8844
 212  190.4314
 213  87.93404
 214  254.796
 215  675.2787
 216  456.7686
 217  117.3956
 218  383.2682
 219  614.6746
 220  627.0578
 221  545.7267
 222  428.9686
 223  243.3159
 224  435.9973
 225  591.1687
 226  862.5935
 227  440.944
 228  698.9604
 229  529.175
 230  585.0683
 231  828.059
 232  652.3239
 233  366.3272
 234  531.444
 235  644.7169
 236  812.5174
 237  593.3807
 238  726.1273
 239  437.554
 240  323.9882
 241  436.5013
 242  642.4763
 243  587.6982
 244  614.9734
 245  490.817
 246  495.8909
 247  590.9604
 248  619.3196
 249  445.0457
 250  379.272
 251  743.4922
 252  435.7167
 253  471.4732
 254  640.498
 255  700.4667
 256  509.7395
 257  435.0119
 258  640.4446
 259  697.7542
 260  532.6558
 261  609.942
 262  627.6564
 263  550.2966
 264  644.8707
 265  508.7238
 266  758.5146
 267  444.8972
 268  530.2266
 269  436.8198
 270  475.6858
 271  671.116
 272  292.5897
 273  532.967
 274  676.0216
 275  620.397
 276  532.5622
 277  205.1437
 278  219.491
 279  500.5075
 280  590.2747
 281  363.8606
 282  301.3322
 283  703.9215
 284  609.8509
 285  347.4624
 286  539.794
 287  424.9524
 288  308.4424
 289  611.7487
 290  821.7173
 291  249.3729
 292  -23.18945
 293  227.2865
 294  527.0704
 295  117.1384
 296  311.9414
 297  431.9249
 298  424.4765
 299  675.0121
 300  632.8288
 301  457.3054
 302  411.2826
 303  651.55
 304  581.7768
 305  265.8468
 306  228.0081
 307  14.61854
 308  187.3184
 309  383.7559
 310  491.2444
 311  682.2513
 312  892.2856
 313  773.9747
 314  779.933
 315  747.7789
 316  1381.222
 317  1748.329
 318  1713.496
 319  2173.876
 320  2301.589
 321  2207.21
 322  1423.107
 323  1039.292
 324  869.3015
 325  1070.786
 326  592.5216
 327  487.768
 328  460.7772
 329  644.2957
 330  733.1476
 331  836.8297
 332  688.9941
 333  941.6361
 334  1106.351
 335  1020.372
 336  969.1688
 337  550.2785
 338  397.7019
 339  354.7047
 340  492.6608
 341  417.7137
 342  487.9673
 343  665.4471
 344  496.9155
 345  343.7395
 346  448.7066
 347  448.3541
 348  511.8757
 349  550.3242
 350  411.3806
 351  425.6959
 352  631.535
 353  562.3934
 354  635.6823
 355  712.1364
 356  334.7888
 357  213.4823
 358  659.8337
 359  501.3212
 360  156.6955
 361  19.18443
 362  321.4499
 363  273.0507
 364  132.1286
 365  582.0425
 366  465.6501
 367  447.4832
 368  547.8365
 369  547.6194
 370  490.6494
 371  552.1519
 372  698.794
 373  447.7538
 374  310.4076
 375  519.2145
 376  493.2817
 377  242.2472
 378  495.1529
 379  606.8058
 380  296.2028
 381  131.3802
 382  246.803
 383  210.5361
 384  -77.93928
 385  118.8711
 386  422.3208
 387  165.702
 388  356.1222
 389  655.8513
 390  551.5944
 391  447.8157
 392  367.1908
 393  389.989
 394  308.2559
 395  541.0259
 396  467.1095
 397  451.5346
 398  699.7148
 399  479.0032
 400  359.1056
 401  171.5813
 402  69.66534
 403  304.8373
 404  446.6745
 405  422.7786
 406  476.3714
 407  593.1953
 408  248.8754
 409  269.4177
 410  3.324952
 411  -45.86716
 412  214.439
 413  435.0177
 414  655.5641
 415  611.7046
 416  629.5682
 417  732.4119
 418  389.4146
 419  431.5145
 420  500.1108
 421  574.1105
 422  784.6188
 423  433.6282
 424  480.5695
 425  634.4205
 426  624.4584
 427  362.8648
 428  374.3561
 429  443.4099
 430  481.1432
 431  410.9844
 432  469.919
 433  345.6111
 434  317.1848
 435  337.5894
 436  729.8198
 437  701.191
 438  690.4399
 439  524.6427
 440  790.2341
 441  289.18
 442  202.2841
 443  251.9123
 444  342.2838
 445  560.5757
 446  434.3195
 447  339.4131
 448  389.6047
 449  284.9591
 450  244.5449
 451  401.5859
 452  734.7998
 453  355.6768
 454  446.5904
 455  408.3134
 456  558.8823
 457  516.4165
 458  580.8351
 459  543.2783
 460  377.6169
 461  363.5055
 462  444.5231
 463  213.4533
 464  93.08379
 465  389.3786
 466  559.5118
 467  633.4775
 468  436.4941
 469  341.2776
 470  174.2952
 471  168.2653
 472  523.4173
 473  498.7885
 474  154.8313
 475  55.72444
 476  233.5392
 477  164.2065
 478  -10.68391
 479  344.1811
 480  517.5691
 481  347.1735
 482  423.7848
 483  552.7078
 484  473.7143
 485  344.9815
 486  296.3183
 487  318.0498
 488  515.9634
 489  493.2817
 490  853.3126
 491  401.0719
 492  271.9891
 493  75.05361
 494  -94.57195
 495  245.4016
 496  534.0688
 497  515.6055
 498  460.1138
 499  471.0916
 500  512.4139
 501  292.1388
 502  427.37
 503  427.8791
 504  328.7567
 505  431.8217
 506  776.6966
 507  547.7751
 508  401.8804
 509  404.3711
 510  331.2746
 511  422.7851
