# Input file       =  1191006699.107559-PSRB0329-2ms-sampling-dd.dat
# Candidate        =  PSR_0332+5434
# Telescope        =  AR
# Epoch_topo       =  58028.799978096744
# Epoch_bary       =  N/A
# T_sample         =  0.002
# Data Folded      =  7208960
# Data Avg         =  -7.22028212153216e-10
# Data StdDev      =  4.63363245772836 
# Profile Bins     =  512
# Profile Avg      =  0.1340470990417  
# Profile StdDev   =  549.823008364199 
# Reduced chi-sqr  =  0.699
# Prob(Noise)      <  1   (~0.0 sigma)
# P_topo (ms)      =  714.473596469815  +/- 0.00014
# P'_topo (s/s)    =  -0                +/- 7.51e-11
# P''_topo (s/s^2) =  0                 +/- 3.37e-14
# P_bary (ms)      =  N/A
# P'_bary (s/s)    =  N/A
# P''_bary (s/s^2) =  N/A
# P_orb (s)        =  N/A
# asin(i)/c (s)    =  N/A
# eccentricity     =  N/A
# w (rad)          =  N/A
# T_peri           =  N/A
######################################################
   0  457.9614
   1  -33.97279
   2  -233.4184
   3  -23.64473
   4  86.19855
   5  -120.6441
   6  246.5601
   7  12.80616
   8  -459.6623
   9  -445.6053
  10  -186.3159
  11  101.3398
  12  42.49644
  13  431.5334
  14  213.6129
  15  30.81257
  16  -220.0613
  17  40.68786
  18  -110.3837
  19  -232.9155
  20  -448.6857
  21  -90.92094
  22  102.2598
  23  -169.9548
  24  -25.03492
  25  89.57979
  26  209.5347
  27  -129.8644
  28  -193.619
  29  -288.4135
  30  -249.8105
  31  -88.67223
  32  150.2271
  33  146.5517
  34  -281.997
  35  -273.4368
  36  -299.932
  37  28.36518
  38  -140.2358
  39  358.7796
  40  337.7386
  41  214.9832
  42  171.5323
  43  263.0769
  44  205.3664
  45  -227.4886
  46  279.6388
  47  -105.2628
  48  -228.1735
  49  178.2487
  50  267.3673
  51  -200.8001
  52  -276.4647
  53  157.0576
  54  345.95
  55  225.4524
  56  -59.05188
  57  -441.5505
  58  -324.4555
  59  -200.2113
  60  131.6291
  61  291.8602
  62  200.125
  63  465.2281
  64  218.5572
  65  49.43753
  66  -262.4453
  67  188.9144
  68  480.224
  69  534.4871
  70  676.5872
  71  711.2845
  72  653.7798
  73  531.5076
  74  77.34077
  75  137.7437
  76  -66.94753
  77  -52.76391
  78  267.2961
  79  437.1844
  80  397.3735
  81  288.6961
  82  92.47733
  83  25.92629
  84  140.1422
  85  -76.38648
  86  -222.1152
  87  -205.4762
  88  43.00244
  89  -205.0838
  90  -378.2578
  91  -179.1879
  92  -141.1273
  93  -58.0049
  94  -249.3864
  95  -202.2262
  96  -276.5764
  97  21.54719
  98  -311.3411
  99  -457.5862
 100  -135.0768
 101  -219.6233
 102  -338.1131
 103  -229.0817
 104  252.3677
 105  -4.409525
 106  80.82297
 107  -59.19965
 108  46.19983
 109  97.90636
 110  -50.31409
 111  4.8039
 112  -300.1374
 113  -24.03524
 114  -267.7231
 115  -125.2411
 116  44.04284
 117  -141.747
 118  -307.8311
 119  -102.3925
 120  -100.6535
 121  -139.2877
 122  312.4469
 123  117.9995
 124  -89.10003
 125  -58.20648
 126  109.8861
 127  -28.38685
 128  -72.39692
 129  50.05133
 130  56.04084
 131  -459.617
 132  -754.1713
 133  -120.6124
 134  -191.6564
 135  -144.0993
 136  -47.4059
 137  59.80557
 138  64.96822
 139  502.429
 140  818.9683
 141  82.54323
 142  51.36924
 143  424.1571
 144  496.9697
 145  164.3724
 146  323.0002
 147  160.4503
 148  57.64295
 149  -122.4224
 150  -315.9121
 151  -95.47305
 152  95.16151
 153  305.8076
 154  45.3019
 155  -209.0126
 156  -203.5785
 157  -344.307
 158  -373.8276
 159  -140.1734
 160  -59.26792
 161  179.5492
 162  127.4381
 163  -147.3257
 164  -303.1912
 165  -472.3745
 166  -280.858
 167  27.94117
 168  233.0284
 169  82.0956
 170  -35.80058
 171  -93.19491
 172  -9.630656
 173  -163.3707
 174  -180.7686
 175  145.7204
 176  -105.577
 177  -473.2017
 178  -46.42561
 179  167.9845
 180  214.6869
 181  309.8517
 182  351.9167
 183  95.62329
 184  -260.2357
 185  -22.20469
 186  -81.62406
 187  253.5096
 188  104.5935
 189  146.6435
 190  63.32754
 191  -262.8113
 192  -260.6927
 193  -151.2671
 194  -5.375737
 195  215.2378
 196  85.26244
 197  69.94715
 198  -306.9249
 199  -249.8332
 200  -146.5989
 201  26.98267
 202  -88.11087
 203  -55.82367
 204  -242.4413
 205  -484.8305
 206  -530.7914
 207  -567.7573
 208  -185.4165
 209  -179.9769
 210  -191.8902
 211  389.7259
 212  448.7916
 213  121.7068
 214  -332.66
 215  -132.0649
 216  66.9115
 217  -471.96
 218  -139.2651
 219  145.7856
 220  193.7665
 221  -48.81088
 222  118.9774
 223  365.5389
 224  -201.4384
 225  -72.9465
 226  167.1703
 227  162.0423
 228  367.8471
 229  126.2217
 230  -52.07328
 231  -152.1731
 232  -136.5211
 233  -171.0365
 234  -340.3421
 235  96.61162
 236  225.3816
 237  40.37833
 238  -56.6753
 239  273.8838
 240  -28.48287
 241  -262.8093
 242  80.15325
 243  -79.46805
 244  121.7126
 245  596.5023
 246  380.3655
 247  315.3733
 248  -132.3199
 249  -178.4243
 250  -175.8662
 251  -11.81018
 252  60.8948
 253  367.8475
 254  391.9122
 255  524.81
 256  -220.0181
 257  -350.7653
 258  -514.8804
 259  -599.6756
 260  -392.6112
 261  379.7781
 262  255.3415
 263  214.3497
 264  136.7864
 265  -3.824072
 266  108.4543
 267  7.209954
 268  -168.7932
 269  33.92126
 270  -101.9764
 271  -346.7236
 272  -217.7405
 273  -128.8387
 274  -64.26376
 275  -125.4634
 276  -202.4775
 277  -145.9832
 278  149.0354
 279  209.9137
 280  -174.9916
 281  -109.2476
 282  75.97866
 283  -64.3252
 284  212.5673
 285  365.9906
 286  304.1409
 287  69.16579
 288  -6.70238
 289  -537.7185
 290  -369.9674
 291  -286.5706
 292  -258.0444
 293  -108.2687
 294  164.2156
 295  470.8161
 296  278.3194
 297  -107.7698
 298  76.91874
 299  -205.4245
 300  -90.75666
 301  -99.42053
 302  -10.98141
 303  85.10873
 304  -95.21893
 305  -249.4468
 306  -421.6313
 307  -76.09248
 308  -78.88577
 309  -93.42995
 310  -168.6029
 311  21.60489
 312  -363.3506
 313  -570.9559
 314  84.64622
 315  -300.1155
 316  -113.8668
 317  -318.6244
 318  -358.168
 319  -13.15978
 320  -375.3162
 321  -383.5421
 322  -468.9883
 323  -255.727
 324  -118.3378
 325  -105.2573
 326  91.97552
 327  -79.55508
 328  13.46002
 329  118.6395
 330  -94.39185
 331  -509.6603
 332  -126.0344
 333  -241.7029
 334  -77.92349
 335  35.53843
 336  -139.8809
 337  6.048881
 338  -77.58872
 339  -125.2453
 340  -348.0082
 341  25.15059
 342  -249.0533
 343  -303.6666
 344  -530.6996
 345  -429.249
 346  -397.25
 347  -325.3839
 348  -26.11289
 349  -28.10228
 350  -291.2593
 351  -186.5413
 352  199.2351
 353  207.2887
 354  -239.2295
 355  -670.8699
 356  -619.9545
 357  -718.0673
 358  -590.442
 359  -415.8882
 360  -480.7692
 361  -471.5512
 362  -319.558
 363  -629.5518
 364  -949.4104
 365  -754.7958
 366  -602.9384
 367  -432.9439
 368  -217.0213
 369  -213.736
 370  -569.1877
 371  -681.0141
 372  -626.1391
 373  -610.3741
 374  -348.2091
 375  -394.0345
 376  -314.0691
 377  -560.0807
 378  -434.848
 379  -133.3525
 380  -149.6871
 381  -108.9192
 382  56.09246
 383  -261.001
 384  -729.7888
 385  -622.2172
 386  -356.6914
 387  -602.2437
 388  -473.7443
 389  -187.709
 390  -152.9021
 391  -119.6698
 392  -482.2064
 393  -120.5999
 394  -293.8405
 395  -226.3116
 396  -170.9728
 397  -294.8372
 398  112.6704
 399  32.38274
 400  -75.1375
 401  51.45331
 402  201.5955
 403  87.60371
 404  76.61786
 405  473.2238
 406  685.7352
 407  1524.976
 408  1703.093
 409  1565.382
 410  1510.74
 411  1492.188
 412  620.6194
 413  119.9795
 414  -382.0503
 415  -200.6423
 416  20.94827
 417  116.3073
 418  135.9169
 419  -22.51763
 420  -11.80646
 421  -320.4126
 422  -226.1618
 423  223.5775
 424  568.8115
 425  137.8426
 426  405.032
 427  241.5764
 428  390.2021
 429  85.81274
 430  54.49294
 431  -86.0048
 432  187.901
 433  183.5495
 434  59.09648
 435  -92.25401
 436  -16.7878
 437  -43.3492
 438  -167.6856
 439  -226.742
 440  200.0292
 441  470.9713
 442  427.6107
 443  653.6646
 444  175.8405
 445  -97.82623
 446  -149.4243
 447  -0.07669234
 448  620.058
 449  838.2076
 450  957.835
 451  807.9078
 452  563.1716
 453  599.605
 454  538.3925
 455  397.7867
 456  272.0415
 457  -79.25214
 458  177.9746
 459  36.629
 460  359.064
 461  396.1787
 462  605.7447
 463  255.4524
 464  231.0564
 465  277.8302
 466  142.3941
 467  -17.20619
 468  97.44933
 469  398.5273
 470  788.4098
 471  -66.21082
 472  -44.42929
 473  61.80523
 474  55.39284
 475  243.5396
 476  269.7646
 477  320.9689
 478  400.3266
 479  627.4512
 480  636.3694
 481  200.9753
 482  5.987809
 483  148.9673
 484  408.1142
 485  538.653
 486  321.2582
 487  -62.66491
 488  92.43237
 489  278.6072
 490  147.3955
 491  425.5533
 492  345.5983
 493  522.5746
 494  347.689
 495  253.4447
 496  205.632
 497  -228.8296
 498  294.7182
 499  207.7919
 500  168.7662
 501  209.6013
 502  -25.8166
 503  -178.5472
 504  -262.9626
 505  -129.0305
 506  10.35015
 507  -38.47546
 508  16.93278
 509  177.5829
 510  42.83311
 511  356.9384
