# Input file       =  1191969090.136214_cleaned.dat
# Candidate        =  PSR_0332+5434
# Telescope        =  AR
# Epoch_topo       =  58039.938763150625
# Epoch_bary       =  N/A
# T_sample         =  0.002
# Data Folded      =  7340032
# Data Avg         =  0.0109255747405509
# Data StdDev      =  1.00004001285366 
# Profile Bins     =  512
# Profile Avg      =  156.70816765755  
# Profile StdDev   =  119.737827237229 
# Reduced chi-sqr  =  2.220
# Prob(Noise)      <  2.79e-49   (~14.7 sigma)
# P_topo (ms)      =  714.480773797543  +/- 0.000184
# P'_topo (s/s)    =  -0                +/- 9.72e-11
# P''_topo (s/s^2) =  0                 +/- 4.29e-14
# P_bary (ms)      =  N/A
# P'_bary (s/s)    =  N/A
# P''_bary (s/s^2) =  N/A
# P_orb (s)        =  N/A
# asin(i)/c (s)    =  N/A
# eccentricity     =  N/A
# w (rad)          =  N/A
# T_peri           =  N/A
######################################################
   0  103.836
   1  219.2481
   2  189.3368
   3  269.6703
   4  130.5235
   5  -57.22775
   6  57.09425
   7  -11.59346
   8  32.75148
   9  141.8719
  10  101.924
  11  195.2575
  12  121.1587
  13  124.5614
  14  163.3343
  15  158.454
  16  205.7874
  17  159.6926
  18  191.1631
  19  169.9637
  20  147.7137
  21  69.04713
  22  266.701
  23  99.06879
  24  85.00899
  25  35.75883
  26  74.53101
  27  -31.17425
  28  -27.49685
  29  90.71195
  30  140.8243
  31  39.87773
  32  160.8719
  33  253.4303
  34  166.6532
  35  51.17957
  36  121.8408
  37  189.5382
  38  207.6622
  39  51.66805
  40  90.02642
  41  177.868
  42  127.1013
  43  92.59292
  44  175.166
  45  127.4503
  46  85.24361
  47  126.5923
  48  172.5176
  49  155.2828
  50  252.206
  51  148.2929
  52  40.26889
  53  7.261903
  54  -10.27911
  55  5.621692
  56  -15.44841
  57  20.69061
  58  100.0918
  59  -38.34063
  60  -39.34636
  61  52.78458
  62  -35.94065
  63  91.83864
  64  171.025
  65  136.487
  66  224.5108
  67  124.1087
  68  121.634
  69  48.79821
  70  15.50645
  71  66.45164
  72  8.4087
  73  65.05397
  74  30.80637
  75  74.09169
  76  131.0487
  77  84.67067
  78  62.44944
  79  64.57519
  80  106.3721
  81  180.4377
  82  264.9472
  83  212.2001
  84  150.099
  85  48.99886
  86  110.0985
  87  106.2435
  88  25.87527
  89  37.36398
  90  38.63205
  91  51.83974
  92  156.2487
  93  88.35931
  94  107.8646
  95  124.1782
  96  22.4338
  97  84.85083
  98  152.6532
  99  286.4966
 100  297.8371
 101  117.406
 102  88.18205
 103  106.3004
 104  96.13509
 105  166.1138
 106  153.1136
 107  153.9191
 108  77.71453
 109  -6.460515
 110  26.10428
 111  61.72594
 112  187.8056
 113  128.8239
 114  95.69395
 115  169.8073
 116  208.8491
 117  71.95125
 118  147.4881
 119  146.1103
 120  159.0283
 121  207.1036
 122  223.76
 123  265.8962
 124  323.2731
 125  116.5112
 126  33.01625
 127  7.512702
 128  26.70693
 129  80.04933
 130  102.6606
 131  216.9047
 132  244.8145
 133  126.3204
 134  48.64249
 135  121.4024
 136  54.33294
 137  67.8505
 138  211.522
 139  60.33136
 140  61.04533
 141  128.4035
 142  238.1604
 143  120.1205
 144  -8.795239
 145  100.4223
 146  142.471
 147  286.3193
 148  163.085
 149  201.3025
 150  179.8164
 151  126.8415
 152  139.8293
 153  97.2532
 154  185.5978
 155  83.45773
 156  -0.3115897
 157  160.9736
 158  180.1984
 159  182.5676
 160  68.21723
 161  59.76969
 162  -6.44194
 163  22.94212
 164  41.1538
 165  69.23753
 166  198.1229
 167  147.3962
 168  247.4939
 169  201.1072
 170  90.46906
 171  1.994544
 172  165.0641
 173  385.2417
 174  420.0486
 175  271.1616
 176  19.5486
 177  2.504149
 178  261.5565
 179  182.2699
 180  159.7111
 181  148.1989
 182  147.464
 183  135.1251
 184  118.5191
 185  3.551337
 186  61.02366
 187  111.842
 188  162.2433
 189  128.8899
 190  123.7522
 191  315.847
 192  266.5474
 193  159.6833
 194  81.29044
 195  174.608
 196  147.872
 197  -68.87576
 198  97.50214
 199  229.7303
 200  152.8694
 201  79.81005
 202  148.2736
 203  149.9054
 204  19.25585
 205  83.85107
 206  198.9368
 207  65.45544
 208  173.5389
 209  324.9803
 210  280.2446
 211  193.0443
 212  151.284
 213  239.8145
 214  209.7761
 215  156.1846
 216  134.0686
 217  142.3643
 218  190.4978
 219  64.04163
 220  33.50681
 221  101.1384
 222  197.6254
 223  111.7498
 224  28.78519
 225  91.95559
 226  126.7566
 227  78.03471
 228  19.49287
 229  54.89133
 230  140.638
 231  203.3805
 232  163.3592
 233  291.0721
 234  272.4692
 235  230.9205
 236  155.0408
 237  188.0672
 238  288.2367
 239  221.6701
 240  144.0988
 241  -66.59927
 242  112.3326
 243  351.5284
 244  314.6159
 245  84.50829
 246  139.921
 247  304.1558
 248  185.9715
 249  63.97415
 250  -65.58753
 251  222.5469
 252  274.744
 253  204.0394
 254  182.747
 255  178.4596
 256  173.438
 257  226.0104
 258  182.9122
 259  45.47313
 260  -2.458023
 261  36.9459
 262  -85.23499
 263  -28.00533
 264  163.8189
 265  190.9017
 266  160.9549
 267  138.2614
 268  209.3788
 269  201.6339
 270  152.9704
 271  143.7661
 272  151.1922
 273  74.7598
 274  74.73899
 275  122.4616
 276  160.748
 277  167.9684
 278  262.7855
 279  222.1169
 280  207.3342
 281  191.548
 282  204.8544
 283  95.24049
 284  43.35754
 285  186.3251
 286  316.7845
 287  229.6933
 288  186.528
 289  139.5407
 290  226.4033
 291  264.1152
 292  214.3456
 293  317.1586
 294  256.5816
 295  67.12564
 296  283.4464
 297  335.6144
 298  286.7845
 299  357.3074
 300  280.8594
 301  236.121
 302  283.9746
 303  293.0807
 304  244.4655
 305  251.3267
 306  133.42
 307  262.3669
 308  167.8781
 309  131.8715
 310  43.15807
 311  53.11952
 312  169.3996
 313  196.2726
 314  333.5138
 315  305.331
 316  148.3847
 317  16.10857
 318  207.4586
 319  56.20545
 320  100.8678
 321  200.772
 322  151.5796
 323  61.01568
 324  31.33976
 325  110.7733
 326  81.6227
 327  202.0872
 328  253.8181
 329  132.7905
 330  86.57984
 331  48.41021
 332  -15.20159
 333  9.410709
 334  16.68412
 335  103.1228
 336  189.7088
 337  220.7201
 338  225.5223
 339  188.8731
 340  64.43425
 341  144.4167
 342  198.9737
 343  184.7287
 344  297.5081
 345  182.1997
 346  186.3379
 347  149.9418
 348  81.54514
 349  6.433504
 350  164.9257
 351  175.5741
 352  246.3393
 353  270.7677
 354  149.2151
 355  142.5128
 356  -63.3999
 357  82.89855
 358  104.0832
 359  238.7611
 360  269.5725
 361  206.8561
 362  169.301
 363  327.9349
 364  355.6366
 365  173.038
 366  186.2392
 367  263.8381
 368  172.2177
 369  176.0858
 370  222.9499
 371  227.4326
 372  219.4221
 373  284.7115
 374  192.3781
 375  202.8088
 376  363.1671
 377  648.5884
 378  907.0811
 379  1259.84
 380  1240.874
 381  1067.813
 382  813.4784
 383  521.1705
 384  341.8317
 385  195.7312
 386  85.59077
 387  57.67228
 388  139.1911
 389  211.9729
 390  139.8417
 391  206.3366
 392  184.4959
 393  251.0436
 394  251.8952
 395  204.5048
 396  138.9668
 397  230.2736
 398  209.3796
 399  118.1346
 400  141.7096
 401  254.6214
 402  216.1197
 403  119.7223
 404  104.5071
 405  49.94551
 406  71.46135
 407  191.3151
 408  283.55
 409  326.0561
 410  133.8689
 411  215.6048
 412  227.3375
 413  96.60197
 414  139.409
 415  168.1734
 416  241.7849
 417  -10.54933
 418  -39.45331
 419  81.52627
 420  78.39983
 421  8.715645
 422  32.53626
 423  103.8059
 424  152.9795
 425  216.8266
 426  276.8834
 427  225.4808
 428  120.9715
 429  83.92018
 430  146.4592
 431  183.3383
 432  237.2091
 433  139.369
 434  264.7322
 435  317.7959
 436  219.0314
 437  235.5404
 438  186.047
 439  156.8151
 440  134.3897
 441  101.9759
 442  136.4385
 443  115.2618
 444  138.4014
 445  196.0356
 446  201.8701
 447  137.2873
 448  123.3026
 449  109.7109
 450  152.8591
 451  160.3945
 452  124.8082
 453  150.4018
 454  63.52897
 455  11.09628
 456  83.76793
 457  122.226
 458  174.0158
 459  171.6481
 460  175.2568
 461  190.3514
 462  187.3234
 463  217.5923
 464  -61.06929
 465  -3.81535
 466  190.3039
 467  220.0358
 468  105.501
 469  72.06675
 470  34.19939
 471  197.7098
 472  173.7023
 473  165.6096
 474  150.2713
 475  199.3393
 476  205.8111
 477  209.2437
 478  192.1497
 479  259.3664
 480  212.9231
 481  151.8461
 482  197.1365
 483  181.137
 484  226.2103
 485  161.233
 486  193.9063
 487  367.579
 488  259.9757
 489  115.6273
 490  86.28347
 491  212.9296
 492  248.4182
 493  178.3546
 494  101.1661
 495  97.43739
 496  146.915
 497  59.83633
 498  134.7086
 499  132.8399
 500  149.6924
 501  34.79936
 502  -39.9255
 503  49.98306
 504  152.8528
 505  216.1924
 506  106.9905
 507  78.38674
 508  120.5853
 509  128.0914
 510  306.5738
 511  294.9865
