# Input file       =  1191122437.116167_cleaned.dat
# Candidate        =  PSR_0332+5434
# Telescope        =  AR
# Epoch_topo       =  58030.139538381562
# Epoch_bary       =  N/A
# T_sample         =  0.002
# Data Folded      =  7340032
# Data Avg         =  0.0101000580150723
# Data StdDev      =  1.00005735562101 
# Profile Bins     =  512
# Profile Avg      =  144.724563032164 
# Profile StdDev   =  119.739903739423 
# Reduced chi-sqr  =  1.364
# Prob(Noise)      <  7.29e-08   (~5.3 sigma)
# P_topo (ms)      =  714.474722046317  +/- 0.000113
# P'_topo (s/s)    =  -0                +/- 5.98e-11
# P''_topo (s/s^2) =  0                 +/- 2.64e-14
# P_bary (ms)      =  N/A
# P'_bary (s/s)    =  N/A
# P''_bary (s/s^2) =  N/A
# P_orb (s)        =  N/A
# asin(i)/c (s)    =  N/A
# eccentricity     =  N/A
# w (rad)          =  N/A
# T_peri           =  N/A
######################################################
   0  248.9279
   1  147.495
   2  102.8114
   3  49.82066
   4  48.09178
   5  81.76711
   6  52.58529
   7  203.5412
   8  112.7335
   9  201.4655
  10  219.3586
  11  180.5237
  12  252.7332
  13  209.5427
  14  223.5061
  15  160.4722
  16  114.7326
  17  254.9441
  18  328.8503
  19  268.475
  20  107.9181
  21  -45.97457
  22  95.22764
  23  258.4199
  24  329.3978
  25  303.0945
  26  233.6491
  27  252.4253
  28  252.3572
  29  163.7075
  30  49.52657
  31  123.3211
  32  20.11852
  33  -41.25217
  34  75.3283
  35  225.3143
  36  148.1974
  37  -41.58424
  38  -21.18802
  39  153.7975
  40  79.68988
  41  14.0134
  42  68.90434
  43  106.7068
  44  101.4495
  45  69.88915
  46  60.30697
  47  30.44137
  48  102.0818
  49  130.8966
  50  28.84895
  51  54.73712
  52  96.15092
  53  161.4736
  54  -3.631847
  55  -6.516194
  56  190.6379
  57  153.4678
  58  185.9577
  59  100.6103
  60  -22.84513
  61  140.4173
  62  205.0166
  63  72.3759
  64  100.4864
  65  96.04145
  66  99.41307
  67  41.80421
  68  173.3905
  69  184.3163
  70  28.09456
  71  86.6375
  72  64.45337
  73  47.37818
  74  85.9551
  75  102.0091
  76  109.519
  77  66.38564
  78  146.6437
  79  216.3761
  80  142.1857
  81  113.482
  82  88.95493
  83  179.1182
  84  236.2138
  85  69.79888
  86  91.47409
  87  159.4057
  88  193.2652
  89  -37.45757
  90  39.63216
  91  145.3878
  92  135.2298
  93  201.3899
  94  174.0166
  95  161.0619
  96  108.6834
  97  166.4682
  98  105.6363
  99  29.09535
 100  65.63684
 101  91.25542
 102  170.5994
 103  67.93293
 104  80.32234
 105  110.7732
 106  171.9601
 107  68.71821
 108  157.8802
 109  186.7303
 110  163.7229
 111  131.5114
 112  74.8995
 113  19.18468
 114  -56.2137
 115  18.94837
 116  204.7008
 117  93.55129
 118  87.93464
 119  48.66993
 120  25.69954
 121  136.8598
 122  132.1346
 123  223.3448
 124  225.638
 125  144.9712
 126  101.4205
 127  161.4571
 128  182.7776
 129  289.0901
 130  174.4003
 131  147.0418
 132  78.10494
 133  -1.094181
 134  111.5475
 135  45.80723
 136  -15.077
 137  86.0881
 138  186.5253
 139  91.47569
 140  34.83591
 141  128.6436
 142  116.4469
 143  -73.54516
 144  -35.36268
 145  71.54449
 146  42.80589
 147  18.47166
 148  105.4472
 149  219.3953
 150  192.7981
 151  91.46194
 152  44.07951
 153  164.0433
 154  147.9619
 155  329.6112
 156  398.7583
 157  243.4231
 158  142.1521
 159  165.5123
 160  102.6538
 161  -42.57912
 162  -9.095903
 163  219.6181
 164  262.9781
 165  277.7011
 166  255.6722
 167  264.822
 168  128.3704
 169  227.0439
 170  310.4643
 171  465.9985
 172  613.7473
 173  758.7647
 174  803.8613
 175  736.0468
 176  533.4237
 177  347.3833
 178  336.0475
 179  128.6798
 180  153.1538
 181  243.1406
 182  143.0464
 183  43.50915
 184  138.9058
 185  171.9611
 186  202.74
 187  267.1035
 188  339.1157
 189  273.4531
 190  175.1961
 191  275.3282
 192  132.5277
 193  184.1948
 194  152.9432
 195  111.5358
 196  285.2779
 197  174.0976
 198  128.832
 199  99.45461
 200  212.1887
 201  176.1715
 202  143.051
 203  106.9795
 204  158.8544
 205  95.44307
 206  291.2142
 207  342.8904
 208  249.8006
 209  130.3557
 210  47.2452
 211  -56.0057
 212  -68.02747
 213  76.39271
 214  145.8295
 215  180.8967
 216  43.14299
 217  33.31698
 218  66.18608
 219  136.7028
 220  70.78915
 221  122.5054
 222  143.6171
 223  71.01781
 224  144.4109
 225  64.61461
 226  194.4771
 227  154.8813
 228  11.53802
 229  183.7526
 230  167.4742
 231  112.6739
 232  139.352
 233  46.58153
 234  241.7017
 235  338.5547
 236  106.1347
 237  -65.5411
 238  15.43577
 239  63.01878
 240  119.9052
 241  85.63206
 242  67.22993
 243  137.0078
 244  174.4358
 245  239.2571
 246  77.60682
 247  209.5677
 248  123.6077
 249  188.4087
 250  165.7542
 251  -18.57381
 252  -18.00934
 253  48.59921
 254  104.9861
 255  142.5318
 256  199.4721
 257  216.2447
 258  105.6226
 259  105.9962
 260  165.5318
 261  157.0141
 262  187.5058
 263  332.1613
 264  225.2736
 265  224.6843
 266  220.9536
 267  285.7458
 268  204.9566
 269  179.7043
 270  218.5971
 271  207.1125
 272  201.9697
 273  128.4003
 274  72.27458
 275  49.46819
 276  143.911
 277  85.59047
 278  229.2067
 279  247.952
 280  163.3938
 281  246.1038
 282  239.4034
 283  92.02979
 284  136.0073
 285  64.5223
 286  162.7384
 287  228.3262
 288  213.18
 289  125.9914
 290  99.75546
 291  220.9518
 292  225.7767
 293  80.65324
 294  37.60603
 295  12.41516
 296  191.3913
 297  242.3327
 298  257.6453
 299  216.7693
 300  213.0704
 301  238.9524
 302  156.9848
 303  117.0606
 304  253.3261
 305  149.5184
 306  256.5275
 307  147.8184
 308  220.3562
 309  260.0918
 310  204.7901
 311  178.4847
 312  362.6447
 313  389.3604
 314  325.955
 315  288.8133
 316  166.7804
 317  130.315
 318  112.6481
 319  221.8849
 320  245.0059
 321  195.1241
 322  146.6959
 323  218.9593
 324  249.4926
 325  101.6111
 326  100.266
 327  228.4127
 328  153.2081
 329  129.8198
 330  238.0294
 331  144.2719
 332  43.36037
 333  173.9249
 334  241.8454
 335  66.09155
 336  104.1362
 337  149.5753
 338  96.9399
 339  96.05882
 340  183.666
 341  227.4253
 342  148.0228
 343  198.3233
 344  102.6637
 345  81.88306
 346  75.76568
 347  81.42197
 348  108.0012
 349  104.2481
 350  86.69558
 351  -4.524208
 352  98.29306
 353  96.86975
 354  157.2354
 355  172.6952
 356  232.7473
 357  221.5518
 358  46.93472
 359  18.11781
 360  97.85591
 361  59.97322
 362  143.584
 363  -31.32822
 364  78.34064
 365  162.9327
 366  40.59945
 367  5.318434
 368  74.25767
 369  58.0029
 370  75.24901
 371  191.3438
 372  114.1496
 373  149.1091
 374  93.2672
 375  93.76502
 376  181.7828
 377  173.6591
 378  74.64928
 379  69.55453
 380  125.2545
 381  207.1493
 382  208.2836
 383  153.6939
 384  105.5919
 385  64.02424
 386  128.1742
 387  137.3934
 388  196.0669
 389  112.3675
 390  92.49416
 391  135.2189
 392  120.6938
 393  20.89744
 394  22.65321
 395  63.69333
 396  133.3825
 397  29.94678
 398  176.0016
 399  91.96248
 400  -8.181152
 401  66.68349
 402  81.10875
 403  16.31557
 404  70.58396
 405  258.1729
 406  257.3244
 407  186.4603
 408  57.17892
 409  47.95097
 410  37.98825
 411  111.4977
 412  171.9421
 413  184.9112
 414  205.4226
 415  218.5164
 416  200.2146
 417  148.8659
 418  154.8712
 419  58.56701
 420  63.99717
 421  290.7162
 422  202.8638
 423  119.2125
 424  137.3159
 425  64.23681
 426  63.4378
 427  154.4296
 428  154.3222
 429  222.6521
 430  194.2263
 431  124.1136
 432  152.833
 433  40.08191
 434  2.89095
 435  29.96812
 436  152.4584
 437  355.6997
 438  287.1287
 439  213.1379
 440  266.5313
 441  182.7974
 442  88.25854
 443  129.6189
 444  313.9618
 445  282.2899
 446  208.7485
 447  256.355
 448  177.4305
 449  105.032
 450  96.73412
 451  17.94597
 452  102.1977
 453  49.17857
 454  91.63464
 455  37.39767
 456  -9.917469
 457  22.0965
 458  102.2531
 459  212.3256
 460  242.2164
 461  119.5879
 462  141.3387
 463  79.07384
 464  129.9763
 465  165.3726
 466  283.2284
 467  144.1239
 468  76.59647
 469  179.1953
 470  164.529
 471  178.1306
 472  234.6359
 473  261.5408
 474  194.7605
 475  96.09407
 476  105.3276
 477  49.75373
 478  179.0421
 479  356.7247
 480  140.4223
 481  133.1365
 482  118.2133
 483  24.54317
 484  103.9462
 485  142.7338
 486  137.5311
 487  183.5894
 488  158.3806
 489  193.1537
 490  128.3375
 491  106.703
 492  82.41148
 493  70.42715
 494  124.7461
 495  82.06102
 496  84.48739
 497  188.2193
 498  77.73657
 499  179.7519
 500  150.7874
 501  123.8409
 502  196.245
 503  197.6869
 504  158.1396
 505  126.5927
 506  -30.87365
 507  128.585
 508  210.0914
 509  159.083
 510  31.79739
 511  163.3221
