# Input file       =  1191710613.127054_cleaned.dat
# Candidate        =  PSR_0332+5434
# Telescope        =  AR
# Epoch_topo       =  58036.947131100162
# Epoch_bary       =  N/A
# T_sample         =  0.002
# Data Folded      =  7340032
# Data Avg         =  0.019754260910054
# Data StdDev      =  1.0000110295306  
# Profile Bins     =  512
# Profile Avg      =  283.415690175249 
# Profile StdDev   =  119.734356975955 
# Reduced chi-sqr  =  1.807
# Prob(Noise)      <  3.82e-26   (~10.5 sigma)
# P_topo (ms)      =  714.478685485119  +/- 0.000172
# P'_topo (s/s)    =  -0                +/- 9.09e-11
# P''_topo (s/s^2) =  0                 +/- 4.01e-14
# P_bary (ms)      =  N/A
# P'_bary (s/s)    =  N/A
# P''_bary (s/s^2) =  N/A
# P_orb (s)        =  N/A
# asin(i)/c (s)    =  N/A
# eccentricity     =  N/A
# w (rad)          =  N/A
# T_peri           =  N/A
######################################################
   0  151.8147
   1  274.1445
   2  276.0888
   3  198.8522
   4  288.2129
   5  336.8863
   6  402.4341
   7  407.8094
   8  371.3078
   9  221.8853
  10  268.5873
  11  420.2654
  12  212.7621
  13  93.75063
  14  309.3436
  15  247.7122
  16  246.2141
  17  166.9677
  18  299.9824
  19  372.7374
  20  320.4493
  21  345.1097
  22  327.6352
  23  295.8022
  24  237.9514
  25  381.0103
  26  332.1337
  27  341.8466
  28  421.5449
  29  248.2761
  30  153.2177
  31  158.2769
  32  316.7963
  33  346.205
  34  317.0331
  35  130.692
  36  153.2325
  37  167.0196
  38  355.1821
  39  384.4734
  40  256.138
  41  188.9189
  42  194.2472
  43  225.3951
  44  187.2758
  45  149.3729
  46  247.6386
  47  331.4192
  48  336.9769
  49  315.3842
  50  329.6296
  51  257.9446
  52  243.1626
  53  447.9551
  54  384.8759
  55  375.7259
  56  460.5963
  57  382.5164
  58  336.4713
  59  349.5177
  60  237.0777
  61  265.2717
  62  346.6242
  63  437.0277
  64  444.251
  65  507.1781
  66  499.2942
  67  486.5537
  68  460.7356
  69  557.4508
  70  659.3625
  71  887.9594
  72  1012.399
  73  1177.605
  74  1220.143
  75  911.0679
  76  633.8604
  77  361.4488
  78  313.7106
  79  348.7762
  80  241.8393
  81  273.5731
  82  367.3025
  83  327.377
  84  382.1637
  85  411.4629
  86  233.7222
  87  312.0434
  88  372.1049
  89  434.2407
  90  284.4286
  91  222.1513
  92  169.2715
  93  253.7741
  94  283.427
  95  318.3584
  96  389.1421
  97  427.4867
  98  528.7308
  99  396.2615
 100  157.6187
 101  245.614
 102  209.1712
 103  244.8466
 104  236.4129
 105  282.4611
 106  377.9297
 107  282.2987
 108  320.1409
 109  310.0107
 110  226.1964
 111  300.7089
 112  317.715
 113  205.6508
 114  314.9377
 115  372.5792
 116  342.5351
 117  278.8478
 118  410.7074
 119  292.0715
 120  212.5828
 121  183.6893
 122  225.5278
 123  406.3792
 124  380.9107
 125  230.2531
 126  170.2044
 127  184.192
 128  270.1882
 129  333.6797
 130  361.9441
 131  324.6791
 132  307.2144
 133  235.176
 134  330.3535
 135  370.2417
 136  429.5147
 137  348.5574
 138  229.4189
 139  212.4017
 140  137.1179
 141  245.1543
 142  284.3282
 143  250.7757
 144  362.8719
 145  155.4507
 146  165.1551
 147  178.7744
 148  86.74562
 149  178.7169
 150  281.0288
 151  307.5084
 152  242.8854
 153  166.3761
 154  128.9198
 155  225.5127
 156  262.4391
 157  236.4938
 158  198.4282
 159  177.1093
 160  302.6662
 161  349.6571
 162  349.2677
 163  316.0272
 164  201.2899
 165  211.4529
 166  189.3202
 167  258.9697
 168  341.4525
 169  264.2471
 170  260.8761
 171  246.4567
 172  291.0358
 173  388.8043
 174  354.8678
 175  341.6151
 176  336.6953
 177  263.2247
 178  238.4815
 179  392.6555
 180  358.413
 181  296.9936
 182  372.4107
 183  308.37
 184  303.7489
 185  242.9251
 186  155.5725
 187  253.791
 188  271.3581
 189  425.4728
 190  210.202
 191  234.8219
 192  316.4076
 193  377.9574
 194  381.0901
 195  211.6803
 196  169.4217
 197  342.94
 198  364.1337
 199  408.0981
 200  383.8075
 201  211.1754
 202  177.6973
 203  270.7845
 204  390.4178
 205  347.0709
 206  183.7229
 207  230.0986
 208  310.256
 209  345.7715
 210  222.5661
 211  360.2506
 212  272.0173
 213  251.4733
 214  115.9755
 215  311.2853
 216  329.0945
 217  261.7444
 218  452.9621
 219  346.102
 220  291.7617
 221  191.7095
 222  88.14188
 223  176.2585
 224  238.8492
 225  336.2151
 226  436.7101
 227  375.3677
 228  289.017
 229  311.8141
 230  351.3329
 231  347.3994
 232  252.7948
 233  315.5178
 234  337.6498
 235  145.4606
 236  219.932
 237  297.6626
 238  298.0823
 239  312.8705
 240  335.2883
 241  263.207
 242  169.0039
 243  289.5529
 244  380.8008
 245  348.2717
 246  397.8904
 247  436.8519
 248  251.4889
 249  250.4662
 250  262.7022
 251  260.1128
 252  273.5139
 253  342.6851
 254  321.265
 255  342.2602
 256  291.9157
 257  153.1311
 258  39.60954
 259  168.7339
 260  256.7202
 261  267.6381
 262  310.1894
 263  259.6198
 264  190.3348
 265  115.7057
 266  261.654
 267  403.651
 268  351.7554
 269  361.5523
 270  245.8626
 271  113.8727
 272  77.60622
 273  186.7904
 274  254.9757
 275  241.1687
 276  316.9182
 277  218.2905
 278  378.8859
 279  286.2607
 280  257.6805
 281  287.9263
 282  209.6202
 283  262.898
 284  271.4659
 285  294.0378
 286  237.5225
 287  177.2446
 288  130.7728
 289  250.7667
 290  183.3094
 291  300.1794
 292  122.7635
 293  235.3914
 294  166.0008
 295  192.0385
 296  177.0993
 297  130.8743
 298  159.7461
 299  239.186
 300  353.3035
 301  354.5522
 302  292.8716
 303  354.3176
 304  141.6028
 305  89.58836
 306  137.5589
 307  187.712
 308  197.4413
 309  307.689
 310  238.262
 311  101.5574
 312  183.3676
 313  207.1748
 314  131.5241
 315  166.9776
 316  259.7769
 317  269.0893
 318  277.1894
 319  186.0133
 320  199.2339
 321  207.2695
 322  259.7101
 323  224.3896
 324  206.6151
 325  284.6104
 326  211.9379
 327  90.51759
 328  144.5317
 329  301.4697
 330  312.0553
 331  357.7962
 332  221.5999
 333  283.4267
 334  334.2757
 335  316.2564
 336  389.2861
 337  346.6423
 338  205.3243
 339  131.8116
 340  340.0353
 341  271.5421
 342  296.6736
 343  218.9477
 344  292.2791
 345  311.2914
 346  289.2999
 347  157.6753
 348  194.4482
 349  251.1366
 350  229.5412
 351  191.3475
 352  243.8436
 353  235.3677
 354  204.5374
 355  185.4819
 356  214.8357
 357  229.2276
 358  171.9607
 359  267.9896
 360  324.9717
 361  254.1495
 362  205.1869
 363  230.114
 364  253.5952
 365  152.6869
 366  181.5532
 367  214.5551
 368  165.0339
 369  127.2075
 370  194.8753
 371  208.0642
 372  188.9736
 373  237.3327
 374  158.5747
 375  281.5698
 376  327.6921
 377  400.9076
 378  355.9337
 379  280.0562
 380  276.1946
 381  364.84
 382  386.5948
 383  357.0144
 384  207.0497
 385  176.0483
 386  178.4315
 387  305.9082
 388  393.9886
 389  269.4825
 390  241.6085
 391  410.4908
 392  363.4488
 393  313.8942
 394  282.2258
 395  275.1886
 396  268.5186
 397  359.64
 398  292.1273
 399  184.0944
 400  214.0536
 401  379.2494
 402  414.8548
 403  358.9698
 404  234.6183
 405  166.3865
 406  292.3194
 407  282.9741
 408  299.0565
 409  396.1554
 410  407.1764
 411  318.5185
 412  218.0426
 413  205.7812
 414  304.7242
 415  271.549
 416  237.817
 417  258.2811
 418  292.3339
 419  433.9751
 420  484.6547
 421  364.1867
 422  299.0887
 423  281.3243
 424  311.2271
 425  289.6902
 426  280.6792
 427  326.675
 428  202.34
 429  146.1547
 430  262.2758
 431  339.1186
 432  385.7793
 433  274.3022
 434  323.3736
 435  307.2532
 436  290.0157
 437  170.3382
 438  169.4002
 439  264.6997
 440  274.3393
 441  105.8434
 442  141.6554
 443  82.31183
 444  146.3311
 445  276.5161
 446  367.4706
 447  249.7038
 448  145.1144
 449  273.0178
 450  382.5836
 451  245.5986
 452  176.7054
 453  176.0479
 454  219.2341
 455  335.1111
 456  363.7121
 457  314.2912
 458  216.33
 459  281.8516
 460  344.5505
 461  371.3057
 462  320.3605
 463  132.9818
 464  239.5639
 465  259.757
 466  226.0584
 467  157.3358
 468  213.6069
 469  293.9369
 470  199.8775
 471  183.8326
 472  212.8462
 473  230.1662
 474  323.985
 475  283.9017
 476  340.7151
 477  322.7941
 478  228.5998
 479  231.4958
 480  141.9017
 481  270.444
 482  190.4876
 483  128.1835
 484  193.5251
 485  218.9075
 486  346.8553
 487  336.4858
 488  233.5915
 489  321.9599
 490  233.3658
 491  132.5573
 492  304.052
 493  238.4026
 494  165.4073
 495  173.3683
 496  324.9076
 497  320.5681
 498  431.8488
 499  440.0338
 500  363.0156
 501  176.5288
 502  338.7596
 503  419.95
 504  376.5399
 505  256.51
 506  300.5686
 507  451.3884
 508  316.3032
 509  260.972
 510  264.0099
 511  167.7208
