# Input file       =  1191782146.121926-PSRB0329-2ms-sampling-dd.dat
# Candidate        =  PSR_0332+5434
# Telescope        =  AR
# Epoch_topo       =  58037.775059281550
# Epoch_bary       =  N/A
# T_sample         =  0.002
# Data Folded      =  7208960
# Data Avg         =  1.65986923084666e-10
# Data StdDev      =  5.56235431662687 
# Profile Bins     =  512
# Profile Avg      =  0.103514646886538
# Profile StdDev   =  660.024378682531 
# Reduced chi-sqr  =  0.477
# Prob(Noise)      <  1   (~0.0 sigma)
# P_topo (ms)      =  714.479236781181  +/- 0.00146
# P'_topo (s/s)    =  -0                +/- 7.86e-10
# P''_topo (s/s^2) =  0                 +/- 3.53e-13
# P_bary (ms)      =  N/A
# P'_bary (s/s)    =  N/A
# P''_bary (s/s^2) =  N/A
# P_orb (s)        =  N/A
# asin(i)/c (s)    =  N/A
# eccentricity     =  N/A
# w (rad)          =  N/A
# T_peri           =  N/A
######################################################
   0  -344.9469
   1  -217.6683
   2  -518.6185
   3  169.4245
   4  252.0983
   5  119.7433
   6  -321.8842
   7  -598.7644
   8  -377.469
   9  -306.4758
  10  2.747059
  11  -72.12675
  12  -98.70973
  13  14.96734
  14  -229.3408
  15  -541.5233
  16  -354.382
  17  -98.10741
  18  -362.6673
  19  -416.7733
  20  -537.0424
  21  -326.5703
  22  20.49656
  23  -313.9888
  24  159.5732
  25  -123.2609
  26  -268.594
  27  -101.0196
  28  73.98036
  29  128.8192
  30  159.9282
  31  184.8258
  32  284.7446
  33  105.5769
  34  -327.7248
  35  -439.7345
  36  -102.0154
  37  -86.97978
  38  296.1736
  39  265.8773
  40  -93.91599
  41  -280.8449
  42  -276.6648
  43  454.4348
  44  1001.058
  45  1801.005
  46  2125.601
  47  1796.282
  48  1626.322
  49  979.514
  50  433.6411
  51  197.2211
  52  379.9241
  53  500.8037
  54  472.7499
  55  284.0635
  56  631.4246
  57  610.7537
  58  534.1154
  59  226.149
  60  228.9645
  61  393.1398
  62  307.1396
  63  454.8027
  64  754.6983
  65  417.7021
  66  108.4859
  67  117.8527
  68  -219.7377
  69  -385.4338
  70  15.81808
  71  -29.28079
  72  364.9203
  73  407.8921
  74  261.4934
  75  17.62926
  76  430.7333
  77  554.1124
  78  336.0801
  79  710.8088
  80  588.8087
  81  50.40738
  82  55.28742
  83  -145.9226
  84  -309.1895
  85  -211.3556
  86  326.537
  87  245.4465
  88  265.2171
  89  661.7114
  90  754.0627
  91  477.7302
  92  225.4144
  93  -20.52422
  94  300.6261
  95  700.6576
  96  631.7016
  97  744.3102
  98  563.2065
  99  35.13727
 100  -224.3613
 101  -171.8257
 102  -151.4137
 103  17.05398
 104  342.0213
 105  362.7682
 106  334.8627
 107  246.7958
 108  134.4675
 109  -404.6211
 110  -104.0399
 111  -30.40505
 112  -196.8974
 113  98.74759
 114  217.0122
 115  39.67167
 116  -274.2467
 117  -101.6563
 118  82.50938
 119  53.03025
 120  18.11977
 121  277.4459
 122  111.0146
 123  -95.67345
 124  -138.4329
 125  -204.6538
 126  -464.4485
 127  -369.1752
 128  -236.0278
 129  -57.01906
 130  -270.1907
 131  -532.2198
 132  -324.8708
 133  -35.18064
 134  -214.1751
 135  -321.6572
 136  -245.0221
 137  -26.77347
 138  -311.0619
 139  -49.53292
 140  -46.79601
 141  -477.8855
 142  -252.3746
 143  -356.975
 144  -454.5256
 145  -372.073
 146  -358.4025
 147  -157.0665
 148  -305.9854
 149  49.26703
 150  -245.6709
 151  -404.3687
 152  -305.8879
 153  -149.7853
 154  -289.5821
 155  -50.74833
 156  -215.9177
 157  36.81582
 158  -196.0095
 159  -543.7773
 160  -274.7773
 161  259.3719
 162  -51.21504
 163  111.0956
 164  -25.71905
 165  -313.1857
 166  -607.5213
 167  -136.0738
 168  -195.1052
 169  126.2004
 170  119.3734
 171  -101.8849
 172  -199.1342
 173  -559.4051
 174  -535.9157
 175  -495.8991
 176  -489.1196
 177  -280.0467
 178  -109.6456
 179  -39.02758
 180  -81.81876
 181  54.09388
 182  -282.9178
 183  -203.7584
 184  -480.4264
 185  -18.54433
 186  0.5791273
 187  -367.1945
 188  -59.94093
 189  -92.11569
 190  -75.49812
 191  -132.4513
 192  -444.8352
 193  -80.76809
 194  21.63913
 195  0.4832383
 196  41.30102
 197  -15.66182
 198  -133.2658
 199  -137.7533
 200  -125.7403
 201  -101.1185
 202  -99.19142
 203  -202.8003
 204  -168.0679
 205  -37.93893
 206  -196.2455
 207  -310.7637
 208  -238.7719
 209  -489.1791
 210  -710.4521
 211  -512.2498
 212  -433.3518
 213  -49.05372
 214  284.9464
 215  328.6634
 216  -65.86082
 217  -127.1144
 218  -93.33355
 219  -308.6068
 220  227.6267
 221  43.86366
 222  152.7776
 223  361.9143
 224  278.7335
 225  -198.666
 226  -229.6659
 227  272.7226
 228  77.6344
 229  283.7096
 230  306.3033
 231  196.3231
 232  193.103
 233  -44.09348
 234  -17.75884
 235  -53.22271
 236  449.9841
 237  320.4727
 238  -19.98993
 239  251.2643
 240  202.8354
 241  252.4519
 242  161.3486
 243  156.1221
 244  505.9643
 245  415.8039
 246  -267.5194
 247  -183.3871
 248  47.71853
 249  -115.6092
 250  53.51362
 251  28.46903
 252  3.922847
 253  -161.2335
 254  -11.51949
 255  -6.879913
 256  195.107
 257  279.8103
 258  55.75601
 259  -11.8912
 260  175.0129
 261  87.51019
 262  -9.063144
 263  375.1997
 264  392.329
 265  566.2123
 266  401.7262
 267  -112.1925
 268  -54.22185
 269  445.2433
 270  473.5171
 271  605.9321
 272  266.5922
 273  68.48895
 274  -316.8599
 275  -305.4068
 276  81.8316
 277  376.1831
 278  517.1539
 279  310.7065
 280  241.6075
 281  33.6979
 282  155.9355
 283  89.42978
 284  139.51
 285  -21.34597
 286  150.7655
 287  346.0319
 288  175.266
 289  146.7168
 290  231.0629
 291  16.16678
 292  -129.5814
 293  -94.33202
 294  93.48011
 295  9.654978
 296  -51.03051
 297  187.6182
 298  -123.4208
 299  148.1292
 300  461.5447
 301  520.0913
 302  -16.82018
 303  -33.07038
 304  278.1414
 305  264.3736
 306  83.36262
 307  8.045515
 308  -127.5193
 309  -275.6335
 310  -226.937
 311  -181.0597
 312  -170.9832
 313  -291.6289
 314  -159.7579
 315  -26.66804
 316  -250.4364
 317  74.29651
 318  475.7452
 319  302.8507
 320  300.7208
 321  -89.91893
 322  -290.9807
 323  -488.8591
 324  -205.6455
 325  105.0597
 326  174.0882
 327  193.7424
 328  310.1426
 329  288.4241
 330  468.6618
 331  366.2765
 332  591.8417
 333  449.3785
 334  44.2991
 335  44.0951
 336  -371.9953
 337  -304.2083
 338  -39.68002
 339  110.1965
 340  133.0487
 341  -50.61493
 342  -359.0214
 343  -361.7163
 344  -101.6593
 345  -78.39524
 346  -207.1962
 347  64.69734
 348  221.7496
 349  -193.8646
 350  -167.0051
 351  93.3779
 352  95.93658
 353  -34.81785
 354  -297.8464
 355  -767.245
 356  -208.0007
 357  15.351
 358  -93.96766
 359  371.2778
 360  60.32658
 361  74.71987
 362  -171.4915
 363  -336.4737
 364  328.8011
 365  162.7639
 366  165.2393
 367  -74.09106
 368  -156.8922
 369  -220.8926
 370  113.0878
 371  159.1462
 372  -476.4944
 373  -424.335
 374  -344.0235
 375  117.4353
 376  23.92231
 377  -71.4965
 378  -113.2716
 379  -458.5385
 380  -83.2005
 381  123.1489
 382  -139.2185
 383  -151.4617
 384  -407.6388
 385  -358.6577
 386  -160.1261
 387  -37.01951
 388  -82.03752
 389  -49.38456
 390  130.5161
 391  214.5265
 392  80.52296
 393  51.97458
 394  106.2519
 395  161.9464
 396  387.4731
 397  175.2934
 398  -176.5249
 399  76.54671
 400  92.49556
 401  76.84008
 402  -177.544
 403  -201.037
 404  -419.3607
 405  -644.7526
 406  -662.2436
 407  -236.1337
 408  -81.32111
 409  -312.1349
 410  -153.2184
 411  67.22829
 412  -155.2832
 413  -184.1822
 414  98.56327
 415  -41.34367
 416  -346.9297
 417  -463.3168
 418  -211.9902
 419  -127.5906
 420  -374.5421
 421  -188.3575
 422  -233.9481
 423  -627.1799
 424  -555.9518
 425  86.0573
 426  277.0886
 427  -39.85091
 428  -151.2143
 429  -125.5383
 430  -379.7882
 431  -322.5132
 432  44.26783
 433  292.1006
 434  236.3441
 435  160.8394
 436  7.89466
 437  -229.3427
 438  -306.2228
 439  -547.3633
 440  -16.01724
 441  253.4028
 442  130.5574
 443  128.0576
 444  -116.059
 445  -38.33456
 446  -274.7567
 447  -102.9372
 448  -266.658
 449  -363.0169
 450  -20.65372
 451  -76.22701
 452  -233.7343
 453  -46.42544
 454  15.28795
 455  29.0478
 456  -98.36865
 457  -202.9403
 458  -193.0406
 459  -226.7792
 460  -250.3278
 461  -244.9448
 462  -310.6696
 463  -485.3326
 464  -327.0271
 465  -338.7253
 466  -84.36537
 467  -61.00518
 468  -264.2843
 469  -122.9576
 470  47.98255
 471  -76.17967
 472  -702.9451
 473  -547.0325
 474  181.3578
 475  40.59345
 476  -143.656
 477  337.9209
 478  205.4832
 479  39.20176
 480  156.7885
 481  124.8316
 482  71.01322
 483  -111.2771
 484  -186.4409
 485  -71.36672
 486  -145.8997
 487  162.3139
 488  -42.0887
 489  -83.42458
 490  -55.11251
 491  -245.4249
 492  -132.3136
 493  -577.5792
 494  -436.7496
 495  172.9642
 496  416.0178
 497  95.98434
 498  152.03
 499  -58.29114
 500  -243.9249
 501  180.3463
 502  141.2059
 503  546.989
 504  525.4656
 505  26.69349
 506  -0.8489331
 507  111.9293
 508  153.172
 509  430.5186
 510  586.8732
 511  -10.3114
