# Input file       =  1191782146.121926_cleaned.dat
# Candidate        =  PSR_0332+5434
# Telescope        =  AR
# Epoch_topo       =  58037.775059281550
# Epoch_bary       =  N/A
# T_sample         =  0.002
# Data Folded      =  7208960
# Data Avg         =  0.0321388338878564
# Data StdDev      =  0.999925034954752
# Profile Bins     =  512
# Profile Avg      =  452.499416760764 
# Profile StdDev   =  118.650280503048 
# Reduced chi-sqr  =  1.366
# Prob(Noise)      <  6.41e-08   (~5.3 sigma)
# P_topo (ms)      =  714.479236781181  +/- 0.000208
# P'_topo (s/s)    =  -0                +/- 1.12e-10
# P''_topo (s/s^2) =  0                 +/- 5.02e-14
# P_bary (ms)      =  N/A
# P'_bary (s/s)    =  N/A
# P''_bary (s/s^2) =  N/A
# P_orb (s)        =  N/A
# asin(i)/c (s)    =  N/A
# eccentricity     =  N/A
# w (rad)          =  N/A
# T_peri           =  N/A
######################################################
   0  311.6302
   1  386.7096
   2  353.8605
   3  569.9906
   4  534.2977
   5  453.9783
   6  368.2421
   7  328.4659
   8  418.1069
   9  430.7319
  10  501.3725
  11  481.3178
  12  431.2854
  13  412.4907
  14  478.4465
  15  385.0973
  16  333.6944
  17  377.0528
  18  306.5317
  19  263.6755
  20  344.7568
  21  488.8073
  22  525.2819
  23  355.7372
  24  372.822
  25  414.766
  26  377.3462
  27  431.5988
  28  530.2223
  29  576.6746
  30  513.1538
  31  413.622
  32  456.2443
  33  468.0025
  34  404.1938
  35  432.5621
  36  597.5468
  37  553.7672
  38  562.1296
  39  576.8254
  40  428.6716
  41  437.3597
  42  587.9732
  43  787.1423
  44  946.7084
  45  1196.525
  46  1282.238
  47  1094.054
  48  963.0771
  49  744.0779
  50  517.7224
  51  470.7068
  52  544.7083
  53  476.4907
  54  502.1447
  55  552.1879
  56  600.3506
  57  539.6275
  58  553.4762
  59  521.7083
  60  540.4382
  61  522.5176
  62  477.7334
  63  573.4218
  64  701.1893
  65  596.6967
  66  478.3597
  67  444.5067
  68  410.165
  69  388.4325
  70  389.1899
  71  317.7978
  72  426.0435
  73  446.5959
  74  455.7737
  75  482.2196
  76  641.3562
  77  552.3311
  78  477.5697
  79  592.77
  80  599.155
  81  447.9577
  82  457.8131
  83  392.2073
  84  350.1247
  85  393.0727
  86  497.047
  87  389.3318
  88  454.2718
  89  599.2583
  90  648.1398
  91  445.3864
  92  431.2486
  93  486.49
  94  529.6047
  95  517.2335
  96  384.5763
  97  455.481
  98  454.8519
  99  381.319
 100  373.1577
 101  480.2006
 102  472.8974
 103  522.8618
 104  598.3427
 105  571.9922
 106  587.8692
 107  517.8537
 108  484.5697
 109  393.4786
 110  447.5732
 111  497.8945
 112  424.233
 113  438.9219
 114  496.1593
 115  438.0357
 116  325.7181
 117  391.8358
 118  510.4016
 119  525.529
 120  419.5232
 121  523.8428
 122  516.2543
 123  353.9561
 124  382.1369
 125  385.7961
 126  464.2522
 127  438.9114
 128  482.5166
 129  577.1507
 130  457.9462
 131  309.295
 132  317.8763
 133  445.7806
 134  446.9901
 135  467.0678
 136  479.2312
 137  537.1961
 138  431.3531
 139  488.5188
 140  480.2028
 141  354.4988
 142  479.1075
 143  513.4645
 144  492.23
 145  458.757
 146  477.725
 147  486.5137
 148  353.1196
 149  444.5949
 150  370.2144
 151  428.1795
 152  467.4061
 153  406.2878
 154  298.0588
 155  409.6418
 156  436.0539
 157  566.3722
 158  485.6989
 159  386.2509
 160  400.3495
 161  546.0156
 162  556.9264
 163  563.9523
 164  506.669
 165  439.7171
 166  358.076
 167  522.2329
 168  512.3474
 169  574.0937
 170  573.6779
 171  522.9736
 172  382.0562
 173  333.9463
 174  372.1284
 175  471.6592
 176  451.8846
 177  420.1012
 178  460.4349
 179  454.6021
 180  514.5869
 181  520.3238
 182  378.5262
 183  513.9477
 184  416.5298
 185  487.8804
 186  495.9864
 187  358.2695
 188  418.6054
 189  463.0104
 190  462.3213
 191  471.8242
 192  440.4688
 193  433.3137
 194  349.2488
 195  417.6342
 196  445.4908
 197  393.281
 198  445.4709
 199  520.0627
 200  457.2915
 201  392.0767
 202  422.0078
 203  428.293
 204  467.435
 205  512.5454
 206  402.389
 207  337.8736
 208  370.8055
 209  428.7908
 210  423.0205
 211  421.1524
 212  312.2926
 213  419.8321
 214  431.2361
 215  424.3051
 216  421.5811
 217  499.1642
 218  531.5399
 219  439.1578
 220  521.6239
 221  462.2017
 222  460.6089
 223  489.5887
 224  497.6552
 225  342.3185
 226  387.0872
 227  470.3568
 228  413.2226
 229  453.1194
 230  370.0558
 231  329.5938
 232  387.2501
 233  329.6764
 234  337.1791
 235  287.897
 236  464.4814
 237  400.312
 238  315.2805
 239  455.7349
 240  489.277
 241  418.8233
 242  332.5002
 243  449.8485
 244  511.8624
 245  490.4213
 246  407.563
 247  414.6551
 248  456.4158
 249  413.9337
 250  425.4491
 251  466.9109
 252  375.2101
 253  324.2277
 254  371.8698
 255  384.3493
 256  425.3152
 257  437.8953
 258  424.4539
 259  359.9992
 260  462.1199
 261  396.3732
 262  354.9122
 263  466.8761
 264  409.94
 265  526.1312
 266  480.9811
 267  347.0586
 268  339.1773
 269  472.8084
 270  444.2841
 271  492.6694
 272  435.2446
 273  371.9398
 274  315.7729
 275  312.2643
 276  427.4767
 277  432.347
 278  511.9047
 279  491.6942
 280  468.5036
 281  414.5359
 282  410.5663
 283  349.98
 284  408.6236
 285  339.4158
 286  406.9529
 287  469.6286
 288  440.4191
 289  436.6742
 290  500.1759
 291  447.062
 292  304.3179
 293  334.5054
 294  428.4138
 295  392.8172
 296  354.7674
 297  421.1405
 298  319.8529
 299  473.6114
 300  571.7156
 301  606.3256
 302  439.2282
 303  331.7471
 304  540.3622
 305  557.1367
 306  444.492
 307  398.7495
 308  480.7264
 309  420.7955
 310  413.3954
 311  422.4447
 312  431.7044
 313  422.7887
 314  389.6615
 315  442.4795
 316  326.1069
 317  410.9052
 318  516.976
 319  542.532
 320  545.6784
 321  544.2131
 322  457.2704
 323  325.7563
 324  350.9584
 325  387.9645
 326  307.7617
 327  295.0012
 328  399.6975
 329  505.154
 330  544.7009
 331  471.9908
 332  515.1456
 333  523.8566
 334  425.9858
 335  485.6128
 336  353.1501
 337  344.139
 338  412.3781
 339  560.5012
 340  552.6727
 341  509.5507
 342  405.759
 343  402.3452
 344  506.4627
 345  457.064
 346  394.0749
 347  463.6993
 348  573.9409
 349  407.6145
 350  400.8129
 351  463.1719
 352  446.5928
 353  444.6288
 354  322.9619
 355  285.8142
 356  389.2848
 357  457.7838
 358  498.4633
 359  511.0185
 360  425.9207
 361  541.9413
 362  425.6975
 363  330.1807
 364  529.1253
 365  531.9453
 366  589.935
 367  438.572
 368  398.9163
 369  387.6011
 370  503.8491
 371  516.7264
 372  293.9631
 373  272.3889
 374  282.5015
 375  460.9272
 376  539.3925
 377  585.2004
 378  445.7402
 379  340.5583
 380  418.4517
 381  468.6508
 382  473.2818
 383  480.881
 384  409.5254
 385  405.4493
 386  411.3108
 387  506.0606
 388  436.3944
 389  376.5969
 390  426.6785
 391  475.2021
 392  430.6255
 393  468.4731
 394  553.99
 395  492.7902
 396  579.0281
 397  531.7512
 398  365.4071
 399  453.1713
 400  474.5524
 401  480.2075
 402  421.2366
 403  475.2336
 404  364.1898
 405  305.7613
 406  360.1967
 407  463.8619
 408  486.7328
 409  340.0847
 410  374.8539
 411  550.8809
 412  471.3863
 413  464.119
 414  582.6233
 415  493.6092
 416  342.7496
 417  277.6001
 418  346.395
 419  350.5591
 420  359.4553
 421  428.8845
 422  519.7818
 423  397.0924
 424  349.2568
 425  491.0508
 426  463.5979
 427  436.5416
 428  371.8136
 429  391.3432
 430  369.4556
 431  404.7209
 432  471.4616
 433  454.9016
 434  444.5665
 435  458.5151
 436  505.9533
 437  467.7886
 438  454.0693
 439  354.4854
 440  439.7071
 441  535.0635
 442  487.4947
 443  522.1884
 444  501.6452
 445  470.542
 446  444.8582
 447  489.5349
 448  447.5038
 449  373.3695
 450  416.9771
 451  509.1845
 452  407.2515
 453  434.5135
 454  469.3842
 455  426.9509
 456  391.3672
 457  342.8001
 458  393.5149
 459  433.0515
 460  410.5843
 461  404.8329
 462  374.2455
 463  273.6566
 464  359.5153
 465  399.8501
 466  487.5774
 467  377.1566
 468  319.3006
 469  421.0999
 470  454.7704
 471  502.2627
 472  271.6102
 473  357.972
 474  530.082
 475  445.5302
 476  346.6996
 477  579.2469
 478  513.4369
 479  528.2507
 480  554.9415
 481  488.8226
 482  435.74
 483  397.0826
 484  408.0475
 485  474.9697
 486  514.233
 487  600.1017
 488  472.6753
 489  341.3055
 490  452.5256
 491  503.3143
 492  597.9227
 493  413.0083
 494  409.3746
 495  528.4495
 496  542.2228
 497  414.8373
 498  490.9261
 499  465.3215
 500  330.7302
 501  500.2623
 502  357.8708
 503  382.9353
 504  411.3141
 505  449.7699
 506  393.5003
 507  433.0695
 508  451.1655
 509  514.0081
 510  614.5587
 511  450.0827
