# Input file       =  1191279866.119208_cleaned.dat
# Candidate        =  PSR_0332+5434
# Telescope        =  AR
# Epoch_topo       =  58031.961633324165
# Epoch_bary       =  N/A
# T_sample         =  0.002
# Data Folded      =  7340032
# Data Avg         =  0.0252966697215535
# Data StdDev      =  2.30598880803083 
# Profile Bins     =  512
# Profile Avg      =  362.003346984175 
# Profile StdDev   =  276.103041836371 
# Reduced chi-sqr  =  1.332
# Prob(Noise)      <  6.82e-07   (~4.8 sigma)
# P_topo (ms)      =  714.475477622793  +/- 0.000259
# P'_topo (s/s)    =  -0                +/- 1.37e-10
# P''_topo (s/s^2) =  0                 +/- 6.03e-14
# P_bary (ms)      =  N/A
# P'_bary (s/s)    =  N/A
# P''_bary (s/s^2) =  N/A
# P_orb (s)        =  N/A
# asin(i)/c (s)    =  N/A
# eccentricity     =  N/A
# w (rad)          =  N/A
# T_peri           =  N/A
######################################################
   0  155.1229
   1  350.6099
   2  387.8391
   3  513.52
   4  486.4431
   5  372.3385
   6  490.0476
   7  331.0223
   8  345.113
   9  84.06411
  10  558.64
  11  558.7427
  12  482.9267
  13  186.422
  14  84.07513
  15  22.07702
  16  485.0525
  17  472.366
  18  384.6824
  19  522.4481
  20  345.3329
  21  106.5488
  22  128.5774
  23  349.6401
  24  189.4465
  25  100.4198
  26  490.6946
  27  552.3705
  28  452.1389
  29  -70.64707
  30  -92.99316
  31  215.8428
  32  413.6884
  33  269.2024
  34  89.64056
  35  193.1689
  36  146.1029
  37  -45.42454
  38  253.7578
  39  509.4724
  40  480.4403
  41  336.9875
  42  155.9506
  43  322.3202
  44  311.8458
  45  299.8541
  46  67.54818
  47  187.7714
  48  404.2147
  49  253.3848
  50  382.8221
  51  302.2488
  52  457.7126
  53  540.605
  54  325.2681
  55  201.0925
  56  197.6102
  57  458.4077
  58  274.231
  59  161.3806
  60  74.16734
  61  312.2043
  62  586.8954
  63  572.3378
  64  324.1667
  65  117.9037
  66  128.4039
  67  429.7318
  68  594.659
  69  525.6948
  70  115.478
  71  471.663
  72  505.0727
  73  390.545
  74  251.4229
  75  571.7393
  76  434.9879
  77  233.263
  78  189.433
  79  284.3383
  80  398.156
  81  87.14444
  82  237.1834
  83  294.3069
  84  426.447
  85  390.496
  86  424.3626
  87  476.5638
  88  234.9487
  89  214.7248
  90  591.0988
  91  190.7912
  92  431.1354
  93  239.282
  94  197.8128
  95  349.6897
  96  331.2566
  97  79.53224
  98  -109.1106
  99  399.7797
 100  300.7555
 101  200.4511
 102  125.9305
 103  206.0454
 104  389.1908
 105  647.329
 106  697.2682
 107  306.0919
 108  558.2208
 109  264.8294
 110  49.23063
 111  326.5298
 112  210.3501
 113  421.6263
 114  360.6383
 115  343.5455
 116  32.43011
 117  285.5715
 118  294.2649
 119  175.4372
 120  265.7675
 121  163.5893
 122  253.26
 123  189.4358
 124  294.3795
 125  188.7293
 126  268.1055
 127  525.2975
 128  160.2496
 129  131.3238
 130  193.1552
 131  309.5872
 132  283.1512
 133  487.1197
 134  505.3692
 135  393.8372
 136  309.057
 137  368.9507
 138  294.6134
 139  220.2085
 140  371.5719
 141  389.2369
 142  296.8366
 143  313.4743
 144  189.3071
 145  332.441
 146  298.2955
 147  266.654
 148  347.0909
 149  173.3964
 150  10.57475
 151  138.7707
 152  111.0293
 153  97.81766
 154  357.8871
 155  366.4015
 156  214.6627
 157  394.1371
 158  522.4629
 159  563.1513
 160  649.095
 161  448.5504
 162  291.4628
 163  251.3323
 164  25.7338
 165  126.7519
 166  188.635
 167  387.8375
 168  623.6743
 169  451.1344
 170  319.8854
 171  326.1475
 172  270.6611
 173  294.8807
 174  93.26669
 175  147.5696
 176  182.1406
 177  210.0643
 178  268.0073
 179  398.7988
 180  374.9828
 181  211.1555
 182  293.2923
 183  291.2314
 184  417.9307
 185  276.2207
 186  314.0579
 187  287.7419
 188  55.14917
 189  165.5091
 190  113.976
 191  341.5355
 192  -64.51284
 193  222.0518
 194  336.4452
 195  171.9364
 196  -0.1339434
 197  304.2846
 198  420.019
 199  524.7866
 200  64.90397
 201  221.0168
 202  343.634
 203  362.7813
 204  532.0541
 205  416.1045
 206  343.5484
 207  635.0726
 208  367.4243
 209  0.3862801
 210  316.0157
 211  371.2521
 212  245.6521
 213  336.7623
 214  142.918
 215  99.27123
 216  189.5637
 217  353.0038
 218  554.4674
 219  239.936
 220  253.3485
 221  376.0023
 222  333.7895
 223  601.5071
 224  462.3257
 225  512.6273
 226  719.9826
 227  532.0844
 228  671.998
 229  542.3216
 230  521.1557
 231  365.2567
 232  493.0026
 233  408.161
 234  289.5164
 235  145.18
 236  10.72998
 237  124.6971
 238  350.2047
 239  438.7115
 240  278.4571
 241  306.8545
 242  159.7911
 243  244.2188
 244  308.2241
 245  451.79
 246  205.7185
 247  208.894
 248  647.5447
 249  670.3249
 250  550.4579
 251  363.7141
 252  156.0875
 253  394.676
 254  505.148
 255  351.5946
 256  72.85217
 257  380.0955
 258  626.2145
 259  288.0928
 260  551.8387
 261  182.3732
 262  30.87216
 263  233.0965
 264  498.7177
 265  533.995
 266  163.734
 267  206.3278
 268  390.8692
 269  125.6914
 270  161.328
 271  467.6207
 272  458.6045
 273  666.5692
 274  206.3048
 275  205.9097
 276  494.9513
 277  517.1605
 278  340.4642
 279  411.5412
 280  229.0318
 281  235.1476
 282  137.3512
 283  181.5273
 284  523.1895
 285  488.4898
 286  435.0962
 287  57.71304
 288  281.848
 289  537.2432
 290  327.6247
 291  347.9918
 292  549.1677
 293  535.1058
 294  457.082
 295  462.5466
 296  185.7169
 297  142.0588
 298  288.9879
 299  394.8958
 300  589.4467
 301  338.6882
 302  630.5526
 303  613.379
 304  541.0754
 305  436.815
 306  392.9572
 307  335.5751
 308  45.42723
 309  392.7614
 310  448.3636
 311  512.5168
 312  547.4021
 313  729.6949
 314  766.5125
 315  659.4302
 316  1115.889
 317  1610.444
 318  1667.967
 319  1747.631
 320  1831.217
 321  1770.045
 322  1118.624
 323  708.3945
 324  520.882
 325  114.5979
 326  127.8642
 327  154.9818
 328  244.1772
 329  494.2942
 330  396.6739
 331  554.5765
 332  758.2744
 333  730.5637
 334  791.3417
 335  576.7858
 336  474.7455
 337  378.5864
 338  285.7782
 339  433.6813
 340  426.083
 341  405.0034
 342  274.217
 343  368.4043
 344  191.2648
 345  204.834
 346  192.6256
 347  -54.89893
 348  309.1209
 349  36.16497
 350  -190.9656
 351  272.4702
 352  569.6024
 353  406.4134
 354  489.2841
 355  375.3958
 356  110.9847
 357  450.0833
 358  700.1106
 359  375.7659
 360  390.667
 361  780.3218
 362  699.1664
 363  312.0112
 364  122.9887
 365  418.5186
 366  589.7037
 367  745.8611
 368  391.9252
 369  384.5085
 370  351.8542
 371  228.178
 372  249.5718
 373  500.7353
 374  472.0681
 375  423.7572
 376  542.4968
 377  107.3797
 378  189.3081
 379  440.1602
 380  454.6869
 381  203.902
 382  388.9801
 383  579.7756
 384  285.582
 385  406.6186
 386  564.6224
 387  648.1912
 388  600.1159
 389  384.2737
 390  167.8157
 391  266.7805
 392  757.7336
 393  402.8984
 394  323.0324
 395  579.1003
 396  504.8194
 397  477.4079
 398  448.8869
 399  655.3953
 400  537.6373
 401  539.538
 402  314.3432
 403  32.89946
 404  487.5823
 405  509.1506
 406  481.7882
 407  64.72244
 408  -25.7031
 409  47.29494
 410  -125.7595
 411  179.691
 412  621.9656
 413  573.8142
 414  311.0769
 415  156.9265
 416  304.3774
 417  311.7645
 418  247.2677
 419  190.0121
 420  301.8583
 421  437.9549
 422  504.6169
 423  445.3019
 424  306.4054
 425  316.7656
 426  433.3342
 427  253.6598
 428  321.7445
 429  517.0526
 430  578.5131
 431  307.5633
 432  571.4165
 433  691.0495
 434  411.9789
 435  261.1003
 436  459.8874
 437  374.122
 438  156.9603
 439  643.514
 440  854.6873
 441  278.5574
 442  192.8973
 443  299.1267
 444  386.8361
 445  336.7886
 446  238.1343
 447  555.9568
 448  714.4131
 449  602.439
 450  442.6911
 451  424.3087
 452  276.3882
 453  378.3208
 454  211.0304
 455  588.8428
 456  506.2068
 457  269.125
 458  347.6887
 459  311.3586
 460  102.0285
 461  31.69024
 462  348.445
 463  320.056
 464  537.5779
 465  162.8437
 466  152.5014
 467  383.8891
 468  515.0751
 469  409.2023
 470  493.4712
 471  425.6542
 472  428.9191
 473  443.4954
 474  207.0983
 475  602.633
 476  465.9985
 477  422.0609
 478  503.1339
 479  349.6816
 480  702.2556
 481  537.6714
 482  97.00317
 483  33.15004
 484  7.737334
 485  313.53
 486  386.5594
 487  215.39
 488  66.87927
 489  539.4946
 490  553.1848
 491  713.1611
 492  571.7701
 493  210.5251
 494  193.7052
 495  401.4133
 496  680.3787
 497  221.4427
 498  79.46722
 499  21.6345
 500  158.1711
 501  496.5718
 502  695.3625
 503  264.1468
 504  198.2
 505  583.991
 506  535.377
 507  544.4832
 508  568.5754
 509  247.493
 510  166.8513
 511  -44.94506
