# Input file       =  1191437533.143266_cleaned.dat
# Candidate        =  PSR_0332+5434
# Telescope        =  AR
# Epoch_topo       =  58033.786483139651
# Epoch_bary       =  N/A
# T_sample         =  0.002
# Data Folded      =  7208960
# Data Avg         =  -0.0140316563658416
# Data StdDev      =  2.94245193003145 
# Profile Bins     =  1024
# Profile Avg      =  -98.7658099825   
# Profile StdDev   =  246.885569562586 
# Reduced chi-sqr  =  0.971
# Prob(Noise)      <  0.741   (~0.0 sigma)
# P_topo (ms)      =  714.476597993033  +/- 7.35e-05
# P'_topo (s/s)    =  -0                +/- 3.95e-11
# P''_topo (s/s^2) =  0                 +/- 1.78e-14
# P_bary (ms)      =  N/A
# P'_bary (s/s)    =  N/A
# P''_bary (s/s^2) =  N/A
# P_orb (s)        =  N/A
# asin(i)/c (s)    =  N/A
# eccentricity     =  N/A
# w (rad)          =  N/A
# T_peri           =  N/A
######################################################
   0  -162.8479
   1  -194.6504
   2  -162.2961
   3  -211.2587
   4  -267.4668
   5  -310.0406
   6  -287.8172
   7  -307.4381
   8  -192.2192
   9  -177.5655
  10  -180.1159
  11  -148.0023
  12  10.32844
  13  20.98265
  14  5.304954
  15  -17.15121
  16  42.19228
  17  -174.2598
  18  -172.3824
  19  -127.9563
  20  83.70728
  21  9.885212
  22  -60.75567
  23  -114.0676
  24  -137.4023
  25  -165.8889
  26  -102.971
  27  -67.99901
  28  -74.64989
  29  -10.38728
  30  31.18829
  31  -20.83417
  32  -112.305
  33  -111.8504
  34  -88.14416
  35  6.311083
  36  61.00725
  37  179.9202
  38  31.67879
  39  -81.90678
  40  -250.6929
  41  -172.4321
  42  -128.6165
  43  -117.9059
  44  -161.5849
  45  -161.4468
  46  -91.93163
  47  -90.61881
  48  -7.626647
  49  -71.12128
  50  -98.07602
  51  -184.5315
  52  -129.4668
  53  -288.0873
  54  -329.0359
  55  -198.6381
  56  -146.5665
  57  -127.3948
  58  -128.3418
  59  -46.08934
  60  -16.83045
  61  -48.69094
  62  -33.69144
  63  -93.32346
  64  -182.4262
  65  -301.1263
  66  -224.0418
  67  -154.4274
  68  -167.4002
  69  -228.5247
  70  -265.3376
  71  -351.1152
  72  -372.0903
  73  -248.4573
  74  -193.6218
  75  -285.9283
  76  -220.9185
  77  -87.6438
  78  -74.43774
  79  -144.7101
  80  -92.35014
  81  -23.76611
  82  -129.2258
  83  -132.7734
  84  -79.64499
  85  36.67359
  86  -105.8618
  87  -151.6007
  88  -169.4658
  89  -51.65027
  90  -109.2955
  91  -75.15672
  92  -117.0904
  93  -99.40799
  94  -123.0575
  95  -71.65262
  96  -62.44873
  97  -35.33467
  98  -72.12894
  99  35.20149
 100  -70.21887
 101  -123.9147
 102  -221.5558
 103  -197.6883
 104  -167.3101
 105  -125.6667
 106  -76.00552
 107  -140.466
 108  -207.8923
 109  -207.5797
 110  -108.4655
 111  -47.38776
 112  -58.81817
 113  -93.51698
 114  -21.43198
 115  -127.756
 116  -196.1632
 117  -224.8562
 118  -151.776
 119  -85.57133
 120  -127.2433
 121  -165.4915
 122  -138.7527
 123  -139.3402
 124  -115.8055
 125  -86.14961
 126  -43.02441
 127  -26.78741
 128  -109.1122
 129  -180.9998
 130  -278.0807
 131  -249.4125
 132  -127.0891
 133  -176.4469
 134  -236.9727
 135  -228.6079
 136  -105.2968
 137  -167.8309
 138  -182.6191
 139  -133.6573
 140  -39.84813
 141  -22.43283
 142  43.16855
 143  49.54899
 144  13.93147
 145  -6.158283
 146  -130.5954
 147  -162.3234
 148  -146.4173
 149  -32.54971
 150  4.012537
 151  -62.18596
 152  -198.6651
 153  -276.1772
 154  -242.7588
 155  -169.972
 156  -81.00904
 157  24.47348
 158  53.77508
 159  -20.88847
 160  -30.47887
 161  -119.6822
 162  -130.7709
 163  -134.7361
 164  82.91925
 165  -24.1781
 166  -71.88615
 167  -177.3069
 168  -142.2432
 169  -119.4248
 170  -107.5634
 171  -104.6275
 172  -185.2508
 173  -206.6414
 174  -143.2857
 175  -103.1176
 176  -54.28239
 177  -101.1366
 178  -11.37849
 179  65.86586
 180  -59.87644
 181  -110.4637
 182  30.21376
 183  138.5498
 184  137.0761
 185  13.62864
 186  -10.71862
 187  -16.03157
 188  -62.17044
 189  -51.51917
 190  20.62359
 191  34.10224
 192  70.12059
 193  127.073
 194  100.3827
 195  51.66669
 196  -226.6031
 197  -160.0119
 198  -186.3273
 199  -20.63148
 200  -67.81326
 201  -96.70103
 202  -173.6096
 203  -139.0558
 204  -87.21511
 205  -37.03953
 206  -73.53876
 207  -67.80558
 208  -48.373
 209  -51.41903
 210  53.13174
 211  124.664
 212  193.8259
 213  -27.43804
 214  -175.306
 215  -243.0026
 216  -133.7502
 217  -120.9796
 218  -95.31048
 219  -109.9167
 220  -135.5819
 221  -166.9459
 222  -147.8072
 223  -167.1094
 224  -178.2937
 225  -104.9563
 226  30.31456
 227  24.31102
 228  -103.9339
 229  -182.1415
 230  -224.2404
 231  -274.6766
 232  -285.2366
 233  -142.6405
 234  32.91288
 235  82.83881
 236  33.96487
 237  24.00733
 238  -28.49551
 239  -164.0312
 240  -200.4459
 241  -152.2127
 242  -190.1309
 243  -228.7304
 244  -115.4601
 245  85.13549
 246  -5.526686
 247  -59.93736
 248  -106.9119
 249  -15.04601
 250  -121.8269
 251  -132.0197
 252  -154.79
 253  -176.0369
 254  -141.1782
 255  59.78385
 256  146.8138
 257  110.2023
 258  -100.0983
 259  -70.12357
 260  -49.04934
 261  -116.024
 262  -147.6352
 263  -226.7392
 264  -147.5938
 265  -201.4182
 266  -106.1446
 267  -115.2639
 268  -104.5401
 269  -59.61809
 270  -55.423
 271  -170.2559
 272  -184.8332
 273  -159.9311
 274  -39.57699
 275  -65.95012
 276  15.14155
 277  63.58393
 278  -55.41708
 279  -250.6924
 280  -254.6794
 281  -168.9567
 282  -176.0828
 283  -253.4081
 284  -186.4303
 285  -174.4363
 286  -123.8484
 287  -167.9493
 288  -114.7815
 289  -133.4824
 290  -134.3706
 291  -18.0171
 292  -11.35785
 293  20.91278
 294  9.66474
 295  68.52448
 296  -38.7007
 297  -130.1903
 298  -232.5352
 299  -190.0385
 300  -200.6534
 301  -177.2446
 302  -140.4247
 303  -36.25618
 304  -47.8242
 305  -85.77021
 306  -139.6358
 307  -150.3788
 308  -141.3118
 309  -11.96352
 310  27.50452
 311  -12.23072
 312  -118.6704
 313  -125.3315
 314  -277.0004
 315  -307.6741
 316  -284.8724
 317  -253.7339
 318  -348.9639
 319  -330.8785
 320  -238.5555
 321  -89.54002
 322  -65.95311
 323  -17.61647
 324  -72.82077
 325  -56.16002
 326  -27.93979
 327  117.013
 328  129.056
 329  -50.47178
 330  -104.4143
 331  -180.1297
 332  -233.6431
 333  -414.557
 334  -363.3214
 335  -264.6436
 336  -106.3263
 337  -57.69415
 338  -20.09807
 339  -73.0579
 340  -97.69833
 341  -181.4983
 342  -177.7484
 343  -86.58645
 344  -52.8105
 345  -104.615
 346  -137.4427
 347  -85.73032
 348  -52.26355
 349  -93.74792
 350  -140.0373
 351  -102.5476
 352  -3.439403
 353  -19.39884
 354  -69.18584
 355  -5.69774
 356  -3.39088
 357  -111.2431
 358  -252.9758
 359  -223.3919
 360  -240.4844
 361  -209.0917
 362  -277.6275
 363  -207.4717
 364  -294.6114
 365  -263.9827
 366  -369.6687
 367  -254.5944
 368  -134.2648
 369  -61.62138
 370  -93.06992
 371  -98.05081
 372  -66.22913
 373  -30.11673
 374  -60.31362
 375  -32.20541
 376  -90.95145
 377  -191.69
 378  -185.4326
 379  -196.2507
 380  -162.9227
 381  -211.4265
 382  -183.8403
 383  -218.6752
 384  -233.4867
 385  -224.0595
 386  -100.3525
 387  -49.97354
 388  -186.1009
 389  -198.9716
 390  -108.0084
 391  -25.02912
 392  -18.7367
 393  -44.61717
 394  -155.1254
 395  -205.8598
 396  -149.2536
 397  -71.20428
 398  -187.4371
 399  -247.1543
 400  -210.7046
 401  -151.5914
 402  -121.6596
 403  -56.33366
 404  -74.24642
 405  -88.22053
 406  -156.5584
 407  -86.23769
 408  -92.36058
 409  -135.6917
 410  -222.1546
 411  -203.4701
 412  -203.2265
 413  -288.6195
 414  -271.009
 415  -193.4729
 416  -217.1891
 417  -223.8584
 418  -299.353
 419  -355.5525
 420  -425.2065
 421  -219.5648
 422  -92.09167
 423  -20.06879
 424  -79.2091
 425  -122.4143
 426  -75.83083
 427  -167.4219
 428  -141.7671
 429  -190.4239
 430  -148.2596
 431  -272.1547
 432  -198.5445
 433  -102.6297
 434  -13.42025
 435  -72.312
 436  -126.5243
 437  -220.2943
 438  -205.9346
 439  -163.3114
 440  -52.23202
 441  -101.6401
 442  -53.21412
 443  -56.59672
 444  -104.8429
 445  -186.1057
 446  -208.8451
 447  -78.1389
 448  -12.45413
 449  -70.46461
 450  -164.9027
 451  -155.9288
 452  -100.0389
 453  -151.5243
 454  -27.79259
 455  61.9607
 456  42.62397
 457  2.590799
 458  -58.55844
 459  23.32831
 460  -114.7857
 461  -112.435
 462  -153.6092
 463  -215.604
 464  -188.2879
 465  -199.8641
 466  -99.46841
 467  -134.7839
 468  -144.3211
 469  -38.22458
 470  53.00609
 471  164.5576
 472  46.22208
 473  27.82023
 474  -10.78929
 475  -158.6623
 476  -287.5824
 477  -218.3785
 478  -177.2481
 479  -98.60158
 480  -138.6041
 481  -240.3569
 482  -375.2758
 483  -302.2637
 484  -191.6522
 485  -128.3473
 486  -84.04131
 487  -5.533643
 488  97.05677
 489  45.08016
 490  41.94878
 491  129.8428
 492  57.87106
 493  -78.78051
 494  -250.782
 495  -149.2332
 496  -144.6905
 497  -229.3664
 498  -261.0244
 499  -202.2703
 500  -273.289
 501  -348.0873
 502  -331.4386
 503  -287.2683
 504  -203.1039
 505  -118.9439
 506  -101.6412
 507  -98.93401
 508  -81.53493
 509  -82.02923
 510  -124.9029
 511  -183.6873
 512  -290.4187
 513  -344.2511
 514  -331.627
 515  -258.5574
 516  -210.0921
 517  -182.0756
 518  -149.071
 519  -15.75846
 520  48.85808
 521  110.5965
 522  -0.7198254
 523  -35.94317
 524  -94.90426
 525  -79.06314
 526  -75.62746
 527  -38.86197
 528  -174.6137
 529  -187.4026
 530  -178.1283
 531  -110.4293
 532  -214.8877
 533  -235.8241
 534  -263.676
 535  -109.8818
 536  74.73255
 537  120.8156
 538  56.72742
 539  78.27332
 540  53.10375
 541  30.1203
 542  5.44287
 543  1.27538
 544  54.16483
 545  -23.47321
 546  -116.4748
 547  -257.7302
 548  -314.793
 549  -325.3082
 550  -277.468
 551  -279.6275
 552  -168.1044
 553  -94.70441
 554  -30.61977
 555  8.739836
 556  20.35434
 557  103.057
 558  21.1438
 559  -45.46099
 560  -86.28548
 561  -79.79643
 562  -100.5722
 563  -101.9892
 564  -81.30514
 565  -205.6284
 566  -215.7083
 567  -145.5383
 568  -96.51476
 569  -128.0133
 570  -220.8268
 571  -210.0627
 572  -265.2754
 573  -101.3165
 574  3.970621
 575  105.2088
 576  136.5829
 577  197.6166
 578  173.1183
 579  56.64307
 580  -125.551
 581  -205.8616
 582  -183.6454
 583  -216.953
 584  -326.0805
 585  -347.7279
 586  -284.1191
 587  -209.0483
 588  -94.9534
 589  -12.67414
 590  111.5915
 591  -57.61168
 592  -119.8036
 593  -274.5592
 594  -229.1502
 595  -189.8904
 596  -154.3227
 597  -147.1131
 598  -166.6813
 599  -183.4038
 600  -25.20503
 601  42.07078
 602  2.117967
 603  -63.97681
 604  -34.21821
 605  -39.67267
 606  -0.3685785
 607  -77.62171
 608  -144.7626
 609  -349.4702
 610  -316.5236
 611  -187.8391
 612  -136.6072
 613  -205.3479
 614  -250.8205
 615  -264.881
 616  -181.3667
 617  -157.6947
 618  -124.1774
 619  -83.73551
 620  -34.64051
 621  -57.56584
 622  -144.9284
 623  -143.5963
 624  -146.7105
 625  68.06184
 626  141.9447
 627  131.0184
 628  9.536213
 629  14.00892
 630  -24.57746
 631  -45.60447
 632  -9.025593
 633  206.0131
 634  366.1682
 635  447.2845
 636  501.0619
 637  620.8434
 638  744.0708
 639  829.4872
 640  913.5926
 641  885.2979
 642  798.8939
 643  609.5098
 644  473.9983
 645  233.2637
 646  -33.19869
 647  -121.7671
 648  -44.1727
 649  -123.894
 650  -274.442
 651  -249.5119
 652  -142.9738
 653  -159.7226
 654  -185.5609
 655  -151.4182
 656  -69.92976
 657  -169.0876
 658  -152.8749
 659  -167.7054
 660  -82.81447
 661  -84.68823
 662  15.01521
 663  -3.587396
 664  -34.34105
 665  55.24417
 666  153.5016
 667  157.4392
 668  61.92926
 669  50.33871
 670  -85.54309
 671  -158.8111
 672  -129.2632
 673  -32.69094
 674  -129.1804
 675  -100.4374
 676  -0.2199679
 677  13.97528
 678  -187.775
 679  -251.8011
 680  -328.173
 681  -334.1265
 682  -287.5362
 683  -150.9279
 684  -37.42291
 685  8.458876
 686  34.57085
 687  105.4516
 688  96.05083
 689  -57.29174
 690  -123.1413
 691  -136.029
 692  -108.0677
 693  -122.3581
 694  -69.0286
 695  -137.6287
 696  -113.1389
 697  -109.2517
 698  -5.477842
 699  -21.18222
 700  24.70986
 701  61.43208
 702  110.11
 703  80.16077
 704  -18.86533
 705  -158.3259
 706  -141.7126
 707  -117.5954
 708  15.24065
 709  0.8737656
 710  -28.43266
 711  -80.82152
 712  39.89576
 713  150.64
 714  -28.73751
 715  -157.6575
 716  -211.3606
 717  -144.2381
 718  -81.46205
 719  -154.8876
 720  -91.61883
 721  -32.0617
 722  59.29354
 723  117.078
 724  113.261
 725  112.9394
 726  -9.156844
 727  4.903227
 728  56.39431
 729  44.05287
 730  -128.0049
 731  -119.7417
 732  -148.2953
 733  -80.64056
 734  -55.21846
 735  -74.26361
 736  -164.6313
 737  -143.4089
 738  -88.28921
 739  1.229267
 740  -50.3762
 741  57.10553
 742  -54.42828
 743  -110.4889
 744  -130.7888
 745  -111.6707
 746  -62.3326
 747  -216.5543
 748  -167.5065
 749  -89.77076
 750  2.063618
 751  11.31063
 752  -76.93322
 753  -116.4946
 754  -143.3182
 755  -146.2373
 756  -15.39364
 757  -30.29631
 758  -79.74017
 759  -226.938
 760  -222.16
 761  -165.5502
 762  -21.56103
 763  -124.2594
 764  -198.6531
 765  -227.5499
 766  -150.1991
 767  -201.1281
 768  -171.0881
 769  -146.8358
 770  -182.4993
 771  -200.95
 772  -198.3781
 773  -131.4394
 774  -124.312
 775  -6.4635
 776  -109.2222
 777  -155.3806
 778  -187.4178
 779  -104.398
 780  -117.8311
 781  -122.8201
 782  -206.5791
 783  -123.019
 784  -29.46455
 785  102.6618
 786  155.6852
 787  95.37659
 788  10.76238
 789  29.14914
 790  -41.033
 791  -154.8143
 792  -365.8233
 793  -299.938
 794  -221.7231
 795  -140.2231
 796  -94.95595
 797  -113.3768
 798  -123.948
 799  -103.1913
 800  21.21721
 801  20.10548
 802  57.86065
 803  80.7172
 804  49.83058
 805  -56.00708
 806  -136.6929
 807  -240.7917
 808  -296.0415
 809  -328.5317
 810  -263.5493
 811  -132.5794
 812  -37.84985
 813  -94.47137
 814  -175.5381
 815  -91.13773
 816  -18.26305
 817  12.17722
 818  -29.1846
 819  -54.70461
 820  -141.5988
 821  -168.7838
 822  -222.5336
 823  -201.7332
 824  -179.7966
 825  -81.92274
 826  -137.3457
 827  -244.3705
 828  -315.7815
 829  -184.9278
 830  -19.82813
 831  4.75662
 832  6.852854
 833  154.6525
 834  148.4595
 835  -7.830619
 836  -188.3364
 837  -97.80697
 838  -147.765
 839  -96.01989
 840  -206.0716
 841  -229.3607
 842  -329.4125
 843  -246.3837
 844  -184.259
 845  -71.77918
 846  -52.01414
 847  -20.57665
 848  -63.63939
 849  -204.8614
 850  -342.6958
 851  -270.5168
 852  -193.9521
 853  -157.7208
 854  -124.9359
 855  22.36937
 856  -7.988039
 857  -174.8164
 858  -203.549
 859  -242.4144
 860  -189.3519
 861  -178.908
 862  -37.09917
 863  -96.64305
 864  -91.06268
 865  -17.18548
 866  -78.80404
 867  -158.5625
 868  -141.0284
 869  -42.53337
 870  0.09879483
 871  -146.3942
 872  -150.2003
 873  -196.6462
 874  -159.4501
 875  -144.3598
 876  -0.8896538
 877  -23.17781
 878  -147.2763
 879  -177.1122
 880  -166.2457
 881  -150.7057
 882  -132.2167
 883  -35.38808
 884  65.18761
 885  60.11895
 886  76.9474
 887  92.37428
 888  21.08085
 889  104.5183
 890  109.7045
 891  144.3778
 892  15.06514
 893  -137.5277
 894  -79.8473
 895  -92.73389
 896  -72.42667
 897  -167.0205
 898  -82.53505
 899  -30.23721
 900  -142.0308
 901  -47.33416
 902  -34.23501
 903  -0.6972907
 904  -53.3246
 905  28.2986
 906  -87.3913
 907  -140.003
 908  -106.358
 909  47.50657
 910  -43.85259
 911  -123.9891
 912  -164.9
 913  -212.6516
 914  -256.1386
 915  -328.2544
 916  -122.3384
 917  -28.80417
 918  71.44692
 919  -4.936332
 920  -35.85466
 921  -52.4372
 922  -21.70213
 923  50.63276
 924  30.83894
 925  -34.43603
 926  -138.3599
 927  -105.2964
 928  -141.6738
 929  -134.0089
 930  -245.4797
 931  -364.5309
 932  -325.6786
 933  -124.6992
 934  -37.48
 935  -26.14197
 936  -25.15741
 937  -4.741045
 938  -47.33291
 939  -96.20956
 940  -77.94953
 941  -37.5018
 942  -88.67726
 943  -116.8013
 944  -207.6182
 945  -203.9708
 946  -167.0364
 947  -38.61839
 948  20.99349
 949  -145.3917
 950  -276.0461
 951  -240.3557
 952  -28.95123
 953  -10.40469
 954  -117.7332
 955  -268.5393
 956  -284.8436
 957  -153.9061
 958  -27.3688
 959  -24.65166
 960  -35.67614
 961  -107.9425
 962  -102.881
 963  -22.64145
 964  28.14833
 965  -134.3934
 966  -181.417
 967  -170.9296
 968  -75.97752
 969  -145.3125
 970  -80.44869
 971  -185.9208
 972  -255.0357
 973  -334.1655
 974  -238.3973
 975  -290.8295
 976  -282.9238
 977  -317.2317
 978  -188.3508
 979  -203.6468
 980  3.095477
 981  -37.4017
 982  42.14924
 983  -103.943
 984  -123.1984
 985  -31.62117
 986  -3.101106
 987  -26.5288
 988  -117.4753
 989  -139.7973
 990  -288.145
 991  -378.9596
 992  -274.2348
 993  -137.8925
 994  -76.39716
 995  -95.91971
 996  -64.57925
 997  -32.49198
 998  -92.58749
 999  -58.74039
1000  -136.2525
1001  -119.3139
1002  -118.1703
1003  -31.3891
1004  -78.84553
1005  -66.37817
1006  -118.2982
1007  -42.85067
1008  -40.19842
1009  -145.6842
1010  -209.7612
1011  -220.549
1012  -172.098
1013  -222.2857
1014  -262.9554
1015  -286.3425
1016  -296.8976
1017  -151.4106
1018  11.94275
1019  -1.187485
1020  -93.91918
1021  -127.6041
1022  -50.17717
1023  -66.91049
