# Input file       =  1191882929.123109_cleaned.dat
# Candidate        =  PSR_0332+5434
# Telescope        =  AR
# Epoch_topo       =  58038.941529202653
# Epoch_bary       =  N/A
# T_sample         =  0.002
# Data Folded      =  7340032
# Data Avg         =  0.0123674961191106
# Data StdDev      =  1.000101382616   
# Profile Bins     =  512
# Profile Avg      =  177.092083186927 
# Profile StdDev   =  119.745175225215 
# Reduced chi-sqr  =  1.832
# Prob(Noise)      <  2.14e-27   (~10.8 sigma)
# P_topo (ms)      =  714.480063778411  +/- 0.000244
# P'_topo (s/s)    =  -0                +/- 1.29e-10
# P''_topo (s/s^2) =  0                 +/- 5.67e-14
# P_bary (ms)      =  N/A
# P'_bary (s/s)    =  N/A
# P''_bary (s/s^2) =  N/A
# P_orb (s)        =  N/A
# asin(i)/c (s)    =  N/A
# eccentricity     =  N/A
# w (rad)          =  N/A
# T_peri           =  N/A
######################################################
   0  244.9894
   1  235.1227
   2  178.9811
   3  219.0314
   4  171.3981
   5  17.88173
   6  -13.02665
   7  206.1913
   8  131.661
   9  57.71981
  10  258.2325
  11  252.0011
  12  144.1406
  13  121.1746
  14  169.8886
  15  63.45844
  16  154.0669
  17  215.2954
  18  149.4264
  19  154.8381
  20  113.2644
  21  36.80707
  22  137.812
  23  136.0704
  24  1.107384
  25  57.15953
  26  43.66888
  27  138.358
  28  119.5491
  29  194.2382
  30  140.4573
  31  32.84666
  32  154.0327
  33  117.4885
  34  66.70173
  35  235.4821
  36  156.0794
  37  118.7346
  38  163.0826
  39  192.729
  40  163.9294
  41  220.0919
  42  239.8108
  43  125.7753
  44  72.25875
  45  223.395
  46  205.38
  47  192.3561
  48  163.9481
  49  166.4019
  50  126.249
  51  82.23507
  52  318.3654
  53  340.7142
  54  288.7322
  55  226.7348
  56  307.6927
  57  202.97
  58  163.2669
  59  82.13838
  60  320.92
  61  292.7334
  62  221.8859
  63  169.5521
  64  136.2434
  65  233.2356
  66  265.4501
  67  80.26923
  68  230.1162
  69  315.5017
  70  292.9312
  71  173.7879
  72  192.763
  73  214.4473
  74  158.9862
  75  142.3542
  76  272.5488
  77  147.6927
  78  95.57389
  79  69.88303
  80  251.215
  81  166.8016
  82  122.7466
  83  217.795
  84  179.0099
  85  161.9928
  86  123.2247
  87  210.3325
  88  249.4378
  89  193.7708
  90  230.7229
  91  112.7058
  92  107.7535
  93  154.0004
  94  196.2957
  95  110.2468
  96  154.2629
  97  193.4848
  98  151.3522
  99  128.0236
 100  128.9631
 101  139.6919
 102  85.91969
 103  335.3621
 104  370.838
 105  209.3789
 106  173.8123
 107  79.20826
 108  175.5161
 109  207.0114
 110  295.9048
 111  190.3754
 112  112.433
 113  186.0069
 114  200.4757
 115  267.3611
 116  279.9301
 117  332.1693
 118  455.7365
 119  725.33
 120  893.7908
 121  1054.414
 122  1103.858
 123  1098.079
 124  721.8326
 125  396.477
 126  207.5662
 127  218.9025
 128  132.7463
 129  90.36803
 130  250.5553
 131  278.3008
 132  317.0323
 133  170.2531
 134  60.43291
 135  116.6612
 136  198.9295
 137  242.3173
 138  366.1812
 139  433.6271
 140  238.2358
 141  13.38737
 142  174.1343
 143  152.4908
 144  106.5584
 145  55.00462
 146  142.366
 147  9.29831
 148  9.385708
 149  60.15242
 150  93.83628
 151  86.05311
 152  201.428
 153  189.0036
 154  47.04452
 155  187.34
 156  136.1688
 157  128.9977
 158  27.32814
 159  113.8523
 160  136.7952
 161  76.47189
 162  84.72041
 163  157.0583
 164  121.2694
 165  317.7836
 166  354.9875
 167  284.117
 168  225.8151
 169  135.3427
 170  136.6785
 171  154.3156
 172  257.9885
 173  148.4181
 174  114.845
 175  137.7399
 176  141.8542
 177  123.0506
 178  153.7723
 179  117.179
 180  129.6457
 181  194.8607
 182  127.5115
 183  238.5448
 184  173.8587
 185  149.2792
 186  188.2499
 187  77.10179
 188  64.77376
 189  274.3105
 190  272.9406
 191  298.0832
 192  98.49458
 193  32.52654
 194  167.5135
 195  160.5716
 196  265.5247
 197  171.1303
 198  149.7394
 199  226.4321
 200  133.588
 201  138.3562
 202  190.2299
 203  157.0951
 204  91.39114
 205  157.7719
 206  167.0838
 207  259.0197
 208  221.2095
 209  327.9241
 210  236.9066
 211  146.7749
 212  282.9316
 213  225.0869
 214  172.0034
 215  176.1063
 216  151.8793
 217  119.2249
 218  247.0788
 219  143.6822
 220  287.9592
 221  270.7206
 222  268.0578
 223  263.3752
 224  217.9365
 225  309.2466
 226  167.8025
 227  290.1093
 228  225.5781
 229  196.939
 230  188.432
 231  324.6945
 232  354.7052
 233  191.6715
 234  275.637
 235  139.6016
 236  83.35952
 237  173.441
 238  289.0632
 239  301.0786
 240  246.9572
 241  166.2847
 242  123.4616
 243  98.44524
 244  144.5434
 245  253.8788
 246  265.7074
 247  141.2086
 248  45.55735
 249  85.41805
 250  217.3946
 251  242.1781
 252  236.6146
 253  100.8146
 254  207.9496
 255  248.9336
 256  279.8959
 257  132.5332
 258  183.1703
 259  229.1377
 260  222.1047
 261  153.9824
 262  107.4325
 263  315.3972
 264  210.8142
 265  231.4857
 266  172.5663
 267  90.84118
 268  69.87753
 269  11.65734
 270  207.2993
 271  178.6085
 272  37.91041
 273  118.7557
 274  134.4806
 275  82.5725
 276  196.9794
 277  152.4108
 278  120.805
 279  153.5771
 280  174.5505
 281  251.9816
 282  290.4613
 283  259.5448
 284  208.9019
 285  101.5384
 286  140.5229
 287  197.1241
 288  240.1012
 289  247.4346
 290  215.2094
 291  161.9765
 292  51.05083
 293  133.808
 294  205.2127
 295  166.3606
 296  290.4039
 297  325.8748
 298  240.1826
 299  221.409
 300  158.0666
 301  202.9326
 302  187.7952
 303  229.822
 304  220.1794
 305  96.23106
 306  130.4226
 307  115.841
 308  84.48734
 309  10.83569
 310  126.2465
 311  239.4349
 312  219.7254
 313  286.0405
 314  182.8583
 315  255.6093
 316  152.6627
 317  110.1472
 318  199.0023
 319  294.3202
 320  284.3217
 321  240.6468
 322  215.164
 323  296.5757
 324  309.4029
 325  315.7988
 326  142.179
 327  228.678
 328  263.3387
 329  219.326
 330  53.44316
 331  91.36971
 332  150.4513
 333  157.6316
 334  125.2893
 335  95.27814
 336  51.28617
 337  -5.890516
 338  33.69038
 339  56.15412
 340  97.37523
 341  117.3545
 342  91.81887
 343  95.71917
 344  219.34
 345  293.9852
 346  132.6421
 347  119.2645
 348  145.4643
 349  143.6599
 350  104.2911
 351  193.4816
 352  343.4027
 353  268.892
 354  115.7536
 355  94.42371
 356  234.1687
 357  296.3001
 358  50.85599
 359  85.50467
 360  185.0382
 361  321.7276
 362  116.9653
 363  28.7225
 364  129.7101
 365  194.2703
 366  208.0625
 367  216.9058
 368  199.2603
 369  237.5283
 370  120.4854
 371  152.4905
 372  192.0495
 373  176.2438
 374  104.9622
 375  117.8844
 376  114.7403
 377  199.6442
 378  189.6805
 379  56.45916
 380  -46.9968
 381  -25.80964
 382  130.6119
 383  183.7702
 384  178.1518
 385  47.85009
 386  46.96162
 387  99.41941
 388  153.8132
 389  177.4789
 390  194.9723
 391  253.7029
 392  233.2466
 393  205.6826
 394  158.8385
 395  179.9395
 396  202.6716
 397  211.2152
 398  267.005
 399  221.8635
 400  57.11433
 401  120.3501
 402  110.2853
 403  49.11969
 404  -61.92437
 405  -26.08609
 406  59.38121
 407  77.6567
 408  99.26655
 409  -42.12388
 410  63.36392
 411  168.3459
 412  178.7241
 413  165.4925
 414  101.3108
 415  32.86914
 416  175.7598
 417  158.698
 418  116.9877
 419  128.1412
 420  150.6926
 421  144.9438
 422  196.3902
 423  79.16068
 424  101.7725
 425  143.2405
 426  212.3401
 427  35.96704
 428  29.25554
 429  196.8139
 430  128.1865
 431  192.8331
 432  161.9734
 433  16.35555
 434  125.9989
 435  101.153
 436  209.5999
 437  219.532
 438  105.3104
 439  101.4336
 440  229.4624
 441  155.4141
 442  206.4134
 443  235.7984
 444  90.34497
 445  27.79569
 446  169.6324
 447  162.1868
 448  93.33324
 449  41.44226
 450  83.94426
 451  85.4593
 452  58.06885
 453  104.2329
 454  82.81767
 455  105.6425
 456  144.7715
 457  72.29186
 458  140.2409
 459  130.5664
 460  18.83464
 461  84.79106
 462  193.8979
 463  170.9075
 464  222.9247
 465  142.1863
 466  208.6424
 467  291.1107
 468  189.0636
 469  183.7231
 470  221.6911
 471  168.3514
 472  19.65532
 473  -60.69787
 474  -4.241539
 475  166.7329
 476  135.8801
 477  156.4202
 478  125.668
 479  167.1693
 480  254.7608
 481  283.5966
 482  149.1814
 483  200.1852
 484  193.2953
 485  94.44817
 486  97.39642
 487  182.211
 488  187.1725
 489  107.0203
 490  126.0685
 491  118.9102
 492  137.1308
 493  239.612
 494  252.007
 495  96.42912
 496  25.39824
 497  81.27098
 498  235.1181
 499  394.2326
 500  368.607
 501  335.986
 502  253.8808
 503  147.8522
 504  156.6327
 505  235.7249
 506  183.2472
 507  222.4391
 508  194.3904
 509  216.8796
 510  197.2618
 511  219.0351
