# Input file       =  1191122437.116167_cleaned.dat
# Candidate        =  PSR_0332+5434
# Telescope        =  AR
# Epoch_topo       =  58030.139538381562
# Epoch_bary       =  N/A
# T_sample         =  0.002
# Data Folded      =  7340032
# Data Avg         =  0.0101000580150723
# Data StdDev      =  1.00005735562101 
# Profile Bins     =  512
# Profile Avg      =  144.724562991539 
# Profile StdDev   =  119.739903739423 
# Reduced chi-sqr  =  1.360
# Prob(Noise)      <  1.01e-07   (~5.2 sigma)
# P_topo (ms)      =  714.474721047172  +/- 0.000112
# P'_topo (s/s)    =  -0                +/- 5.88e-11
# P''_topo (s/s^2) =  0                 +/- 2.6e-14
# P_bary (ms)      =  N/A
# P'_bary (s/s)    =  N/A
# P''_bary (s/s^2) =  N/A
# P_orb (s)        =  N/A
# asin(i)/c (s)    =  N/A
# eccentricity     =  N/A
# w (rad)          =  N/A
# T_peri           =  N/A
######################################################
   0  789.9426
   1  645.3428
   2  415.1807
   3  344.4058
   4  262.6747
   5  95.90868
   6  218.6016
   7  221.681
   8  50.96223
   9  98.92538
  10  162.2714
  11  180.0902
  12  245.7562
  13  284.8346
  14  352.0787
  15  174.6359
  16  245.0191
  17  216.7279
  18  132.3464
  19  204.0944
  20  88.96966
  21  214.732
  22  236.3572
  23  150.3837
  24  101.724
  25  147.6111
  26  221.3146
  27  138.7535
  28  131.347
  29  133.7455
  30  129.3855
  31  153.5497
  32  370.3911
  33  293.9999
  34  210.2363
  35  70.32775
  36  5.31537
  37  -99.05417
  38  5.208144
  39  110.0149
  40  187.6111
  41  110.1752
  42  31.24537
  43  20.85107
  44  121.6216
  45  107.5088
  46  63.27341
  47  181.4652
  48  71.04145
  49  151.856
  50  83.22826
  51  121.3094
  52  215.9629
  53  57.69009
  54  76.86276
  55  215.1101
  56  98.87688
  57  160.2208
  58  66.84573
  59  135.3898
  60  302.5999
  61  272.6242
  62  -37.11277
  63  -2.940119
  64  13.23385
  65  107.5381
  66  110.4664
  67  64.35502
  68  97.08406
  69  144.8393
  70  237.1242
  71  156.2411
  72  122.1448
  73  193.4066
  74  134.1136
  75  206.1472
  76  68.04106
  77  -49.54356
  78  22.29742
  79  76.45946
  80  124.5677
  81  168.2802
  82  223.3936
  83  170.4753
  84  92.66076
  85  142.3936
  86  169.8808
  87  135.1152
  88  282.1512
  89  304.1014
  90  194.0513
  91  237.2053
  92  230.8127
  93  286.6229
  94  152.8616
  95  210.9157
  96  204.5438
  97  210.6483
  98  187.6245
  99  96.6271
 100  46.75872
 101  89.54424
 102  137.6584
 103  106.5658
 104  290.6923
 105  173.0021
 106  199.0547
 107  285.8238
 108  152.4605
 109  113.7169
 110  95.88059
 111  88.19478
 112  213.524
 113  233.0142
 114  172.3145
 115  90.79283
 116  146.8069
 117  262.51
 118  143.3455
 119  50.3484
 120  21.4138
 121  73.86308
 122  258.7097
 123  227.0059
 124  270.6585
 125  189.3587
 126  243.5274
 127  202.156
 128  110.3576
 129  206.099
 130  197.139
 131  198.5659
 132  205.2452
 133  158.0483
 134  257.717
 135  241.1862
 136  179.0967
 137  247.1608
 138  420.6354
 139  335.4711
 140  330.3014
 141  232.029
 142  129.9305
 143  121.402
 144  158.2317
 145  246.6772
 146  221.3541
 147  170.2488
 148  156.8372
 149  265.5464
 150  177.8071
 151  68.03419
 152  176.2064
 153  210.3084
 154  120.752
 155  191.3362
 156  218.903
 157  57.45957
 158  97.61646
 159  250.3459
 160  153.3724
 161  51.40659
 162  142.2752
 163  126.3887
 164  98.1926
 165  116.0458
 166  237.3535
 167  170.3278
 168  165.2188
 169  188.8712
 170  57.51817
 171  102.801
 172  47.27719
 173  109.4568
 174  105.63
 175  124.673
 176  17.55174
 177  45.33073
 178  102.1543
 179  112.5621
 180  190.3958
 181  158.4394
 182  262.9625
 183  129.8701
 184  2.699506
 185  95.88442
 186  57.81386
 187  122.0492
 188  56.4426
 189  -20.11939
 190  154.7511
 191  116.1663
 192  2.728814
 193  45.99923
 194  73.08
 195  28.7235
 196  162.8466
 197  137.4847
 198  152.9649
 199  122.4044
 200  93.20068
 201  123.6208
 202  198.6605
 203  110.3293
 204  65.05365
 205  91.16898
 206  158.9873
 207  235.0424
 208  161.4637
 209  151.8711
 210  59.92368
 211  107.651
 212  124.7511
 213  168.9286
 214  164.4051
 215  86.89249
 216  120.1245
 217  135.5517
 218  84.49348
 219  5.411902
 220  37.91738
 221  122.029
 222  63.19746
 223  105.5178
 224  153.6855
 225  28.06659
 226  10.457
 227  89.82455
 228  44.06738
 229  13.39522
 230  188.8641
 231  269.5715
 232  239.6826
 233  91.92071
 234  66.07365
 235  23.395
 236  85.33193
 237  142.2053
 238  187.6321
 239  181.2938
 240  215.3224
 241  214.1493
 242  170.3731
 243  144.2108
 244  137.8511
 245  5.113232
 246  205.546
 247  277.7009
 248  153.3366
 249  112.5543
 250  109.5813
 251  35.32328
 252  121.3484
 253  165.4629
 254  161.5716
 255  247.6153
 256  119.7958
 257  164.1824
 258  112.6599
 259  -2.416991
 260  29.11473
 261  55.91288
 262  270.2211
 263  349.0192
 264  225.178
 265  248.6575
 266  230.8623
 267  131.1489
 268  78.75771
 269  229.1956
 270  343.1883
 271  212.42
 272  245.1898
 273  227.3514
 274  130.5039
 275  105.7397
 276  39.96733
 277  53.31089
 278  99.12035
 279  59.01213
 280  92.94074
 281  2.381108
 282  -8.421797
 283  70.67419
 284  145.7227
 285  264.1917
 286  164.1012
 287  114.3268
 288  131.5828
 289  65.38568
 290  166.1004
 291  204.0973
 292  271.8956
 293  63.12304
 294  133.3777
 295  191.6812
 296  145.0016
 297  201.3628
 298  251.127
 299  252.5013
 300  133.7757
 301  98.35195
 302  87.09004
 303  72.11511
 304  318.3781
 305  262.5407
 306  86.46396
 307  163.5979
 308  54.55132
 309  42.7927
 310  145.016
 311  124.7845
 312  171.2804
 313  168.6481
 314  185.4639
 315  159.8724
 316  118.8765
 317  98.61144
 318  70.20242
 319  99.95249
 320  108.197
 321  74.11642
 322  145.7893
 323  151.4944
 324  99.34075
 325  183.53
 326  110.2825
 327  157.8457
 328  215.4332
 329  178.8331
 330  164.3232
 331  39.29928
 332  6.98274
 333  179.2862
 334  197.1714
 335  94.02414
 336  62.58889
 337  245.888
 338  189.6267
 339  143.269
 340  55.92741
 341  50.55443
 342  69.80054
 343  56.62884
 344  131.9892
 345  163.9511
 346  127.9627
 347  242.5163
 348  193.8673
 349  225.0319
 350  236.7935
 351  212.3053
 352  199.563
 353  108.7666
 354  182.6041
 355  284.0811
 356  347.8777
 357  173.3403
 358  27.16239
 359  -17.15039
 360  196.1653
 361  296.8203
 362  323.3051
 363  278.6847
 364  217.7385
 365  294.2391
 366  197.3155
 367  102.6246
 368  65.4889
 369  109.3801
 370  -43.94389
 371  9.164263
 372  143.4274
 373  234.045
 374  43.72167
 375  -57.26128
 376  68.41606
 377  140.6228
 378  35.16906
 379  44.20685
 380  92.03178
 381  109.8597
 382  90.69773
 383  51.83848
 384  45.2076
 385  46.79757
 386  145.8609
 387  73.01429
 388  19.61916
 389  89.05849
 390  146.9473
 391  94.90742
 392  -59.76009
 393  97.66691
 394  203.5727
 395  157.0361
 396  161.6637
 397  20.45039
 398  10.07197
 399  237.066
 400  114.556
 401  83.98914
 402  101.3795
 403  115.5249
 404  62.38432
 405  93.26196
 406  216.1938
 407  83.11448
 408  48.16207
 409  92.97283
 410  31.0686
 411  90.61861
 412  84.5798
 413  113.0272
 414  82.63776
 415  74.97267
 416  205.2576
 417  193.6309
 418  116.2219
 419  104.1391
 420  109.5869
 421  252.4793
 422  151.9165
 423  43.48433
 424  125.8326
 425  197.5984
 426  91.76379
 427  -54.91785
 428  125.0692
 429  130.3486
 430  166.0011
 431  187.9337
 432  182.9934
 433  131.8123
 434  144.3016
 435  142.3611
 436  72.42111
 437  27.47572
 438  81.85773
 439  132.1387
 440  126.539
 441  64.74741
 442  86.46899
 443  163.5611
 444  115.001
 445  97.76608
 446  180.9984
 447  187.2996
 448  131.2272
 449  133.3369
 450  14.49538
 451  7.925662
 452  -81.29544
 453  156.2241
 454  154.9884
 455  71.11825
 456  87.88387
 457  16.14643
 458  87.47887
 459  140.4271
 460  162.7146
 461  249.0409
 462  189.7565
 463  109.5323
 464  138.7984
 465  175.4825
 466  229.7261
 467  259.0636
 468  112.4211
 469  167.0278
 470  -4.977236
 471  72.36749
 472  84.81071
 473  13.09916
 474  -5.048036
 475  177.0346
 476  131.5318
 477  64.56354
 478  46.55136
 479  173.1543
 480  14.40429
 481  -83.30739
 482  37.60235
 483  63.30773
 484  17.26217
 485  55.41669
 486  150.8478
 487  230.2663
 488  155.6839
 489  47.81189
 490  108.926
 491  150.6519
 492  216.7797
 493  403.1579
 494  329.149
 495  162.9262
 496  153.586
 497  161.3697
 498  35.21929
 499  -80.61767
 500  122.9039
 501  257.3324
 502  270.0687
 503  267.464
 504  262.3265
 505  205.2336
 506  134.3018
 507  277.8933
 508  390.539
 509  528.3276
 510  705.4771
 511  778.6193
