# Input file       =  1191467071.114228_cleaned.dat
# Candidate        =  PSR_0332+5434
# Telescope        =  AR
# Epoch_topo       =  58034.128357803565
# Epoch_bary       =  N/A
# T_sample         =  0.002
# Data Folded      =  7340032
# Data Avg         =  0.0459589970113093
# Data StdDev      =  2.71776813579589 
# Profile Bins     =  512
# Profile Avg      =  658.548010973905 
# Profile StdDev   =  325.406631066866 
# Reduced chi-sqr  =  1.228
# Prob(Noise)      <  0.000312   (~3.4 sigma)
# P_topo (ms)      =  714.477166539299  +/- 0.000168
# P'_topo (s/s)    =  -0                +/- 8.85e-11
# P''_topo (s/s^2) =  0                 +/- 3.91e-14
# P_bary (ms)      =  N/A
# P'_bary (s/s)    =  N/A
# P''_bary (s/s^2) =  N/A
# P_orb (s)        =  N/A
# asin(i)/c (s)    =  N/A
# eccentricity     =  N/A
# w (rad)          =  N/A
# T_peri           =  N/A
######################################################
   0  754.5583
   1  455.6741
   2  607.2203
   3  991.1273
   4  935.7903
   5  864.0366
   6  513.389
   7  416.094
   8  594.7682
   9  667.0555
  10  555.7167
  11  723.5887
  12  836.4088
  13  643.4384
  14  729.6846
  15  244.3909
  16  437.2885
  17  514.7034
  18  798.8937
  19  682.93
  20  608.8588
  21  561.6912
  22  575.8935
  23  838.7611
  24  756.2897
  25  470.0746
  26  455.5255
  27  428.8026
  28  282.2749
  29  556.7643
  30  581.2932
  31  502.6249
  32  608.0039
  33  472.0384
  34  352.778
  35  851.2611
  36  935.2789
  37  1061.552
  38  1066.564
  39  928.1512
  40  478.2085
  41  364.4314
  42  378.7389
  43  702.2277
  44  727.3925
  45  936.6633
  46  805.4029
  47  830.5027
  48  874.4172
  49  811.3168
  50  569.1658
  51  808.2008
  52  793.3375
  53  495.8705
  54  384.1795
  55  652.1564
  56  575.3323
  57  529.6872
  58  490.4145
  59  809.5294
  60  513.4943
  61  529.0543
  62  360.8096
  63  588.4883
  64  598.4943
  65  409.9339
  66  467.8312
  67  467.3611
  68  594.4454
  69  684.3935
  70  681.4739
  71  557.4259
  72  663.9233
  73  845.6014
  74  732.93
  75  469.8906
  76  526.0546
  77  566.7363
  78  657.6027
  79  471.0893
  80  250.9222
  81  588.0686
  82  861.4095
  83  643.7379
  84  701.6716
  85  915.1645
  86  841.1379
  87  717.2086
  88  478.9654
  89  755.3783
  90  767.7844
  91  721.4828
  92  552.5817
  93  670.1005
  94  377.0442
  95  423.6967
  96  529.9653
  97  654.9206
  98  562.1306
  99  566.8581
 100  732.4053
 101  689.5434
 102  735.8043
 103  789.73
 104  778.9014
 105  1135.834
 106  700.8989
 107  512.4222
 108  460.2446
 109  722.1589
 110  997.5226
 111  728.6409
 112  732.3735
 113  662.6844
 114  669.5568
 115  820.3423
 116  1037.485
 117  993.5605
 118  928.2203
 119  870.7966
 120  688.6027
 121  440.5658
 122  474.037
 123  809.8651
 124  536.0885
 125  454.327
 126  477.6756
 127  604.2416
 128  555.4341
 129  286.0297
 130  337.9829
 131  62.45271
 132  430.4182
 133  856.22
 134  584.511
 135  437.1248
 136  455.945
 137  441.9762
 138  302.2596
 139  407.5706
 140  750.399
 141  1010.334
 142  1085.874
 143  801.1466
 144  598.5917
 145  529.6713
 146  811.2072
 147  778.701
 148  926.4901
 149  868.3114
 150  568.1599
 151  375.9615
 152  445.7078
 153  910.49
 154  912.7697
 155  951.1521
 156  627.7419
 157  741.2488
 158  716.1014
 159  825.2665
 160  1029.073
 161  852.1025
 162  459.3952
 163  416.7822
 164  794.2901
 165  791.3326
 166  858.1483
 167  759.6149
 168  833.009
 169  1040.677
 170  826.5359
 171  866.3588
 172  1052.817
 173  777.8574
 174  595.6827
 175  478.1995
 176  984.3501
 177  636.3744
 178  411.1662
 179  594.7832
 180  565.5858
 181  596.9191
 182  669.552
 183  997.4504
 184  1081.876
 185  786.3915
 186  860.2253
 187  683.6924
 188  924.5182
 189  961.2666
 190  924.1839
 191  820.8519
 192  833.5461
 193  740.0848
 194  770.271
 195  892.9823
 196  769.6844
 197  463.9609
 198  751.4026
 199  565.0002
 200  650.7415
 201  925.8632
 202  845.2631
 203  653.4568
 204  557.8615
 205  508.135
 206  647.7516
 207  788.3254
 208  606.6296
 209  652.3049
 210  482.4275
 211  345.4415
 212  774.7872
 213  944.8902
 214  944.2411
 215  588.0554
 216  641.4984
 217  448.851
 218  845.1025
 219  594.2443
 220  502.3488
 221  351.7762
 222  568.3712
 223  703.6495
 224  562.3838
 225  514.0806
 226  248.2111
 227  214.4645
 228  487.2027
 229  829.4727
 230  967.4454
 231  974.8711
 232  745.2399
 233  740.7772
 234  414.8274
 235  336.2788
 236  656.7123
 237  642.9285
 238  654.7202
 239  874.7103
 240  622.8344
 241  537.6845
 242  659.9823
 243  464.1179
 244  629.7127
 245  705.587
 246  870.8566
 247  718.6419
 248  823.2158
 249  942.5809
 250  661.4909
 251  597.7127
 252  355.9872
 253  501.4173
 254  492.9626
 255  906.5707
 256  728.9614
 257  784.2377
 258  669.7906
 259  481.2678
 260  724.2789
 261  897.1035
 262  991.9868
 263  863.8269
 264  921.5705
 265  647.102
 266  602.613
 267  785.3379
 268  941.772
 269  941.4539
 270  643.4514
 271  930.9962
 272  1033.477
 273  1008.744
 274  772.9332
 275  913.1114
 276  1276.795
 277  880.9052
 278  661.3439
 279  748.2665
 280  924.5214
 281  857.2961
 282  853.1389
 283  751.8899
 284  438.5069
 285  627.4021
 286  462.0096
 287  260.422
 288  205.7613
 289  806.5746
 290  1065.834
 291  769.8561
 292  678.6309
 293  519.0562
 294  446.0095
 295  500.6321
 296  547.2991
 297  759.1698
 298  618.2598
 299  429.6402
 300  439.4672
 301  401.522
 302  585.4334
 303  679.5168
 304  762.464
 305  657.6198
 306  635.7583
 307  807.5275
 308  411.4231
 309  573.8037
 310  640.7344
 311  607.1757
 312  720.2712
 313  672.5062
 314  634.0696
 315  644.9244
 316  1191.352
 317  1867.556
 318  2374.092
 319  2554.601
 320  2371.877
 321  1939.351
 322  1272.616
 323  1161.253
 324  862.6725
 325  1098.478
 326  489.9211
 327  547.015
 328  892.8098
 329  700.3137
 330  599.0708
 331  949.9172
 332  1036.383
 333  648.1194
 334  624.2847
 335  929.8239
 336  1019.498
 337  873.981
 338  879.6227
 339  779.9028
 340  870.0207
 341  292.6351
 342  321.7616
 343  647.4347
 344  931.5048
 345  609.2044
 346  191.7259
 347  441.5828
 348  635.6219
 349  575.4676
 350  803.6575
 351  795.3828
 352  622.8937
 353  611.8158
 354  689.7379
 355  624.5117
 356  518.2366
 357  529.2522
 358  374.0912
 359  590.9734
 360  694.9351
 361  556.166
 362  769.1645
 363  669.3184
 364  836.7628
 365  571.5476
 366  514.3611
 367  505.5975
 368  55.83122
 369  354.0801
 370  614.028
 371  905.6653
 372  739.1487
 373  452.9922
 374  625.6149
 375  754.2398
 376  443.3007
 377  466.6265
 378  637.2919
 379  843.4561
 380  501.1544
 381  541.7678
 382  791.0602
 383  843.6012
 384  600.6867
 385  462.3156
 386  815.9542
 387  727.728
 388  372.5554
 389  216.5709
 390  386.3853
 391  417.4207
 392  599.5972
 393  609.8619
 394  924.2417
 395  1025.447
 396  858.1642
 397  907.2338
 398  442.4798
 399  320.9997
 400  341.8494
 401  374.2315
 402  400.0833
 403  854.3724
 404  552.2812
 405  569.9315
 406  456.4382
 407  314.7104
 408  659.0182
 409  772.823
 410  747.1227
 411  259.217
 412  500.8697
 413  735.843
 414  711.2636
 415  711.6251
 416  647.4208
 417  657.5576
 418  276.5385
 419  279.0056
 420  373.2137
 421  601.977
 422  347.7399
 423  455.3765
 424  637.2233
 425  787.2096
 426  547.0228
 427  451.5781
 428  219.7145
 429  447.1096
 430  570.8846
 431  401.2701
 432  596.4235
 433  373.3386
 434  306.2679
 435  482.8912
 436  475.979
 437  571.4072
 438  569.9703
 439  755.1462
 440  743.9963
 441  565.7764
 442  583.264
 443  845.0861
 444  613.5558
 445  818.1195
 446  667.778
 447  335.1638
 448  496.2001
 449  556.9615
 450  804.1938
 451  620.5875
 452  370.2427
 453  715.4723
 454  623.8509
 455  467.0979
 456  668.6369
 457  585.267
 458  595.1943
 459  978.7787
 460  833.0345
 461  -4.864444
 462  86.16838
 463  454.7667
 464  486.5081
 465  379.3106
 466  342.3908
 467  581.1436
 468  666.6287
 469  545.3414
 470  346.3419
 471  467.3224
 472  470.2605
 473  576.2203
 474  1050.968
 475  741.8251
 476  564.2476
 477  200.677
 478  250.3409
 479  531.0291
 480  422.1595
 481  601.4822
 482  725.0658
 483  810.3096
 484  902.5279
 485  678.8995
 486  615.8402
 487  846.3168
 488  564.6625
 489  329.9562
 490  634.3776
 491  311.0644
 492  299.6661
 493  373.8279
 494  320.96
 495  639.0707
 496  667.4241
 497  358.1118
 498  345.335
 499  601.5541
 500  814.8762
 501  468.4071
 502  797.2803
 503  690.8224
 504  313.2961
 505  254.7981
 506  294.7803
 507  610.9712
 508  632.5232
 509  795.9235
 510  679.231
 511  722.2451
