# Input file       =  1191897833.137104_cleaned.dat
# Candidate        =  PSR_0332+5434
# Telescope        =  AR
# Epoch_topo       =  58039.114029364631
# Epoch_bary       =  N/A
# T_sample         =  0.002
# Data Folded      =  7340032
# Data Avg         =  0.0265116302512719
# Data StdDev      =  2.87921204345658 
# Profile Bins     =  256
# Profile Avg      =  759.12320536375  
# Profile StdDev   =  487.531458483726 
# Reduced chi-sqr  =  2.162
# Prob(Noise)      <  6.87e-24   (~10.0 sigma)
# P_topo (ms)      =  714.480520385741  +/- 0.000373
# P'_topo (s/s)    =  -0                +/- 1.97e-10
# P''_topo (s/s^2) =  0                 +/- 8.68e-14
# P_bary (ms)      =  N/A
# P'_bary (s/s)    =  N/A
# P''_bary (s/s^2) =  N/A
# P_orb (s)        =  N/A
# asin(i)/c (s)    =  N/A
# eccentricity     =  N/A
# w (rad)          =  N/A
# T_peri           =  N/A
######################################################
   0  643.2836
   1  790.5485
   2  894.2794
   3  714.4201
   4  666.1337
   5  971.1415
   6  222.4646
   7  670.9713
   8  649.3336
   9  914.4478
  10  1305.878
  11  993.4389
  12  1066.764
  13  552.7366
  14  839.1509
  15  577.8186
  16  456.1064
  17  635.0453
  18  837.9334
  19  228.8514
  20  34.08069
  21  620.2776
  22  578.9483
  23  1043.828
  24  493.2193
  25  474.088
  26  272.1997
  27  663.1368
  28  -310.5126
  29  418.4894
  30  985.8115
  31  926.7483
  32  -57.80711
  33  704.4136
  34  247.5207
  35  509.632
  36  558.2531
  37  248.7257
  38  -215.8811
  39  384.9553
  40  -341.0157
  41  -96.49215
  42  398.9272
  43  13.52339
  44  757.9362
  45  324.3506
  46  451.8326
  47  388.2166
  48  351.6122
  49  856.6222
  50  377.7267
  51  920.2553
  52  898.8898
  53  573.1976
  54  221.6144
  55  -262.9473
  56  431.7749
  57  -609.323
  58  -83.145
  59  406.2667
  60  -14.56588
  61  621.4653
  62  300.8881
  63  -69.99593
  64  59.70757
  65  -295.1856
  66  626.7777
  67  64.87035
  68  189.8176
  69  -109.3877
  70  102.9459
  71  381.9385
  72  767.3796
  73  214.2453
  74  -90.83887
  75  186.5671
  76  324.9086
  77  458.8889
  78  481.4733
  79  617.9044
  80  698.1019
  81  445.5446
  82  845.8328
  83  -53.94994
  84  205.048
  85  568.1066
  86  826.6034
  87  795.3553
  88  1246.058
  89  736.8753
  90  915.6706
  91  202.8575
  92  436.6275
  93  840.5933
  94  370.3865
  95  516.2428
  96  1124.594
  97  866.6409
  98  804.3111
  99  241.036
 100  25.25666
 101  7.653778
 102  572.6389
 103  182.5939
 104  665.8203
 105  963.3567
 106  1411.187
 107  937.0389
 108  254.8032
 109  728.7162
 110  607.8013
 111  1099.52
 112  662.5929
 113  292.6038
 114  1048.042
 115  729.6505
 116  606.6804
 117  682.3792
 118  745.9508
 119  1040.815
 120  750.377
 121  1285.974
 122  885.3566
 123  1359.744
 124  679.7936
 125  919.1136
 126  2009.12
 127  1610.443
 128  1524.7
 129  764.9703
 130  642.0928
 131  1602.901
 132  -25.49455
 133  719.8365
 134  310.7706
 135  1035.716
 136  813.3513
 137  137.0529
 138  811.4486
 139  362.8997
 140  402.4521
 141  922.2015
 142  1617.894
 143  1212.793
 144  1174.858
 145  749.785
 146  896.4531
 147  1053.969
 148  1428.311
 149  1424.539
 150  1000.677
 151  1205.817
 152  1549.297
 153  1457.218
 154  1463.693
 155  1306.312
 156  2402.969
 157  2689.91
 158  3739.216
 159  4817.996
 160  4372.389
 161  1776.461
 162  817.7981
 163  1278.284
 164  1493.522
 165  1963.14
 166  876.6581
 167  1659.807
 168  1798.701
 169  1167.076
 170  1046.607
 171  843.9318
 172  1157.055
 173  764.2908
 174  1017.559
 175  1068.165
 176  785.4042
 177  1238.722
 178  806.8358
 179  559.7378
 180  788.9597
 181  948.1351
 182  891.0895
 183  931.3112
 184  1244.499
 185  1925.851
 186  801.8344
 187  282.9247
 188  52.30359
 189  573.6686
 190  581.4495
 191  775.5797
 192  1110.151
 193  1130.073
 194  -26.89577
 195  888.8591
 196  197.1072
 197  -96.47836
 198  410.02
 199  622.4324
 200  927.582
 201  1088.327
 202  1161.015
 203  1222.138
 204  970.114
 205  246.8361
 206  318.7248
 207  312.9865
 208  12.03658
 209  16.01157
 210  488.1063
 211  305.6121
 212  699.5271
 213  653.0089
 214  1465.026
 215  639.5955
 216  812.0778
 217  1430.965
 218  810.1743
 219  764.5042
 220  818.5831
 221  832.3035
 222  892.9071
 223  1181.985
 224  613.086
 225  1061.721
 226  1045.984
 227  295.3111
 228  273.1917
 229  395.0856
 230  1021.085
 231  766.5034
 232  1490.006
 233  954.1049
 234  654.5439
 235  957.94
 236  589.8141
 237  877.1938
 238  307.5707
 239  985.4754
 240  778.0352
 241  1295.325
 242  1407.737
 243  916.9692
 244  203.9243
 245  963.4312
 246  701.2051
 247  476.938
 248  968.2609
 249  275.023
 250  983.3737
 251  1042.255
 252  537.557
 253  766.5017
 254  644.5659
 255  865.9901
