# Input file       =  1191467071.114228_cleaned.dat
# Candidate        =  PSR_0332+5434
# Telescope        =  AR
# Epoch_topo       =  58034.128357803565
# Epoch_bary       =  N/A
# T_sample         =  0.002
# Data Folded      =  7340032
# Data Avg         =  0.0149768440034838
# Data StdDev      =  1.00003826967094 
# Profile Bins     =  512
# Profile Avg      =  214.541313312627 
# Profile StdDev   =  119.737618520669 
# Reduced chi-sqr  =  1.395
# Prob(Noise)      <  7.98e-09   (~5.7 sigma)
# P_topo (ms)      =  714.477166657108  +/- 0.000172
# P'_topo (s/s)    =  -0                +/- 9.05e-11
# P''_topo (s/s^2) =  0                 +/- 4e-14
# P_bary (ms)      =  N/A
# P'_bary (s/s)    =  N/A
# P''_bary (s/s^2) =  N/A
# P_orb (s)        =  N/A
# asin(i)/c (s)    =  N/A
# eccentricity     =  N/A
# w (rad)          =  N/A
# T_peri           =  N/A
######################################################
   0  268.917
   1  277.7343
   2  167.3146
   3  80.79063
   4  193.105
   5  192.8523
   6  159.0586
   7  264.1693
   8  167.4443
   9  146.0018
  10  227.4174
  11  152.9984
  12  224.7622
  13  252.3352
  14  287.1596
  15  262.8329
  16  254.8638
  17  309.5886
  18  187.513
  19  183.065
  20  109.1493
  21  140.8248
  22  132.1071
  23  297.9191
  24  247.5324
  25  218.5185
  26  195.0703
  27  133.5778
  28  206.8929
  29  284.2937
  30  324.279
  31  262.9975
  32  284.4721
  33  198.295
  34  160.0869
  35  213.2426
  36  312.1841
  37  340.5076
  38  206.7867
  39  286.8429
  40  378.7645
  41  346.6632
  42  306.9916
  43  279.8952
  44  425.0075
  45  330.1342
  46  200.9241
  47  204.1395
  48  269.8698
  49  271.1256
  50  310.7711
  51  265.5934
  52  124.9153
  53  184.7543
  54  171.5034
  55  69.77757
  56  29.75819
  57  237.7487
  58  382.6402
  59  282.5128
  60  220.4593
  61  180.6424
  62  121.8192
  63  155.3101
  64  152.9561
  65  218.826
  66  204.3207
  67  105.1341
  68  123.417
  69  119.5675
  70  183.6628
  71  234.3033
  72  258.6766
  73  204.1273
  74  176.0536
  75  260.5791
  76  144.5178
  77  185.6487
  78  212.0405
  79  220.4618
  80  251.7585
  81  234.4186
  82  190.7894
  83  220.0911
  84  417.6697
  85  637.2678
  86  913.7787
  87  983.4174
  88  968.6567
  89  802.5727
  90  524.2009
  91  429.3513
  92  247.4281
  93  362.6783
  94  197.9881
  95  199.569
  96  263.3643
  97  206.6078
  98  173.8474
  99  272.588
 100  323.7383
 101  208.858
 102  187.0206
 103  295.3357
 104  375.0546
 105  293.3095
 106  292.4968
 107  266.0936
 108  318.1748
 109  85.84919
 110  46.70591
 111  171.0909
 112  273.0392
 113  195.2588
 114  29.32553
 115  105.8669
 116  226.7297
 117  155.3089
 118  239.5251
 119  249.6902
 120  191.4378
 121  209.1025
 122  205.9098
 123  201.9564
 124  142.5187
 125  163.1392
 126  120.5237
 127  167.8931
 128  283.4065
 129  208.1483
 130  250.5582
 131  233.3389
 132  261.8906
 133  216.9675
 134  120.9505
 135  172.8591
 136  8.573915
 137  76.73917
 138  197.4381
 139  284.218
 140  262.5081
 141  142.8725
 142  147.0016
 143  265.2362
 144  114.8147
 145  152.8991
 146  189.9398
 147  255.8314
 148  180.2745
 149  194.61
 150  278.618
 151  347.9628
 152  223.7722
 153  135.226
 154  261.0378
 155  275.2887
 156  124.0123
 157  50.15058
 158  132.4275
 159  148.7267
 160  187.3718
 161  231.3493
 162  285.5731
 163  388.743
 164  295.4443
 165  333.6097
 166  185.1291
 167  133.5268
 168  86.05588
 169  130.938
 170  124.8842
 171  290.8507
 172  191.0781
 173  167.32
 174  165.6129
 175  87.57416
 176  219.9639
 177  280.8672
 178  270.3795
 179  92.14883
 180  125.6055
 181  259.4383
 182  220.6169
 183  256.0766
 184  217.4278
 185  252.5532
 186  138.9008
 187  123.7995
 188  131.252
 189  204.7432
 190  86.8278
 191  122.2584
 192  201.3199
 193  291.1646
 194  224.9394
 195  150.9868
 196  72.97676
 197  103.1991
 198  202.9105
 199  114.9534
 200  198.4119
 201  143.2096
 202  77.51169
 203  132.058
 204  162.7816
 205  167.765
 206  165.6094
 207  225.3789
 208  260.8192
 209  191.564
 210  189.57
 211  301.044
 212  187.8164
 213  263.1873
 214  242.7204
 215  116.5932
 216  135.1545
 217  173.837
 218  227.3413
 219  240.0454
 220  109.9003
 221  229.9375
 222  198.0855
 223  153.6512
 224  204.8299
 225  198.315
 226  202.1287
 227  332.2629
 228  317.9691
 229  12.87655
 230  -41.57233
 231  138.6609
 232  121.5466
 233  110.7955
 234  113.1063
 235  171.1728
 236  258.5555
 237  206.5641
 238  137.2726
 239  113.0628
 240  175.004
 241  168.4067
 242  364.3323
 243  296.6078
 244  196.4042
 245  93.04772
 246  72.82285
 247  156.322
 248  146.6409
 249  182.4693
 250  215.2457
 251  270.9365
 252  309.0583
 253  247.9259
 254  195.1776
 255  285.1719
 256  219.1043
 257  60.5256
 258  190.9782
 259  123.8303
 260  77.57408
 261  121.2533
 262  55.46347
 263  176.2298
 264  182.4894
 265  104.293
 266  85.17947
 267  176.0785
 268  289.5171
 269  184.5546
 270  229.2605
 271  213.4445
 272  91.35703
 273  68.77759
 274  70.02151
 275  163.1753
 276  250.1813
 277  266.7115
 278  240.4444
 279  182.2331
 280  279.3894
 281  143.61
 282  157.9943
 283  307.8036
 284  304.2875
 285  323.4887
 286  204.5931
 287  120.7998
 288  168.1266
 289  215.835
 290  193.3863
 291  218.8911
 292  267.0746
 293  198.4209
 294  268.9113
 295  53.75405
 296  115.2653
 297  145.9649
 298  258.4003
 299  234.8226
 300  209.5921
 301  181.4017
 302  171.6111
 303  267.4655
 304  257.4462
 305  151.2618
 306  101.3266
 307  123.0226
 308  70.81609
 309  138.893
 310  198.0753
 311  160.0201
 312  178.2978
 313  171.1546
 314  75.89454
 315  239.3944
 316  332.4717
 317  395.1185
 318  389.4653
 319  314.4524
 320  170.2485
 321  99.10046
 322  126.1912
 323  215.5262
 324  232.5799
 325  326.3036
 326  284.7449
 327  266.1244
 328  302.8857
 329  313.9856
 330  190.8023
 331  281.1308
 332  278.8759
 333  196.0768
 334  79.40786
 335  221.0647
 336  141.5003
 337  147.6693
 338  115.992
 339  275.1045
 340  186.384
 341  203.0091
 342  103.7677
 343  184.754
 344  209.3164
 345  185.2358
 346  153.1979
 347  126.9463
 348  168.2935
 349  237.4943
 350  239.5455
 351  170.0925
 352  166.4753
 353  282.1503
 354  271.4808
 355  154.9382
 356  199.4216
 357  208.3517
 358  257.5177
 359  184.0553
 360  109.1288
 361  139.9791
 362  274.0172
 363  219.879
 364  198.3906
 365  339.3896
 366  289.3144
 367  303.1961
 368  155.8577
 369  240.2045
 370  285.7181
 371  269.107
 372  166.9047
 373  227.6647
 374  128.9124
 375  119.142
 376  166.3856
 377  211.4514
 378  172.0709
 379  175.9111
 380  223.1109
 381  205.1894
 382  237.0373
 383  292.4849
 384  234.2615
 385  388.0896
 386  275.2568
 387  111.6977
 388  75.50689
 389  178.9827
 390  363.7376
 391  235.164
 392  263.1513
 393  240.3635
 394  210.6056
 395  215.1845
 396  312.1151
 397  324.2385
 398  300.8399
 399  258.7637
 400  214.4234
 401  139.3996
 402  122.5013
 403  280.1075
 404  170.0586
 405  144.5456
 406  125.3889
 407  194.4217
 408  191.4392
 409  90.79993
 410  111.4617
 411  12.94476
 412  75.09225
 413  264.6724
 414  170.2863
 415  122.5105
 416  109.6369
 417  160.3176
 418  63.3257
 419  91.45296
 420  168.2181
 421  275.9144
 422  355.3094
 423  272.7455
 424  229.3166
 425  187.523
 426  304.6993
 427  260.6042
 428  258.2405
 429  281.3068
 430  167.9308
 431  100.368
 432  99.47497
 433  279.57
 434  269.721
 435  308.2448
 436  205.1711
 437  236.8463
 438  255.8331
 439  284.7097
 440  369.9377
 441  270.1933
 442  165.3988
 443  95.45564
 444  305.1574
 445  258.2873
 446  313.083
 447  234.33
 448  267.2093
 449  361.5622
 450  331.4609
 451  317.5327
 452  378.1214
 453  275.5088
 454  179.0651
 455  113.2572
 456  274.3754
 457  240.1084
 458  121.6751
 459  173.1682
 460  166.7443
 461  173.0558
 462  201.1952
 463  313.0119
 464  410.7495
 465  283.0304
 466  286.5219
 467  228.4715
 468  284.6671
 469  285.4761
 470  293.755
 471  265.1168
 472  287.8004
 473  250.9289
 474  247.033
 475  299.1682
 476  258.9695
 477  118.9504
 478  198.1735
 479  177.3959
 480  191.4942
 481  300.0501
 482  286.0471
 483  205.6342
 484  173.8434
 485  131.1198
 486  184.8437
 487  256.1689
 488  201.5278
 489  219.3093
 490  176.6001
 491  99.34812
 492  238.2296
 493  285.9156
 494  322.0379
 495  163.3394
 496  205.8252
 497  166.1714
 498  274.8989
 499  232.3957
 500  124.4654
 501  79.49293
 502  154.8923
 503  236.0954
 504  167.3739
 505  177.8997
 506  128.9821
 507  79.4774
 508  155.9061
 509  266.6349
 510  331.1089
 511  343.2586
