# Input file       =  1191208577.114983_cleaned.dat
# Candidate        =  PSR_0332+5434
# Telescope        =  AR
# Epoch_topo       =  58031.136529108604
# Epoch_bary       =  N/A
# T_sample         =  0.002
# Data Folded      =  7340032
# Data Avg         =  0.0146195677533087
# Data StdDev      =  1.00003274943044 
# Profile Bins     =  512
# Profile Avg      =  209.606551790309 
# Profile StdDev   =  119.736957565512 
# Reduced chi-sqr  =  1.417
# Prob(Noise)      <  1.53e-09   (~5.9 sigma)
# P_topo (ms)      =  714.475313097546  +/- 0.000121
# P'_topo (s/s)    =  -0                +/- 6.37e-11
# P''_topo (s/s^2) =  0                 +/- 2.81e-14
# P_bary (ms)      =  N/A
# P'_bary (s/s)    =  N/A
# P''_bary (s/s^2) =  N/A
# P_orb (s)        =  N/A
# asin(i)/c (s)    =  N/A
# eccentricity     =  N/A
# w (rad)          =  N/A
# T_peri           =  N/A
######################################################
   0  193.5916
   1  177.1642
   2  251.9626
   3  326.9988
   4  249.3743
   5  150.1794
   6  162.8089
   7  171.471
   8  192.6501
   9  143.4846
  10  324.5326
  11  232.6544
  12  0.6466673
  13  58.03884
  14  143.1378
  15  279.9397
  16  215.864
  17  136.3438
  18  139.2164
  19  177.8839
  20  162.1227
  21  154.3142
  22  276.9713
  23  239.016
  24  166.378
  25  84.17001
  26  101.3671
  27  107.4343
  28  86.91637
  29  308.5723
  30  414.05
  31  275.899
  32  237.5746
  33  180.1004
  34  208.0469
  35  187.8465
  36  139.009
  37  136.5721
  38  58.01078
  39  126.1907
  40  51.11605
  41  106.4642
  42  276.5378
  43  218.3482
  44  171.3665
  45  197.465
  46  282.7376
  47  370.762
  48  277.5445
  49  258.2458
  50  280.1913
  51  272.1467
  52  241.714
  53  278.8
  54  305.2985
  55  254.3399
  56  224.833
  57  297.6167
  58  261.8389
  59  210.3554
  60  224.2653
  61  450.3331
  62  385.8554
  63  219.4177
  64  186.8691
  65  160.1977
  66  121.701
  67  143.448
  68  219.3056
  69  145.236
  70  115.8838
  71  265.4843
  72  160.1183
  73  121.8063
  74  188.7595
  75  143.0799
  76  160.4155
  77  168.1425
  78  181.1924
  79  204.0394
  80  270.2667
  81  178.2676
  82  -1.974504
  83  123.6406
  84  198.4151
  85  285.3656
  86  446.2691
  87  255.5961
  88  146.3969
  89  155.8203
  90  229.084
  91  206.2196
  92  117.2254
  93  193.7205
  94  270.3363
  95  79.5583
  96  66.75231
  97  174.2621
  98  82.27848
  99  67.07461
 100  228.0161
 101  267.489
 102  319.8111
 103  132.7584
 104  129.0726
 105  33.7058
 106  62.22974
 107  273.1664
 108  167.1906
 109  134.8013
 110  153.663
 111  244.6215
 112  173.2068
 113  157.2702
 114  87.58693
 115  149.9438
 116  321.211
 117  313.1677
 118  287.286
 119  285.2109
 120  163.9269
 121  139.7721
 122  136.9361
 123  148.8892
 124  118.7965
 125  113.1788
 126  272.9344
 127  249.3362
 128  185.8627
 129  225.9183
 130  385.375
 131  332.4149
 132  200.2794
 133  160.2207
 134  355.6135
 135  416.6726
 136  189.2495
 137  110.9479
 138  222.0903
 139  284.321
 140  278.042
 141  280.0374
 142  301.5709
 143  315.7802
 144  521.29
 145  686.4161
 146  793.033
 147  817.7546
 148  780.6668
 149  715.9236
 150  535.8025
 151  298.7099
 152  238.6098
 153  156.1875
 154  16.38743
 155  158.4781
 156  231.472
 157  328.3192
 158  126.4574
 159  115.9753
 160  156.1278
 161  276.9181
 162  444.9462
 163  297.852
 164  222.9225
 165  160.955
 166  147.1519
 167  118.5407
 168  315.1917
 169  324.4434
 170  301.9681
 171  162.6808
 172  227.1364
 173  231.8501
 174  183.403
 175  156.2591
 176  126.2371
 177  135.8368
 178  240.183
 179  287.3644
 180  465.4605
 181  419.4767
 182  300.6505
 183  266.1161
 184  313.9072
 185  282.3171
 186  339.9262
 187  224.2475
 188  278.7579
 189  341.9872
 190  318.032
 191  144.0507
 192  206.3512
 193  183.5891
 194  203.4634
 195  151.7965
 196  147.3931
 197  175.7844
 198  86.81239
 199  175.8987
 200  148.485
 201  37.47093
 202  169.1227
 203  234.3018
 204  301.9977
 205  354.3197
 206  294.5732
 207  113.2237
 208  287.7365
 209  189.7604
 210  156.0587
 211  209.6944
 212  162.8016
 213  113.5682
 214  123.4432
 215  160.6827
 216  238.2952
 217  333.8308
 218  295.483
 219  166.05
 220  109.1884
 221  250.4259
 222  257.7184
 223  236.814
 224  86.85435
 225  95.31326
 226  68.28345
 227  267.5656
 228  170.6849
 229  86.31639
 230  178.9278
 231  155.7408
 232  135.2273
 233  147.3543
 234  220.2565
 235  328.9394
 236  257.9789
 237  298.7796
 238  275.3624
 239  199.9476
 240  202.8691
 241  257.247
 242  201.629
 243  233.3585
 244  97.13306
 245  167.4553
 246  286.5401
 247  209.1131
 248  176.8178
 249  204.2319
 250  213.7034
 251  295.7207
 252  314.9958
 253  237.7089
 254  309.6314
 255  291.4683
 256  143.8944
 257  36.32821
 258  139.4234
 259  172.29
 260  72.30887
 261  126.4657
 262  252.4459
 263  200.1388
 264  125.4714
 265  146.3487
 266  328.9751
 267  300.9556
 268  332.6826
 269  325.2664
 270  189.2315
 271  252.7473
 272  264.1586
 273  274.7348
 274  269.0829
 275  314.7199
 276  272.8315
 277  188.1102
 278  236.8975
 279  192.1526
 280  215.7734
 281  318.3726
 282  375.3955
 283  198.3552
 284  275.566
 285  373.7292
 286  194.8112
 287  106.3172
 288  88.14159
 289  222.9771
 290  359.6
 291  202.7159
 292  137.6546
 293  202.6614
 294  279.9693
 295  211.187
 296  148.3578
 297  158.5439
 298  281.5243
 299  161.8123
 300  173.2896
 301  97.06892
 302  14.22589
 303  69.87778
 304  219.5014
 305  321.7891
 306  329.2689
 307  190.6756
 308  0.1302487
 309  176.0559
 310  195.3425
 311  164.7975
 312  107.2791
 313  243.7866
 314  224.6926
 315  151.3045
 316  121.3989
 317  128.8416
 318  5.083849
 319  59.32951
 320  65.68887
 321  280.8993
 322  218.2606
 323  215.7567
 324  166.1545
 325  180.0001
 326  133.0934
 327  139.6066
 328  51.82946
 329  84.56271
 330  103.4164
 331  167.3552
 332  120.365
 333  231.2593
 334  204.6625
 335  217.9093
 336  289.3948
 337  341.6687
 338  331.9345
 339  294.1449
 340  299.3593
 341  146.7506
 342  202.9475
 343  112.0465
 344  198.6311
 345  254.9177
 346  180.8532
 347  241.8303
 348  234.803
 349  208.1344
 350  210.5415
 351  119.9742
 352  174.1993
 353  12.11003
 354  154.2396
 355  155.5862
 356  136.1377
 357  189.1293
 358  277.7332
 359  263.1746
 360  211.6827
 361  236.9742
 362  244.049
 363  299.5481
 364  297.6823
 365  222.9311
 366  122.3612
 367  113.2127
 368  101.7941
 369  53.02087
 370  169.6061
 371  260.8678
 372  177.6059
 373  69.47665
 374  231.0152
 375  199.0693
 376  335.2937
 377  432.9921
 378  335.7467
 379  253.388
 380  317.3253
 381  276.066
 382  237.7229
 383  96.84393
 384  49.92717
 385  175.6027
 386  210.9435
 387  211.1381
 388  249.3869
 389  151.7438
 390  195.6858
 391  283.3895
 392  265.7574
 393  223.0879
 394  324.5169
 395  433.0823
 396  297.3181
 397  149.9768
 398  232.403
 399  277.2723
 400  162.5869
 401  138.1221
 402  93.22149
 403  112.9352
 404  91.47512
 405  163.9177
 406  111.3055
 407  91.14974
 408  235.9971
 409  203.1643
 410  102.0609
 411  112.9401
 412  262.2281
 413  236.8109
 414  104.4737
 415  102.1293
 416  212.6226
 417  181.8064
 418  187.8279
 419  274.5946
 420  232.4586
 421  197.2422
 422  145.9364
 423  127.9295
 424  193.0043
 425  165.0029
 426  198.3905
 427  340.4023
 428  312.6434
 429  241.8132
 430  307.4238
 431  221.2425
 432  236.9846
 433  313.5317
 434  214.7841
 435  261.9218
 436  346.0651
 437  236.2416
 438  235.5425
 439  224.2598
 440  197.2763
 441  98.58312
 442  80.81734
 443  66.50154
 444  157.2294
 445  179.283
 446  64.57706
 447  -49.582
 448  63.92022
 449  221.351
 450  301.0931
 451  242.1839
 452  298.8565
 453  234.9484
 454  301.2499
 455  259.2195
 456  261.1396
 457  289.2494
 458  237.0742
 459  340.1144
 460  275.5444
 461  215.7843
 462  143.2408
 463  145.3745
 464  167.7256
 465  168.9897
 466  261.6602
 467  122.6289
 468  61.51829
 469  190.3727
 470  262.0242
 471  334.05
 472  337.7878
 473  211.7827
 474  182.0201
 475  67.35497
 476  104.6367
 477  253.3153
 478  313.1683
 479  159.5296
 480  236.839
 481  102.9035
 482  85.32886
 483  198.7628
 484  142.7277
 485  136.7877
 486  185.6739
 487  266.9944
 488  239.759
 489  75.29857
 490  158.5213
 491  325.0018
 492  323.8837
 493  187.0452
 494  104.9215
 495  172.6315
 496  171.4772
 497  162.9979
 498  139.9673
 499  106.2604
 500  184.4245
 501  192.3013
 502  205.9418
 503  98.2508
 504  51.83323
 505  156.9989
 506  90.38259
 507  125.8228
 508  222.8091
 509  307.979
 510  62.90643
 511  114.2975
