# Input file       =  1191107527.118443_cleaned.dat
# Candidate        =  PSR_0332+5434
# Telescope        =  AR
# Epoch_topo       =  58029.966968963461
# Epoch_bary       =  N/A
# T_sample         =  0.002
# Data Folded      =  7340032
# Data Avg         =  0.0327189842033217
# Data StdDev      =  2.47986051059781 
# Profile Bins     =  256
# Profile Avg      =  935.971745115775 
# Profile StdDev   =  419.910028618974 
# Reduced chi-sqr  =  1.737
# Prob(Noise)      <  2.73e-12   (~6.9 sigma)
# P_topo (ms)      =  714.47428527043   +/- 0.000222
# P'_topo (s/s)    =  -0                +/- 1.17e-10
# P''_topo (s/s^2) =  0                 +/- 5.17e-14
# P_bary (ms)      =  N/A
# P'_bary (s/s)    =  N/A
# P''_bary (s/s^2) =  N/A
# P_orb (s)        =  N/A
# asin(i)/c (s)    =  N/A
# eccentricity     =  N/A
# w (rad)          =  N/A
# T_peri           =  N/A
######################################################
   0  1501.26
   1  1259.76
   2  1204.499
   3  721.3505
   4  668.7232
   5  1327.911
   6  1227.652
   7  1146.023
   8  1531.335
   9  1795.438
  10  880.7758
  11  473.3163
  12  680.6995
  13  691.8228
  14  946.9941
  15  1609.051
  16  1266.029
  17  549.966
  18  1238.593
  19  1150.366
  20  2085.73
  21  1349.98
  22  1066.478
  23  697.8533
  24  590.7838
  25  888.0179
  26  796.4632
  27  1048.994
  28  1069.563
  29  550.7881
  30  907.03
  31  673.4139
  32  476.5882
  33  567.578
  34  761.0687
  35  598.8537
  36  946.7976
  37  466.889
  38  1081.322
  39  472.7493
  40  637.6938
  41  730.8561
  42  543.5359
  43  757.9327
  44  1112.036
  45  572.0638
  46  1290.381
  47  1115.056
  48  794.0561
  49  833.8215
  50  1116.445
  51  892.7474
  52  1395.315
  53  960.9322
  54  474.3629
  55  866.8334
  56  954.2668
  57  406.4601
  58  639.0643
  59  682.5029
  60  18.70442
  61  1290.926
  62  1505.063
  63  760.9532
  64  604.571
  65  901.5831
  66  934.7927
  67  1185.279
  68  14.93888
  69  1365.316
  70  762.6379
  71  1396.692
  72  924.5039
  73  1179.838
  74  467.3012
  75  778.9523
  76  768.2574
  77  375.2665
  78  577.3846
  79  659.9119
  80  563.5167
  81  941.1978
  82  534.4685
  83  973.1724
  84  1135.173
  85  485.5966
  86  184.1218
  87  543.0132
  88  1118.649
  89  1293.925
  90  661.5408
  91  43.36372
  92  160.0016
  93  547.4489
  94  365.1284
  95  553.8816
  96  679.6981
  97  1622.319
  98  778.3707
  99  705.6809
 100  1066.406
 101  374.4069
 102  614.6272
 103  567.936
 104  848.2368
 105  993.4841
 106  515.653
 107  442.835
 108  1259.413
 109  1492.242
 110  617.9764
 111  1355.692
 112  728.5291
 113  982.8599
 114  1460.062
 115  1116.495
 116  736.5192
 117  1310.814
 118  1294.742
 119  985.807
 120  1011.217
 121  604.6674
 122  487.804
 123  96.70473
 124  782.775
 125  1023.264
 126  637.4294
 127  328.8375
 128  723.7488
 129  1263.942
 130  898.4739
 131  1308.588
 132  844.6462
 133  1322.701
 134  835.205
 135  693.929
 136  966.2336
 137  191.5483
 138  497.6768
 139  1229.527
 140  1047.922
 141  1176.568
 142  1074.563
 143  1015.259
 144  826.8683
 145  1264.03
 146  1076.05
 147  1372.352
 148  1121.38
 149  807.6088
 150  1101.224
 151  1483.897
 152  398.6703
 153  1133.258
 154  1349.424
 155  808.3371
 156  1401.793
 157  1677.856
 158  2938.464
 159  4219.503
 160  4114.306
 161  2287.586
 162  1065.854
 163  619.8636
 164  379.7476
 165  752.9216
 166  1129.269
 167  1428.009
 168  1139.815
 169  855.9901
 170  1271.339
 171  1134.395
 172  1262.318
 173  435.287
 174  925.4753
 175  904.7314
 176  416.5478
 177  769.7603
 178  927.0537
 179  1264.264
 180  897.8622
 181  1037.514
 182  257.6083
 183  527.4659
 184  1137.873
 185  934.0137
 186  921.5516
 187  1196.473
 188  1190.757
 189  969.0251
 190  625.7673
 191  1133.129
 192  800.817
 193  462.5591
 194  657.8558
 195  452.7626
 196  756.4958
 197  512.8385
 198  855.3669
 199  708.68
 200  1241.438
 201  822.5703
 202  895.553
 203  1083.423
 204  1406.829
 205  1225.302
 206  1005.797
 207  1271.376
 208  1278.209
 209  549.0062
 210  796.8854
 211  818.3886
 212  925.1246
 213  1208.347
 214  1040.853
 215  928.0051
 216  756.0815
 217  678.5942
 218  823.3671
 219  637.0383
 220  1145.39
 221  158.7422
 222  1094.646
 223  1011.943
 224  1246.315
 225  164.6371
 226  587.3925
 227  883.0238
 228  758.3063
 229  858.2902
 230  1181.22
 231  671.6252
 232  1378.931
 233  516.3359
 234  686.1857
 235  1489.523
 236  1191.887
 237  1445.654
 238  908.7427
 239  617.8586
 240  407.2455
 241  973.7966
 242  933.5891
 243  1131.197
 244  1187.526
 245  344.576
 246  826.324
 247  819.3761
 248  939.8504
 249  786.7319
 250  671.723
 251  1022.826
 252  846.8748
 253  1127.946
 254  1224.074
 255  1938.625
