# Input file       =  1191710613.127054_cleaned.dat
# Candidate        =  PSR_0332+5434
# Telescope        =  AR
# Epoch_topo       =  58036.947131100162
# Epoch_bary       =  N/A
# T_sample         =  0.002
# Data Folded      =  7340032
# Data Avg         =  0.019754260910054
# Data StdDev      =  1.0000110295306  
# Profile Bins     =  512
# Profile Avg      =  283.415686084393 
# Profile StdDev   =  119.734356975955 
# Reduced chi-sqr  =  1.807
# Prob(Noise)      <  4.14e-26   (~10.5 sigma)
# P_topo (ms)      =  714.478684301771  +/- 0.000166
# P'_topo (s/s)    =  -0                +/- 8.74e-11
# P''_topo (s/s^2) =  0                 +/- 3.86e-14
# P_bary (ms)      =  N/A
# P'_bary (s/s)    =  N/A
# P''_bary (s/s^2) =  N/A
# P_orb (s)        =  N/A
# asin(i)/c (s)    =  N/A
# eccentricity     =  N/A
# w (rad)          =  N/A
# T_peri           =  N/A
######################################################
   0  1224.06
   1  1091.139
   2  710.7485
   3  505.9115
   4  289.0019
   5  356.8002
   6  292.3716
   7  214.6851
   8  372.2134
   9  325.3389
  10  350.9407
  11  420.7526
  12  304.8729
  13  262.0529
  14  327.1198
  15  432.5282
  16  362.4667
  17  238.2009
  18  203.7851
  19  196.3154
  20  287.6595
  21  279.3291
  22  360.004
  23  417.742
  24  469.8257
  25  522.9515
  26  219.2063
  27  209.9969
  28  218.9136
  29  220.3114
  30  250.5186
  31  239.5072
  32  354.4992
  33  336.6735
  34  282.8621
  35  336.8426
  36  252.0662
  37  249.8792
  38  367.3166
  39  213.208
  40  260.5821
  41  327.7915
  42  406.2974
  43  271.6347
  44  380.6909
  45  350.9543
  46  220.5843
  47  204.9281
  48  176.7505
  49  344.0197
  50  422.2004
  51  289.3725
  52  185.0591
  53  166.9608
  54  239.577
  55  305.6289
  56  353.221
  57  337.5586
  58  328.6574
  59  251.358
  60  285.8851
  61  341.4488
  62  416.1923
  63  399.4517
  64  293.6241
  65  201.6291
  66  183.8776
  67  146.635
  68  333.3637
  69  222.5264
  70  348.8017
  71  243.3548
  72  122.154
  73  207.1134
  74  112.1433
  75  127.7653
  76  227.1938
  77  315.1504
  78  274.1534
  79  203.6509
  80  122.7498
  81  181.4121
  82  259.7558
  83  250.8086
  84  234.6712
  85  154.3004
  86  262.4333
  87  316.6572
  88  364.1946
  89  337.3296
  90  249.6424
  91  202.5675
  92  198.1003
  93  211.5744
  94  315.7015
  95  308.713
  96  241.7193
  97  263.7799
  98  253.7639
  99  358.8889
 100  373.813
 101  356.2722
 102  339.9514
 103  308.6302
 104  206.0693
 105  348.3387
 106  388.8296
 107  308.6727
 108  325.3706
 109  362.0644
 110  288.9869
 111  295.2662
 112  146.4044
 113  231.8814
 114  241.6802
 115  393.9297
 116  326.0486
 117  181.5434
 118  295.0677
 119  342.2876
 120  397.3208
 121  286.4929
 122  164.8771
 123  250.9122
 124  393.0475
 125  357.6252
 126  441.3668
 127  263.3319
 128  186.5182
 129  207.2189
 130  363.3596
 131  381.4625
 132  256.4923
 133  193.2345
 134  278.5318
 135  352.0601
 136  241.6902
 137  299.0478
 138  317.1114
 139  271.822
 140  168.639
 141  194.0633
 142  374.3716
 143  242.5954
 144  387.8931
 145  437.0612
 146  283.2144
 147  267.2794
 148  93.37601
 149  133.1785
 150  195.6146
 151  302.4495
 152  401.6286
 153  432.3925
 154  293.9183
 155  305.7258
 156  339.5258
 157  356.0545
 158  301.055
 159  251.0643
 160  373.7584
 161  221.9706
 162  135.1827
 163  307.1302
 164  281.5162
 165  323.0382
 166  313.8116
 167  318.3801
 168  186.2704
 169  216.2054
 170  353.9832
 171  376.5751
 172  350.5226
 173  463.0028
 174  326.3617
 175  238.1597
 176  253.1455
 177  274.7063
 178  244.9663
 179  332.8778
 180  328.0666
 181  344.7096
 182  303.6582
 183  239.5112
 184  45.36375
 185  111.0994
 186  232.4721
 187  259.846
 188  299.1375
 189  277.3977
 190  240.3309
 191  110.1588
 192  191.2964
 193  345.4846
 194  391.2316
 195  353.1001
 196  314.7214
 197  174.3947
 198  71.58757
 199  125.8624
 200  269.2664
 201  203.0994
 202  317.7148
 203  247.1552
 204  294.034
 205  381.0648
 206  204.8299
 207  330.1088
 208  206.4909
 209  240.1312
 210  275.1146
 211  279.7164
 212  275.276
 213  205.0243
 214  114.5363
 215  249.2824
 216  171.2988
 217  282.6496
 218  179.3305
 219  177.1901
 220  222.3728
 221  162.8633
 222  195.4804
 223  133.1948
 224  149.2253
 225  185.9479
 226  323.5952
 227  364.892
 228  305.1558
 229  346.412
 230  249.9104
 231  80.50115
 232  125.8178
 233  153.9053
 234  180.2574
 235  268.7818
 236  309.47
 237  150.4113
 238  130.2255
 239  211.2438
 240  168.8434
 241  107.4997
 242  268.1548
 243  242.1508
 244  298.0558
 245  202.6237
 246  180.9268
 247  221.0595
 248  229.1019
 249  261.0964
 250  183.5147
 251  259.6867
 252  264.2435
 253  131.6864
 254  95.72719
 255  237.222
 256  330.8348
 257  350.9316
 258  281.3438
 259  222.8103
 260  328.12
 261  315.7551
 262  354.1945
 263  383.5108
 264  271.2821
 265  122.1337
 266  260.6323
 267  330.4059
 268  271.2004
 269  253.4997
 270  250.4277
 271  315.8857
 272  330.4705
 273  185.5685
 274  167.2171
 275  227.4576
 276  261.5098
 277  197.3696
 278  204.6167
 279  258.271
 280  203.0224
 281  201.5833
 282  203.2515
 283  228.3639
 284  200.7336
 285  192.736
 286  333.9585
 287  271.931
 288  226.3942
 289  218.3582
 290  253.3873
 291  199.2583
 292  154.0393
 293  217.5438
 294  190.4253
 295  109.9876
 296  181.4958
 297  209.5606
 298  188.2423
 299  221.3227
 300  162.0675
 301  248.8307
 302  304.6175
 303  375.7433
 304  394.6093
 305  302.9526
 306  272.7047
 307  312.9953
 308  397.6933
 309  377.4345
 310  273.0931
 311  171.5522
 312  172.6645
 313  253.6052
 314  366.0099
 315  345.82
 316  206.149
 317  354.4804
 318  404.9499
 319  319.8416
 320  298.1201
 321  270.8979
 322  266.2291
 323  312.037
 324  367.5494
 325  210.9566
 326  188.9953
 327  295.1211
 328  417.1352
 329  392.1492
 330  284.827
 331  189.8357
 332  217.5703
 333  330.3252
 334  244.4068
 335  366.093
 336  407.0567
 337  369.682
 338  266.6544
 339  194.4897
 340  273.6366
 341  290.4098
 342  226.5203
 343  260.4695
 344  285.5675
 345  347.4521
 346  511.9654
 347  385.9507
 348  364.242
 349  246.3
 350  312.0602
 351  287.8834
 352  294.5522
 353  316.3255
 354  262.5315
 355  138.7981
 356  209.2151
 357  315.8206
 358  371.9122
 359  324.9577
 360  293.772
 361  321.3037
 362  296.7115
 363  227.4918
 364  152.9462
 365  225.0296
 366  302.6181
 367  161.7896
 368  137.5544
 369  96.83006
 370  102.2227
 371  201.7838
 372  356.288
 373  326.3718
 374  158.4578
 375  201.9779
 376  347.6544
 377  325.8915
 378  185.6004
 379  187.7202
 380  190.7781
 381  284.4768
 382  357.9423
 383  352.6178
 384  231.364
 385  243.7069
 386  324.4757
 387  369.2594
 388  358.1549
 389  193.9895
 390  178.1491
 391  265.2199
 392  258.9225
 393  170.4574
 394  183.8472
 395  263.2722
 396  262.2291
 397  155.3103
 398  230.2385
 399  214.5606
 400  279.8117
 401  304.2466
 402  295.5872
 403  368.186
 404  269.1904
 405  223.1588
 406  175.3013
 407  176.2531
 408  278.1726
 409  110.927
 410  195.6179
 411  188.8375
 412  285.6565
 413  363.8095
 414  274.5068
 415  271.757
 416  310.0555
 417  144.0227
 418  230.5635
 419  284.9441
 420  191.5374
 421  143.9833
 422  276.6757
 423  321.4149
 424  367.1705
 425  463.0404
 426  397.2917
 427  262.0204
 428  214.3381
 429  438.8255
 430  386.7233
 431  324.6104
 432  230.8535
 433  419.1588
 434  388.0123
 435  272.1978
 436  268.4796
 437  216.6167
 438  138.3412
 439  211.7409
 440  310.8829
 441  212.1547
 442  231.6563
 443  330.4868
 444  354.8737
 445  434.8189
 446  373.2916
 447  299.5023
 448  195.9987
 449  403.5301
 450  334.3867
 451  97.85278
 452  214.591
 453  306.4974
 454  238.1329
 455  206.8461
 456  198.599
 457  378.4651
 458  334.7823
 459  329.7744
 460  352.2361
 461  299.4506
 462  256.1864
 463  304.0143
 464  388.5482
 465  299.5798
 466  424.6965
 467  301.4424
 468  221.1937
 469  100.5253
 470  280.9436
 471  317.5294
 472  360.0092
 473  203.4109
 474  142.5263
 475  156.4239
 476  244.0192
 477  418.115
 478  285.9142
 479  243.3688
 480  164.383
 481  233.3849
 482  193.5016
 483  167.3281
 484  190.7892
 485  319.0884
 486  319.0175
 487  322.574
 488  318.1082
 489  315.4386
 490  218.759
 491  362.5273
 492  449.2457
 493  340.1782
 494  442.8512
 495  428.7911
 496  343.8893
 497  353.7053
 498  292.0777
 499  229.9874
 500  289.3928
 501  419.9708
 502  423.5574
 503  486.128
 504  525.8767
 505  476.4666
 506  491.9233
 507  484.3249
 508  628.4503
 509  764.3174
 510  972.6309
 511  1104.098
