# Input file       =  1191437533.143266_cleaned.dat
# Candidate        =  PSR_0332+5434
# Telescope        =  AR
# Epoch_topo       =  58033.786483139651
# Epoch_bary       =  N/A
# T_sample         =  0.002
# Data Folded      =  7208960
# Data Avg         =  0.00456444146318659
# Data StdDev      =  1.00007895617321 
# Profile Bins     =  512
# Profile Avg      =  64.2850748893559 
# Profile StdDev   =  118.668544667967 
# Reduced chi-sqr  =  1.514
# Prob(Noise)      <  4.73e-13   (~7.1 sigma)
# P_topo (ms)      =  714.476597028445  +/- 0.000187
# P'_topo (s/s)    =  -0                +/- 1e-10
# P''_topo (s/s^2) =  0                 +/- 4.51e-14
# P_bary (ms)      =  N/A
# P'_bary (s/s)    =  N/A
# P''_bary (s/s^2) =  N/A
# P_orb (s)        =  N/A
# asin(i)/c (s)    =  N/A
# eccentricity     =  N/A
# w (rad)          =  N/A
# T_peri           =  N/A
######################################################
   0  892.5806
   1  916.5042
   2  647.7462
   3  268.8461
   4  79.06911
   5  -3.87646
   6  -51.8465
   7  -36.96198
   8  -2.878345
   9  2.310527
  10  9.618655
  11  149.7699
  12  159.6206
  13  226.0276
  14  252.2583
  15  107.0323
  16  9.950193
  17  97.24313
  18  123.2963
  19  147.7135
  20  -76.80529
  21  -115.9633
  22  76.77322
  23  173.5152
  24  183.3895
  25  32.09929
  26  10.38075
  27  119.2155
  28  85.74003
  29  143.1339
  30  151.4391
  31  156.3711
  32  178.6297
  33  25.91724
  34  107.1107
  35  136.4919
  36  131.0913
  37  199.6397
  38  -4.061916
  39  83.09271
  40  59.61441
  41  108.6609
  42  190.1235
  43  184.0945
  44  125.7773
  45  158.0493
  46  61.13358
  47  122.0343
  48  52.4974
  49  3.419303
  50  99.20216
  51  145.4074
  52  83.81509
  53  103.839
  54  18.02824
  55  57.2004
  56  90.19423
  57  32.48622
  58  35.54231
  59  104.1648
  60  -38.90508
  61  100.5801
  62  54.86258
  63  43.3318
  64  21.74234
  65  -0.4160751
  66  -84.05162
  67  -1.192952
  68  103.3445
  69  21.11467
  70  61.32103
  71  74.18494
  72  98.39445
  73  219.4557
  74  192.7114
  75  111.7199
  76  -66.01891
  77  -65.46307
  78  116.0698
  79  92.00498
  80  96.85862
  81  151.2903
  82  116.4066
  83  45.83111
  84  -40.03308
  85  -84.34466
  86  67.42126
  87  26.56034
  88  57.40339
  89  125.9398
  90  41.20396
  91  -38.34042
  92  -2.129439
  93  89.75732
  94  -126.098
  95  2.509743
  96  137.5124
  97  286.8799
  98  119.6315
  99  61.23781
 100  102.7178
 101  -28.33125
 102  -46.22935
 103  68.43863
 104  82.67011
 105  -59.98977
 106  -89.95204
 107  -72.11038
 108  93.6451
 109  -10.77681
 110  -50.23937
 111  64.23042
 112  75.86195
 113  125.0872
 114  50.98874
 115  117.5874
 116  0.6262623
 117  24.23868
 118  74.29738
 119  117.0045
 120  31.96132
 121  67.93662
 122  171.411
 123  271.7617
 124  173.5812
 125  170.6948
 126  202.9756
 127  36.30613
 128  94.43665
 129  78.92201
 130  81.20406
 131  51.42071
 132  39.78765
 133  93.12403
 134  101.691
 135  197.912
 136  42.48513
 137  -37.4221
 138  -69.10513
 139  123.982
 140  152.902
 141  168.307
 142  183.359
 143  100.7649
 144  19.98099
 145  -21.45183
 146  -103.6166
 147  70.25875
 148  103.6101
 149  92.59858
 150  47.70617
 151  67.04302
 152  29.33015
 153  5.885337
 154  158.8061
 155  -26.76982
 156  4.174876
 157  59.3903
 158  -120.0182
 159  3.91692
 160  111.8871
 161  64.49358
 162  114.2721
 163  -27.2746
 164  -13.4104
 165  21.72128
 166  -37.04649
 167  -54.08124
 168  -16.80519
 169  16.97318
 170  50.69324
 171  111.712
 172  21.60928
 173  126.024
 174  79.1551
 175  62.30034
 176  -39.54324
 177  41.29628
 178  67.45356
 179  65.21217
 180  82.6958
 181  31.37707
 182  39.24954
 183  79.8488
 184  95.37372
 185  30.01745
 186  -1.879113
 187  -8.5541
 188  -84.06636
 189  52.66424
 190  101.4069
 191  53.15813
 192  36.20198
 193  -0.7738498
 194  -7.495415
 195  -102.5745
 196  -75.05073
 197  -17.38247
 198  23.87609
 199  137.0004
 200  158.8925
 201  35.85842
 202  146.9962
 203  178.5037
 204  55.34202
 205  50.73141
 206  -3.255583
 207  106.0428
 208  111.308
 209  58.64527
 210  213.5173
 211  266.8116
 212  43.62664
 213  16.57673
 214  5.176079
 215  -55.96465
 216  55.41432
 217  80.88407
 218  50.46762
 219  -67.70348
 220  29.76251
 221  -12.69904
 222  52.54092
 223  108.3088
 224  54.65938
 225  -75.18069
 226  9.069395
 227  -28.26468
 228  -149.0034
 229  -45.60954
 230  -31.09188
 231  46.88624
 232  8.522148
 233  76.2006
 234  101.1641
 235  118.5721
 236  28.10923
 237  115.1069
 238  110.1951
 239  39.92654
 240  65.75576
 241  100.4028
 242  107.5322
 243  17.21127
 244  0.9930917
 245  60.72085
 246  -7.308895
 247  17.69518
 248  89.35269
 249  124.5266
 250  82.98244
 251  -39.25686
 252  130.5745
 253  68.97755
 254  44.85822
 255  43.65447
 256  55.70615
 257  -40.90543
 258  -10.04716
 259  26.59749
 260  10.99461
 261  68.96911
 262  48.03401
 263  117.1961
 264  143.1644
 265  60.17977
 266  19.60155
 267  152.3931
 268  55.0676
 269  -93.98971
 270  79.00229
 271  171.9999
 272  68.89555
 273  16.7422
 274  140.8526
 275  186.7245
 276  118.4048
 277  88.62504
 278  52.05889
 279  28.03871
 280  81.62236
 281  75.02361
 282  124.8958
 283  108.2895
 284  311.8328
 285  204.8542
 286  91.50397
 287  92.75526
 288  142.9293
 289  208.0871
 290  76.24035
 291  -40.85791
 292  138.3492
 293  122.0115
 294  122.6273
 295  121.5693
 296  93.04578
 297  104.4403
 298  209.3178
 299  75.0646
 300  -41.08493
 301  74.38606
 302  39.27089
 303  64.52712
 304  14.13689
 305  56.7909
 306  100.0281
 307  -80.17054
 308  -81.04674
 309  80.63882
 310  234.9706
 311  174.423
 312  -41.55935
 313  -32.44068
 314  -11.40134
 315  173.1902
 316  76.42485
 317  102.0758
 318  62.4918
 319  52.7579
 320  218.9457
 321  114.6255
 322  70.8439
 323  85.30367
 324  19.45062
 325  22.88143
 326  31.10909
 327  112.7768
 328  31.84625
 329  4.470074
 330  58.29088
 331  136.0186
 332  -69.37206
 333  -8.567052
 334  25.67014
 335  46.31604
 336  35.88087
 337  15.61755
 338  113.8416
 339  96.56831
 340  144.2483
 341  38.1033
 342  34.09011
 343  72.2803
 344  145.508
 345  65.60525
 346  -37.38431
 347  38.60452
 348  29.77497
 349  -25.68327
 350  -61.1007
 351  -45.46072
 352  23.8314
 353  79.99818
 354  41.23938
 355  78.2468
 356  250.4867
 357  64.25371
 358  -11.502
 359  -131.1731
 360  16.54226
 361  113.7905
 362  65.87246
 363  -21.79521
 364  15.18054
 365  38.37225
 366  75.57787
 367  42.45495
 368  133.4525
 369  117.7772
 370  163.533
 371  15.19353
 372  -37.52886
 373  -47.3235
 374  -17.96383
 375  -47.31505
 376  -40.39604
 377  68.20016
 378  75.41022
 379  125.0057
 380  84.99588
 381  -29.5036
 382  -6.454677
 383  11.3054
 384  3.098061
 385  16.75377
 386  34.07163
 387  14.21867
 388  133.8967
 389  54.63892
 390  22.02913
 391  55.41385
 392  -74.96132
 393  10.82614
 394  112.0274
 395  52.7314
 396  57.06742
 397  -14.25785
 398  -45.28684
 399  -84.0086
 400  -47.37126
 401  -33.35436
 402  -90.24017
 403  43.34417
 404  105.6741
 405  36.87215
 406  -0.08453626
 407  -14.38722
 408  -72.61539
 409  92.20029
 410  110.5264
 411  -31.34763
 412  25.84988
 413  46.13438
 414  100.5486
 415  -41.03962
 416  89.00142
 417  92.52832
 418  63.88553
 419  68.36871
 420  151.8388
 421  73.39693
 422  29.4147
 423  38.74406
 424  22.37967
 425  80.65099
 426  52.01381
 427  101.2627
 428  192.3916
 429  93.77917
 430  -38.30936
 431  -23.94255
 432  97.21664
 433  -31.1066
 434  -49.05584
 435  22.94798
 436  136.4655
 437  144.6853
 438  218.1675
 439  47.91518
 440  29.75644
 441  20.71416
 442  -9.394677
 443  -80.35342
 444  -31.56543
 445  7.445157
 446  14.16907
 447  16.00627
 448  -50.49955
 449  -130.3331
 450  -40.24566
 451  57.65633
 452  188.4682
 453  163.7854
 454  74.78505
 455  68.33324
 456  108.5899
 457  66.54475
 458  47.66001
 459  -9.486993
 460  99.8401
 461  202.1303
 462  114.7314
 463  106.7505
 464  181.4499
 465  103.3899
 466  -31.88636
 467  -82.99613
 468  -54.37289
 469  38.44055
 470  87.80019
 471  142.0086
 472  66.91058
 473  18.63378
 474  48.88881
 475  -17.57609
 476  49.45553
 477  42.8277
 478  -66.42495
 479  35.99864
 480  175.87
 481  284.1503
 482  145.1576
 483  8.213447
 484  -25.52833
 485  -44.53791
 486  33.61143
 487  127.5164
 488  55.3895
 489  -106.4404
 490  -49.50068
 491  12.43551
 492  48.65915
 493  159.9085
 494  84.71005
 495  95.51758
 496  55.56896
 497  -154.4168
 498  -30.36374
 499  -4.992551
 500  -13.36236
 501  66.18668
 502  90.35716
 503  38.30206
 504  -2.651351
 505  200.2174
 506  258.3889
 507  151.8583
 508  174.5573
 509  384.4514
 510  601.2894
 511  741.3462
