# Input file       =  1191294783.105678-PSRB0329-2ms-sampling-dd.dat
# Candidate        =  PSR_0332+5434
# Telescope        =  AR
# Epoch_topo       =  58032.134283630534
# Epoch_bary       =  N/A
# T_sample         =  0.002
# Data Folded      =  7340032
# Data Avg         =  6.83748568452402e-12
# Data StdDev      =  5.10817884612498 
# Profile Bins     =  512
# Profile Avg      =  -0.405962613508254
# Profile StdDev   =  611.617763602109 
# Reduced chi-sqr  =  0.682
# Prob(Noise)      <  1   (~0.0 sigma)
# P_topo (ms)      =  714.475919581349  +/- 0.000102
# P'_topo (s/s)    =  -0                +/- 5.36e-11
# P''_topo (s/s^2) =  0                 +/- 2.37e-14
# P_bary (ms)      =  N/A
# P'_bary (s/s)    =  N/A
# P''_bary (s/s^2) =  N/A
# P_orb (s)        =  N/A
# asin(i)/c (s)    =  N/A
# eccentricity     =  N/A
# w (rad)          =  N/A
# T_peri           =  N/A
######################################################
   0  -154.2687
   1  -513.578
   2  308.7957
   3  409.6776
   4  57.97607
   5  -551.1033
   6  -278.9907
   7  -203.5809
   8  -285.3819
   9  -84.42052
  10  443.4041
  11  300.1916
  12  182.9402
  13  98.03077
  14  75.94046
  15  -0.1413549
  16  -321.2912
  17  59.83844
  18  384.3842
  19  526.7307
  20  325.623
  21  198.7267
  22  -260.2468
  23  -591.0502
  24  -592.5749
  25  -590.1873
  26  207.5751
  27  319.8087
  28  240.9604
  29  539.7313
  30  367.6376
  31  147.0181
  32  -283.4935
  33  -82.11667
  34  -384.9366
  35  309.395
  36  59.52703
  37  90.01376
  38  -35.90686
  39  74.1959
  40  51.7029
  41  243.9261
  42  115.7645
  43  270.334
  44  843.0632
  45  -24.04495
  46  -364.1544
  47  -53.83728
  48  244.8216
  49  227.9763
  50  -202.6869
  51  67.55115
  52  566.4058
  53  468.774
  54  889.8521
  55  685.1273
  56  322.9548
  57  -282.0074
  58  360.1963
  59  245.9739
  60  390.466
  61  428.2565
  62  104.4094
  63  417.8862
  64  238.3074
  65  223.2209
  66  58.94375
  67  191.8671
  68  313.1758
  69  631.0347
  70  233.519
  71  476.0047
  72  85.01244
  73  124.8883
  74  161.1461
  75  -245.4792
  76  -125.7906
  77  -25.102
  78  116.8224
  79  133.0164
  80  4.160213
  81  115.1997
  82  115.7786
  83  -91.34912
  84  -215.3542
  85  -176.7728
  86  473.7084
  87  159.8296
  88  160.4106
  89  481.3694
  90  386.0279
  91  134.7441
  92  216.7017
  93  391.2838
  94  443.4961
  95  433.1732
  96  472.7213
  97  362.3721
  98  48.84552
  99  116.3903
 100  284.9503
 101  420.1444
 102  571.2982
 103  566.2269
 104  410.05
 105  384.3316
 106  176.5425
 107  -83.00517
 108  69.67783
 109  -136.5031
 110  287.1024
 111  191.5257
 112  143.3301
 113  482.6194
 114  270.7717
 115  -78.12799
 116  160.731
 117  218.5252
 118  778.2083
 119  195.2996
 120  347.7278
 121  61.62962
 122  156.3948
 123  222.3307
 124  87.53147
 125  361.1967
 126  345.2658
 127  667.5245
 128  171.2355
 129  329.9081
 130  239.1362
 131  528.9808
 132  260.0564
 133  38.87531
 134  -54.11251
 135  309.6284
 136  234.6635
 137  44.52258
 138  220.9898
 139  192.8472
 140  283.2402
 141  136.414
 142  297.5222
 143  290.0291
 144  199.2368
 145  -185.195
 146  15.3834
 147  255.8924
 148  216.3861
 149  365.8304
 150  330.5639
 151  231.5183
 152  -120.7586
 153  -129.3351
 154  71.08524
 155  164.5152
 156  364.5014
 157  98.44991
 158  -314.9897
 159  -260.2386
 160  -76.53583
 161  -24.6034
 162  429.0474
 163  400.7191
 164  534.7438
 165  402.1257
 166  -144.326
 167  -57.59346
 168  74.10086
 169  156.5216
 170  336.7821
 171  356.6585
 172  558.8451
 173  530.4697
 174  -27.94268
 175  -229.8116
 176  112.6335
 177  370.7365
 178  59.2096
 179  95.13596
 180  200.0443
 181  -481.4085
 182  37.70248
 183  350.2925
 184  441.3818
 185  173.3344
 186  -220.5736
 187  13.2764
 188  6.859806
 189  -108.1436
 190  576.1047
 191  374.7639
 192  343.8741
 193  -13.61329
 194  -200.4931
 195  -319.0688
 196  -95.0092
 197  31.34923
 198  -45.40896
 199  99.27694
 200  -85.60062
 201  -215.1486
 202  -284.7325
 203  -194.6677
 204  337.5766
 205  388.6467
 206  211.9789
 207  175.5987
 208  -391.3437
 209  -150.7082
 210  11.47648
 211  -121.2613
 212  -151.2153
 213  176.6105
 214  129.6629
 215  -128.1347
 216  50.32936
 217  203.6596
 218  151.8622
 219  -98.18689
 220  -146.45
 221  161.1108
 222  220.078
 223  200.9029
 224  276.5208
 225  188.9554
 226  345.0427
 227  267.8118
 228  -147.7992
 229  -16.90463
 230  158.0644
 231  419.4536
 232  528.8038
 233  515.1938
 234  100.3909
 235  30.79423
 236  132.7032
 237  76.51864
 238  114.9825
 239  448.6854
 240  519.2139
 241  -196.5504
 242  -82.63635
 243  137.364
 244  -36.1604
 245  -121.5652
 246  -97.9728
 247  -28.98795
 248  -264.5164
 249  -285.2649
 250  -442.8033
 251  -563.036
 252  -292.3323
 253  65.49186
 254  38.93874
 255  -154.4369
 256  118.5269
 257  -36.27628
 258  -215.3466
 259  -69.31957
 260  46.63295
 261  -170.2901
 262  -166.7342
 263  -165.1612
 264  -84.49101
 265  -385.648
 266  -321.5201
 267  -264.608
 268  -148.3085
 269  -103.8861
 270  -133.3405
 271  -56.61741
 272  87.18146
 273  182.3345
 274  -259.6302
 275  -240.4075
 276  -87.12788
 277  -501.1955
 278  -595.4915
 279  -319.7151
 280  247.2193
 281  -114.3908
 282  -606.3018
 283  -408.6616
 284  127.757
 285  -374.5833
 286  -1011.304
 287  -599.9217
 288  -287.3868
 289  144.9341
 290  2.583819
 291  -194.2769
 292  -233.9218
 293  -281.4771
 294  16.68243
 295  -161.5164
 296  -179.8388
 297  -303.0968
 298  -213.2228
 299  -176.4773
 300  -294.9953
 301  -228.4695
 302  124.6273
 303  76.59026
 304  4.262879
 305  531.7511
 306  164.5279
 307  -99.43819
 308  106.2902
 309  -110.8483
 310  -638.8277
 311  -515.3113
 312  61.39059
 313  140.18
 314  407.2767
 315  -22.45156
 316  -74.33151
 317  -361.3199
 318  -729.2184
 319  -647.6989
 320  -466.7542
 321  123.2649
 322  110.5679
 323  -235.9394
 324  -230.5192
 325  -245.7766
 326  -196.1758
 327  -411.9238
 328  -419.8944
 329  230.7894
 330  38.88366
 331  175.0167
 332  180.9505
 333  -68.61632
 334  81.89375
 335  2.319751
 336  247.376
 337  454.5667
 338  630.203
 339  58.21886
 340  -404.8906
 341  -664.7922
 342  -684.0222
 343  -552.3827
 344  -138.0652
 345  642.6051
 346  578.7348
 347  2.917349
 348  -528.8065
 349  -337.2137
 350  -542.8191
 351  -620.0073
 352  -385.091
 353  135.8721
 354  88.84461
 355  -38.7185
 356  -110.8285
 357  -638.0823
 358  -775.4091
 359  -756.1847
 360  -604.3548
 361  -451.3294
 362  -242.8766
 363  181.3656
 364  28.2458
 365  71.56139
 366  -330.6222
 367  -348.5382
 368  -392.1281
 369  -493.7
 370  -356.0555
 371  241.5642
 372  37.89083
 373  -364.2638
 374  -470.7371
 375  -418.7705
 376  -327.5028
 377  -51.38052
 378  162.0727
 379  166.565
 380  68.67521
 381  -488.1626
 382  -667.0907
 383  -450.0974
 384  -559.5726
 385  -381.7083
 386  -95.25449
 387  -151.3845
 388  -79.34293
 389  -149.2899
 390  -98.10287
 391  -228.4497
 392  -711.8205
 393  -534.4595
 394  -150.6509
 395  21.05073
 396  162.2194
 397  160.3624
 398  93.6898
 399  98.24803
 400  23.13998
 401  -210.6347
 402  -305.1885
 403  -658.4266
 404  -165.9446
 405  155.6884
 406  -134.7785
 407  15.05389
 408  -150.6097
 409  -277.5386
 410  -189.7046
 411  -74.40785
 412  -53.11235
 413  -166.6548
 414  -204.0164
 415  -236.3079
 416  -544.2149
 417  -587.1984
 418  -304.5049
 419  -78.84018
 420  205.033
 421  308.9455
 422  -78.18691
 423  -353.0501
 424  -390.6203
 425  -166.7764
 426  -87.50117
 427  -268.1311
 428  -609.4729
 429  -466.0356
 430  -333.8716
 431  -387.1623
 432  -386.601
 433  -631.6728
 434  -481.4706
 435  -567.2491
 436  -443.5803
 437  -515.3521
 438  -560.4631
 439  -459.8655
 440  -400.3233
 441  -604.7299
 442  -578.8044
 443  -344.9268
 444  -179.0566
 445  -539.861
 446  -469.7736
 447  -326.9128
 448  -613.5955
 449  -267.1993
 450  -486.0229
 451  -654.2655
 452  -847.2611
 453  -442.9987
 454  -342.1311
 455  -60.22041
 456  -173.8425
 457  -122.793
 458  -288.0278
 459  -512.967
 460  -414.2446
 461  -383.4829
 462  -304.091
 463  -316.9407
 464  -434.4388
 465  -203.7529
 466  -31.86473
 467  -183.4843
 468  -381.7569
 469  -442.8868
 470  -510.0551
 471  -217.5483
 472  28.55425
 473  380.1055
 474  262.0007
 475  -417.5495
 476  -358.4571
 477  -207.4017
 478  -172.8537
 479  276.5076
 480  389.5864
 481  527.6989
 482  282.4535
 483  -89.02544
 484  -266.4058
 485  -165.5035
 486  -115.718
 487  -79.0252
 488  82.90114
 489  272.5137
 490  354.7151
 491  263.7484
 492  152.3247
 493  513.9014
 494  891.5468
 495  657.9438
 496  1244.395
 497  1887.294
 498  1875.337
 499  1842.911
 500  1291.912
 501  750.6765
 502  225.7474
 503  348.9567
 504  131.7117
 505  216.3283
 506  286.5991
 507  155.9175
 508  130.9809
 509  455.5407
 510  60.89984
 511  47.16451
