# Input file       =  1191021321.110226_cleaned.dat
# Candidate        =  PSR_0332+5434
# Telescope        =  AR
# Epoch_topo       =  58028.969214238728
# Epoch_bary       =  N/A
# T_sample         =  0.002
# Data Folded      =  7340032
# Data Avg         =  0.0279908903082417
# Data StdDev      =  2.5577372972     
# Profile Bins     =  512
# Profile Avg      =  403.990767859443 
# Profile StdDev   =  306.245652847859 
# Reduced chi-sqr  =  1.313
# Prob(Noise)      <  2.34e-06   (~4.6 sigma)
# P_topo (ms)      =  714.473707848654  +/- 0.000343
# P'_topo (s/s)    =  -0                +/- 1.81e-10
# P''_topo (s/s^2) =  0                 +/- 8e-14
# P_bary (ms)      =  N/A
# P'_bary (s/s)    =  N/A
# P''_bary (s/s^2) =  N/A
# P_orb (s)        =  N/A
# asin(i)/c (s)    =  N/A
# eccentricity     =  N/A
# w (rad)          =  N/A
# T_peri           =  N/A
######################################################
   0  416.4616
   1  496.0359
   2  625.8079
   3  407.1936
   4  557.221
   5  429.2455
   6  422.0952
   7  313.7243
   8  303.9872
   9  672.0277
  10  511.1685
  11  314.2673
  12  514.9052
  13  236.5182
  14  552.2981
  15  769.3878
  16  633.1229
  17  408.0648
  18  221.994
  19  335.811
  20  243.5921
  21  201.8278
  22  812.7392
  23  924.7451
  24  621.3937
  25  432.5735
  26  328.1611
  27  622.9188
  28  398.5441
  29  460.9738
  30  401.215
  31  404.1771
  32  704.8718
  33  481.2597
  34  464.2572
  35  225.848
  36  253.4827
  37  181.3986
  38  439.5081
  39  405.944
  40  568.3678
  41  617.9106
  42  453.9249
  43  311.55
  44  395.367
  45  603.3987
  46  383.6154
  47  430.5404
  48  973.0279
  49  627.9813
  50  621.0329
  51  687.0767
  52  640.0104
  53  446.7053
  54  618.3566
  55  408.5272
  56  237.1414
  57  395.8524
  58  565.5579
  59  646.6109
  60  700.2507
  61  609.2908
  62  466.5146
  63  859.5437
  64  642.28
  65  407.7645
  66  604.903
  67  692.5295
  68  715.2184
  69  475.5211
  70  724.501
  71  832.9838
  72  786.2905
  73  1057.472
  74  570.377
  75  174.2143
  76  652.7881
  77  634.6975
  78  707.5206
  79  161.3557
  80  365.774
  81  402.5616
  82  451.0788
  83  397.6577
  84  539.733
  85  541.7342
  86  293.0665
  87  374.0951
  88  208.9467
  89  370.3892
  90  310.0687
  91  269.9938
  92  296.5057
  93  398.3612
  94  553.4174
  95  488.623
  96  194.7571
  97  374.8185
  98  566.4697
  99  525.2842
 100  677.0959
 101  904.1846
 102  646.1824
 103  191.7014
 104  67.42684
 105  434.8716
 106  460.3619
 107  245.4623
 108  226.1832
 109  345.2423
 110  480.3195
 111  81.96376
 112  53.24473
 113  252.5735
 114  0.4818117
 115  209.5297
 116  203.4333
 117  63.26863
 118  77.20942
 119  149.9203
 120  530.0249
 121  334.386
 122  25.16597
 123  228.5606
 124  297.7553
 125  146.7406
 126  96.0694
 127  344.9327
 128  433.4097
 129  236.661
 130  151.3045
 131  353.815
 132  568.7374
 133  438.8372
 134  573.5892
 135  542.3361
 136  598.1835
 137  544.35
 138  348.4301
 139  483.9354
 140  261.7546
 141  496.3115
 142  630.5497
 143  565.6529
 144  683.4529
 145  553.1
 146  397.9488
 147  286.7195
 148  372.8599
 149  731.2303
 150  482.2751
 151  233.9211
 152  364.896
 153  458.771
 154  601.3087
 155  552.038
 156  212.0128
 157  161.5372
 158  345.6008
 159  545.6271
 160  754.1436
 161  456.1308
 162  436.9062
 163  395.0337
 164  466.2602
 165  275.07
 166  109.8908
 167  68.091
 168  290.6804
 169  299.5834
 170  350.9098
 171  454.5234
 172  42.42365
 173  507.8144
 174  198.0031
 175  433.751
 176  474.3976
 177  512.0679
 178  567.4904
 179  193.6516
 180  340.7983
 181  711.4056
 182  520.0598
 183  656.5449
 184  483.0074
 185  355.7822
 186  613.3762
 187  880.3253
 188  598.4866
 189  785.5176
 190  840.1035
 191  1369.511
 192  1499.026
 193  1710.958
 194  1821.125
 195  1497.646
 196  1571.11
 197  1132.797
 198  463.2767
 199  359.0768
 200  568.462
 201  513.0103
 202  481.0334
 203  515.5764
 204  348.2303
 205  379.2178
 206  642.7015
 207  788.1547
 208  431.2085
 209  493.889
 210  610.2668
 211  893.7772
 212  573.5429
 213  479.9855
 214  323.9035
 215  381.7043
 216  50.75917
 217  85.48884
 218  462.977
 219  594.991
 220  86.8988
 221  -15.38189
 222  391.8152
 223  695.9109
 224  656.176
 225  224.1986
 226  200.8735
 227  133.1407
 228  584.3348
 229  445.9239
 230  132.7044
 231  154.4447
 232  47.04377
 233  189.4661
 234  405.1851
 235  399.9843
 236  733.9567
 237  672.4961
 238  519.5286
 239  536.7144
 240  547.8181
 241  655.3672
 242  428.4338
 243  -25.55821
 244  20.94662
 245  296.3207
 246  579.4057
 247  508.4308
 248  399.3914
 249  502.3741
 250  457.0557
 251  376.3682
 252  139.9045
 253  108.635
 254  411.7896
 255  307.6727
 256  53.25419
 257  15.51126
 258  273.0863
 259  525.8828
 260  418.0692
 261  676.2047
 262  490.4994
 263  170.1356
 264  344.2128
 265  25.1257
 266  431.6366
 267  691.7213
 268  577.4986
 269  277.5421
 270  549.554
 271  534.8412
 272  197.9987
 273  483.1665
 274  184.3169
 275  264.7763
 276  290.8294
 277  557.4833
 278  633.2517
 279  125.7823
 280  243.9442
 281  328.444
 282  47.69724
 283  -241.1909
 284  -250.7826
 285  324.7171
 286  286.7083
 287  188.3003
 288  381.9749
 289  388.2263
 290  100.4289
 291  -30.5152
 292  801.1446
 293  432.5266
 294  206.5921
 295  589.9915
 296  246.8803
 297  379.5652
 298  638.6547
 299  731.9082
 300  644.5828
 301  103.3949
 302  112.3382
 303  188.4605
 304  158.1565
 305  162.2948
 306  409.4851
 307  194.4936
 308  335.8394
 309  375.9337
 310  508.3979
 311  494.7032
 312  187.0172
 313  -21.23905
 314  216.4083
 315  68.25813
 316  95.04288
 317  594.7521
 318  254.056
 319  139.7048
 320  257.2935
 321  344.7286
 322  103.061
 323  189.1917
 324  420.1737
 325  579.486
 326  380.8743
 327  275.6834
 328  400.3585
 329  223.723
 330  226.2995
 331  279.8855
 332  297.9615
 333  128.1063
 334  282.6622
 335  626.1554
 336  356.6003
 337  145.8382
 338  328.4432
 339  541.7018
 340  588.4278
 341  385.2236
 342  618.8296
 343  207.7877
 344  147.1719
 345  193.7323
 346  340.9847
 347  484.8754
 348  559.5757
 349  182.9233
 350  395.9481
 351  574.9495
 352  145.1557
 353  8.78443
 354  124.7048
 355  491.7271
 356  605.4216
 357  227.803
 358  116.4723
 359  545.5835
 360  458.7319
 361  594.6761
 362  268.8625
 363  149.0932
 364  300.789
 365  373.7834
 366  712.1259
 367  617.7556
 368  873.0704
 369  605.5472
 370  198.1102
 371  243.3881
 372  613.9976
 373  423.2959
 374  122.6161
 375  -136.6144
 376  -290.8634
 377  -22.55998
 378  521.9083
 379  640.2596
 380  548.4012
 381  618.2687
 382  342.1536
 383  347.7609
 384  723.7981
 385  270.9572
 386  -21.3565
 387  355.8966
 388  338.1293
 389  643.0185
 390  443.2375
 391  211.6824
 392  36.46863
 393  105.4016
 394  290.6736
 395  95.66705
 396  334.3358
 397  353.2481
 398  420.687
 399  640.4009
 400  428.9356
 401  653.8453
 402  447.7977
 403  273.5118
 404  736.7203
 405  541.4049
 406  256.6506
 407  191.6384
 408  245.4094
 409  397.5675
 410  317.7131
 411  312.5415
 412  134.9549
 413  218.4057
 414  417.8946
 415  459.6302
 416  177.7217
 417  -0.611881
 418  -149.83
 419  -283.817
 420  406.1411
 421  358.2892
 422  447.4186
 423  124.5176
 424  -99.9452
 425  346.6436
 426  473.6665
 427  130.9275
 428  278.724
 429  297.5624
 430  8.81361
 431  247.2559
 432  274.7013
 433  383.7924
 434  619.736
 435  359.3697
 436  473.6955
 437  636.6879
 438  405.0775
 439  120.3695
 440  139.7566
 441  507.1171
 442  242.3971
 443  150.4305
 444  499.2123
 445  797.2785
 446  756.2292
 447  4.558033
 448  170.9048
 449  409.7036
 450  446.6319
 451  377.0772
 452  211.3686
 453  118.3491
 454  239.2547
 455  429.8359
 456  575.238
 457  670.0975
 458  714.8167
 459  598.2795
 460  497.0927
 461  818.1025
 462  840.8544
 463  524.6479
 464  415.4617
 465  236.3725
 466  424.233
 467  410.8557
 468  285.9948
 469  95.73429
 470  416.3219
 471  370.8965
 472  444.7811
 473  188.5494
 474  -87.12067
 475  22.08562
 476  460.8964
 477  364.1669
 478  596.7768
 479  413.2293
 480  303.7269
 481  571.4802
 482  622.1362
 483  360.3383
 484  260.6861
 485  624.696
 486  412.2801
 487  445.3477
 488  263.0399
 489  -76.43604
 490  -54.37008
 491  23.33591
 492  281.3477
 493  284.4004
 494  189.6855
 495  283.9289
 496  142.9146
 497  223.6417
 498  389.6063
 499  400.0019
 500  578.8353
 501  680.3817
 502  758.8785
 503  632.001
 504  648.7789
 505  297.0306
 506  372.468
 507  348.503
 508  460.6868
 509  558.8922
 510  341.9861
 511  638.7208
