# Input file       =  1191609817.124128_cleaned.dat
# Candidate        =  PSR_0332+5434
# Telescope        =  AR
# Epoch_topo       =  58035.780510695928
# Epoch_bary       =  N/A
# T_sample         =  0.002
# Data Folded      =  7208960
# Data Avg         =  0.00873599220160632
# Data StdDev      =  1.00015729448323 
# Profile Bins     =  512
# Profile Avg      =  122.910679776835 
# Profile StdDev   =  118.677840227267 
# Reduced chi-sqr  =  1.654
# Prob(Noise)      <  6.65e-19   (~8.8 sigma)
# P_topo (ms)      =  714.477889283889  +/- 0.000186
# P'_topo (s/s)    =  -0                +/- 1e-10
# P''_topo (s/s^2) =  0                 +/- 4.5e-14
# P_bary (ms)      =  N/A
# P'_bary (s/s)    =  N/A
# P''_bary (s/s^2) =  N/A
# P_orb (s)        =  N/A
# asin(i)/c (s)    =  N/A
# eccentricity     =  N/A
# w (rad)          =  N/A
# T_peri           =  N/A
######################################################
   0  966.3427
   1  731.7652
   2  471.5985
   3  287.3188
   4  206.8011
   5  42.04499
   6  15.75054
   7  -22.82886
   8  103.3117
   9  149.9342
  10  31.61376
  11  0.1332729
  12  71.64115
  13  140.3887
  14  242.3694
  15  354.0316
  16  221.6328
  17  153.4202
  18  182.6866
  19  137.0908
  20  109.7714
  21  207.5876
  22  230.6444
  23  191.4236
  24  171.8339
  25  187.6365
  26  258.9188
  27  148.6099
  28  151.4168
  29  152.7811
  30  74.0733
  31  145.7928
  32  95.85104
  33  167.1362
  34  362.7736
  35  293.0453
  36  46.54757
  37  -46.14079
  38  189.8625
  39  250.5686
  40  246.0213
  41  194.2572
  42  140.1462
  43  174.9237
  44  174.4889
  45  109.063
  46  8.741633
  47  7.342163
  48  117.7205
  49  103.3549
  50  35.75515
  51  86.86545
  52  89.63181
  53  99.28403
  54  163.0986
  55  115.3062
  56  78.03024
  57  -47.14103
  58  -10.20273
  59  -83.86782
  60  -1.731565
  61  13.96967
  62  106.6576
  63  135.7037
  64  149.3289
  65  59.71033
  66  3.750272
  67  18.17572
  68  -11.22384
  69  40.71021
  70  146.3075
  71  192.7
  72  58.92152
  73  95.93671
  74  -3.052401
  75  37.70702
  76  126.0411
  77  78.98242
  78  68.83241
  79  107.923
  80  244.7227
  81  123.6761
  82  29.29009
  83  110.3859
  84  109.4939
  85  147.6259
  86  58.12503
  87  132.729
  88  47.78355
  89  10.39109
  90  198.3492
  91  319.2919
  92  278.7596
  93  187.255
  94  33.3594
  95  4.503077
  96  122.4087
  97  214.1918
  98  119.4799
  99  -11.80155
 100  89.53429
 101  192.0397
 102  125.6987
 103  207.0271
 104  104.5847
 105  104.7351
 106  318.0453
 107  264.6564
 108  -2.811299
 109  18.74708
 110  38.076
 111  -8.172419
 112  111.4491
 113  23.70798
 114  122.1882
 115  129.8214
 116  84.92418
 117  186.0543
 118  181.1948
 119  114.025
 120  240.0162
 121  217.9461
 122  235.3654
 123  96.6937
 124  190.5514
 125  128.573
 126  142.1889
 127  167.1206
 128  50.14529
 129  -99.76311
 130  -2.875732
 131  -61.37845
 132  73.09361
 133  98.28745
 134  278.2332
 135  149.4744
 136  181.8543
 137  45.48983
 138  -95.28421
 139  36.08029
 140  82.44987
 141  43.38886
 142  48.38417
 143  73.27101
 144  131.9534
 145  139.2535
 146  -2.912219
 147  -8.850713
 148  -4.648639
 149  90.66478
 150  125.9009
 151  289.2354
 152  167.2315
 153  262.8317
 154  250.0581
 155  81.93224
 156  82.51791
 157  110.2967
 158  145.0481
 159  40.55296
 160  69.93104
 161  64.88278
 162  135.6132
 163  236.9565
 164  143.9669
 165  123.6617
 166  268.8227
 167  139.3784
 168  17.2392
 169  73.3489
 170  152.2522
 171  112.2932
 172  109.3339
 173  96.70461
 174  55.91536
 175  20.93405
 176  148.4153
 177  143.7963
 178  39.99213
 179  83.06219
 180  156.2223
 181  163.6299
 182  61.00087
 183  6.832256
 184  17.05915
 185  6.270705
 186  158.6848
 187  91.39364
 188  48.5775
 189  103.6952
 190  32.17903
 191  211.1139
 192  245.4606
 193  137.904
 194  18.91009
 195  84.11349
 196  201.3412
 197  136.9663
 198  90.86737
 199  -36.54074
 200  -30.55148
 201  3.427387
 202  -29.39981
 203  76.72258
 204  241.2287
 205  127.9329
 206  106.3616
 207  159.7349
 208  143.2783
 209  96.03991
 210  152.6601
 211  225.6382
 212  378.3849
 213  242.3936
 214  173.1249
 215  211.5243
 216  300.1741
 217  367.8041
 218  147.8233
 219  45.96633
 220  190.1252
 221  369.434
 222  246.1606
 223  225.4739
 224  217.6353
 225  176.3667
 226  122.7639
 227  111.2268
 228  227.5317
 229  158.9176
 230  108.8074
 231  126.7949
 232  179.9422
 233  134.0824
 234  147.7208
 235  203.6958
 236  19.16225
 237  80.26453
 238  150.7279
 239  92.89058
 240  117.9105
 241  130.2231
 242  268.6268
 243  176.5183
 244  159.7046
 245  208.1323
 246  95.26742
 247  -1.975698
 248  22.7219
 249  203.2403
 250  160.8995
 251  187.1458
 252  130.5002
 253  47.79791
 254  -14.46266
 255  89.40029
 256  249.1116
 257  120.2148
 258  157.0191
 259  75.62183
 260  66.21425
 261  164.5685
 262  190.9289
 263  194.7701
 264  272.5788
 265  168.2036
 266  202.4203
 267  198.7089
 268  166.9231
 269  94.22289
 270  72.07336
 271  167.9427
 272  157.018
 273  166.7428
 274  81.80782
 275  117.1138
 276  171.9722
 277  203.5901
 278  107.0133
 279  55.29601
 280  125.4979
 281  140.1232
 282  120.5991
 283  92.50405
 284  131.1286
 285  124.8645
 286  73.51844
 287  188.2725
 288  45.33401
 289  63.83716
 290  210.1224
 291  130.011
 292  30.36703
 293  18.57454
 294  134.542
 295  283.741
 296  261.4368
 297  149.4505
 298  189.6625
 299  298.8688
 300  182.2951
 301  74.95445
 302  87.80068
 303  216.7598
 304  124.565
 305  126.3006
 306  129.767
 307  50.45663
 308  73.51803
 309  202.7277
 310  11.7452
 311  45.30965
 312  82.01428
 313  139.1298
 314  61.49612
 315  16.15943
 316  136.949
 317  190.9323
 318  155.7221
 319  126.4367
 320  66.79269
 321  94.06445
 322  171.6049
 323  261.5666
 324  194.8784
 325  71.53879
 326  -25.2372
 327  101.5475
 328  86.91119
 329  48.64488
 330  186.961
 331  164.2183
 332  21.9225
 333  -78.66641
 334  17.59429
 335  14.84351
 336  67.06683
 337  77.5045
 338  11.93369
 339  0.7274831
 340  25.42049
 341  18.35398
 342  68.41557
 343  106.2358
 344  127.5848
 345  44.76679
 346  -52.9886
 347  22.88459
 348  96.72121
 349  177.4999
 350  100.3781
 351  8.495208
 352  50.70116
 353  -13.50069
 354  39.3725
 355  92.08035
 356  35.05608
 357  159.7316
 358  157.0281
 359  142.9637
 360  70.76942
 361  185.9138
 362  235.8009
 363  159.4819
 364  28.57467
 365  81.94595
 366  206.169
 367  20.99491
 368  59.81857
 369  76.53899
 370  145.4633
 371  62.96424
 372  83.41283
 373  201.7533
 374  141.1128
 375  21.72395
 376  -6.077927
 377  129.9635
 378  128.6207
 379  185.8319
 380  111.5073
 381  70.9634
 382  177.3548
 383  197.7886
 384  30.68585
 385  29.52154
 386  95.96602
 387  29.78856
 388  98.51425
 389  143.8521
 390  129.4219
 391  118.5037
 392  127.1195
 393  62.25998
 394  43.97026
 395  112.3452
 396  49.85146
 397  44.21947
 398  0.523404
 399  -26.72694
 400  22.54616
 401  9.878763
 402  47.99299
 403  74.36959
 404  135.6548
 405  167.9313
 406  134.0112
 407  221.7887
 408  149.3015
 409  16.18012
 410  72.10997
 411  150.1772
 412  165.1482
 413  119.2525
 414  163.9412
 415  -12.70419
 416  54.27586
 417  -33.9965
 418  92.22987
 419  218.3541
 420  144.3471
 421  103.8034
 422  15.86761
 423  80.18689
 424  164.2724
 425  188.2825
 426  89.46539
 427  39.34947
 428  64.59323
 429  237.7092
 430  67.09022
 431  35.40242
 432  129.3294
 433  132.4884
 434  78.33253
 435  84.64042
 436  228.7382
 437  224.3542
 438  241.1619
 439  168.8916
 440  165.0174
 441  144.5609
 442  98.50359
 443  67.7056
 444  -9.011408
 445  43.12961
 446  159.6952
 447  180.9802
 448  187.0167
 449  96.85823
 450  146.5731
 451  32.96844
 452  57.78675
 453  200.9132
 454  112.6606
 455  69.69846
 456  125.9832
 457  131.2009
 458  39.18737
 459  204.409
 460  90.27438
 461  36.91433
 462  242.4502
 463  219.6693
 464  131.5542
 465  45.3106
 466  104.6917
 467  74.11644
 468  57.01665
 469  38.47016
 470  2.85006
 471  25.34807
 472  36.90998
 473  -27.87899
 474  79.23904
 475  30.4496
 476  -69.26082
 477  135.9335
 478  100.3414
 479  0.1701689
 480  -51.45826
 481  78.4055
 482  167.7172
 483  38.24916
 484  44.89251
 485  -55.0497
 486  34.66468
 487  136.5091
 488  220.9957
 489  106.4349
 490  122.4845
 491  30.52322
 492  28.29168
 493  72.15822
 494  194.834
 495  216.2187
 496  184.9147
 497  196.364
 498  264.2682
 499  88.13681
 500  109.8984
 501  89.64236
 502  156.0446
 503  250.322
 504  280.2395
 505  270.1708
 506  183.488
 507  261.1445
 508  436.8721
 509  596.2142
 510  771.1161
 511  1011.912
