# Input file       =  1191868328.113797_cleaned.dat
# Candidate        =  PSR_0332+5434
# Telescope        =  AR
# Epoch_topo       =  58038.772536039316
# Epoch_bary       =  N/A
# T_sample         =  0.002
# Data Folded      =  7143424
# Data Avg         =  0.0197853615941105
# Data StdDev      =  3.09011861724055 
# Profile Bins     =  512
# Profile Avg      =  275.935617051042 
# Profile StdDev   =  365.000436949519 
# Reduced chi-sqr  =  1.226
# Prob(Noise)      <  0.000351   (~3.4 sigma)
# P_topo (ms)      =  714.47993057874   +/- 0.000106
# P'_topo (s/s)    =  -0                +/- 5.74e-11
# P''_topo (s/s^2) =  0                 +/- 2.6e-14
# P_bary (ms)      =  N/A
# P'_bary (s/s)    =  N/A
# P''_bary (s/s^2) =  N/A
# P_orb (s)        =  N/A
# asin(i)/c (s)    =  N/A
# eccentricity     =  N/A
# w (rad)          =  N/A
# T_peri           =  N/A
######################################################
   0  461.1252
   1  499.1979
   2  166.7244
   3  21.14254
   4  283.7585
   5  567.6479
   6  573.7795
   7  661.4905
   8  393.8243
   9  194.0794
  10  289.1253
  11  117.5332
  12  594.5396
  13  341.2989
  14  465.0196
  15  613.5265
  16  403.2484
  17  445.572
  18  561.3663
  19  589.3488
  20  295.3747
  21  358.8542
  22  294.9098
  23  187.8639
  24  422.9633
  25  607.4932
  26  392.1797
  27  650.8792
  28  582.8225
  29  328.5419
  30  467.6149
  31  80.55866
  32  477.9577
  33  338.9427
  34  291.1035
  35  413.8112
  36  440.3283
  37  626.0012
  38  612.3199
  39  613.8164
  40  689.8973
  41  647.4608
  42  926.8596
  43  860.8798
  44  823.6224
  45  1093.157
  46  1698.988
  47  2110.191
  48  2115.074
  49  2106.943
  50  1782.2
  51  1132.813
  52  521.4358
  53  240.7925
  54  227.52
  55  -123.7585
  56  80.92123
  57  421.0199
  58  375.5479
  59  758.5745
  60  642.2835
  61  385.5896
  62  306.5423
  63  248.3946
  64  394.8143
  65  513.3798
  66  299.7994
  67  369.1755
  68  399.1178
  69  579.7189
  70  189.6444
  71  -63.08926
  72  -84.20577
  73  86.07697
  74  141.56
  75  378.4078
  76  543.7133
  77  273.1111
  78  736.4399
  79  753.1687
  80  449.5772
  81  563.8228
  82  50.02689
  83  273.7394
  84  345.4943
  85  550.7825
  86  339.5498
  87  465.629
  88  730.2418
  89  371.5476
  90  343.7024
  91  280.5772
  92  -92.69901
  93  -20.34923
  94  -91.29825
  95  2.661398
  96  227.9927
  97  79.79259
  98  208.1749
  99  481.2444
 100  469.1176
 101  502.9755
 102  289.9663
 103  340.9086
 104  101.1919
 105  195.5757
 106  244.1722
 107  370.4768
 108  305.1305
 109  239.495
 110  255.2024
 111  438.4503
 112  215.6714
 113  -140.7188
 114  101.0264
 115  135.6313
 116  331.2466
 117  302.957
 118  238.5486
 119  407.5696
 120  298.5334
 121  167.4539
 122  129.0314
 123  82.11549
 124  323.6319
 125  406.3203
 126  128.464
 127  99.47859
 128  -19.555
 129  95.48814
 130  192.4835
 131  279.1981
 132  426.2452
 133  163.7236
 134  -4.320269
 135  -71.61578
 136  -328.7685
 137  -120.7726
 138  -20.69114
 139  138.9814
 140  324.4495
 141  423.0872
 142  544.6484
 143  251.2739
 144  -18.80739
 145  -94.47351
 146  157.0502
 147  80.32031
 148  168.311
 149  285.5659
 150  300.907
 151  321.8945
 152  341.3721
 153  236.6731
 154  289.1082
 155  518.1365
 156  433.0213
 157  354.0418
 158  279.8129
 159  562.7215
 160  606.1055
 161  670.1762
 162  511.2873
 163  248.862
 164  191.3347
 165  484.4316
 166  121.1096
 167  335.3266
 168  46.44716
 169  -87.28179
 170  280.0829
 171  171.6801
 172  205.2892
 173  353.8606
 174  213.4701
 175  504.7167
 176  643.946
 177  180.2905
 178  -100.9337
 179  125.9439
 180  54.38018
 181  263.0049
 182  465.1428
 183  571.8668
 184  294.0262
 185  509.8063
 186  914.2481
 187  767.6581
 188  498.1955
 189  479.5672
 190  443.7328
 191  375.7729
 192  397.3605
 193  83.39705
 194  110.0171
 195  323.729
 196  156.0451
 197  0.6388593
 198  -11.41173
 199  -5.83014
 200  -156.4171
 201  -35.66225
 202  12.13089
 203  44.53915
 204  -49.57515
 205  217.2999
 206  128.0651
 207  -154.5345
 208  87.54802
 209  59.3922
 210  187.2307
 211  201.4977
 212  98.8707
 213  200.0584
 214  446.1844
 215  181.3488
 216  30.43313
 217  -98.94018
 218  52.17273
 219  230.7871
 220  159.7628
 221  335.39
 222  167.5772
 223  311.0561
 224  765.0186
 225  647.4846
 226  132.3393
 227  101.749
 228  314.5584
 229  377.4479
 230  574.8829
 231  561.3698
 232  846.2072
 233  650.755
 234  503.9382
 235  56.26511
 236  95.02673
 237  436.7028
 238  661.3444
 239  609.2443
 240  168.1047
 241  250.4123
 242  269.2472
 243  430.4174
 244  272.5501
 245  506.5381
 246  389.7625
 247  306.3775
 248  519.2591
 249  369.9709
 250  251.3759
 251  197.5007
 252  411.2452
 253  396.5861
 254  317.5798
 255  446.4274
 256  519.8649
 257  543.149
 258  368.6442
 259  196.3753
 260  42.54274
 261  350.6917
 262  466.7878
 263  301.2033
 264  154.4924
 265  394.2108
 266  364.9505
 267  411.0201
 268  185.6527
 269  282.2849
 270  665.6423
 271  489.7873
 272  687.5025
 273  444.6324
 274  336.0328
 275  205.9384
 276  174.1832
 277  367.6677
 278  705.2361
 279  688.8794
 280  678.5361
 281  789.0858
 282  594.7163
 283  473.648
 284  165.4666
 285  368.2819
 286  322.9955
 287  465.1306
 288  299.2063
 289  203.0295
 290  262.2715
 291  -64.53812
 292  -315.7133
 293  -40.1083
 294  -6.271479
 295  200.9191
 296  309.5225
 297  257.8024
 298  247.122
 299  82.49028
 300  -180.9164
 301  -242.2076
 302  -31.08163
 303  283.8932
 304  417.4433
 305  200.2228
 306  176.8832
 307  12.099
 308  -65.38194
 309  -166.2093
 310  -78.19006
 311  470.0948
 312  565.6512
 313  423.8555
 314  411.4817
 315  331.9138
 316  408.4445
 317  374.8837
 318  -74.33432
 319  -382.7011
 320  5.725484
 321  292.0161
 322  333.2311
 323  166.773
 324  340.3718
 325  292.9252
 326  84.29838
 327  -215.1974
 328  142.9338
 329  226.9295
 330  526.2823
 331  578.3179
 332  456.5471
 333  -23.76799
 334  -35.01504
 335  104.7781
 336  377.7271
 337  686.3386
 338  546.4807
 339  440.3356
 340  422.2917
 341  431.3336
 342  145.7308
 343  381.2543
 344  424.7461
 345  363.3426
 346  110.2598
 347  258.4677
 348  257.2093
 349  187.2242
 350  540.9683
 351  267.8827
 352  193.9746
 353  323.3251
 354  581.9443
 355  782.3017
 356  287.2942
 357  292.5194
 358  253.9245
 359  473.7126
 360  419.215
 361  379.9691
 362  322.4449
 363  654.2203
 364  452.5184
 365  -118.4254
 366  117.4188
 367  342.4342
 368  199.54
 369  249.5513
 370  591.3331
 371  593.54
 372  368.5554
 373  93.72271
 374  327.3931
 375  224.1918
 376  288.4102
 377  299.0822
 378  167.8046
 379  76.42722
 380  43.22401
 381  127.1015
 382  177.0392
 383  101.4561
 384  -73.37479
 385  144.2999
 386  281.0578
 387  371.3433
 388  441.7557
 389  252.0138
 390  106.4378
 391  -213.0191
 392  -416.302
 393  -237.8434
 394  5.814465
 395  202.403
 396  269.208
 397  300.1864
 398  155.1483
 399  237.5498
 400  -58.5458
 401  21.26862
 402  321.5294
 403  485.2514
 404  282.1483
 405  161.4516
 406  201.7084
 407  -10.68701
 408  121.1586
 409  214.2825
 410  99.08301
 411  -7.790542
 412  90.28393
 413  93.9285
 414  -87.97392
 415  -357.9439
 416  -355.4031
 417  103.727
 418  165.3535
 419  288.8991
 420  167.9622
 421  48.7204
 422  -65.12677
 423  100.7087
 424  9.143562
 425  149.0159
 426  181.0102
 427  336.1365
 428  215.1189
 429  2.370924
 430  110.612
 431  244.8846
 432  28.83005
 433  54.74146
 434  78.24989
 435  249.5349
 436  189.9275
 437  108.6174
 438  383.9357
 439  392.6887
 440  219.2223
 441  209.7454
 442  173.4956
 443  455.9365
 444  478.3266
 445  435.3282
 446  314.244
 447  368.6878
 448  -33.69058
 449  -235.5855
 450  2.530739
 451  -223.3172
 452  -102.5935
 453  149.6398
 454  33.81376
 455  111.4898
 456  213.7121
 457  -144.2122
 458  -406.3329
 459  -405.6389
 460  194.3898
 461  293.6795
 462  208.2386
 463  220.7637
 464  2.956611
 465  210.8713
 466  202.2604
 467  6.785377
 468  -140.7408
 469  404.8723
 470  580.2639
 471  353.8394
 472  212.305
 473  307.8005
 474  161.7411
 475  55.12869
 476  -181.5288
 477  45.0865
 478  91.00265
 479  106.1704
 480  211.2897
 481  259.5246
 482  97.85189
 483  -135.6142
 484  -3.694416
 485  252.9887
 486  334.6645
 487  131.8732
 488  276.923
 489  326.6528
 490  -42.65879
 491  -59.47953
 492  -113.1713
 493  -106.3335
 494  71.77463
 495  323.1734
 496  400.1209
 497  301.787
 498  -134.7725
 499  -407.2345
 500  -304.3233
 501  103.8486
 502  159.1867
 503  264.1192
 504  362.6602
 505  113.578
 506  251.8621
 507  165.2635
 508  278.7475
 509  243.0227
 510  303.682
 511  280.6166
