# Input file       =  1191725510.105498_cleaned.dat
# Candidate        =  PSR_0332+5434
# Telescope        =  AR
# Epoch_topo       =  58037.119549832154
# Epoch_bary       =  N/A
# T_sample         =  0.002
# Data Folded      =  7340032
# Data Avg         =  0.0213629101454537
# Data StdDev      =  1.00005721701648 
# Profile Bins     =  512
# Profile Avg      =  306.208274628137 
# Profile StdDev   =  119.739887143882 
# Reduced chi-sqr  =  1.621
# Prob(Noise)      <  1.88e-17   (~8.4 sigma)
# P_topo (ms)      =  714.479135889498  +/- 0.000253
# P'_topo (s/s)    =  -0                +/- 1.34e-10
# P''_topo (s/s^2) =  0                 +/- 5.9e-14
# P_bary (ms)      =  N/A
# P'_bary (s/s)    =  N/A
# P''_bary (s/s^2) =  N/A
# P_orb (s)        =  N/A
# asin(i)/c (s)    =  N/A
# eccentricity     =  N/A
# w (rad)          =  N/A
# T_peri           =  N/A
######################################################
   0  1060.98
   1  965.7422
   2  726.1176
   3  577.3102
   4  321.0379
   5  201.4624
   6  266.7192
   7  395.4247
   8  347.6118
   9  354.006
  10  303.265
  11  281.4944
  12  263.4996
  13  358.6818
  14  351.6332
  15  405.5298
  16  405.5131
  17  318.4866
  18  286.9332
  19  261.6422
  20  267.3415
  21  300.5048
  22  352.8648
  23  319.3454
  24  245.6472
  25  307.7881
  26  338.6956
  27  409.385
  28  258.5694
  29  370.9475
  30  319.8141
  31  300.1099
  32  390.7638
  33  378.8497
  34  274.2849
  35  244.8347
  36  257.9865
  37  265.6794
  38  239.6436
  39  257.694
  40  318.2528
  41  403.201
  42  199.6604
  43  60.98091
  44  225.9457
  45  333.239
  46  393.5196
  47  430.2165
  48  348.0131
  49  324.6039
  50  198.5365
  51  340.7473
  52  385.3739
  53  406.8783
  54  375.5534
  55  473.5819
  56  395.644
  57  536.2872
  58  411.0962
  59  286.3359
  60  281.2112
  61  271.3061
  62  318.8356
  63  344.1115
  64  338.9551
  65  370.3792
  66  404.5996
  67  288.4859
  68  273.6107
  69  308.9405
  70  254.9514
  71  256.8801
  72  389.5602
  73  427.1582
  74  339.8655
  75  258.8601
  76  250.2387
  77  367.0093
  78  278.9668
  79  272.0317
  80  230.1711
  81  247.9226
  82  209.6565
  83  136.314
  84  216.6778
  85  264.9241
  86  249.9558
  87  285.9067
  88  339.3636
  89  374.6429
  90  340.1518
  91  221.3886
  92  184.5469
  93  277.8103
  94  321.7568
  95  342.8231
  96  250.5534
  97  290.3052
  98  352.9105
  99  336.7684
 100  389.7625
 101  262.1424
 102  382.5177
 103  228.713
 104  290.0822
 105  299.4084
 106  286.2667
 107  155.9445
 108  213.1187
 109  255.8339
 110  252.1887
 111  297.5843
 112  273.2896
 113  231.6921
 114  235.7422
 115  272.6801
 116  246.2127
 117  209.9847
 118  138.8284
 119  193.646
 120  282.4358
 121  231.2793
 122  221.4995
 123  226.4288
 124  337.4233
 125  236.2944
 126  290.4391
 127  370.9781
 128  410.6136
 129  356.9876
 130  223.4126
 131  218.2264
 132  259.8175
 133  439.2471
 134  366.4809
 135  265.6606
 136  291.0692
 137  313.5445
 138  268.7626
 139  260.7739
 140  280.9902
 141  394.3148
 142  307.078
 143  370.7877
 144  405.2722
 145  339.42
 146  252.2332
 147  98.71089
 148  233.6704
 149  306.5063
 150  292.6994
 151  285.7353
 152  262.4847
 153  216.8411
 154  211.5402
 155  288.8177
 156  340.6595
 157  135.9122
 158  174.352
 159  194.2516
 160  230.7436
 161  235.1707
 162  185.4351
 163  226.7171
 164  217.4026
 165  295.7464
 166  332.3531
 167  188.2685
 168  222.4139
 169  310.309
 170  231.4224
 171  301.9601
 172  93.78324
 173  178.2474
 174  104.9604
 175  327.6701
 176  298.8343
 177  55.97153
 178  85.11322
 179  159.2052
 180  94.45249
 181  189.227
 182  221.7025
 183  190.0757
 184  295.9809
 185  233.2045
 186  182.9263
 187  292.9743
 188  316.6808
 189  354.5099
 190  117.2624
 191  160.8149
 192  164.1464
 193  155.6053
 194  253.2079
 195  204.1554
 196  274.7769
 197  202.4407
 198  202.8844
 199  177.91
 200  133.4431
 201  171.3573
 202  206.6926
 203  248.1069
 204  174.2352
 205  217.8987
 206  295.0165
 207  365.3979
 208  350.1794
 209  356.7063
 210  378.935
 211  380.4482
 212  260.7365
 213  158.8277
 214  254.2773
 215  350.199
 216  345.9989
 217  420.7285
 218  393.8179
 219  288.7144
 220  334.0042
 221  288.981
 222  325.7169
 223  418.369
 224  297.0628
 225  276.2558
 226  386.6475
 227  295.8297
 228  342.9352
 229  300.2107
 230  254.9695
 231  396.9002
 232  280.8369
 233  303.4317
 234  374.5636
 235  343.0629
 236  303.5898
 237  271.0945
 238  231.8772
 239  278.2938
 240  255.9946
 241  269.7861
 242  274.5481
 243  315.2642
 244  265.4886
 245  266.8146
 246  238.5246
 247  362.6666
 248  346.8585
 249  311.0742
 250  299.7468
 251  400.3222
 252  203.5223
 253  207.0852
 254  292.6575
 255  264.1657
 256  253.4435
 257  199.6649
 258  244.3714
 259  257.6381
 260  158.1093
 261  243.3571
 262  277.037
 263  275.1975
 264  375.0412
 265  267.5635
 266  279.4074
 267  283.3999
 268  403.804
 269  443.9608
 270  315.3681
 271  192.4076
 272  209.0405
 273  264.5743
 274  274.5445
 275  342.2155
 276  343.2093
 277  214.4955
 278  200.4743
 279  137.2234
 280  123.28
 281  172.4275
 282  296.6532
 283  327.898
 284  247.0384
 285  283.5632
 286  362.5615
 287  308.0191
 288  321.4597
 289  432.8071
 290  461.4055
 291  410.6888
 292  371.7229
 293  323.8649
 294  406.6206
 295  381.9566
 296  260.3299
 297  203.3007
 298  295.9997
 299  317.1892
 300  253.9108
 301  230.5755
 302  266.6897
 303  299.8701
 304  259.2141
 305  233.2262
 306  170.4735
 307  137.9796
 308  256.1923
 309  239.8323
 310  171.4574
 311  361.8642
 312  365.4247
 313  366.615
 314  164.0505
 315  165.8957
 316  124.3153
 317  1.517989
 318  187.4743
 319  240.6103
 320  313.7639
 321  200.508
 322  205.3655
 323  238.043
 324  259.127
 325  310.9283
 326  433.1452
 327  365.3022
 328  283.7433
 329  290.5739
 330  415.0598
 331  400.5416
 332  314.3539
 333  254.1188
 334  302.4566
 335  383.2579
 336  307.4927
 337  356.3928
 338  434.0854
 339  247.4458
 340  181.9604
 341  249.8658
 342  209.3565
 343  302.0571
 344  301.2151
 345  287.0283
 346  252.2266
 347  345.1004
 348  412.6289
 349  311.5631
 350  124.2815
 351  217.0182
 352  320.4144
 353  345.1802
 354  343.9488
 355  309.3879
 356  410.0119
 357  443.4485
 358  379.1323
 359  488.5563
 360  328.4973
 361  390.8061
 362  436.9279
 363  464.8314
 364  298.6284
 365  361.22
 366  329.8014
 367  237.5289
 368  239.2156
 369  323.8783
 370  184.658
 371  274.9264
 372  321.3041
 373  333.0769
 374  140.0248
 375  173.9857
 376  354.1385
 377  403.3447
 378  351.8933
 379  330.4062
 380  306.8386
 381  381.7171
 382  301.858
 383  297.8625
 384  200.986
 385  216.6768
 386  176.3449
 387  262.6469
 388  332.2222
 389  439.0836
 390  361.4067
 391  235.2018
 392  154.4086
 393  220.1925
 394  399.9515
 395  277.1518
 396  320.9355
 397  272.032
 398  259.2318
 399  280.0442
 400  208.7945
 401  271.2791
 402  258.4879
 403  293.9573
 404  408.5823
 405  307.9338
 406  219.5533
 407  279.0942
 408  327.0177
 409  356.8584
 410  500.585
 411  353.9908
 412  340.1117
 413  324.8086
 414  314.8351
 415  340.9979
 416  370.3322
 417  311.5227
 418  268.142
 419  261.1492
 420  200.8938
 421  303.6729
 422  306.4534
 423  417.2682
 424  459.3695
 425  441.9572
 426  503.9629
 427  415.8542
 428  360.9784
 429  391.8668
 430  416.3028
 431  253.8253
 432  241.0409
 433  380.0774
 434  337.8342
 435  382.4732
 436  379.4453
 437  361.0794
 438  321.1201
 439  334.8268
 440  479.2848
 441  388.1731
 442  427.3224
 443  437.9006
 444  358.2328
 445  336.9105
 446  326.7314
 447  357.5657
 448  297.2772
 449  207.1136
 450  200.7704
 451  316.1889
 452  272.2312
 453  192.698
 454  215.1686
 455  204.9443
 456  282.2746
 457  263.7801
 458  434.6296
 459  477.297
 460  452.4557
 461  358.1708
 462  453.4241
 463  489.2672
 464  483.653
 465  358.1481
 466  436.761
 467  368.6951
 468  385.0702
 469  289.046
 470  223.3066
 471  323.6193
 472  286.3224
 473  297.0249
 474  350.6009
 475  312.4295
 476  422.6506
 477  421.9174
 478  341.1393
 479  339.9122
 480  285.185
 481  233.5292
 482  281.2975
 483  350.3874
 484  368.1176
 485  371.743
 486  272.9049
 487  340.3242
 488  375.9872
 489  267.9466
 490  235.9595
 491  373.7905
 492  506.6837
 493  460.6026
 494  325.8222
 495  187.0728
 496  241.3097
 497  258.7799
 498  241.136
 499  344.7241
 500  312.8444
 501  309.6733
 502  319.7641
 503  327.3037
 504  311.1455
 505  366.6374
 506  448.0416
 507  575.4065
 508  704.0165
 509  809.5007
 510  960.7199
 511  1075.49
