# Input file       =  1191983994.125854_cleaned.dat
# Candidate        =  PSR_0332+5434
# Telescope        =  AR
# Epoch_topo       =  58040.111263030718
# Epoch_bary       =  N/A
# T_sample         =  0.002
# Data Folded      =  7340032
# Data Avg         =  0.0152571218351677
# Data StdDev      =  0.999913943001134
# Profile Bins     =  512
# Profile Avg      =  218.678346078132 
# Profile StdDev   =  119.72273251099  
# Reduced chi-sqr  =  1.858
# Prob(Noise)      <  9.47e-29   (~11.1 sigma)
# P_topo (ms)      =  714.481232806677  +/- 0.000224
# P'_topo (s/s)    =  -0                +/- 1.18e-10
# P''_topo (s/s^2) =  0                 +/- 5.21e-14
# P_bary (ms)      =  N/A
# P'_bary (s/s)    =  N/A
# P''_bary (s/s^2) =  N/A
# P_orb (s)        =  N/A
# asin(i)/c (s)    =  N/A
# eccentricity     =  N/A
# w (rad)          =  N/A
# T_peri           =  N/A
######################################################
   0  55.87843
   1  27.61564
   2  94.68366
   3  227.0207
   4  407.3288
   5  323.9509
   6  234.5647
   7  252.8034
   8  156.0177
   9  148.3574
  10  257.703
  11  287.0199
  12  216.2125
  13  46.09151
  14  107.6821
  15  197.2559
  16  271.0917
  17  215.0219
  18  248.6936
  19  312.4142
  20  209.8446
  21  100.2174
  22  196.2466
  23  269.7333
  24  309.7566
  25  237.6156
  26  289.4189
  27  194.5156
  28  255.436
  29  193.0849
  30  299.5206
  31  264.4507
  32  386.7546
  33  363.1597
  34  277.0573
  35  70.43615
  36  107.316
  37  164.1861
  38  208.2758
  39  214.2396
  40  117.4117
  41  155.6126
  42  161.9824
  43  168.1038
  44  228.4846
  45  270.9897
  46  146.8631
  47  157.2073
  48  310.4952
  49  258.1826
  50  97.54256
  51  222.4402
  52  134.5738
  53  132.6598
  54  248.866
  55  282.2339
  56  235.0255
  57  96.66142
  58  159.5877
  59  142.8909
  60  109.7505
  61  216.2143
  62  136.5077
  63  122.0272
  64  210.9278
  65  173.9967
  66  61.69668
  67  179.7993
  68  202.5351
  69  117.1273
  70  236.7429
  71  412.1045
  72  233.2564
  73  155.3498
  74  227.2107
  75  281.7354
  76  194.074
  77  231.9319
  78  199.8325
  79  332.9235
  80  189.273
  81  164.7032
  82  57.70598
  83  268.063
  84  201.6466
  85  216.81
  86  212.5586
  87  151.301
  88  161.663
  89  249.4579
  90  144.1283
  91  131.4612
  92  234.0371
  93  198.5143
  94  319.6392
  95  314.1002
  96  72.48866
  97  102.6024
  98  105.2963
  99  114.9052
 100  146.2286
 101  161.2939
 102  50.04874
 103  21.64098
 104  195.8355
 105  203.5382
 106  220.3172
 107  168.5912
 108  197.3438
 109  208.8725
 110  177.3283
 111  40.17141
 112  253.2957
 113  167.6271
 114  94.90945
 115  58.75344
 116  176.2679
 117  269.0863
 118  146.9601
 119  121.5483
 120  185.2475
 121  170.0182
 122  142.8282
 123  355.7633
 124  283.8096
 125  237.7693
 126  245.0125
 127  186.8614
 128  150.0629
 129  140.549
 130  214.8
 131  179.942
 132  147.1955
 133  266.813
 134  279.1044
 135  340.3547
 136  180.272
 137  152.3986
 138  125.1573
 139  98.24072
 140  6.708493
 141  33.82584
 142  131.2685
 143  147.4387
 144  51.3085
 145  79.92075
 146  71.05116
 147  178.6495
 148  336.3753
 149  193.369
 150  82.66415
 151  188.7115
 152  104.2455
 153  39.85192
 154  164.2907
 155  143.5265
 156  144.7609
 157  289.8641
 158  274.3485
 159  76.04051
 160  76.2963
 161  82.21336
 162  386.6558
 163  370.9291
 164  146.9265
 165  158.685
 166  202.9238
 167  124.9494
 168  139.1072
 169  193.2663
 170  278.4596
 171  222.5989
 172  188.7699
 173  190.0171
 174  185.0654
 175  248.1794
 176  296.154
 177  203.9001
 178  223.3128
 179  160.4282
 180  104.9284
 181  85.86748
 182  104.6086
 183  74.60291
 184  165.7247
 185  204.1436
 186  122.9313
 187  186.6031
 188  232.1075
 189  141.9046
 190  122.5614
 191  144.5682
 192  127.4128
 193  127.1377
 194  171.2436
 195  80.41509
 196  80.07397
 197  133.7973
 198  296.3366
 199  233.7041
 200  331.3752
 201  257.9052
 202  109.7908
 203  60.43032
 204  118.1418
 205  246.6686
 206  253.18
 207  102.9015
 208  60.64199
 209  123.5935
 210  207.0918
 211  215.653
 212  190.7919
 213  158.6528
 214  186.3601
 215  32.20013
 216  73.83666
 217  115.0725
 218  179.8707
 219  175.3179
 220  179.2331
 221  176.0124
 222  219.0733
 223  224.8521
 224  310.4432
 225  129.5296
 226  189.2671
 227  389.2518
 228  220.1399
 229  284.1953
 230  173.7954
 231  144.397
 232  222.6275
 233  99.9712
 234  52.59496
 235  26.48143
 236  76.2603
 237  302.0955
 238  268.3771
 239  238.8699
 240  222.9226
 241  249.2479
 242  190.8158
 243  159.3555
 244  169.5465
 245  247.1856
 246  159.1364
 247  165.2433
 248  199.5645
 249  148.6683
 250  180.5742
 251  227.2996
 252  206.9161
 253  236.0425
 254  226.5685
 255  284.693
 256  213.1392
 257  155.3292
 258  230.7642
 259  329.8886
 260  182.4394
 261  184.6399
 262  316.1197
 263  428.056
 264  228.7451
 265  175.9404
 266  223.4179
 267  156.0688
 268  142.0102
 269  164.3651
 270  250.6213
 271  223.1135
 272  57.9799
 273  106.9625
 274  93.23425
 275  124.597
 276  76.7428
 277  161.7821
 278  248.4101
 279  301.8992
 280  224.9724
 281  182.1427
 282  283.0553
 283  289.2506
 284  347.906
 285  214.983
 286  226.6196
 287  337.292
 288  245.6049
 289  217.4742
 290  255.9339
 291  295.758
 292  148.4321
 293  176.6376
 294  80.52486
 295  100.6774
 296  214.9836
 297  190.8766
 298  263.8378
 299  334.0956
 300  172.73
 301  208.1028
 302  223.4943
 303  145.3792
 304  114.7128
 305  79.19765
 306  222.7338
 307  172.9584
 308  93.97234
 309  81.99615
 310  169.5112
 311  227.7201
 312  246.6647
 313  283.5442
 314  286.957
 315  216.8443
 316  161.777
 317  124.5577
 318  308.501
 319  197.8312
 320  354.0308
 321  278.391
 322  201.4267
 323  199.4697
 324  215.9338
 325  244.5439
 326  304.327
 327  325.4164
 328  371.3195
 329  282.5147
 330  66.18116
 331  112.1093
 332  204.3115
 333  256.0849
 334  155.15
 335  204.3046
 336  287.1225
 337  250.9106
 338  229.7324
 339  160.6897
 340  13.85268
 341  103.3981
 342  338.6063
 343  289.7454
 344  140.7209
 345  127.985
 346  173.6711
 347  210.3827
 348  296.2542
 349  221.0708
 350  213.9742
 351  230.2173
 352  169.8486
 353  304.0634
 354  349.6963
 355  232.806
 356  172.1736
 357  229.0237
 358  295.0475
 359  282.4262
 360  347.034
 361  213.2406
 362  246.0764
 363  274.322
 364  263.0356
 365  245.3663
 366  314.2513
 367  212.4607
 368  134.2285
 369  198.0895
 370  209.6847
 371  73.19652
 372  215.1939
 373  250.1144
 374  226.2557
 375  217.4737
 376  318.3991
 377  280.4759
 378  194.9452
 379  373.1594
 380  417.4014
 381  242.638
 382  293.8713
 383  227.1249
 384  151.3628
 385  175.4876
 386  165.996
 387  241.8089
 388  208.4296
 389  268.3398
 390  280.9113
 391  251.4162
 392  243.1536
 393  254.0094
 394  304.8356
 395  230.0691
 396  24.81755
 397  108.4044
 398  193.5824
 399  233.9289
 400  218.0226
 401  230.3684
 402  251.826
 403  295.5475
 404  271.4392
 405  277.694
 406  305.3287
 407  276.2427
 408  219.8632
 409  311.1919
 410  315.1488
 411  267.1746
 412  156.791
 413  289.2661
 414  337.9545
 415  165.7245
 416  156.5197
 417  190.3044
 418  236.4843
 419  299.3395
 420  379.4597
 421  378.6438
 422  236.3125
 423  107.6933
 424  71.51361
 425  85.6469
 426  241.2894
 427  332.8752
 428  252.2234
 429  375.8101
 430  454.9345
 431  280.2782
 432  173.6196
 433  289.1264
 434  465.3665
 435  477.0079
 436  539.304
 437  740.1917
 438  963.0186
 439  1041.798
 440  898.6562
 441  1024.014
 442  858.8985
 443  684.6343
 444  558.5026
 445  393.5207
 446  323.7408
 447  356.2461
 448  362.9785
 449  419.7709
 450  293.0655
 451  241.7265
 452  316.8906
 453  355.8098
 454  363.0211
 455  274.5822
 456  282.4268
 457  269.257
 458  268.8587
 459  219.4555
 460  236.1251
 461  267.7827
 462  243.8921
 463  203.0345
 464  284.1096
 465  240.6142
 466  376.3143
 467  384.7192
 468  262.3106
 469  242.2761
 470  333.7798
 471  227.3974
 472  140.716
 473  91.90901
 474  145.8191
 475  295.7968
 476  64.41763
 477  84.52406
 478  143.8708
 479  214.1657
 480  317.0171
 481  236.55
 482  235.8846
 483  203.7368
 484  219.7907
 485  170.0174
 486  117.9966
 487  163.4991
 488  266.1984
 489  360.7268
 490  313.9166
 491  206.0698
 492  135.535
 493  182.9896
 494  165.7505
 495  222.8452
 496  217.6535
 497  109.0274
 498  162.1809
 499  233.0868
 500  198.1661
 501  225.149
 502  331.6582
 503  345.2603
 504  206.9398
 505  209.5626
 506  235.9448
 507  21.0009
 508  168.0666
 509  314.9786
 510  238.68
 511  56.51895
