# Input file       =  1191208577.114983_cleaned.dat
# Candidate        =  PSR_0332+5434
# Telescope        =  AR
# Epoch_topo       =  58031.136529108604
# Epoch_bary       =  N/A
# T_sample         =  0.002
# Data Folded      =  7340032
# Data Avg         =  0.0456151960315765
# Data StdDev      =  2.81638621913863 
# Profile Bins     =  256
# Profile Avg      =  1307.95876284831 
# Profile StdDev   =  476.893282032018 
# Reduced chi-sqr  =  1.522
# Prob(Noise)      <  1.48e-07   (~5.1 sigma)
# P_topo (ms)      =  714.47531308502   +/- 0.000274
# P'_topo (s/s)    =  -0                +/- 1.45e-10
# P''_topo (s/s^2) =  0                 +/- 6.39e-14
# P_bary (ms)      =  N/A
# P'_bary (s/s)    =  N/A
# P''_bary (s/s^2) =  N/A
# P_orb (s)        =  N/A
# asin(i)/c (s)    =  N/A
# eccentricity     =  N/A
# w (rad)          =  N/A
# T_peri           =  N/A
######################################################
   0  1359.375
   1  1029.613
   2  1387.719
   3  1248.088
   4  1389.247
   5  1077.207
   6  698.4452
   7  1115.331
   8  1230.747
   9  1595.788
  10  1409.901
  11  1680.862
  12  1650.644
  13  667.8635
  14  475.0317
  15  1467.881
  16  935.4333
  17  1212.581
  18  2184.869
  19  1767.584
  20  1758.949
  21  972.8224
  22  753.1685
  23  1376.52
  24  1438.134
  25  1630.873
  26  1557.518
  27  2234.293
  28  1451.167
  29  1486.86
  30  1037.704
  31  747.1245
  32  1077.913
  33  808.412
  34  1322.29
  35  864.8885
  36  1574.121
  37  898.6467
  38  1391.294
  39  1631.632
  40  1493.581
  41  986.9038
  42  1186.871
  43  1706.805
  44  1788.343
  45  1647.985
  46  1689.805
  47  1493.444
  48  1766.24
  49  1421.254
  50  904.9259
  51  576.7789
  52  1104.972
  53  438.7048
  54  1120.475
  55  1737.667
  56  1694.465
  57  1537.867
  58  1642.828
  59  1867.383
  60  1445.256
  61  980.2535
  62  971.3276
  63  1079.089
  64  910.0573
  65  1872.705
  66  1521.438
  67  787.5653
  68  1252.419
  69  1468.299
  70  1145.466
  71  1061.698
  72  987.3948
  73  1297.603
  74  1150.117
  75  1445.395
  76  1529.524
  77  919.0948
  78  1058.301
  79  799.0409
  80  966.2108
  81  696.3022
  82  637.5018
  83  774.3553
  84  1512.911
  85  643.0196
  86  1043.964
  87  1604.379
  88  1128.599
  89  1033.756
  90  1138.141
  91  1553.535
  92  299.7816
  93  1151.859
  94  1041.062
  95  983.5752
  96  948.8034
  97  1433.828
  98  818.8066
  99  713.8324
 100  1163.45
 101  1944.894
 102  1315.567
 103  945.246
 104  824.1031
 105  583.821
 106  622.3068
 107  1474.083
 108  1299.856
 109  1884.463
 110  1468.269
 111  1523.98
 112  1480.586
 113  1426.327
 114  1306.04
 115  1389.156
 116  1800.84
 117  1753.753
 118  1193.609
 119  1080.357
 120  1222.783
 121  1048.024
 122  995.2775
 123  1001.28
 124  947.1708
 125  1238.736
 126  1549.73
 127  564.8803
 128  1559.695
 129  2124.321
 130  984.3787
 131  1266.243
 132  1070.725
 133  981.0732
 134  786.9629
 135  611.0371
 136  1440.01
 137  1398.731
 138  571.9103
 139  964.8019
 140  925.9778
 141  1156.622
 142  1009.343
 143  928.2699
 144  1892.571
 145  1705.693
 146  971.3214
 147  963.2405
 148  780.1402
 149  1434.72
 150  1524.802
 151  1928.807
 152  1106.42
 153  2147.8
 154  1155.542
 155  1632.006
 156  1588.568
 157  1870.867
 158  3349.833
 159  4392.465
 160  4172.813
 161  2416.017
 162  1288.78
 163  686.2213
 164  1659.581
 165  938.2968
 166  1405.597
 167  2167.085
 168  1215.755
 169  904.5812
 170  1888.732
 171  1526.731
 172  1458.469
 173  1373.551
 174  1142.032
 175  1789.585
 176  2713.775
 177  1897.563
 178  1935.831
 179  1919.053
 180  2165.252
 181  1493.734
 182  1299.662
 183  1397.829
 184  1170.553
 185  964.8021
 186  803.9901
 187  1326.914
 188  2081.725
 189  1388.427
 190  1514.997
 191  1415.899
 192  1194.257
 193  1075.808
 194  1658.798
 195  1490.578
 196  1180.146
 197  1515.137
 198  811.4442
 199  1138.286
 200  733.3469
 201  903.3427
 202  791.4161
 203  1479.786
 204  1606.254
 205  1346.933
 206  1197.617
 207  1353.421
 208  869.8384
 209  1374.118
 210  1271.908
 211  1343.901
 212  1518.297
 213  1756.813
 214  676.78
 215  990.916
 216  735.2339
 217  1283.84
 218  1067.896
 219  1900.549
 220  1907.155
 221  1509.411
 222  1646.903
 223  1683.729
 224  1659.24
 225  1572.319
 226  1752.357
 227  1741.74
 228  2051.341
 229  1183.152
 230  1197.45
 231  1911.983
 232  1145.15
 233  1540.605
 234  1035.535
 235  1372.83
 236  902.4918
 237  352.5527
 238  1533.694
 239  1527.142
 240  677.5676
 241  956.0953
 242  1025.771
 243  1035.801
 244  638.0309
 245  191.6436
 246  948.5472
 247  1371.779
 248  1096.828
 249  651.2454
 250  349.4052
 251  680.8762
 252  956.6522
 253  1253.41
 254  1713.374
 255  1787.547
