# Input file       =  1191538293.107866_cleaned.dat
# Candidate        =  PSR_0332+5434
# Telescope        =  AR
# Epoch_topo       =  58034.952686433637
# Epoch_bary       =  N/A
# T_sample         =  0.002
# Data Folded      =  7340032
# Data Avg         =  0.038018336667197
# Data StdDev      =  2.44746406936736 
# Profile Bins     =  256
# Profile Avg      =  1090.1471703434  
# Profile StdDev   =  414.424401299978 
# Reduced chi-sqr  =  1.862
# Prob(Noise)      <  2e-15   (~7.9 sigma)
# P_topo (ms)      =  714.477362042708  +/- 0.000274
# P'_topo (s/s)    =  -0                +/- 1.45e-10
# P''_topo (s/s^2) =  0                 +/- 6.39e-14
# P_bary (ms)      =  N/A
# P'_bary (s/s)    =  N/A
# P''_bary (s/s^2) =  N/A
# P_orb (s)        =  N/A
# asin(i)/c (s)    =  N/A
# eccentricity     =  N/A
# w (rad)          =  N/A
# T_peri           =  N/A
######################################################
   0  1312.797
   1  1273.484
   2  1592.384
   3  1204.241
   4  1494.682
   5  861.8384
   6  1200.556
   7  1190.162
   8  750.7916
   9  825.665
  10  1580.809
  11  1375.061
  12  1552.513
  13  1647.465
  14  863.0023
  15  1082.089
  16  1597.674
  17  1513.36
  18  1259.723
  19  284.9563
  20  1270.892
  21  1629.266
  22  1062.191
  23  772.598
  24  1355.832
  25  994.3262
  26  708.6595
  27  1179.91
  28  1081.668
  29  1220.555
  30  894.8788
  31  595.106
  32  783.959
  33  1467.675
  34  1309.788
  35  1175.102
  36  1084.858
  37  1170.336
  38  591.5435
  39  860.6321
  40  785.5624
  41  1318.02
  42  1643.719
  43  1040.417
  44  1181.573
  45  1174.368
  46  1279.518
  47  1611.609
  48  1204.377
  49  1090.278
  50  1082.865
  51  351.7263
  52  835.2902
  53  1334.047
  54  1131.046
  55  620.3132
  56  1835.768
  57  2042.732
  58  966.8583
  59  803.1352
  60  1021.077
  61  1120.529
  62  1500.494
  63  1138.642
  64  848.8724
  65  1781.344
  66  1409.529
  67  1201.642
  68  1104.146
  69  1018.765
  70  908.693
  71  775.4852
  72  1196.386
  73  1159.758
  74  1560.992
  75  1387.467
  76  467.45
  77  807.0006
  78  923.609
  79  1044.831
  80  862.7207
  81  933.4993
  82  1393.113
  83  476.007
  84  929.4155
  85  1057.164
  86  1222.666
  87  1116.655
  88  1038.659
  89  719.9324
  90  912.6738
  91  967.9744
  92  1033.455
  93  615.7118
  94  1212.829
  95  1115.382
  96  670.3132
  97  785.1797
  98  633.5928
  99  1463.142
 100  1205.72
 101  1008.45
 102  1712.587
 103  837.97
 104  1491.254
 105  1468.208
 106  1429.779
 107  1192.009
 108  1584.045
 109  763.8335
 110  879.4243
 111  877.7657
 112  1090.677
 113  1291.709
 114  896.457
 115  609.2504
 116  1199.123
 117  698.4855
 118  1298.419
 119  715.691
 120  599.5576
 121  1031.334
 122  1043.691
 123  1392.498
 124  473.7501
 125  1435.669
 126  1072.997
 127  1278.18
 128  917.3806
 129  935.5795
 130  1467.428
 131  1030.839
 132  691.1142
 133  914.8606
 134  971.2177
 135  734.2865
 136  520.0213
 137  748.3302
 138  932.1666
 139  1413.229
 140  629.4639
 141  749.3735
 142  415.8325
 143  578.8906
 144  597.3878
 145  1016.923
 146  1621.223
 147  566.4126
 148  681.6243
 149  828.2678
 150  1616.696
 151  1208.894
 152  898.5904
 153  1516.182
 154  892.1069
 155  733.2745
 156  1361.748
 157  1860.635
 158  3064.185
 159  4968.473
 160  4475.384
 161  2494.558
 162  1438.894
 163  764.8977
 164  1109.204
 165  1168.606
 166  832.9552
 167  788.7913
 168  1352.219
 169  818.5871
 170  891.16
 171  608.3282
 172  837.3148
 173  928.8878
 174  1023.389
 175  1422.7
 176  811.1544
 177  1092.84
 178  467.4618
 179  851.4459
 180  593.394
 181  634.93
 182  739.8296
 183  734.33
 184  902.0596
 185  934.9398
 186  1043.684
 187  804.939
 188  928.4678
 189  497.3931
 190  931.2803
 191  1358.787
 192  1233.887
 193  1289.41
 194  1370.024
 195  931.125
 196  1189.546
 197  809.2582
 198  929.5583
 199  603.9302
 200  1008.627
 201  1661.463
 202  885.6382
 203  1182.608
 204  1262.069
 205  1184.982
 206  621.6532
 207  882.2075
 208  468.8143
 209  851.5468
 210  973.1687
 211  1292.104
 212  416.8533
 213  485.596
 214  489.1736
 215  1394.355
 216  1387.303
 217  880.1381
 218  1292.831
 219  959.2654
 220  767.2992
 221  321.2258
 222  1185.589
 223  1214.575
 224  221.2735
 225  615.5736
 226  1308.117
 227  1537.137
 228  1507.582
 229  1086.7
 230  1366.23
 231  1517.499
 232  1179.591
 233  1581.336
 234  861.9473
 235  609.3167
 236  789.6184
 237  522.0655
 238  1017.388
 239  1099.929
 240  785.0623
 241  1576.759
 242  954.8063
 243  722.6058
 244  1010.507
 245  1156.273
 246  921.6594
 247  1247.734
 248  889.891
 249  1533.75
 250  1438.421
 251  1366.863
 252  1443.132
 253  770.3001
 254  1086.171
 255  1439.58
