# Input file       =  1191725510.105498-PSRB0329-2ms-sampling-dd.dat
# Candidate        =  PSR_0332+5434
# Telescope        =  AR
# Epoch_topo       =  58037.119549832154
# Epoch_bary       =  N/A
# T_sample         =  0.002
# Data Folded      =  7340032
# Data Avg         =  -2.52947120171349e-10
# Data StdDev      =  5.02790015379698 
# Profile Bins     =  512
# Profile Avg      =  -0.287266740718045
# Profile StdDev   =  602.005752013322 
# Reduced chi-sqr  =  0.872
# Prob(Noise)      <  0.983   (~0.0 sigma)
# P_topo (ms)      =  714.479137031707  +/- 0.000117
# P'_topo (s/s)    =  -0                +/- 6.15e-11
# P''_topo (s/s^2) =  0                 +/- 2.72e-14
# P_bary (ms)      =  N/A
# P'_bary (s/s)    =  N/A
# P''_bary (s/s^2) =  N/A
# P_orb (s)        =  N/A
# asin(i)/c (s)    =  N/A
# eccentricity     =  N/A
# w (rad)          =  N/A
# T_peri           =  N/A
######################################################
   0  75.13839
   1  -43.57524
   2  839.755
   3  970.2742
   4  1707.86
   5  1969.979
   6  1719.544
   7  1358.69
   8  761.5264
   9  274.5098
  10  -129.4196
  11  -363.7095
  12  -173.148
  13  86.79707
  14  171.175
  15  -287.5324
  16  -396.649
  17  -494.6647
  18  -434.5506
  19  -274.5732
  20  206.2067
  21  114.7998
  22  295.0276
  23  148.7665
  24  -13.34366
  25  -56.06451
  26  -204.9243
  27  66.78522
  28  233.8517
  29  332.8069
  30  103.4695
  31  -125.5859
  32  18.89757
  33  -42.49776
  34  24.34418
  35  -217.8716
  36  -67.13301
  37  -23.6017
  38  -84.69623
  39  204.5043
  40  -153.6051
  41  -436.7257
  42  -421.8598
  43  -271.3418
  44  -223.2025
  45  -297.4864
  46  42.9771
  47  235.3562
  48  162.3542
  49  -420.8594
  50  -451.2083
  51  -56.21666
  52  74.40388
  53  523.0782
  54  521.4197
  55  514.272
  56  540.4395
  57  507.0853
  58  601.2964
  59  803.7195
  60  587.8046
  61  825.7242
  62  815.6631
  63  648.8712
  64  855.9884
  65  355.9707
  66  308.8621
  67  134.9794
  68  290.9276
  69  487.522
  70  453.2679
  71  396.9644
  72  428.7251
  73  234.615
  74  -20.85977
  75  -65.83844
  76  150.0006
  77  -145.9021
  78  88.69119
  79  349.4642
  80  306.2447
  81  65.5274
  82  -271.128
  83  95.4343
  84  167.3665
  85  2.69213
  86  -51.83372
  87  146.3571
  88  135.1778
  89  -370.8645
  90  -587.2963
  91  -280.2896
  92  -201.4877
  93  150.7392
  94  262.1345
  95  318.9677
  96  329.9226
  97  -220.7974
  98  -473.4737
  99  -234.0534
 100  50.04703
 101  466.4873
 102  188.0971
 103  -94.37264
 104  -110.4836
 105  -240.4729
 106  19.90823
 107  15.00069
 108  307.439
 109  258.6059
 110  -114.1482
 111  115.7838
 112  155.67
 113  491.2105
 114  11.67228
 115  414.6843
 116  31.78384
 117  73.9899
 118  -187.2348
 119  -267.6044
 120  -238.3053
 121  165.3258
 122  -17.51781
 123  19.28555
 124  -349.7353
 125  -222.5255
 126  132.2851
 127  347.4774
 128  212.6617
 129  48.62069
 130  360.261
 131  84.1563
 132  51.94962
 133  251.065
 134  323.1641
 135  458.514
 136  8.670178
 137  -161.8543
 138  -351.4047
 139  53.22511
 140  369.3844
 141  92.64828
 142  121.6066
 143  -42.81437
 144  -52.18346
 145  -435.7423
 146  -262.0357
 147  16.96637
 148  315.6761
 149  179.2978
 150  357.4008
 151  229.8532
 152  -104.008
 153  -301.8535
 154  -270.6129
 155  160.7359
 156  69.077
 157  242.0778
 158  173.3887
 159  359.6358
 160  241.3658
 161  120.8474
 162  427.4903
 163  -10.53451
 164  -515.378
 165  -212.9527
 166  19.12762
 167  370.4399
 168  79.56642
 169  263.1224
 170  157.4663
 171  -116.0601
 172  -95.93575
 173  -483.4963
 174  -298.2884
 175  395.385
 176  497.1908
 177  314.5934
 178  78.73526
 179  -673.5349
 180  -812.9173
 181  -439.263
 182  390.4571
 183  235.0826
 184  -101.5266
 185  -277.2331
 186  -615.5678
 187  -736.749
 188  -392.6406
 189  -273.1892
 190  180.5723
 191  363.3998
 192  199.2975
 193  23.41841
 194  31.19261
 195  151.4139
 196  228.1867
 197  -155.9403
 198  51.99129
 199  -158.1468
 200  12.20396
 201  -50.94286
 202  37.71708
 203  133.3738
 204  71.94604
 205  -150.3883
 206  -122.1653
 207  -240.6564
 208  58.01173
 209  119.6042
 210  183.0333
 211  -55.69632
 212  29.31117
 213  -50.15488
 214  98.34737
 215  228.678
 216  571.0929
 217  564.0033
 218  375.4358
 219  -139.0635
 220  -432.9033
 221  -142.8588
 222  52.97676
 223  158.3478
 224  585.8067
 225  144.1426
 226  214.4345
 227  188.1414
 228  70.21313
 229  361.0788
 230  42.42929
 231  -83.57835
 232  12.28649
 233  171.8116
 234  122.691
 235  390.9766
 236  503.3037
 237  301.0581
 238  370.4985
 239  -361.6961
 240  56.8978
 241  280.8842
 242  33.04858
 243  14.01082
 244  -331.7315
 245  -112.9321
 246  -329.1103
 247  -318.065
 248  -87.33504
 249  54.86098
 250  77.97361
 251  -6.705487
 252  -219.5446
 253  -254.1223
 254  -218.8665
 255  -323.9696
 256  -87.41953
 257  400.9055
 258  453.2497
 259  -64.86211
 260  -292.9167
 261  -346.2835
 262  -674.1479
 263  -234.299
 264  -198.4547
 265  218.1249
 266  92.26546
 267  -213.2595
 268  -113.1093
 269  -46.52185
 270  156.4526
 271  146.6933
 272  78.05495
 273  211.0931
 274  210.0089
 275  867.5105
 276  609.844
 277  208.8147
 278  304.8587
 279  -199.1579
 280  88.3848
 281  71.0079
 282  575.0041
 283  217.5471
 284  90.49402
 285  88.55304
 286  -342.9152
 287  -604.451
 288  -529.6281
 289  42.78421
 290  104.9711
 291  95.73309
 292  114.5866
 293  72.24668
 294  -176.741
 295  94.7827
 296  378.4519
 297  289.1029
 298  15.73281
 299  -120.2499
 300  -11.76683
 301  79.44469
 302  54.47434
 303  -125.9617
 304  -236.6117
 305  -79.23801
 306  -344.2446
 307  -375.9176
 308  -269.7058
 309  -409.3622
 310  41.39328
 311  -2.072493
 312  -226.9607
 313  -965.2088
 314  -954.4245
 315  -660.5177
 316  -1052.404
 317  -518.8414
 318  -30.69567
 319  212.0456
 320  -366.0673
 321  -1144.558
 322  -1013.026
 323  -1499.69
 324  -1290.316
 325  -784.0621
 326  -641.421
 327  -801.2966
 328  -1070.928
 329  -896.1671
 330  -825.7135
 331  -802.709
 332  -391.8025
 333  -283.8098
 334  -293.9046
 335  -529.2164
 336  -383.9685
 337  -121.576
 338  -601.2718
 339  -827.4792
 340  -498.1528
 341  -132.0887
 342  251.8074
 343  -169.6206
 344  266.3308
 345  -139.5244
 346  -985.7177
 347  -829.3524
 348  -789.0683
 349  -160.2261
 350  -3.072689
 351  -1.498424
 352  -186.6081
 353  -282.6954
 354  -402.9385
 355  -294.3907
 356  -468.9688
 357  -696.0473
 358  -34.09004
 359  -31.85167
 360  -35.80461
 361  -527.0377
 362  -206.5042
 363  -56.84881
 364  -60.6333
 365  11.00448
 366  279.3774
 367  -156.487
 368  27.54401
 369  69.10548
 370  -26.45398
 371  -182.8414
 372  70.11865
 373  -113.1627
 374  -143.3072
 375  -35.70387
 376  -447.9022
 377  -495.4714
 378  -185.1253
 379  -213.7395
 380  -566.9089
 381  -882.5878
 382  -663.7488
 383  -340.5417
 384  -37.84003
 385  111.6446
 386  59.45388
 387  -200.0435
 388  -391.3538
 389  -556.9214
 390  -583.6827
 391  -453.3902
 392  -301.9794
 393  -327.8077
 394  17.61635
 395  -265.6619
 396  -280.5519
 397  -850.408
 398  -866.8802
 399  -995.0549
 400  -21.44837
 401  105.2292
 402  -421.2818
 403  -262.0358
 404  -520.8122
 405  -352.4216
 406  -547.6513
 407  -321.3418
 408  -23.28783
 409  -208.9895
 410  -43.9352
 411  366.1893
 412  -384.6431
 413  -307.6121
 414  -50.0666
 415  -213.7006
 416  -56.24202
 417  68.86334
 418  -361.3414
 419  -152.121
 420  -284.6693
 421  -268.5053
 422  -389.5304
 423  -5.942285
 424  -267.4183
 425  -75.69125
 426  -172.56
 427  -443.0921
 428  -214.6012
 429  -345.8904
 430  -127.8806
 431  -200.7668
 432  450.6691
 433  987.3383
 434  800.2189
 435  443.7216
 436  301.4938
 437  -86.05061
 438  -208.1169
 439  62.9285
 440  584.1331
 441  750.2024
 442  860.1689
 443  487.394
 444  470.3157
 445  197.9035
 446  312.3663
 447  642.47
 448  514.4842
 449  818.9891
 450  552.0829
 451  427.0505
 452  270.8311
 453  30.60128
 454  -94.53741
 455  41.45205
 456  -38.70907
 457  -39.19439
 458  396.8952
 459  -76.91073
 460  -220.4203
 461  -417.3359
 462  -382.377
 463  -379.7593
 464  -233.0786
 465  643.4414
 466  805.0788
 467  859.1762
 468  775.4016
 469  461.0649
 470  466.5507
 471  316.5109
 472  411.8402
 473  585.7232
 474  739.6081
 475  1013.057
 476  179.7814
 477  397.9212
 478  365.5188
 479  63.48708
 480  9.937378
 481  -54.73938
 482  406.7195
 483  458.0049
 484  423.1388
 485  93.47851
 486  214.7789
 487  -162.6952
 488  -220.0997
 489  -61.40711
 490  175.0098
 491  238.1012
 492  127.0207
 493  -207.4723
 494  37.00341
 495  -57.98384
 496  -440.3411
 497  -283.8914
 498  383.0179
 499  696.3987
 500  555.9141
 501  185.9501
 502  132.2877
 503  -135.0193
 504  -372.3365
 505  -261.928
 506  285.2447
 507  251.4212
 508  227.3174
 509  393.8236
 510  236.5722
 511  -44.33952
