# Input file       =  1191193657.112630-PSRB0329-2ms-sampling-dd.dat
# Candidate        =  PSR_0332+5434
# Telescope        =  AR
# Epoch_topo       =  58030.963843896177
# Epoch_bary       =  N/A
# T_sample         =  0.002
# Data Folded      =  7340032
# Data Avg         =  5.78234594844189e-10
# Data StdDev      =  3.06434773813763 
# Profile Bins     =  512
# Profile Avg      =  0.157644249239942
# Profile StdDev   =  366.903659201494 
# Reduced chi-sqr  =  1.208
# Prob(Noise)      <  0.00085   (~3.1 sigma)
# P_topo (ms)      =  714.474874294082  +/- 0.000448
# P'_topo (s/s)    =  -0                +/- 2.36e-10
# P''_topo (s/s^2) =  0                 +/- 1.04e-13
# P_bary (ms)      =  N/A
# P'_bary (s/s)    =  N/A
# P''_bary (s/s^2) =  N/A
# P_orb (s)        =  N/A
# asin(i)/c (s)    =  N/A
# eccentricity     =  N/A
# w (rad)          =  N/A
# T_peri           =  N/A
######################################################
   0  -76.72807
   1  -152.7539
   2  -268.4446
   3  -270.9462
   4  -308.9528
   5  -301.0856
   6  -325.3009
   7  94.59476
   8  -178.264
   9  -246.5435
  10  -339.5127
  11  -108.9809
  12  -118.4278
  13  -74.61065
  14  19.60808
  15  -245.9809
  16  -217.3145
  17  -225.624
  18  -419.0375
  19  -744.6237
  20  -418.6621
  21  -75.91331
  22  26.95693
  23  -127.1072
  24  -309.5076
  25  -505.8871
  26  -591.3337
  27  -290.9781
  28  -157.0615
  29  -507.6555
  30  -586.9498
  31  -552.6694
  32  -536.2965
  33  -798.3235
  34  -550.778
  35  -281.2993
  36  -397.5486
  37  -258.2525
  38  -18.85914
  39  -102.6152
  40  -230.0557
  41  -300.7644
  42  -339.4065
  43  -127.6064
  44  -141.6107
  45  246.6401
  46  -80.50725
  47  -298.3746
  48  -467.2931
  49  -705.9128
  50  -397.1852
  51  -140.077
  52  -41.36701
  53  -90.80528
  54  58.35258
  55  143.5985
  56  -97.4173
  57  -33.49435
  58  66.46487
  59  -87.22426
  60  -99.2149
  61  176.5732
  62  174.0442
  63  -15.22355
  64  -15.02282
  65  -100.6595
  66  -38.55897
  67  -257.7026
  68  -376.7071
  69  -45.45252
  70  67.21544
  71  90.47074
  72  48.58688
  73  -92.62683
  74  -294.765
  75  -676.4336
  76  -454.1577
  77  -299.2346
  78  -93.59903
  79  -18.21979
  80  -72.161
  81  -106.5625
  82  -403.3765
  83  37.64099
  84  438.895
  85  1077.947
  86  830.6688
  87  730.362
  88  242.2512
  89  187.7204
  90  119.7077
  91  199.369
  92  164.4334
  93  146.3042
  94  51.85165
  95  164.4353
  96  373.2692
  97  99.49475
  98  -107.8534
  99  84.44105
 100  -73.28832
 101  -84.39252
 102  -207.8506
 103  213.5057
 104  153.2842
 105  -10.69385
 106  46.59668
 107  268.7176
 108  87.39537
 109  324.8225
 110  513.5817
 111  454.9296
 112  -44.20676
 113  -105.3359
 114  -0.3104619
 115  2.204316
 116  -52.00518
 117  55.3568
 118  -208.013
 119  -406.9454
 120  -39.77489
 121  130.79
 122  -81.30402
 123  -167.4185
 124  163.2623
 125  -42.66094
 126  12.16497
 127  159.5175
 128  390.7666
 129  316.3389
 130  -36.07664
 131  -128.5396
 132  144.8384
 133  445.5406
 134  218.6722
 135  110.6606
 136  101.9978
 137  -81.21784
 138  60.50148
 139  81.78093
 140  -187.902
 141  -86.07763
 142  -104.5176
 143  -161.3112
 144  18.79292
 145  120.9829
 146  -124.0033
 147  -121.795
 148  51.01212
 149  147.5453
 150  40.97797
 151  -97.15887
 152  2.06959
 153  -132.3584
 154  -79.53766
 155  48.99232
 156  168.2014
 157  -58.91425
 158  -338.5886
 159  -97.78008
 160  62.26921
 161  301.4859
 162  139.708
 163  -156.6418
 164  -130.8529
 165  60.45256
 166  31.26809
 167  134.3829
 168  193.077
 169  45.41068
 170  58.64579
 171  -179.5174
 172  -76.54424
 173  164.6329
 174  298.247
 175  55.92472
 176  -201.3787
 177  -206.6212
 178  -370.9397
 179  -181.6767
 180  70.23853
 181  167.1201
 182  183.437
 183  -34.88403
 184  148.9187
 185  105.3367
 186  111.4061
 187  102.2343
 188  -61.95049
 189  231.8849
 190  238.364
 191  329.6691
 192  185.9733
 193  28.76546
 194  337.9212
 195  700.8241
 196  430.4266
 197  83.44318
 198  147.1966
 199  -43.08728
 200  -198.2871
 201  -78.7067
 202  237.0362
 203  -109.4546
 204  -156.796
 205  -176.502
 206  -232.9929
 207  -76.75588
 208  -120.0279
 209  6.960699
 210  225.4321
 211  174.1953
 212  -10.52784
 213  -50.54726
 214  385.438
 215  179.075
 216  -40.97813
 217  169.9458
 218  247.243
 219  290.5372
 220  394.5268
 221  364.1085
 222  230.0798
 223  47.70689
 224  56.58834
 225  69.1842
 226  134.6487
 227  110.6751
 228  517.9349
 229  462.3331
 230  229.5536
 231  262.7955
 232  243.6288
 233  -44.8701
 234  -181.94
 235  438.7324
 236  625.9117
 237  277.1322
 238  232.0568
 239  163.77
 240  307.0959
 241  86.50549
 242  77.5292
 243  154.9197
 244  -103.9699
 245  -44.60986
 246  242.9506
 247  229.0004
 248  145.1318
 249  134.345
 250  304.4521
 251  81.92607
 252  62.71983
 253  193.6117
 254  33.10347
 255  -252.7076
 256  126.169
 257  137.5572
 258  -160.1945
 259  -353.0164
 260  -122.8288
 261  237.3576
 262  157.7777
 263  208.0177
 264  178.9964
 265  39.43669
 266  -353.3669
 267  -543.4415
 268  -429.0777
 269  -281.6097
 270  99.26212
 271  -83.26105
 272  -11.28417
 273  20.26428
 274  95.17247
 275  -17.09786
 276  -29.21715
 277  -184.9403
 278  -234.1374
 279  -290.8456
 280  -402.1127
 281  -230.711
 282  297.1454
 283  148.9028
 284  -317.8552
 285  -141.142
 286  162.4203
 287  166.9946
 288  97.62661
 289  49.87688
 290  -159.8479
 291  -48.20947
 292  127.9269
 293  407.0161
 294  100.8675
 295  208.0735
 296  194.349
 297  126.7638
 298  455.9492
 299  397.4331
 300  91.62514
 301  82.4813
 302  149.6446
 303  327.6754
 304  137.3043
 305  220.7508
 306  25.78642
 307  -35.63542
 308  -47.80042
 309  164.7126
 310  150.2009
 311  77.46448
 312  69.7351
 313  3.551376
 314  119.7959
 315  150.9507
 316  13.99287
 317  -120.5172
 318  168.7082
 319  -39.51162
 320  -113.6547
 321  68.62317
 322  151.6981
 323  120.8505
 324  61.96257
 325  85.4553
 326  282.5993
 327  35.13994
 328  72.54681
 329  196.244
 330  79.44991
 331  250.7658
 332  16.70676
 333  234.3663
 334  -81.70026
 335  -8.963649
 336  -43.83258
 337  -120.4673
 338  134.4043
 339  -212.1402
 340  -85.92396
 341  31.1067
 342  45.80017
 343  -52.04902
 344  -363.4108
 345  -462.9135
 346  -147.1336
 347  -1.948723
 348  -78.71881
 349  -177.079
 350  132.7267
 351  32.92846
 352  -195.6041
 353  -81.794
 354  -98.83475
 355  -277.6986
 356  -19.32323
 357  261.4762
 358  -179.8559
 359  -578.3588
 360  -380.2251
 361  -158.1053
 362  -335.497
 363  -197.166
 364  -13.26913
 365  -223.6617
 366  66.48743
 367  141.4315
 368  -92.48727
 369  -137.9544
 370  76.93589
 371  152.5477
 372  -291.0909
 373  -315.7031
 374  -532.1201
 375  -457.8737
 376  -207.0394
 377  -116.903
 378  55.923
 379  393.8323
 380  261.5118
 381  334.6853
 382  158.7805
 383  730.0613
 384  1238.298
 385  1245.811
 386  1536.618
 387  1767.75
 388  1746.367
 389  1166.071
 390  630.4224
 391  353.7649
 392  533.904
 393  141.1456
 394  -133.374
 395  -95.44972
 396  91.599
 397  246.6888
 398  268.8911
 399  214.8243
 400  358.4637
 401  561.7607
 402  447.8667
 403  435.5039
 404  114.5435
 405  -59.85952
 406  -117.9601
 407  -60.2389
 408  -156.1232
 409  -166.003
 410  93.54191
 411  1.469626
 412  -205.1225
 413  -147.9096
 414  -171.7393
 415  -165.7357
 416  -10.11003
 417  -60.60329
 418  -46.47033
 419  78.49107
 420  132.8378
 421  48.42766
 422  184.8173
 423  -106.7109
 424  -426.8784
 425  75.63564
 426  75.02081
 427  -248.1973
 428  -545.9166
 429  -210.8176
 430  -231.9993
 431  -467.8706
 432  -68.1044
 433  -81.70945
 434  -148.6996
 435  -10.11412
 436  -46.5601
 437  -93.91753
 438  -102.7345
 439  49.12563
 440  -133.5201
 441  -321.2081
 442  -89.7985
 443  3.756439
 444  -330.8274
 445  -118.3621
 446  12.48918
 447  -187.5308
 448  -524.3546
 449  -446.5023
 450  -346.8662
 451  -660.1706
 452  -492.2491
 453  -173.217
 454  -303.4276
 455  -299.4489
 456  -2.183271
 457  13.51644
 458  -112.7736
 459  -98.42256
 460  -159.215
 461  -270.2806
 462  -104.5562
 463  -100.2704
 464  -210.2566
 465  55.36972
 466  -91.55597
 467  -159.5799
 468  -291.3586
 469  -453.1571
 470  -320.8929
 471  -136.8559
 472  -96.82335
 473  -141.5375
 474  37.95443
 475  -319.1429
 476  -308.9875
 477  -480.015
 478  -621.2498
 479  -308.3328
 480  -129.0422
 481  50.46401
 482  14.93445
 483  154.4839
 484  257.5629
 485  -37.89941
 486  -50.60003
 487  57.08332
 488  116.903
 489  317.9923
 490  -19.56684
 491  -1.347306
 492  211.6972
 493  53.57798
 494  -43.86423
 495  -119.2139
 496  -50.73488
 497  -34.13017
 498  -122.0826
 499  -10.97398
 500  30.7682
 501  -73.74606
 502  -131.7844
 503  237.8915
 504  232.5476
 505  231.0055
 506  33.41274
 507  309.3902
 508  -13.58878
 509  -244.2982
 510  -165.2978
 511  -202.0118
