# Input file       =  1191811690.126897_cleaned.dat
# Candidate        =  PSR_0332+5434
# Telescope        =  AR
# Epoch_topo       =  58038.117003783533
# Epoch_bary       =  N/A
# T_sample         =  0.002
# Data Folded      =  7340032
# Data Avg         =  0.0170956384920629
# Data StdDev      =  1.00003946201605 
# Profile Bins     =  512
# Profile Avg      =  245.072940568589 
# Profile StdDev   =  119.73776128377  
# Reduced chi-sqr  =  1.629
# Prob(Noise)      <  8.74e-18   (~8.5 sigma)
# P_topo (ms)      =  714.47982124634   +/- 2.92e-05
# P'_topo (s/s)    =  -0                +/- 1.54e-11
# P''_topo (s/s^2) =  0                 +/- 6.81e-15
# P_bary (ms)      =  N/A
# P'_bary (s/s)    =  N/A
# P''_bary (s/s^2) =  N/A
# P_orb (s)        =  N/A
# asin(i)/c (s)    =  N/A
# eccentricity     =  N/A
# w (rad)          =  N/A
# T_peri           =  N/A
######################################################
   0  1119.515
   1  894.7488
   2  706.7725
   3  488.9943
   4  400.2204
   5  321.5891
   6  430.5243
   7  280.873
   8  344.1761
   9  334.6411
  10  318.2859
  11  184.487
  12  158.0386
  13  277.3746
  14  422.9803
  15  365.9453
  16  382.6001
  17  338.633
  18  228.4617
  19  268.2812
  20  331.7075
  21  307.5231
  22  243.1929
  23  251.3324
  24  314.6834
  25  258.3075
  26  335.4504
  27  250.0328
  28  158.6534
  29  269.2413
  30  199.7477
  31  341.1692
  32  304.8088
  33  223.4268
  34  295.1119
  35  172.2996
  36  94.50584
  37  217.8026
  38  273.9299
  39  275.7567
  40  119.0818
  41  288.9828
  42  278.779
  43  249.3012
  44  166.0381
  45  315.9425
  46  292.4365
  47  149.8628
  48  174.0424
  49  406.2484
  50  223.1127
  51  292.4316
  52  269.4071
  53  325.2291
  54  220.4911
  55  207.6498
  56  246.5085
  57  180.7587
  58  125.4171
  59  223.077
  60  235.5091
  61  159.6641
  62  175.4947
  63  262.9086
  64  123.1481
  65  167.473
  66  195.1059
  67  222.3597
  68  135.4362
  69  100.7858
  70  221.6868
  71  339.544
  72  167.3016
  73  264.3434
  74  290.5198
  75  331.2024
  76  343.9748
  77  349.4184
  78  156.1579
  79  204.895
  80  157.8911
  81  144.6358
  82  196.976
  83  145.5231
  84  248.1981
  85  297.4093
  86  261.639
  87  328.4511
  88  223.1004
  89  188.9833
  90  75.46272
  91  233.5583
  92  251.5568
  93  314.3824
  94  240.3872
  95  186.4545
  96  205.33
  97  284.6514
  98  270.6018
  99  288.8784
 100  152.0774
 101  200.8773
 102  243.7262
 103  326.3843
 104  239.9535
 105  261.925
 106  233.9555
 107  179.5047
 108  117.6763
 109  238.6464
 110  199.9936
 111  149.2261
 112  199.4439
 113  352.6845
 114  214.8098
 115  83.5397
 116  251.0953
 117  246.6261
 118  233.2609
 119  166.9347
 120  276.2028
 121  222.313
 122  129.1877
 123  113.326
 124  225.3322
 125  218.535
 126  207.5097
 127  234.3916
 128  231.8866
 129  192.9221
 130  268.6551
 131  272.9746
 132  220.6786
 133  185.7444
 134  274.9843
 135  247.9794
 136  277.1318
 137  147.693
 138  213.8235
 139  189.6535
 140  159.9807
 141  155.4271
 142  225.0721
 143  193.1234
 144  334.9251
 145  340.2594
 146  330.4013
 147  223.9244
 148  177.7436
 149  69.20479
 150  114.4022
 151  -12.07532
 152  110.8217
 153  -23.17151
 154  127.3076
 155  225.264
 156  312.2177
 157  45.34817
 158  138.4638
 159  218.0885
 160  411.9504
 161  209.2811
 162  223.6398
 163  267.4258
 164  407.5294
 165  146.8557
 166  65.83883
 167  115.9683
 168  217.8096
 169  51.52938
 170  189.8571
 171  196.7467
 172  221.5905
 173  144.639
 174  225.5119
 175  128.7886
 176  209.1266
 177  278.2765
 178  328.9633
 179  379.611
 180  307.6133
 181  263.7519
 182  253.7348
 183  220.4073
 184  186.8009
 185  282.6882
 186  196.8797
 187  111.7072
 188  210.3873
 189  223.5267
 190  250.9695
 191  233.1388
 192  274.1876
 193  271.3297
 194  105.6171
 195  191.7469
 196  298.8497
 197  211.8322
 198  223.7065
 199  230.2348
 200  170.5557
 201  151.319
 202  172.0835
 203  267.813
 204  162.3356
 205  203.0248
 206  182.6142
 207  397.1075
 208  305.5554
 209  192.9228
 210  132.0749
 211  206.1956
 212  183.3508
 213  351.4023
 214  348.1737
 215  226.9939
 216  210.9322
 217  350.49
 218  454.0002
 219  255.1724
 220  263.6542
 221  259.3334
 222  137.4857
 223  375.6328
 224  248.9738
 225  257.5419
 226  189.8503
 227  161.4489
 228  83.34454
 229  220.222
 230  254.6647
 231  298.4713
 232  61.99044
 233  191.0873
 234  178.4824
 235  211.9597
 236  214.4064
 237  236.2047
 238  207.5874
 239  144.5258
 240  57.28589
 241  145.4424
 242  172.9812
 243  260.6559
 244  111.4114
 245  248.6577
 246  217.2068
 247  384.0851
 248  417.644
 249  319.1257
 250  303.194
 251  255.8102
 252  172.638
 253  324.3573
 254  259.5013
 255  332.763
 256  336.5904
 257  317.6027
 258  117.2407
 259  113.0522
 260  156.095
 261  156.8283
 262  141.4075
 263  211.6392
 264  145.0258
 265  193.2719
 266  208.5087
 267  336.017
 268  147.8554
 269  192.3182
 270  274.77
 271  339.4109
 272  191.464
 273  232.2201
 274  219.7224
 275  175.1073
 276  202.992
 277  316.4296
 278  354.1295
 279  311.1334
 280  359.3611
 281  354.7582
 282  245.3702
 283  225.4953
 284  253.3436
 285  174.6611
 286  92.96188
 287  145.5486
 288  321.8481
 289  270.3008
 290  222.5244
 291  229.7648
 292  288.3092
 293  241.9407
 294  261.1269
 295  147.571
 296  398.2024
 297  288.2242
 298  326.8179
 299  338.8778
 300  209.2239
 301  216.4082
 302  159.69
 303  223.1261
 304  328.9224
 305  91.65736
 306  191.8099
 307  185.1411
 308  225.1876
 309  183.4828
 310  276.7671
 311  116.7516
 312  155.0475
 313  210.5555
 314  267.6585
 315  12.49898
 316  81.58509
 317  203.0036
 318  225.6489
 319  172.6313
 320  399.2896
 321  289.7884
 322  245.7193
 323  151.6174
 324  312.8099
 325  206.3864
 326  317.5654
 327  265.1114
 328  172.7514
 329  36.57835
 330  206.9601
 331  341.5337
 332  378.6827
 333  172.4993
 334  234.6021
 335  120.4737
 336  248.8497
 337  298.1653
 338  267.6188
 339  245.2241
 340  354.7671
 341  86.66183
 342  145.1828
 343  104.3913
 344  164.8897
 345  243.702
 346  332.5856
 347  346.0835
 348  335.5532
 349  244.4841
 350  227.7007
 351  112.0782
 352  228.9578
 353  233.9752
 354  119.3662
 355  242.0878
 356  293.3934
 357  249.8216
 358  321.8184
 359  219.5738
 360  237.3538
 361  253.9704
 362  251.6438
 363  273.9611
 364  304.5553
 365  173.3553
 366  126.7075
 367  185.9324
 368  267.3673
 369  223.4404
 370  272.3873
 371  256.8201
 372  358.6593
 373  373.1277
 374  222.9471
 375  143.5462
 376  220.3871
 377  226.0526
 378  309.5793
 379  295.6191
 380  316.3431
 381  251.7694
 382  69.10403
 383  262.1882
 384  280.0947
 385  251.6859
 386  164.7866
 387  107.6329
 388  206.858
 389  294.0398
 390  186.4735
 391  324.871
 392  178.076
 393  238.0701
 394  279.5231
 395  375.1791
 396  207.5078
 397  257.0402
 398  245.9094
 399  289.4765
 400  188.449
 401  193.404
 402  211.1186
 403  425.3786
 404  180.0623
 405  109.3417
 406  128.1214
 407  315.9831
 408  243.2461
 409  213.979
 410  232.7526
 411  336.0563
 412  145.0488
 413  148.8576
 414  41.34939
 415  184.9929
 416  181.6957
 417  334.0957
 418  200.3305
 419  127.8024
 420  137.9656
 421  193.1212
 422  234.6745
 423  308.6077
 424  317.2603
 425  358.677
 426  242.1301
 427  338.3878
 428  214.535
 429  117.787
 430  29.71047
 431  319.9327
 432  325.3131
 433  294.894
 434  275.6116
 435  372.9172
 436  228.5529
 437  311.6809
 438  244.9379
 439  229.9774
 440  242.23
 441  159.8353
 442  163.9017
 443  237.6233
 444  196.2289
 445  246.2742
 446  159.3827
 447  31.29058
 448  173.2474
 449  308.0798
 450  312.3047
 451  200.5666
 452  252.6072
 453  280.9288
 454  401.7263
 455  391.7017
 456  283.755
 457  340.6888
 458  240.8771
 459  94.92419
 460  125.66
 461  202.8301
 462  235.5376
 463  215.5336
 464  285.7892
 465  381.1437
 466  358.9833
 467  344.1787
 468  299.5829
 469  341.7756
 470  295.1512
 471  194.6816
 472  239.4433
 473  241.891
 474  210.518
 475  276.1538
 476  280.9837
 477  217.823
 478  211.4945
 479  37.60826
 480  96.27614
 481  223.6573
 482  329.4473
 483  312.7725
 484  351.972
 485  264.9332
 486  305.5125
 487  112.8114
 488  245.1016
 489  316.1743
 490  337.5981
 491  329.3064
 492  429.2366
 493  250.912
 494  262.5637
 495  236.4328
 496  340.9043
 497  309.4846
 498  311.7021
 499  255.4106
 500  370.1875
 501  280.7616
 502  417.7278
 503  366.3925
 504  397.256
 505  265.8568
 506  355.5741
 507  443.4858
 508  519.347
 509  575.2578
 510  967.0865
 511  1029.13
