# Input file       =  1191006699.107559_cleaned.dat
# Candidate        =  PSR_0332+5434
# Telescope        =  AR
# Epoch_topo       =  58028.799978096744
# Epoch_bary       =  N/A
# T_sample         =  0.002
# Data Folded      =  7208960
# Data Avg         =  0.0193078780821705
# Data StdDev      =  1.00007025645396 
# Profile Bins     =  512
# Profile Avg      =  271.776316437232 
# Profile StdDev   =  118.667512366452 
# Reduced chi-sqr  =  1.371
# Prob(Noise)      <  4.71e-08   (~5.3 sigma)
# P_topo (ms)      =  714.473595369839  +/- 0.000275
# P'_topo (s/s)    =  -0                +/- 1.48e-10
# P''_topo (s/s^2) =  0                 +/- 6.64e-14
# P_bary (ms)      =  N/A
# P'_bary (s/s)    =  N/A
# P''_bary (s/s^2) =  N/A
# P_orb (s)        =  N/A
# asin(i)/c (s)    =  N/A
# eccentricity     =  N/A
# w (rad)          =  N/A
# T_peri           =  N/A
######################################################
   0  900.0054
   1  851.331
   2  835.6159
   3  494.7371
   4  317.5852
   5  171.6919
   6  190.8827
   7  288.8448
   8  352.7151
   9  294.4305
  10  249.0561
  11  317.622
  12  249.588
  13  249.9648
  14  389.8833
  15  497.598
  16  204.7106
  17  296.1296
  18  230.8395
  19  356.2406
  20  308.9874
  21  285.5729
  22  231.2937
  23  265.9507
  24  265.6978
  25  272.7948
  26  170.5665
  27  226.4333
  28  342.7621
  29  294.4581
  30  226.3081
  31  286.424
  32  300.6706
  33  282.1843
  34  316.1219
  35  171.5024
  36  167.2324
  37  191.6731
  38  189.372
  39  283.4211
  40  324.3914
  41  385.7884
  42  305.0539
  43  287.5691
  44  397.252
  45  396.8246
  46  349.0719
  47  350.7723
  48  173.4494
  49  178.7699
  50  160.8826
  51  272.4757
  52  261.6295
  53  228.3631
  54  161.2555
  55  126.5753
  56  167.1539
  57  214.8011
  58  152.3551
  59  199.8543
  60  328.0935
  61  449.9653
  62  164.0614
  63  176.186
  64  296.4949
  65  374.4333
  66  352.1151
  67  196.9083
  68  133.6228
  69  214.0631
  70  335.5021
  71  384.0955
  72  285.8234
  73  236.9308
  74  251.6322
  75  292.3016
  76  315.4796
  77  242.5374
  78  80.41589
  79  131.0071
  80  189.4818
  81  62.57069
  82  213.9751
  83  214.9347
  84  295.42
  85  222.6359
  86  216.1439
  87  212.2814
  88  107.5288
  89  251.1529
  90  155.4312
  91  132.9871
  92  178.7945
  93  191.4601
  94  203.1928
  95  133.9224
  96  137.6237
  97  240.5205
  98  247.4051
  99  253.9349
 100  275.3248
 101  220.3906
 102  358.8463
 103  488.3962
 104  265.1117
 105  133.832
 106  300.0656
 107  409.081
 108  183.6028
 109  298.2339
 110  249.4194
 111  99.93088
 112  93.65604
 113  191.6933
 114  452.6947
 115  408.2029
 116  435.1104
 117  352.5109
 118  303.8945
 119  153.5129
 120  269.8078
 121  314.584
 122  279.6201
 123  240.1933
 124  403.7809
 125  450.7995
 126  299.7525
 127  274.6206
 128  270.6273
 129  300.5674
 130  261.9799
 131  306.5719
 132  357.1328
 133  298.557
 134  283.7065
 135  350.6992
 136  361.3484
 137  129.8819
 138  114.2546
 139  193.8994
 140  299.5775
 141  168.5258
 142  360.1313
 143  307.8422
 144  257.2994
 145  338.9543
 146  408.6451
 147  359.458
 148  241.3616
 149  359.9905
 150  213.2935
 151  174.7108
 152  378.3061
 153  450.2358
 154  317.1098
 155  193.6998
 156  200.3681
 157  308.6577
 158  344.8989
 159  273.121
 160  179.5236
 161  277.4459
 162  305.4459
 163  330.3327
 164  286.3336
 165  287.0614
 166  352.0381
 167  223.1451
 168  189.5908
 169  205.9125
 170  360.3911
 171  366.9362
 172  304.2716
 173  349.0343
 174  270.972
 175  267.5413
 176  353.8859
 177  319.1111
 178  347.1324
 179  226.9316
 180  196.9529
 181  276.6052
 182  324.0917
 183  330.8852
 184  274.0309
 185  241.6924
 186  208.4853
 187  293.9535
 188  231.5075
 189  186.0274
 190  264.2873
 191  356.3967
 192  240.4583
 193  106.5443
 194  202.9
 195  259.386
 196  324.5069
 197  225.8783
 198  188.4497
 199  170.1848
 200  296.2704
 201  274.4417
 202  235.4348
 203  275.4645
 204  285.9242
 205  214.4679
 206  191.3089
 207  386.1626
 208  265.699
 209  250.6299
 210  263.3358
 211  299.1317
 212  281.6136
 213  191.703
 214  243.9371
 215  139.4878
 216  244.3123
 217  211.0025
 218  263.8044
 219  363.452
 220  287.1584
 221  131.3515
 222  209.0374
 223  256.7666
 224  279.4598
 225  308.2137
 226  360.5879
 227  208.9492
 228  197.3895
 229  302.3119
 230  218.3195
 231  180.3088
 232  210.8856
 233  298.2963
 234  162.2258
 235  87.51349
 236  281.8434
 237  242.2239
 238  183.2434
 239  201.8022
 240  238.2444
 241  150.1907
 242  294.1703
 243  361.0793
 244  265.0667
 245  318.1888
 246  334.6761
 247  309.3786
 248  192.2191
 249  312.6223
 250  326.9512
 251  374.9924
 252  272.2533
 253  235.5971
 254  237.2713
 255  242.9363
 256  316.2683
 257  214.2663
 258  225.2877
 259  244.0266
 260  178.5581
 261  238.1997
 262  272.0073
 263  272.7654
 264  315.5789
 265  266.3159
 266  233.1144
 267  169.2262
 268  190.7181
 269  220.8707
 270  311.252
 271  356.0099
 272  338.4276
 273  326.7737
 274  273.7521
 275  327.4189
 276  278.0036
 277  247.4533
 278  276.7287
 279  267.2247
 280  158.5766
 281  274.5424
 282  263.7142
 283  227.9342
 284  216.0339
 285  247.1106
 286  305.2337
 287  229.4191
 288  279.4764
 289  284.6116
 290  390.3896
 291  321.8067
 292  333.4595
 293  362.4736
 294  241.7109
 295  229.2034
 296  325.0447
 297  259.8763
 298  325.6351
 299  214.7019
 300  281.0102
 301  242.98
 302  345.6493
 303  363.2471
 304  319.798
 305  197.7493
 306  265.195
 307  184.2906
 308  221.668
 309  211.8985
 310  200.2478
 311  233.8544
 312  162.8413
 313  119.3378
 314  256.6742
 315  310.8313
 316  339.9479
 317  304.4181
 318  291.3091
 319  316.8181
 320  76.78989
 321  139.9525
 322  294.2626
 323  295.7102
 324  232.9365
 325  250.2923
 326  375.062
 327  267.5053
 328  251.7619
 329  308.8701
 330  325.1709
 331  393.8822
 332  276.8032
 333  250.9864
 334  299.9054
 335  340.1189
 336  298.2958
 337  212.434
 338  375.6841
 339  343.5929
 340  216.2261
 341  197.8564
 342  301.1483
 343  239.223
 344  193.7604
 345  249.7342
 346  172.1744
 347  119.0966
 348  254.2799
 349  278.0369
 350  291.0604
 351  239.1689
 352  243.2296
 353  246.6665
 354  288.5614
 355  285.0377
 356  342.4738
 357  331.5739
 358  426.0604
 359  217.2897
 360  162.1849
 361  107.0628
 362  116.8788
 363  136.7408
 364  398.7428
 365  330.7844
 366  246.3102
 367  222.4299
 368  172.5016
 369  300.4278
 370  317.3374
 371  215.6883
 372  360.9377
 373  316.9154
 374  135.3074
 375  191.3719
 376  273.9634
 377  292.7551
 378  276.4644
 379  283.4836
 380  348.4829
 381  268.9249
 382  327.0058
 383  264.6799
 384  338.421
 385  380.2226
 386  278.7585
 387  380.1703
 388  402.822
 389  359.3403
 390  306.7703
 391  379.0132
 392  276.7903
 393  241.1203
 394  298.737
 395  290.8489
 396  260.3359
 397  309.2359
 398  394.541
 399  349.7348
 400  270.2945
 401  392.2073
 402  214.9745
 403  295.7808
 404  378.6365
 405  341.708
 406  425.3958
 407  342.7578
 408  226.6809
 409  203.8664
 410  259.6394
 411  328.7181
 412  327.9832
 413  332.3859
 414  406.3967
 415  264.2607
 416  183.9096
 417  443.7571
 418  244.4314
 419  186.5086
 420  186.1272
 421  190.7586
 422  372.4945
 423  228.9483
 424  210.138
 425  203.4885
 426  281.065
 427  334.6568
 428  273.9489
 429  297.077
 430  307.6351
 431  364.2401
 432  337.9283
 433  268.5568
 434  151.0223
 435  288.8135
 436  256.435
 437  343.6367
 438  387.7049
 439  328.4005
 440  306.4347
 441  300.9593
 442  342.8681
 443  245.2798
 444  331.8534
 445  245.2657
 446  252.4661
 447  168.4113
 448  185.8828
 449  210.5736
 450  229.2527
 451  280.3162
 452  288.8084
 453  168.8276
 454  233.6763
 455  343.7809
 456  380.7154
 457  307.4715
 458  184.161
 459  258.8395
 460  149.1455
 461  190.8567
 462  218.2336
 463  118.1255
 464  160.06
 465  194.1144
 466  248.9949
 467  106.4383
 468  142.5365
 469  145.9208
 470  296.6665
 471  292.2281
 472  197.2008
 473  88.58523
 474  117.6562
 475  168.4928
 476  111.122
 477  250.7668
 478  195.6022
 479  225.5318
 480  134.8261
 481  127.6777
 482  195.854
 483  184.9801
 484  204.7549
 485  293.982
 486  219.019
 487  129.2476
 488  202.5484
 489  200.3598
 490  142.8173
 491  160.6545
 492  243.6923
 493  286.8667
 494  354.6344
 495  187.5797
 496  344.7401
 497  259.9087
 498  221.6653
 499  254.5537
 500  236.3508
 501  385.8038
 502  368.7523
 503  302.6631
 504  326.1559
 505  396.4096
 506  354.3884
 507  395.5385
 508  537.4897
 509  602.081
 510  895.5667
 511  986.622
