# Input file       =  1191523670.116382_cleaned.dat
# Candidate        =  PSR_0332+5434
# Telescope        =  AR
# Epoch_topo       =  58034.783438847015
# Epoch_bary       =  N/A
# T_sample         =  0.002
# Data Folded      =  7208960
# Data Avg         =  0.0172313902738758
# Data StdDev      =  3.15677797055279 
# Profile Bins     =  512
# Profile Avg      =  242.592472007669 
# Profile StdDev   =  374.580672148968 
# Reduced chi-sqr  =  1.080
# Prob(Noise)      <  0.103   (~1.3 sigma)
# P_topo (ms)      =  714.477237499055  +/- 8.38e-05
# P'_topo (s/s)    =  -0                +/- 4.5e-11
# P''_topo (s/s^2) =  0                 +/- 2.02e-14
# P_bary (ms)      =  N/A
# P'_bary (s/s)    =  N/A
# P''_bary (s/s^2) =  N/A
# P_orb (s)        =  N/A
# asin(i)/c (s)    =  N/A
# eccentricity     =  N/A
# w (rad)          =  N/A
# T_peri           =  N/A
######################################################
   0  -109.7541
   1  137.0045
   2  236.0395
   3  386.6356
   4  448.6685
   5  351.5047
   6  239.0031
   7  -144.7603
   8  182.8823
   9  100.0649
  10  167.592
  11  53.0833
  12  333.0542
  13  239.2224
  14  351.2734
  15  353.5382
  16  116.5082
  17  59.03752
  18  177.0611
  19  210.2839
  20  -6.46152
  21  352.9432
  22  599.1208
  23  307.1287
  24  137.4798
  25  57.15517
  26  124.4748
  27  42.20945
  28  31.72976
  29  376.4875
  30  285.2852
  31  21.50597
  32  35.01699
  33  196.9394
  34  154.504
  35  -55.4516
  36  17.87111
  37  -186.8535
  38  6.077014
  39  249.4905
  40  191.1736
  41  214.9436
  42  126.3992
  43  16.96268
  44  -0.3331447
  45  134.6224
  46  315.7979
  47  -138.0431
  48  -279.416
  49  -321.3042
  50  11.57198
  51  443.5194
  52  699.4792
  53  423.8172
  54  343.8203
  55  55.40023
  56  31.2941
  57  -37.83748
  58  -203.8871
  59  476.4404
  60  609.6747
  61  621.41
  62  242.2994
  63  194.5341
  64  100.851
  65  45.15978
  66  330.1206
  67  19.38765
  68  239.1642
  69  57.99345
  70  134.2368
  71  182.7097
  72  31.60044
  73  -8.133075
  74  179.278
  75  162.7274
  76  138.2191
  77  111.3588
  78  118.6382
  79  -4.481111
  80  510.5854
  81  306.1722
  82  88.3443
  83  454.0488
  84  258.5399
  85  275.1089
  86  374.029
  87  386.1324
  88  537.3542
  89  205.4186
  90  410.1832
  91  283.4515
  92  -10.45221
  93  -110.1755
  94  -18.1366
  95  250.1674
  96  233.9533
  97  107.0764
  98  10.09531
  99  -52.80286
 100  7.038211
 101  79.66084
 102  151.2302
 103  421.118
 104  217.5986
 105  57.86175
 106  375.8008
 107  246.2724
 108  -46.90899
 109  207.7724
 110  188.9061
 111  360.0297
 112  330.7085
 113  203.2643
 114  -24.77046
 115  40.01302
 116  87.45137
 117  58.10331
 118  -0.6090711
 119  369.8479
 120  285.8498
 121  268.2065
 122  171.3734
 123  -81.54292
 124  -40.7263
 125  1.583452
 126  241.2697
 127  688.3892
 128  619.4476
 129  347.9376
 130  255.1068
 131  360.6197
 132  359.6844
 133  355.2692
 134  362.261
 135  507.6165
 136  514.8994
 137  702.4872
 138  191.739
 139  -56.05301
 140  14.91612
 141  478.6009
 142  514.5555
 143  561.0777
 144  905.4463
 145  618.8423
 146  105.0392
 147  213.1949
 148  140.2182
 149  66.92239
 150  389.2418
 151  799.1271
 152  394.0906
 153  -86.62935
 154  189.8548
 155  361.198
 156  -17.32067
 157  30.09809
 158  -62.32345
 159  267.2622
 160  198.5159
 161  234.7878
 162  407.9655
 163  327.3316
 164  183.2736
 165  222.7752
 166  -8.061611
 167  43.45489
 168  131.7735
 169  444.7125
 170  278.7992
 171  46.26205
 172  174.9617
 173  136.9491
 174  -1.908021
 175  -26.32088
 176  135.0484
 177  113.7604
 178  286.2027
 179  218.9207
 180  404.2574
 181  316.5898
 182  128.3362
 183  4.49744
 184  -26.66688
 185  185.6393
 186  549.0317
 187  518.8405
 188  183.8933
 189  49.83639
 190  -115.8623
 191  17.56916
 192  -272.3135
 193  -16.49288
 194  540.9156
 195  331.0002
 196  188.1716
 197  -187.879
 198  -209.1549
 199  -385.3047
 200  -0.400678
 201  153.3599
 202  159.5181
 203  393.7479
 204  424.7572
 205  267.5182
 206  -11.15273
 207  -154.8249
 208  -174.0696
 209  29.33671
 210  179.097
 211  341.1156
 212  504.6038
 213  440.03
 214  257.3283
 215  380.7151
 216  165.3412
 217  371.8564
 218  707.8091
 219  616.1798
 220  132.0618
 221  311.2912
 222  18.09812
 223  -167.8469
 224  101.3745
 225  359.0877
 226  262.5109
 227  160.7619
 228  282.7491
 229  280.7786
 230  -125.292
 231  -459.2066
 232  -178.0329
 233  191.6992
 234  213.7637
 235  621.4512
 236  290.66
 237  169.2736
 238  405.3384
 239  66.38654
 240  116.5982
 241  -32.24168
 242  192.5222
 243  391.1724
 244  467.1614
 245  143.8117
 246  431.9051
 247  434.3462
 248  451.1196
 249  329.4843
 250  343.9817
 251  445.6893
 252  288.7776
 253  116.6651
 254  492.7917
 255  524.9034
 256  468.2021
 257  333.7982
 258  342.592
 259  441.4787
 260  349.4724
 261  264.231
 262  98.96087
 263  -64.15209
 264  188.899
 265  308.5647
 266  361.8315
 267  439.03
 268  682.7738
 269  518.6945
 270  287.5031
 271  141.6793
 272  -265.3342
 273  -417.8652
 274  -168.1681
 275  125.7275
 276  393.2289
 277  660.749
 278  463.1129
 279  99.74239
 280  -135.1444
 281  -66.48235
 282  372.7135
 283  338.7741
 284  380.2683
 285  438.9904
 286  542.0904
 287  529.1561
 288  412.1333
 289  51.58016
 290  -13.48536
 291  -3.180117
 292  256.3705
 293  171.8606
 294  71.79185
 295  -190.8856
 296  -164.3858
 297  -66.35561
 298  160.4707
 299  182.191
 300  479.4809
 301  318.2316
 302  26.5912
 303  -156.5356
 304  -328.3397
 305  -75.44521
 306  275.792
 307  309.813
 308  455.3508
 309  493.2387
 310  348.2437
 311  -122.9576
 312  -191.2764
 313  86.4609
 314  366.9205
 315  193.6906
 316  248.7565
 317  219.3492
 318  -94.43746
 319  52.76305
 320  357.7868
 321  413.3633
 322  669.1614
 323  555.367
 324  277.4128
 325  172.9734
 326  58.74317
 327  199.3899
 328  288.1899
 329  289.6537
 330  -23.59137
 331  136.5923
 332  314.4217
 333  209.9375
 334  71.46376
 335  76.73822
 336  -1.258678
 337  12.35788
 338  -11.38039
 339  170.215
 340  -34.16096
 341  -244.8575
 342  -122.7786
 343  59.60742
 344  371.3965
 345  -98.29858
 346  -197.4353
 347  152.8362
 348  -36.02481
 349  127.8055
 350  283.4371
 351  647.7717
 352  554.1641
 353  481.4933
 354  149.4234
 355  -56.50777
 356  61.59663
 357  -259.8504
 358  167.3296
 359  389.7013
 360  208.7156
 361  11.69712
 362  15.37055
 363  56.53857
 364  500.8163
 365  574.3484
 366  370.1353
 367  291.3873
 368  465.4051
 369  -92.45988
 370  -178.4161
 371  162.18
 372  384.0143
 373  216.9604
 374  51.2949
 375  254.5677
 376  290.6373
 377  348.9295
 378  -106.5843
 379  -79.09982
 380  -56.18951
 381  -137.3747
 382  212.871
 383  176.3676
 384  239.0585
 385  62.3422
 386  238.8662
 387  73.94047
 388  44.08314
 389  296.5575
 390  485.5173
 391  433.2659
 392  321.0487
 393  59.90431
 394  145.5405
 395  229.1828
 396  103.6687
 397  30.95122
 398  303.034
 399  425.408
 400  386.7728
 401  413.9611
 402  561.211
 403  438.7312
 404  355.5941
 405  -14.82434
 406  386.6239
 407  574.6722
 408  650.4934
 409  747.5045
 410  235.3434
 411  253.1159
 412  72.16997
 413  352.428
 414  530.7587
 415  533.7858
 416  330.9493
 417  481.0052
 418  402.6931
 419  206.3616
 420  449.6383
 421  393.3071
 422  529.3993
 423  722.5754
 424  1087.811
 425  1478.228
 426  1948.741
 427  2293.475
 428  2090.212
 429  1688.897
 430  724.9091
 431  451.7603
 432  613.3006
 433  334.7585
 434  263.5094
 435  19.01974
 436  310.9266
 437  311.7709
 438  419.0604
 439  516.8854
 440  455.2886
 441  478.4051
 442  357.8135
 443  304.9842
 444  318.1729
 445  161.7159
 446  151.4455
 447  588.7393
 448  345.7643
 449  311.2857
 450  328.0398
 451  136.539
 452  32.60327
 453  110.3353
 454  221.1503
 455  -18.37462
 456  191.2862
 457  381.6122
 458  538.0668
 459  327.0007
 460  312.75
 461  364.4514
 462  496.9305
 463  125.9055
 464  201.5254
 465  262.6446
 466  577.5607
 467  727.161
 468  314.8531
 469  286.2603
 470  326.1042
 471  448.9583
 472  432.8625
 473  542.7636
 474  562.4239
 475  462.5847
 476  496.2379
 477  191.8
 478  192.0247
 479  285.6104
 480  130.2435
 481  341.3584
 482  436.6345
 483  444.9615
 484  531.5311
 485  533.772
 486  376.1549
 487  439.9756
 488  577.9314
 489  630.1133
 490  665.1846
 491  494.076
 492  423.4018
 493  77.35626
 494  286.5044
 495  302.5917
 496  85.84101
 497  313.0089
 498  146.6189
 499  235.8341
 500  510.1019
 501  477.2724
 502  19.74323
 503  -283.303
 504  -161.9323
 505  -5.036163
 506  137.2888
 507  264.402
 508  338.6387
 509  176.3572
 510  -31.77068
 511  -181.566
