# Input file       =  1191710613.127054_cleaned.dat
# Candidate        =  PSR_0332+5434
# Telescope        =  AR
# Epoch_topo       =  58036.947131100162
# Epoch_bary       =  N/A
# T_sample         =  0.002
# Data Folded      =  7340032
# Data Avg         =  0.0462245347703823
# Data StdDev      =  2.29042819246656 
# Profile Bins     =  1024
# Profile Avg      =  331.598088486791 
# Profile StdDev   =  193.916908579767 
# Reduced chi-sqr  =  1.543
# Prob(Noise)      <  1.65e-26   (~10.6 sigma)
# P_topo (ms)      =  714.478685485119  +/- 0.000159
# P'_topo (s/s)    =  -0                +/- 8.41e-11
# P''_topo (s/s^2) =  0                 +/- 3.71e-14
# P_bary (ms)      =  N/A
# P'_bary (s/s)    =  N/A
# P''_bary (s/s^2) =  N/A
# P_orb (s)        =  N/A
# asin(i)/c (s)    =  N/A
# eccentricity     =  N/A
# w (rad)          =  N/A
# T_peri           =  N/A
######################################################
   0  320.0777
   1  403.4383
   2  513.4424
   3  418.9843
   4  410.901
   5  384.1847
   6  396.3581
   7  301.6844
   8  247.5182
   9  150.5551
  10  86.67948
  11  58.74469
  12  102.0874
  13  159.8905
  14  240.3062
  15  333.6478
  16  251.9745
  17  259.6806
  18  340.1135
  19  398.038
  20  343.576
  21  251.2582
  22  280.5825
  23  417.9449
  24  479.4791
  25  436.1398
  26  259.9945
  27  245.8213
  28  357.1803
  29  407.8733
  30  269.5189
  31  218.0859
  32  251.6845
  33  288.4944
  34  308.7551
  35  304.2131
  36  296.5219
  37  324.886
  38  351.6439
  39  302.7634
  40  238.3829
  41  209.8803
  42  196.6219
  43  79.63074
  44  165.0896
  45  294.7216
  46  257.1083
  47  176.2143
  48  220.3066
  49  357.8552
  50  318.8522
  51  170.2377
  52  147.2845
  53  258.3941
  54  326.6802
  55  248.3961
  56  155.4258
  57  171.4417
  58  237.1998
  59  218.7336
  60  173.7237
  61  85.3063
  62  147.8621
  63  162.7224
  64  210.1869
  65  200.2673
  66  321.7481
  67  343.331
  68  409.655
  69  395.7583
  70  425.5039
  71  292.1531
  72  334.9696
  73  366.4011
  74  398.2178
  75  223.6607
  76  122.4395
  77  69.01732
  78  116.8316
  79  148.1927
  80  148.2266
  81  170.2934
  82  214.7594
  83  177.3549
  84  300.9499
  85  319.0708
  86  404.3362
  87  339.6891
  88  231.0985
  89  145.3823
  90  83.50841
  91  178.5227
  92  232.6411
  93  274.8764
  94  216.6674
  95  188.7471
  96  130.5398
  97  144.1103
  98  246.7933
  99  346.7607
 100  289.173
 101  327.8146
 102  325.5655
 103  385.4561
 104  270.0711
 105  228.9426
 106  250.6158
 107  226.7029
 108  278.5164
 109  235.7417
 110  241.587
 111  290.5833
 112  342.9393
 113  304.7212
 114  255.4371
 115  209.8252
 116  277.9619
 117  314.2797
 118  323.0571
 119  289.8932
 120  204.2441
 121  135.1063
 122  93.80023
 123  119.4562
 124  207.6651
 125  308.5027
 126  369.5533
 127  366.8526
 128  317.5693
 129  442.8373
 130  393.889
 131  311.7634
 132  214.6254
 133  269.731
 134  357.5094
 135  384.2179
 136  399.8706
 137  379.8715
 138  381.607
 139  442.4514
 140  470.8891
 141  433.9223
 142  386.9731
 143  296.2593
 144  250.6002
 145  119.299
 146  211.6281
 147  347.3311
 148  428.501
 149  365.5353
 150  295.9198
 151  363.1379
 152  378.8538
 153  253.5816
 154  243.3864
 155  291.1146
 156  369.8039
 157  391.7081
 158  369.9609
 159  386.6151
 160  284.3298
 161  177.3749
 162  194.9723
 163  200.4444
 164  248.3085
 165  282.5359
 166  320.1721
 167  322.1217
 168  248.7807
 169  248.4527
 170  241.3164
 171  270.4925
 172  310.9417
 173  300.9898
 174  259.0492
 175  228.2247
 176  239.7891
 177  213.8393
 178  195.7725
 179  244.5622
 180  246.6325
 181  297.9427
 182  265.0961
 183  230.6401
 184  171.2754
 185  225.9432
 186  358.3166
 187  400.0661
 188  353.7347
 189  301.8323
 190  304.1754
 191  239.5396
 192  240.4825
 193  229.4901
 194  289.7596
 195  324.3328
 196  323.2661
 197  236.8788
 198  184.7983
 199  199.5331
 200  213.2013
 201  265.8792
 202  219.5681
 203  244.4042
 204  178.5355
 205  128.742
 206  173.6749
 207  211.6616
 208  217.2908
 209  235.8917
 210  239.5689
 211  205.7996
 212  238.3367
 213  289.3647
 214  317.2552
 215  142.5221
 216  235.2755
 217  277.8452
 218  296.9643
 219  346.3098
 220  353.1418
 221  434.412
 222  455.4976
 223  455.7345
 224  380.9191
 225  321.6291
 226  287.7694
 227  321.737
 228  304.6013
 229  381.8286
 230  431.2104
 231  456.991
 232  431.724
 233  436.132
 234  395.7362
 235  282.2415
 236  224.1725
 237  194.4859
 238  236.8076
 239  205.8697
 240  232.9789
 241  358.2947
 242  376.3278
 243  465.4801
 244  434.4174
 245  368.8818
 246  233.6428
 247  241.1071
 248  302.9543
 249  460.6295
 250  458.0831
 251  459.4091
 252  353.2431
 253  346.7968
 254  350.7917
 255  327.7157
 256  295.3661
 257  287.0375
 258  295.9487
 259  280.0811
 260  319.6419
 261  349.6703
 262  445.0107
 263  399.1227
 264  297.991
 265  235.0521
 266  185.9457
 267  231.9744
 268  223.685
 269  365.647
 270  417.1348
 271  466.114
 272  451.3083
 273  453.3266
 274  406.0108
 275  316.3789
 276  262.6046
 277  237.035
 278  193.1914
 279  301.7492
 280  378.5703
 281  379.2261
 282  259.5761
 283  279.8054
 284  397.7964
 285  454.0749
 286  485.8347
 287  475.0297
 288  506.1624
 289  415.319
 290  367.3445
 291  276.7413
 292  239.7983
 293  212.0965
 294  256.1021
 295  347.0981
 296  357.2902
 297  355.5794
 298  303.5301
 299  282.7476
 300  322.4662
 301  310.8464
 302  317.3546
 303  357.3173
 304  346.8304
 305  427.7403
 306  546.3387
 307  597.4468
 308  509.8017
 309  418.1551
 310  436.9778
 311  438.5328
 312  291.2755
 313  305.1598
 314  356.4165
 315  393.2007
 316  352.3499
 317  333.2837
 318  363.708
 319  356.2295
 320  330.1953
 321  403.3551
 322  367.9592
 323  297.1667
 324  216.9419
 325  141.469
 326  196.2473
 327  252.4504
 328  328.7397
 329  386.5179
 330  367.845
 331  425.9248
 332  419.5162
 333  353.7593
 334  330.2289
 335  411.7474
 336  428.0092
 337  383.7873
 338  378.3183
 339  374.8488
 340  344.8263
 341  221.4471
 342  189.4989
 343  172.5722
 344  235.7391
 345  303.8203
 346  332.5776
 347  396.0486
 348  294.4208
 349  193.903
 350  107.6198
 351  195.3461
 352  113.8388
 353  118.9771
 354  96.1286
 355  150.9317
 356  186.1019
 357  247.0382
 358  352.8177
 359  425.7704
 360  420.4142
 361  387.5103
 362  255.6157
 363  188.0341
 364  176.3849
 365  276.0062
 366  345.0959
 367  406.6937
 368  439.6938
 369  325.4756
 370  264.0288
 371  199.6461
 372  244.6914
 373  230.267
 374  229.5551
 375  255.9049
 376  286.3946
 377  390.6761
 378  433.8008
 379  435.0957
 380  421.431
 381  420.1093
 382  331.5164
 383  239.9423
 384  256.5968
 385  269.1079
 386  372.4726
 387  338.6959
 388  385.5072
 389  398.857
 390  410.0751
 391  400.8875
 392  337.1788
 393  153.4136
 394  159.1844
 395  216.1251
 396  340.4405
 397  294.5566
 398  332.4186
 399  303.68
 400  269.4485
 401  186.0091
 402  199.5715
 403  226.2497
 404  303.8294
 405  334.8061
 406  372.6386
 407  297.4488
 408  243.7392
 409  190.5074
 410  266.7279
 411  271.8863
 412  266.1165
 413  287.2639
 414  290.2222
 415  349.4928
 416  417.003
 417  364.448
 418  359.2795
 419  334.7495
 420  433.666
 421  432.6463
 422  347.3693
 423  331.8987
 424  255.2374
 425  305.3374
 426  286.0896
 427  205.8793
 428  185.4466
 429  246.8298
 430  400.3609
 431  293.7115
 432  189.585
 433  106.6507
 434  210.487
 435  226.0171
 436  227.2551
 437  213.8718
 438  304.0192
 439  342.5825
 440  427.7613
 441  385.2601
 442  399.4781
 443  305.1487
 444  298.5594
 445  330.2795
 446  392.91
 447  327.3149
 448  224.2348
 449  141.6365
 450  158.0742
 451  343.5204
 452  389.7613
 453  337.4281
 454  269.229
 455  239.5468
 456  217.0159
 457  159.6543
 458  264.3693
 459  391.0264
 460  407.437
 461  367.386
 462  354.0216
 463  453.0461
 464  543.3239
 465  525.5366
 466  480.0627
 467  428.8588
 468  407.1174
 469  284.8879
 470  211.7831
 471  315.0146
 472  490.2718
 473  511.2352
 474  454.3104
 475  464.9335
 476  448.1356
 477  363.5337
 478  273.846
 479  282.7869
 480  422.2147
 481  517.5167
 482  500.3589
 483  384.4532
 484  324.2184
 485  316.2836
 486  308.8318
 487  330.9999
 488  299.1034
 489  264.3485
 490  183.9737
 491  190.3095
 492  208.239
 493  274.1412
 494  354.8987
 495  351.6236
 496  292.8344
 497  221.7611
 498  239.1227
 499  322.5157
 500  368.3481
 501  420.733
 502  356.6921
 503  411.158
 504  498.1524
 505  484.8729
 506  465.546
 507  434.2273
 508  457.1918
 509  307.6808
 510  235.8086
 511  202.9599
 512  411.1109
 513  494.7543
 514  479.9371
 515  339.1639
 516  174.1542
 517  106.5064
 518  142.8197
 519  333.0878
 520  405.9825
 521  376.065
 522  261.2243
 523  330.3278
 524  270.228
 525  251.9359
 526  168.605
 527  289.8692
 528  416.0206
 529  429.7959
 530  409.7607
 531  386.3564
 532  407.3117
 533  419.176
 534  422.6653
 535  427.3787
 536  388.7148
 537  384.0728
 538  364.949
 539  292.077
 540  283.816
 541  384.6297
 542  464.7828
 543  420.4354
 544  351.3824
 545  356.6211
 546  454.8293
 547  523.8669
 548  438.7493
 549  304.7234
 550  291.4439
 551  268.1215
 552  139.8562
 553  123.876
 554  252.7078
 555  370.1209
 556  386.5219
 557  397.3697
 558  440.5442
 559  409.9131
 560  338.565
 561  209.3073
 562  146.5928
 563  208.0184
 564  166.737
 565  200.0563
 566  191.8598
 567  328.1588
 568  451.8268
 569  477.0714
 570  415.6039
 571  289.5003
 572  323.1721
 573  286.879
 574  212.265
 575  222.4494
 576  258.8287
 577  319.8876
 578  258.0907
 579  227.0737
 580  209.8876
 581  174.432
 582  156.8536
 583  238.5547
 584  313.8046
 585  394.4201
 586  342.8315
 587  371.8285
 588  374.3829
 589  343.0711
 590  382.9393
 591  380.9298
 592  451.3818
 593  366.9751
 594  273.8888
 595  233.6613
 596  295.6824
 597  458.3905
 598  533.8997
 599  521.4089
 600  413.4982
 601  433.3422
 602  445.6885
 603  520.7856
 604  493.7801
 605  506.5766
 606  433.3116
 607  418.7607
 608  379.1004
 609  420.4989
 610  377.3171
 611  325.3033
 612  227.6215
 613  303.3101
 614  319.8256
 615  357.1634
 616  458.1015
 617  496.2497
 618  518.9103
 619  479.6069
 620  577.9048
 621  563.6237
 622  630.9825
 623  599.5209
 624  571.9909
 625  562.1981
 626  582.0103
 627  595.9546
 628  478.495
 629  580.0969
 630  666.6399
 631  744.881
 632  762.0223
 633  895.0718
 634  1047.461
 635  1088.608
 636  1173.149
 637  1285.42
 638  1348.014
 639  1348.65
 640  1337.082
 641  1152.313
 642  915.1221
 643  737.182
 644  694.4714
 645  529.8079
 646  339.398
 647  336.6111
 648  406.281
 649  441.7141
 650  383.5078
 651  307.7217
 652  250.6555
 653  258.5579
 654  353.6208
 655  446.5032
 656  381.3885
 657  370.9781
 658  404.0533
 659  424.2372
 660  440.4192
 661  475.4452
 662  433.0194
 663  300.0097
 664  226.4085
 665  331.4913
 666  384.3036
 667  367.9375
 668  498.1154
 669  507.0068
 670  526.2599
 671  365.8011
 672  314.6686
 673  268.9463
 674  265.8949
 675  237.5276
 676  173.1485
 677  258.4939
 678  322.8665
 679  374.932
 680  334.4764
 681  349.5846
 682  406.5474
 683  401.6724
 684  479.9008
 685  463.6219
 686  508.0125
 687  549.5482
 688  654.3307
 689  588.9546
 690  387.8379
 691  214.1345
 692  192.0845
 693  295.7334
 694  290.6996
 695  260.3454
 696  252.7225
 697  294.8366
 698  332.6734
 699  311.7628
 700  294.3704
 701  304.1084
 702  379.0361
 703  424.8549
 704  449.6365
 705  380.3202
 706  318.5351
 707  333.3169
 708  403.0556
 709  372.7014
 710  317.3206
 711  253.8227
 712  277.4598
 713  324.6664
 714  394.2713
 715  436.9712
 716  300.1613
 717  245.0945
 718  237.154
 719  332.9479
 720  375.4393
 721  349.3051
 722  503.9619
 723  465.1385
 724  394.4158
 725  305.3636
 726  369.0835
 727  497.6994
 728  457.0836
 729  400.3855
 730  311.3746
 731  257.4329
 732  261.0033
 733  243.1457
 734  197.0801
 735  196.828
 736  296.6898
 737  422.4414
 738  470.4761
 739  456.229
 740  395.065
 741  308.0443
 742  236.683
 743  207.4505
 744  195.4361
 745  207.7209
 746  236.3565
 747  298.6856
 748  304.9763
 749  379.4082
 750  391.9966
 751  435.6852
 752  429.3683
 753  391.2342
 754  380.846
 755  379.6742
 756  338.742
 757  279.7104
 758  303.5327
 759  369.9068
 760  407.7303
 761  385.9859
 762  449.214
 763  480.4995
 764  497.603
 765  439.6431
 766  346.798
 767  321.8111
 768  228.5951
 769  257.0684
 770  249.3841
 771  191.9288
 772  128.3749
 773  176.6987
 774  363.3843
 775  413.0477
 776  283.3705
 777  285.3811
 778  311.7842
 779  477.8733
 780  392.708
 781  289.6318
 782  169.7381
 783  184.0321
 784  199.0079
 785  233.2916
 786  161.3927
 787  152.1349
 788  126.0865
 789  217.2978
 790  255.9027
 791  312.231
 792  386.2933
 793  370.4734
 794  372.6783
 795  293.1465
 796  275.1129
 797  218.5503
 798  201.1749
 799  149.0252
 800  194.9141
 801  218.2486
 802  299.1153
 803  281.397
 804  281.1634
 805  257.4694
 806  261.4105
 807  286.1671
 808  213.549
 809  197.3821
 810  236.1303
 811  354.4089
 812  361.9334
 813  363.3736
 814  421.8976
 815  400.4416
 816  389.6309
 817  384.5002
 818  327.7426
 819  276.1972
 820  221.8172
 821  287.2403
 822  265.3286
 823  251.5601
 824  226.8577
 825  260.5327
 826  322.3403
 827  374.8568
 828  402.3114
 829  348.0157
 830  302.6449
 831  311.4127
 832  331.2697
 833  298.6906
 834  296.163
 835  310.4343
 836  383.275
 837  440.4417
 838  480.0469
 839  430.0283
 840  395.235
 841  398.735
 842  371.8677
 843  410.7902
 844  370.9537
 845  381.7361
 846  269.3002
 847  232.2271
 848  313.262
 849  433.3807
 850  471.3929
 851  479.1656
 852  397.7268
 853  347.2595
 854  340.6792
 855  399.0669
 856  475.2322
 857  410.3853
 858  375.8136
 859  369.3656
 860  390.8401
 861  357.5301
 862  264.4985
 863  146.3174
 864  247.7193
 865  284.4037
 866  305.9687
 867  244.1648
 868  347.0831
 869  480.9151
 870  473.7462
 871  319.0965
 872  179.4928
 873  237.7569
 874  310.1036
 875  393.3181
 876  383.819
 877  416.112
 878  425.7392
 879  458.5137
 880  412.4887
 881  301.1995
 882  217.4258
 883  201.205
 884  182.9401
 885  289.7236
 886  441.2921
 887  461.6184
 888  416.437
 889  414.3778
 890  511.2186
 891  515.9357
 892  396.649
 893  295.068
 894  255.1741
 895  260.7759
 896  235.3463
 897  263.7577
 898  345.9662
 899  443.8458
 900  436.1497
 901  437.763
 902  367.7879
 903  274.9916
 904  176.0778
 905  257.4456
 906  270.5822
 907  377.126
 908  355.5111
 909  463.6696
 910  364.2161
 911  272.6524
 912  287.3765
 913  387.7041
 914  462.3345
 915  324.2573
 916  314.0028
 917  317.084
 918  269.63
 919  144.1848
 920  103.5166
 921  244.68
 922  428.6929
 923  429.2502
 924  327.4665
 925  225.2235
 926  319.1371
 927  483.5413
 928  509.9039
 929  479.3041
 930  315.4589
 931  329.3119
 932  304.348
 933  275.7168
 934  145.3023
 935  83.95226
 936  121.6633
 937  188.2303
 938  226.3202
 939  240.6458
 940  330.8746
 941  348.1247
 942  414.452
 943  463.3516
 944  526.8701
 945  488.6213
 946  379.2355
 947  299.6479
 948  333.3652
 949  335.7268
 950  362.0497
 951  374.8841
 952  389.0854
 953  373.5913
 954  369.8686
 955  315.7341
 956  258.8772
 957  279.595
 958  400.0815
 959  444.7383
 960  357.8228
 961  244.2177
 962  156.2074
 963  197.4365
 964  352.9044
 965  378.4941
 966  338.7829
 967  303.3777
 968  339.3434
 969  364.4952
 970  322.3529
 971  357.1892
 972  375.7369
 973  331.6928
 974  262.2957
 975  175.1601
 976  213.5728
 977  294.6154
 978  408.9553
 979  416.0037
 980  467.1251
 981  400.1079
 982  402.0306
 983  382.8203
 984  504.1404
 985  542.1667
 986  487.269
 987  357.6359
 988  267.8205
 989  303.0013
 990  305.297
 991  308.614
 992  322.4031
 993  343.6549
 994  290.5743
 995  260.597
 996  305.1189
 997  384.9765
 998  375.4665
 999  375.5371
1000  359.446
1001  450.541
1002  394.4286
1003  348.0363
1004  314.1237
1005  262.9074
1006  143.9146
1007  65.83835
1008  115.5696
1009  199.638
1010  246.6575
1011  290.6301
1012  315.7202
1013  301.1409
1014  341.3144
1015  376.7434
1016  371.8778
1017  312.9282
1018  289.7924
1019  257.5615
1020  174.1752
1021  98.19256
1022  145.5235
1023  203.6573
