# Input file       =  1191538293.107866_cleaned.dat
# Candidate        =  PSR_0332+5434
# Telescope        =  AR
# Epoch_topo       =  58034.952686433637
# Epoch_bary       =  N/A
# T_sample         =  0.002
# Data Folded      =  7340032
# Data Avg         =  0.0145498295406901
# Data StdDev      =  0.999996864722535
# Profile Bins     =  512
# Profile Avg      =  208.603082460376 
# Profile StdDev   =  119.732660980475 
# Reduced chi-sqr  =  1.729
# Prob(Noise)      <  2.48e-22   (~9.6 sigma)
# P_topo (ms)      =  714.477360916236  +/- 0.000255
# P'_topo (s/s)    =  -0                +/- 1.35e-10
# P''_topo (s/s^2) =  0                 +/- 5.95e-14
# P_bary (ms)      =  N/A
# P'_bary (s/s)    =  N/A
# P''_bary (s/s^2) =  N/A
# P_orb (s)        =  N/A
# asin(i)/c (s)    =  N/A
# eccentricity     =  N/A
# w (rad)          =  N/A
# T_peri           =  N/A
######################################################
   0  1088.129
   1  947.7768
   2  657.7157
   3  479.4413
   4  425.3985
   5  234.3638
   6  195.688
   7  114.3248
   8  191.4176
   9  169.552
  10  172.081
  11  198.8428
  12  182.192
  13  122.1189
  14  103.9296
  15  139.0129
  16  182.7487
  17  308.372
  18  205.1031
  19  144.4221
  20  219.5142
  21  144.4143
  22  129.6312
  23  122.6691
  24  110.8665
  25  154.8938
  26  189.9669
  27  143.3852
  28  230.7707
  29  182.1067
  30  211.9584
  31  282.8748
  32  214.7365
  33  136.4516
  34  110.2299
  35  270.3055
  36  96.60984
  37  55.70409
  38  126.9459
  39  149.0862
  40  81.45731
  41  61.72379
  42  179.955
  43  81.90874
  44  7.572056
  45  140.1506
  46  201.833
  47  154.3905
  48  24.62727
  49  181.4232
  50  289.7006
  51  156.4018
  52  56.98407
  53  215.0604
  54  144.1655
  55  149.2411
  56  112.0753
  57  146.2904
  58  106.9715
  59  23.70609
  60  163.5661
  61  144.1059
  62  190.6694
  63  231.1069
  64  265.7699
  65  205.1284
  66  235.6748
  67  258.6942
  68  213.5186
  69  266.3055
  70  209.4025
  71  151.1365
  72  209.6732
  73  227.0917
  74  123.8769
  75  108.6863
  76  164.0677
  77  172.4273
  78  137.8997
  79  101.7539
  80  74.35213
  81  207.1264
  82  286.9398
  83  344.8057
  84  282.6956
  85  110.6979
  86  107.7652
  87  241.1735
  88  249.9402
  89  233.3769
  90  319.6534
  91  199.7881
  92  50.27396
  93  87.14909
  94  213.1112
  95  134.8622
  96  113.5923
  97  67.0958
  98  20.68106
  99  178.1694
 100  130.5011
 101  166.5099
 102  290.7517
 103  258.5871
 104  119.8406
 105  20.30457
 106  10.93602
 107  67.92209
 108  142.9069
 109  76.9844
 110  139.0058
 111  274.7531
 112  288.1316
 113  288.8232
 114  231.6722
 115  199.6344
 116  177.8301
 117  250.5142
 118  241.8871
 119  137.4429
 120  78.03657
 121  172.9815
 122  46.06749
 123  16.68794
 124  151.5549
 125  194.9421
 126  332.9571
 127  182.0194
 128  42.56898
 129  33.56157
 130  6.513958
 131  87.46505
 132  234.2355
 133  208.4863
 134  268.6662
 135  294.3748
 136  255.4104
 137  312.5929
 138  297.9327
 139  203.8347
 140  272.2204
 141  284.6209
 142  251.207
 143  310.8157
 144  280.2421
 145  222.2984
 146  239.6503
 147  366.2742
 148  328.9521
 149  147.234
 150  94.87779
 151  153.4259
 152  135.8433
 153  204.1284
 154  141.6163
 155  98.05232
 156  93.33025
 157  229.0827
 158  292.8855
 159  216.6727
 160  166.2251
 161  141.5479
 162  185.6948
 163  356.1187
 164  252.098
 165  194.5875
 166  136.1608
 167  107.4396
 168  145.2048
 169  197.3483
 170  220.6587
 171  248.4104
 172  263.4956
 173  199.0556
 174  140.3421
 175  270.1203
 176  171.9738
 177  121.7806
 178  246.2892
 179  324.9633
 180  361.4722
 181  248.9574
 182  276.5659
 183  284.7469
 184  269.1375
 185  312.2823
 186  159.6147
 187  172.3107
 188  195.7407
 189  192.4954
 190  307.4583
 191  300.3267
 192  231.1796
 193  222.6329
 194  298.6427
 195  220.0318
 196  268.1343
 197  337.5039
 198  231.379
 199  203.759
 200  288.3697
 201  269.3781
 202  226.279
 203  148.6254
 204  131.8559
 205  260.8563
 206  255.6682
 207  236.0998
 208  203.7641
 209  129.9458
 210  75.26344
 211  150.9498
 212  260.9367
 213  301.2217
 214  335.7502
 215  268.623
 216  231.4137
 217  266.3093
 218  281.2498
 219  333.4596
 220  206.5355
 221  129.773
 222  170.7847
 223  194.3086
 224  299.1426
 225  283.0489
 226  337.6688
 227  274.0735
 228  284.263
 229  262.4306
 230  192.932
 231  -11.79629
 232  69.90656
 233  285.2727
 234  211.4869
 235  347.0417
 236  300.1046
 237  193.9981
 238  142.0477
 239  137.4596
 240  114.4077
 241  277.6119
 242  243.4845
 243  182.4902
 244  183.8786
 245  89.90649
 246  174.4028
 247  276.0148
 248  205.5238
 249  193.4108
 250  182.0502
 251  229.3066
 252  181.5056
 253  148.2737
 254  171.9516
 255  79.09012
 256  24.71597
 257  120.4846
 258  204.4964
 259  285.9032
 260  316.1692
 261  281.8366
 262  275.9742
 263  222.9915
 264  241.2364
 265  198.8101
 266  133.9668
 267  230.2456
 268  203.1658
 269  67.23872
 270  154.4026
 271  178.1639
 272  162.1044
 273  135.4077
 274  202.3333
 275  245.9715
 276  241.4283
 277  324.6691
 278  340.4384
 279  129.1671
 280  183.9894
 281  247.9742
 282  158.9956
 283  203.7286
 284  224.1361
 285  237.0195
 286  288.7728
 287  376.7239
 288  225.5764
 289  194.7063
 290  289.9919
 291  181.9691
 292  184.4058
 293  224.6078
 294  143.9352
 295  40.3547
 296  76.23356
 297  141.0368
 298  229.2961
 299  266.118
 300  210.9841
 301  223.6967
 302  155.9181
 303  96.34429
 304  204.5161
 305  403.0612
 306  330.2539
 307  446.9712
 308  340.4455
 309  101.2923
 310  116.0823
 311  111.6914
 312  116.4029
 313  177.8932
 314  254.7848
 315  219.1666
 316  154.1955
 317  292.2719
 318  357.8221
 319  172.1008
 320  153.1233
 321  124.2901
 322  219.1472
 323  369.7514
 324  387.0583
 325  240.0355
 326  249.4254
 327  274.0294
 328  118.9661
 329  241.8325
 330  271.6636
 331  206.5507
 332  158.1025
 333  179.3753
 334  206.1434
 335  135.6773
 336  143.31
 337  263.9214
 338  239.9668
 339  232.3347
 340  211.0098
 341  278.9084
 342  281.7858
 343  246.6973
 344  212.6141
 345  52.89967
 346  117.0797
 347  175.2359
 348  150.4756
 349  189.2505
 350  98.37045
 351  249.4382
 352  268.0906
 353  191.8624
 354  50.33304
 355  186.0659
 356  349.7667
 357  272.9925
 358  99.75907
 359  99.89364
 360  147.0031
 361  184.7973
 362  252.1981
 363  213.8409
 364  193.9031
 365  273.5037
 366  211.85
 367  213.0246
 368  196.1208
 369  216.1956
 370  87.02264
 371  167.0489
 372  109.3251
 373  209.193
 374  231.8602
 375  176.9018
 376  174.3709
 377  205.1945
 378  149.6291
 379  136.2794
 380  201.0542
 381  262.3152
 382  308.3424
 383  203.6501
 384  121.3622
 385  132.1267
 386  160.6921
 387  143.8195
 388  170.0538
 389  50.04316
 390  288.8568
 391  286.159
 392  259.5011
 393  239.9415
 394  203.5423
 395  220.8308
 396  249.0805
 397  390.1301
 398  267.6234
 399  141.1587
 400  251.7634
 401  292.8153
 402  370.6312
 403  265.297
 404  268.5237
 405  299.0889
 406  329.0867
 407  219.5175
 408  200.3629
 409  373.6323
 410  259.3293
 411  95.46537
 412  225.791
 413  149.7838
 414  181.7281
 415  206.2037
 416  178.4492
 417  226.2266
 418  292.5631
 419  296.0861
 420  220.0384
 421  208.3155
 422  157.6608
 423  69.80447
 424  210.6574
 425  302.1474
 426  92.34297
 427  130.7569
 428  277.2993
 429  296.3448
 430  198.2752
 431  152.951
 432  73.35453
 433  139.8382
 434  187.146
 435  217.0543
 436  153.092
 437  184.3092
 438  357.6518
 439  293.6353
 440  185.8159
 441  68.18227
 442  143.6423
 443  340.7346
 444  346.2526
 445  217.9602
 446  145.3862
 447  312.2857
 448  283.1562
 449  221.3978
 450  188.0276
 451  193.9673
 452  202.2906
 453  335.886
 454  349.3831
 455  193.4458
 456  100.9476
 457  147.8442
 458  174.4457
 459  180.9379
 460  144.436
 461  169.4523
 462  249.3191
 463  134.8563
 464  60.1721
 465  74.66319
 466  178.8458
 467  124.0335
 468  184.738
 469  180.6784
 470  194.947
 471  319.764
 472  221.7279
 473  62.79235
 474  163.7043
 475  146.814
 476  36.88522
 477  57.05318
 478  147.7367
 479  125.1299
 480  -3.861014
 481  110.9827
 482  310.245
 483  178.5998
 484  181.3764
 485  348.43
 486  266.7094
 487  68.13027
 488  0.4590496
 489  180.8204
 490  162.4315
 491  154.8357
 492  250.6568
 493  333.7229
 494  337.5068
 495  245.5626
 496  202.1151
 497  148.6122
 498  259.5209
 499  342.055
 500  288.1452
 501  154.0215
 502  121.7628
 503  125.8427
 504  118.8248
 505  269.9501
 506  427.9355
 507  393.7955
 508  400.4041
 509  595.6224
 510  1005.711
 511  1087.37
