# Input file       =  1191366003.118769_cleaned.dat
# Candidate        =  PSR_0332+5434
# Telescope        =  AR
# Epoch_topo       =  58032.958589337606
# Epoch_bary       =  N/A
# T_sample         =  0.002
# Data Folded      =  7340032
# Data Avg         =  0.0264335354149807
# Data StdDev      =  2.2736668075604  
# Profile Bins     =  256
# Profile Avg      =  758.251764091743 
# Profile StdDev   =  384.995643969727 
# Reduced chi-sqr  =  1.354
# Prob(Noise)      <  0.000139   (~3.6 sigma)
# P_topo (ms)      =  714.476092622875  +/- 0.000167
# P'_topo (s/s)    =  -0                +/- 8.8e-11
# P''_topo (s/s^2) =  0                 +/- 3.88e-14
# P_bary (ms)      =  N/A
# P'_bary (s/s)    =  N/A
# P''_bary (s/s^2) =  N/A
# P_orb (s)        =  N/A
# asin(i)/c (s)    =  N/A
# eccentricity     =  N/A
# w (rad)          =  N/A
# T_peri           =  N/A
######################################################
   0  276.1896
   1  353.1012
   2  737.6433
   3  756.16
   4  869.8398
   5  -52.13059
   6  759.689
   7  834.3711
   8  553.4703
   9  903.6694
  10  1216.475
  11  310.762
  12  869.5715
  13  892.2284
  14  1031.85
  15  1112.505
  16  663.694
  17  1215.077
  18  1079.299
  19  833.3837
  20  1065.865
  21  288.2439
  22  1163.079
  23  1572.153
  24  589.4176
  25  192.9412
  26  509.9895
  27  717.6866
  28  739.2423
  29  668.0179
  30  823.9164
  31  790.9514
  32  436.4722
  33  48.0777
  34  419.2184
  35  828.3677
  36  749.3594
  37  217.0075
  38  533.0914
  39  302.3092
  40  359.605
  41  908.1888
  42  491.5569
  43  1255.034
  44  422.5347
  45  228.6611
  46  416.5489
  47  612.1071
  48  933.3881
  49  675.0265
  50  149.7221
  51  907.7554
  52  910.4448
  53  452.4894
  54  1142.576
  55  795.4186
  56  342.7982
  57  441.8222
  58  755.342
  59  1331.624
  60  1109.51
  61  904.233
  62  874.2905
  63  587.7847
  64  990.5214
  65  875.2119
  66  675.8546
  67  942.6863
  68  946.3719
  69  624.2429
  70  764.4777
  71  833.4037
  72  903.1048
  73  559.593
  74  641.9026
  75  533.6143
  76  704.6623
  77  1072.221
  78  142.9877
  79  513.7165
  80  578.0096
  81  475.2511
  82  704.9485
  83  693.9947
  84  720.847
  85  1055.06
  86  512.208
  87  1615.793
  88  944.7703
  89  218.041
  90  756.7056
  91  435.3503
  92  958.4379
  93  759.65
  94  568.1073
  95  436.2909
  96  941.1914
  97  1131.021
  98  952.9724
  99  647.2808
 100  950.177
 101  1368.603
 102  824.0934
 103  981.394
 104  416.0605
 105  906.1537
 106  579.1006
 107  1113.363
 108  680.6187
 109  873.6755
 110  850.78
 111  1113.615
 112  795.6696
 113  758.9496
 114  -161.349
 115  567.2036
 116  491.2429
 117  434.088
 118  1037.696
 119  152.2917
 120  336.485
 121  106.0662
 122  952.8785
 123  890.2168
 124  1058.634
 125  345.3554
 126  750.6607
 127  623.2606
 128  936.291
 129  709.8318
 130  940.6832
 131  969.0923
 132  1214.987
 133  1174.704
 134  1126.694
 135  952.6948
 136  941.8628
 137  17.65177
 138  285.3394
 139  836.9362
 140  876.0604
 141  890.2702
 142  665.4321
 143  624.7919
 144  466.6443
 145  595.2709
 146  562.1149
 147  979.1503
 148  376.3098
 149  662.2605
 150  487.364
 151  237.1815
 152  1275.728
 153  891.2939
 154  940.9377
 155  664.8558
 156  598.4768
 157  1306.946
 158  1733.828
 159  3304.749
 160  3149.67
 161  1601.344
 162  1327.116
 163  388.6184
 164  489.6744
 165  988.0443
 166  1377.364
 167  739.6387
 168  838.3869
 169  905.1359
 170  355.9334
 171  4.744225
 172  150.8459
 173  674.2371
 174  1028.794
 175  672.3487
 176  925.6987
 177  735.4053
 178  1335.074
 179  767.6988
 180  619.1519
 181  981.4428
 182  970.063
 183  687.1001
 184  477.7451
 185  708.1147
 186  1017.806
 187  553.5089
 188  664.5473
 189  677.6491
 190  579.8449
 191  391.685
 192  745.8698
 193  72.92905
 194  360.2672
 195  472.162
 196  738.4695
 197  1041.575
 198  970.1053
 199  594.4692
 200  287.1401
 201  486.7547
 202  1146.412
 203  948.9171
 204  555.8539
 205  1051.685
 206  1549.687
 207  393.0494
 208  863.2568
 209  673.3616
 210  592.3484
 211  503.1014
 212  369.0576
 213  621.7039
 214  962.0328
 215  1176.833
 216  863.8867
 217  800.0342
 218  547.5285
 219  640.7613
 220  800.9977
 221  847.5735
 222  740.8672
 223  853.8837
 224  792.6336
 225  462.0851
 226  684.996
 227  779.486
 228  698.7633
 229  619.0703
 230  872.9746
 231  659.6232
 232  98.72648
 233  588.7693
 234  1106.066
 235  1140.134
 236  1197.667
 237  964.7797
 238  647.7766
 239  743.1911
 240  584.3535
 241  731.8522
 242  248.3329
 243  881.0868
 244  736.8561
 245  67.4486
 246  1060.414
 247  1258.919
 248  892.668
 249  854.6696
 250  1053.217
 251  764.2668
 252  819.396
 253  491.7026
 254  934.297
 255  864.5813
