# Input file       =  1191351389.132284-PSRB0329-2ms-sampling-dd.dat
# Candidate        =  PSR_0332+5434
# Telescope        =  AR
# Epoch_topo       =  58032.789445975512
# Epoch_bary       =  N/A
# T_sample         =  0.002
# Data Folded      =  7208960
# Data Avg         =  1.57104870452597e-10
# Data StdDev      =  4.76559037490343 
# Profile Bins     =  512
# Profile Avg      =  0.0569029540681881
# Profile StdDev   =  565.481026055623 
# Reduced chi-sqr  =  0.499
# Prob(Noise)      <  1   (~0.0 sigma)
# P_topo (ms)      =  714.475971755863  +/- 8.29e-05
# P'_topo (s/s)    =  -0                +/- 4.45e-11
# P''_topo (s/s^2) =  0                 +/- 2e-14
# P_bary (ms)      =  N/A
# P'_bary (s/s)    =  N/A
# P''_bary (s/s^2) =  N/A
# P_orb (s)        =  N/A
# asin(i)/c (s)    =  N/A
# eccentricity     =  N/A
# w (rad)          =  N/A
# T_peri           =  N/A
######################################################
   0  -223.1555
   1  -209.7646
   2  -61.4931
   3  107.1238
   4  -327.6787
   5  -474.4106
   6  -104.89
   7  -358.9546
   8  -322.7855
   9  -308.0051
  10  -286.3809
  11  -71.7974
  12  279.1863
  13  332.283
  14  473.3888
  15  130.8002
  16  -141.2547
  17  -471.5964
  18  -631.7842
  19  -161.6338
  20  35.56764
  21  50.85693
  22  82.75005
  23  -107.8139
  24  -156.3373
  25  -9.748043
  26  -180.0376
  27  -312.0151
  28  -115.5738
  29  -355.0627
  30  -317.4543
  31  57.29964
  32  -156.5953
  33  -272.3483
  34  -611.4346
  35  -507.1146
  36  -237.1107
  37  56.22595
  38  42.69105
  39  -385.1031
  40  -289.5725
  41  -487.5103
  42  -527.3387
  43  -176.6654
  44  23.04032
  45  19.93488
  46  41.38557
  47  -99.32919
  48  69.69563
  49  -61.42307
  50  63.30091
  51  -78.77742
  52  238.9475
  53  -50.58176
  54  -142.0413
  55  -206.8787
  56  -206.9913
  57  -43.30217
  58  -255.9885
  59  -227.724
  60  -184.7137
  61  -232.9079
  62  87.59148
  63  361.0598
  64  -54.4987
  65  0.5532648
  66  -69.55898
  67  -130.4961
  68  -603.4354
  69  -507.6717
  70  -268.6188
  71  75.54372
  72  -3.773361
  73  -167.2549
  74  -278.1028
  75  -267.5597
  76  -292.2148
  77  -164.7386
  78  164.4369
  79  576.5808
  80  403.5928
  81  110.5652
  82  -167.239
  83  -4.799074
  84  210.498
  85  -216.3979
  86  45.65487
  87  279.2186
  88  415.7269
  89  -128.6645
  90  -237.4213
  91  -31.75593
  92  -485.8943
  93  -363.9262
  94  -62.90398
  95  338.0653
  96  250.0523
  97  -58.04208
  98  -77.55621
  99  -415.726
 100  -96.95625
 101  -57.68187
 102  -21.90989
 103  101.122
 104  233.6335
 105  342.4981
 106  174.8575
 107  40.51575
 108  -51.12687
 109  -8.418591
 110  -312.3983
 111  154.9973
 112  -93.47578
 113  247.5511
 114  225.2572
 115  240.9821
 116  -70.72392
 117  -186.3858
 118  30.71518
 119  338.7127
 120  196.0653
 121  47.27759
 122  -167.4467
 123  -397.4461
 124  -290.3709
 125  -275.8929
 126  98.03638
 127  23.10077
 128  11.17942
 129  -40.14288
 130  -175.9178
 131  -309.483
 132  -124.4326
 133  -214.9506
 134  -220.8978
 135  -39.23079
 136  43.80701
 137  -5.969369
 138  -48.94136
 139  -46.94093
 140  53.27115
 141  179.5054
 142  279.5633
 143  159.0405
 144  248.7999
 145  201.3531
 146  244.1563
 147  5.467585
 148  -48.09746
 149  159.2298
 150  68.46457
 151  146.5394
 152  -122.1533
 153  230.2889
 154  348.732
 155  150.7436
 156  -49.18977
 157  30.12192
 158  -154.7292
 159  -115.128
 160  122.2786
 161  37.78929
 162  57.86103
 163  -66.74326
 164  -199.5597
 165  -40.43342
 166  -119.0061
 167  -113.2737
 168  109.4598
 169  -167.8784
 170  -139.692
 171  -122.171
 172  166.8736
 173  88.47704
 174  -160.05
 175  -332.5807
 176  -61.13065
 177  482.1584
 178  467.1589
 179  258.5858
 180  340.5951
 181  130.1753
 182  138.5074
 183  52.43822
 184  136.5054
 185  267.083
 186  529.46
 187  440.4204
 188  404.436
 189  380.4829
 190  -276.9889
 191  -131.324
 192  33.65859
 193  157.0957
 194  48.25246
 195  111.6688
 196  33.52698
 197  2.022305
 198  -110.6746
 199  111.1917
 200  -30.0247
 201  103.343
 202  -9.237499
 203  -319.4201
 204  -395.3464
 205  -482.6577
 206  -161.231
 207  -102.5657
 208  233.1231
 209  315.2827
 210  400.4301
 211  283.5643
 212  71.54553
 213  334.4825
 214  192.0117
 215  279.0867
 216  435.9897
 217  264.6815
 218  610.3877
 219  277.6697
 220  552.1548
 221  395.1198
 222  317.7409
 223  425.6245
 224  190.5788
 225  480.0092
 226  282.1156
 227  125.2715
 228  -90.53277
 229  321.8393
 230  596.2602
 231  444.9052
 232  32.13385
 233  32.62541
 234  -34.77375
 235  161.7733
 236  273.5543
 237  548.688
 238  569.1021
 239  82.53412
 240  -157.119
 241  -79.79802
 242  -157.3536
 243  -32.77975
 244  40.37263
 245  341.558
 246  168.6944
 247  718.6387
 248  566.6863
 249  206.5462
 250  220.5677
 251  335.9591
 252  534.7133
 253  61.3875
 254  276.9509
 255  184.2286
 256  380.087
 257  270.2445
 258  125.5408
 259  251.6043
 260  385.4353
 261  293.0104
 262  123.3045
 263  98.28428
 264  -42.86635
 265  -226.2067
 266  -129.0688
 267  13.5369
 268  418.4604
 269  898.9203
 270  672.5434
 271  13.98124
 272  -357.3611
 273  -341.2116
 274  -304.9005
 275  -26.36251
 276  134.1264
 277  302.4284
 278  13.34771
 279  -73.2841
 280  -66.88683
 281  -90.81303
 282  -255.4971
 283  -57.04333
 284  213.5208
 285  332.4006
 286  19.60421
 287  78.83684
 288  -407.3176
 289  -502.9624
 290  -144.3053
 291  -109.8542
 292  -247.9348
 293  -131.8185
 294  -31.29542
 295  93.59139
 296  -82.69849
 297  -302.4962
 298  -185.2651
 299  -348.0929
 300  -42.58204
 301  -37.83829
 302  78.08427
 303  23.80508
 304  96.4795
 305  50.4356
 306  -116.1311
 307  -80.14922
 308  -59.94178
 309  -160.0637
 310  -157.9754
 311  -187.6609
 312  62.03156
 313  -195.1531
 314  -24.72791
 315  -140.1301
 316  -613.4501
 317  -549.832
 318  -414.1323
 319  247.1756
 320  226.1627
 321  134.2184
 322  201.6811
 323  -109.0498
 324  -544.8218
 325  -306.1455
 326  -183.1844
 327  -203.2858
 328  223.725
 329  164.0004
 330  -58.25254
 331  127.1753
 332  -186.2928
 333  -48.06565
 334  151.0105
 335  254.6263
 336  601.8235
 337  417.6331
 338  314.4077
 339  571.5756
 340  779.2097
 341  1276.905
 342  1516.708
 343  1126.59
 344  640.0966
 345  473.8817
 346  196.4104
 347  -260.9039
 348  -203.9001
 349  34.21192
 350  72.47073
 351  197.8027
 352  416.944
 353  395.4498
 354  101.4559
 355  -216.7917
 356  -540.3284
 357  -600.1721
 358  -262.3804
 359  -92.78118
 360  289.6257
 361  68.05084
 362  -2.593314
 363  -136.888
 364  -706.7752
 365  -531.0635
 366  -424.7273
 367  -231.9091
 368  -422.6246
 369  12.67743
 370  -129.9365
 371  -176.7015
 372  -239.1982
 373  -819.4966
 374  -382.9225
 375  -73.3952
 376  -30.50345
 377  -197.2445
 378  97.26234
 379  -7.257569
 380  -122.6952
 381  -452.8377
 382  -496.7055
 383  -383.184
 384  -42.76323
 385  -185.4666
 386  -270.8585
 387  -336.4659
 388  -286.6248
 389  125.2498
 390  -157.3118
 391  -103.9195
 392  -326.034
 393  -383.964
 394  -68.77068
 395  401.4901
 396  208.2903
 397  -136.5797
 398  -382.8789
 399  -330.0847
 400  -551.2461
 401  -541.1578
 402  48.21292
 403  299.0669
 404  -146.0436
 405  -338.4103
 406  -684.6887
 407  -662.8817
 408  -211.0594
 409  211.7292
 410  138.3562
 411  70.18544
 412  223.817
 413  -99.77021
 414  -398.6648
 415  -100.2258
 416  137.4097
 417  37.3088
 418  83.40388
 419  345.3095
 420  69.74889
 421  -344.3618
 422  -403.3842
 423  -182.93
 424  -257.5703
 425  177.569
 426  380.922
 427  245.2882
 428  100.4427
 429  -343.4822
 430  -194.5483
 431  -137.6998
 432  164.271
 433  195.449
 434  555.043
 435  367.1666
 436  227.4646
 437  -2.119027
 438  -156.3972
 439  -240.5942
 440  -368.0298
 441  -114.52
 442  68.00323
 443  219.7643
 444  413.9395
 445  123.4498
 446  -5.946024
 447  -358.8443
 448  -257.2508
 449  232.9558
 450  359.3951
 451  510.8068
 452  82.37599
 453  61.84536
 454  49.71799
 455  -117.2701
 456  139.5765
 457  256.3147
 458  138.5883
 459  295.7541
 460  155.7423
 461  373.1431
 462  -55.09909
 463  -131.9325
 464  -81.00806
 465  -247.6351
 466  -430.8444
 467  -334.7656
 468  -80.01176
 469  -193.5829
 470  -133.8042
 471  289.0871
 472  29.63495
 473  -297.2883
 474  -292.7761
 475  -263.2416
 476  13.66736
 477  211.3314
 478  330.2348
 479  295.276
 480  231.8002
 481  -146.6485
 482  -680.1077
 483  -450.9361
 484  88.76381
 485  217.7048
 486  96.65978
 487  -19.51799
 488  -26.77142
 489  -221.9944
 490  -91.44817
 491  -222.5875
 492  -161.5652
 493  207.6958
 494  86.40862
 495  93.4521
 496  -145.5878
 497  -287.7348
 498  -490.6571
 499  -65.9463
 500  214.9425
 501  409.1725
 502  225.4903
 503  -8.744229
 504  -143.0354
 505  -233.5284
 506  -33.15006
 507  -96.38084
 508  71.0099
 509  214.8677
 510  126.6974
 511  8.34919
