# Input file       =  1191351389.132284_cleaned.dat
# Candidate        =  PSR_0332+5434
# Telescope        =  AR
# Epoch_topo       =  58032.789445975512
# Epoch_bary       =  N/A
# T_sample         =  0.002
# Data Folded      =  7208960
# Data Avg         =  0.02168759545523 
# Data StdDev      =  3.16999604470468 
# Profile Bins     =  512
# Profile Avg      =  305.408538876896 
# Profile StdDev   =  376.14911793341  
# Reduced chi-sqr  =  0.910
# Prob(Noise)      <  0.928   (~0.0 sigma)
# P_topo (ms)      =  714.475971747513  +/- 4.06e-05
# P'_topo (s/s)    =  -0                +/- 2.18e-11
# P''_topo (s/s^2) =  0                 +/- 9.81e-15
# P_bary (ms)      =  N/A
# P'_bary (s/s)    =  N/A
# P''_bary (s/s^2) =  N/A
# P_orb (s)        =  N/A
# asin(i)/c (s)    =  N/A
# eccentricity     =  N/A
# w (rad)          =  N/A
# T_peri           =  N/A
######################################################
   0  731.3105
   1  767.4274
   2  450.1352
   3  475.3511
   4  276.4387
   5  104.3069
   6  87.92031
   7  115.191
   8  16.67693
   9  501.7283
  10  649.8975
  11  216.3889
  12  -75.90668
  13  -190.6566
  14  -67.80367
  15  403.7142
  16  659.7032
  17  379.8966
  18  228.5043
  19  -73.87298
  20  -178.2337
  21  -20.20281
  22  283.1266
  23  187.2619
  24  202.0749
  25  402.7198
  26  336.1856
  27  444.4815
  28  475.5424
  29  359.4979
  30  360.6938
  31  306.8361
  32  351.9585
  33  380.7474
  34  485.0966
  35  464.7491
  36  439.3744
  37  95.08683
  38  146.2089
  39  335.8839
  40  267.9239
  41  647.1481
  42  548.2053
  43  350.9022
  44  525.7608
  45  358.6205
  46  293.8273
  47  -141.7492
  48  21.25908
  49  407.781
  50  598.4699
  51  370.8044
  52  152.0172
  53  43.35249
  54  99.29642
  55  149.927
  56  188.3604
  57  659.2533
  58  664.0066
  59  606.6708
  60  244.9613
  61  297.8264
  62  530.4401
  63  408.9048
  64  191.8214
  65  355.3373
  66  855.0684
  67  518.5867
  68  307.0342
  69  518.0164
  70  350.4843
  71  179.9584
  72  424.0607
  73  674.0524
  74  863.509
  75  451.6576
  76  580.049
  77  116.7009
  78  305.9871
  79  313.3896
  80  403.032
  81  239.3907
  82  328.0787
  83  625.3531
  84  532.6714
  85  375.9608
  86  71.85693
  87  205.825
  88  -184.4702
  89  83.76324
  90  16.75783
  91  167.5191
  92  616.4368
  93  552.6174
  94  196.7816
  95  53.36866
  96  -40.17168
  97  404.2168
  98  421.3333
  99  576.1636
 100  406.4537
 101  237.2822
 102  136.6216
 103  -32.52151
 104  159.5505
 105  192.0284
 106  248.28
 107  434.7978
 108  300.7528
 109  280.4274
 110  178.5856
 111  237.0548
 112  53.7244
 113  149.7546
 114  472.4074
 115  303.8679
 116  515.8942
 117  471.36
 118  413.6341
 119  386.1352
 120  341.3688
 121  318.5956
 122  349.0145
 123  498.3466
 124  442.5399
 125  358.5262
 126  -21.75812
 127  -40.12887
 128  244.6011
 129  241.8432
 130  5.06707
 131  303.724
 132  640.0661
 133  770.795
 134  326.5942
 135  365.4119
 136  347.8684
 137  61.92611
 138  300.2092
 139  423.4756
 140  485.9211
 141  445.2921
 142  230.498
 143  426.9996
 144  173.537
 145  66.47391
 146  115.7033
 147  292.5645
 148  134.2828
 149  225.1458
 150  472.2878
 151  504.2562
 152  185.3059
 153  -144.355
 154  -170.2062
 155  452.7333
 156  504.9817
 157  383.9887
 158  460.0751
 159  391.9672
 160  321.2226
 161  201.7421
 162  411.0075
 163  366.5475
 164  500.3378
 165  463.7445
 166  379.8027
 167  631.7474
 168  70.00237
 169  -152.3321
 170  161.6131
 171  33.31987
 172  230.4258
 173  160.7504
 174  353.8322
 175  338.091
 176  215.8203
 177  85.98455
 178  54.39042
 179  34.21536
 180  215.0579
 181  313.6664
 182  252.5367
 183  93.10022
 184  331.0101
 185  214.7532
 186  107.0704
 187  37.14446
 188  267.6266
 189  420.699
 190  252.5554
 191  501.3074
 192  410.0335
 193  93.23916
 194  13.97902
 195  130.6666
 196  364.7741
 197  326.5598
 198  357.6596
 199  511.2603
 200  316.6178
 201  348.54
 202  140.2346
 203  380.3683
 204  483.8536
 205  262.6138
 206  107.7385
 207  163.7891
 208  518.6177
 209  328.9639
 210  36.04925
 211  -256.281
 212  -145.1175
 213  -89.06665
 214  270.7728
 215  644.2546
 216  651.2172
 217  370.179
 218  -9.868568
 219  14.71858
 220  -124.771
 221  -85.4804
 222  107.8064
 223  610.2329
 224  419.113
 225  633.6188
 226  792.883
 227  485.7492
 228  84.4094
 229  270.2421
 230  509.3876
 231  278.3145
 232  170.0204
 233  169.3193
 234  377.9591
 235  388.6303
 236  409.076
 237  255.8607
 238  402.7999
 239  382.9062
 240  211.11
 241  289.1244
 242  330.0876
 243  256.6307
 244  90.24448
 245  -45.77213
 246  130.7638
 247  476.8359
 248  875.8904
 249  598.3419
 250  158.7432
 251  94.4744
 252  -60.31763
 253  166.1057
 254  173.5058
 255  262.5323
 256  401.856
 257  58.75618
 258  484.4405
 259  286.1932
 260  201.6939
 261  75.56754
 262  201.3488
 263  535.6041
 264  390.2611
 265  526.9135
 266  160.7507
 267  -217.2066
 268  21.52998
 269  131.1394
 270  -27.89609
 271  -121.9326
 272  201.8024
 273  456.0952
 274  549.0057
 275  361.2615
 276  -40.5176
 277  -125.6965
 278  -197.1522
 279  211.9187
 280  303.2572
 281  327.919
 282  504.5929
 283  318.5887
 284  109.4532
 285  32.20522
 286  202.533
 287  130.3393
 288  176.2807
 289  177.546
 290  309.344
 291  322.9207
 292  29.99176
 293  97.02237
 294  -192.9644
 295  -401.8967
 296  -96.21408
 297  435.7013
 298  745.2106
 299  520.5604
 300  485.0317
 301  408.723
 302  12.22881
 303  12.06868
 304  172.9466
 305  311.4507
 306  429.0606
 307  578.3914
 308  208.2856
 309  530.3629
 310  198.3769
 311  167.2471
 312  275.2723
 313  467.188
 314  661.1199
 315  819.3022
 316  570.7413
 317  934.647
 318  1014.527
 319  1483.924
 320  1830.356
 321  1674.953
 322  1016.148
 323  707.7172
 324  827.0093
 325  389.4667
 326  212.6397
 327  262.8757
 328  599.3705
 329  497.1432
 330  789.9899
 331  828.6036
 332  719.7073
 333  623.6533
 334  273.9188
 335  51.9962
 336  119.303
 337  126.5825
 338  540.4182
 339  572.1038
 340  801.5228
 341  519.1841
 342  436.6482
 343  -145.2289
 344  249.4952
 345  164.1891
 346  255.2054
 347  611.3766
 348  669.6326
 349  577.6014
 350  516.5334
 351  -69.13599
 352  -242.5002
 353  312.8181
 354  466.7099
 355  281.0596
 356  471.8806
 357  435.9925
 358  378.209
 359  142.6372
 360  -38.47573
 361  -94.30127
 362  379.9436
 363  332.6005
 364  486.7628
 365  172.3521
 366  27.9345
 367  244.5495
 368  145.9785
 369  150.0084
 370  184.3837
 371  95.4107
 372  107.1453
 373  460.6515
 374  590.1802
 375  113.6479
 376  205.1967
 377  76.55354
 378  348.4712
 379  -9.090667
 380  344.0307
 381  866.6735
 382  345.9414
 383  305.2004
 384  -128.8955
 385  -3.226433
 386  99.62102
 387  692.392
 388  930.0112
 389  586.5289
 390  596.8128
 391  400.2041
 392  -96.36884
 393  67.1798
 394  419.7182
 395  502.086
 396  376.5623
 397  622.8152
 398  665.4394
 399  20.14677
 400  -111.054
 401  -15.33659
 402  60.45597
 403  217.5743
 404  476.8091
 405  581.0303
 406  343.7167
 407  307.8057
 408  91.95002
 409  191.0032
 410  310.6986
 411  291.6163
 412  560.8717
 413  479.0202
 414  399.457
 415  375.4105
 416  273.0373
 417  233.6729
 418  -140.0262
 419  -93.5139
 420  70.20003
 421  299.4267
 422  720.2547
 423  412.4379
 424  328.3467
 425  86.98291
 426  -200.2624
 427  222.548
 428  474.8729
 429  696.6076
 430  593.1888
 431  205.5102
 432  382.314
 433  132.3706
 434  274.6628
 435  163.5464
 436  333.0403
 437  319.6362
 438  416.217
 439  421.0449
 440  328.6013
 441  22.25958
 442  -68.13935
 443  113.2707
 444  -186.1781
 445  37.23996
 446  307.2088
 447  400.8408
 448  66.30945
 449  176.7738
 450  432.4655
 451  11.31903
 452  174.2943
 453  255.9684
 454  357.2524
 455  316.4845
 456  275.7428
 457  401.7083
 458  607.573
 459  471.7193
 460  28.9018
 461  -314.6041
 462  36.89449
 463  480.0514
 464  403.3028
 465  226.8074
 466  322.5578
 467  187.2836
 468  296.2178
 469  116.0756
 470  259.3431
 471  297.0136
 472  701.1203
 473  304.8349
 474  478.0617
 475  167.6473
 476  -97.65556
 477  74.17415
 478  265.6522
 479  733.2686
 480  597.986
 481  596.8087
 482  376.3044
 483  363.541
 484  203.9421
 485  219.2611
 486  52.57026
 487  409.9406
 488  526.0861
 489  586.6631
 490  361.281
 491  383.4935
 492  189.5245
 493  402.4892
 494  228.3804
 495  -82.09864
 496  458.2882
 497  423.2867
 498  151.9818
 499  332.9635
 500  248.0737
 501  153.9132
 502  346.9291
 503  683.8375
 504  915.6025
 505  825.5121
 506  457.7632
 507  150.0472
 508  -139.7312
 509  -74.20321
 510  348.0913
 511  519.47
