# Input file       =  1191897833.137104_cleaned.dat
# Candidate        =  PSR_0332+5434
# Telescope        =  AR
# Epoch_topo       =  58039.114029364631
# Epoch_bary       =  N/A
# T_sample         =  0.002
# Data Folded      =  7340032
# Data Avg         =  0.0102440284794252
# Data StdDev      =  1.0000699977071  
# Profile Bins     =  512
# Profile Avg      =  146.592963066931 
# Profile StdDev   =  119.741417414777 
# Reduced chi-sqr  =  1.789
# Prob(Noise)      <  3.19e-25   (~10.3 sigma)
# P_topo (ms)      =  714.48051915766   +/- 0.000238
# P'_topo (s/s)    =  -0                +/- 1.25e-10
# P''_topo (s/s^2) =  0                 +/- 5.54e-14
# P_bary (ms)      =  N/A
# P'_bary (s/s)    =  N/A
# P''_bary (s/s^2) =  N/A
# P_orb (s)        =  N/A
# asin(i)/c (s)    =  N/A
# eccentricity     =  N/A
# w (rad)          =  N/A
# T_peri           =  N/A
######################################################
   0  1045.248
   1  940.718
   2  563.6635
   3  368.5479
   4  223.0345
   5  179.2715
   6  160.8576
   7  170.3296
   8  243.8365
   9  212.3857
  10  345.0048
  11  427.1685
  12  298.6859
  13  162.6845
  14  245.8557
  15  340.9439
  16  265.2379
  17  308.484
  18  308.028
  19  240.8006
  20  189.9682
  21  176.5476
  22  211.3388
  23  144.5687
  24  89.80664
  25  142.4646
  26  188.8357
  27  220.9978
  28  75.1374
  29  194.207
  30  248.9187
  31  237.5149
  32  206.4201
  33  131.8355
  34  182.6016
  35  248.8052
  36  50.18087
  37  44.25662
  38  254.1099
  39  169.4455
  40  74.77908
  41  150.2079
  42  164.3218
  43  153.2317
  44  171.1631
  45  162.7868
  46  160.7217
  47  186.5882
  48  190.5269
  49  225.8194
  50  142.4041
  51  328.9965
  52  334.6937
  53  138.8484
  54  96.17406
  55  46.62669
  56  69.8707
  57  1.202477
  58  5.023235
  59  40.91285
  60  87.41183
  61  89.35005
  62  72.94256
  63  202.9395
  64  95.98425
  65  186.1582
  66  254.5844
  67  206.511
  68  146.3026
  69  -35.25159
  70  19.68024
  71  183.201
  72  191.2554
  73  41.71807
  74  11.45737
  75  -37.08158
  76  -20.78322
  77  62.24533
  78  87.44547
  79  137.4339
  80  70.19951
  81  135.7223
  82  117.9542
  83  147.0977
  84  217.5478
  85  214.3889
  86  105.4639
  87  210.6505
  88  240.0043
  89  185.9574
  90  88.96582
  91  65.01408
  92  -12.56982
  93  62.01309
  94  151.2852
  95  115.6525
  96  23.77257
  97  -8.985545
  98  60.20146
  99  32.79469
 100  -21.42376
 101  79.20579
 102  116.4363
 103  68.22749
 104  153.5565
 105  211.0293
 106  142.9233
 107  99.86286
 108  175.6956
 109  269.6331
 110  281.9876
 111  142.3752
 112  155.5753
 113  169.089
 114  140.492
 115  277.7297
 116  254.0623
 117  196.8996
 118  42.88807
 119  162.7683
 120  162.7142
 121  156.9527
 122  207.0616
 123  152.0469
 124  157.7271
 125  184.8452
 126  148.5438
 127  296.2992
 128  135.0425
 129  113.331
 130  167.6547
 131  186.8265
 132  250.8347
 133  198.3733
 134  149.1644
 135  111.6776
 136  58.82273
 137  37.85534
 138  55.89991
 139  69.11591
 140  140.2834
 141  222.0881
 142  179.5947
 143  66.65431
 144  188.813
 145  237.2464
 146  218.518
 147  214.9663
 148  182.5147
 149  153.2285
 150  110.2035
 151  134.6619
 152  191.6144
 153  84.21352
 154  104.4285
 155  185.4554
 156  131.6921
 157  33.13383
 158  109.1412
 159  162.1013
 160  222.6557
 161  114.2382
 162  167.8975
 163  200.3903
 164  289.0563
 165  267.8574
 166  210.0823
 167  167.0235
 168  104.4838
 169  -5.181271
 170  119.2937
 171  222.4384
 172  182.711
 173  183.2095
 174  116.4744
 175  80.48045
 176  83.10775
 177  189.432
 178  192.2313
 179  51.37598
 180  116.1474
 181  185.8195
 182  180.7562
 183  158.2326
 184  203.5342
 185  104.4827
 186  75.81801
 187  160.6744
 188  188.8021
 189  167.5103
 190  13.20194
 191  174.1845
 192  176.233
 193  117.7863
 194  98.35118
 195  92.89899
 196  209.5475
 197  186.9373
 198  153.3137
 199  146.9269
 200  177.4045
 201  119.5523
 202  174.5047
 203  200.1845
 204  178.2508
 205  56.44107
 206  48.31717
 207  136.6915
 208  183.88
 209  127.8478
 210  195.6485
 211  131.7392
 212  191.7277
 213  241.3255
 214  243.8057
 215  198.0881
 216  190.032
 217  234.0675
 218  171.506
 219  46.17116
 220  187.4115
 221  195.3543
 222  163.8566
 223  171.8723
 224  33.27562
 225  99.63218
 226  57.00792
 227  124.1923
 228  129.2872
 229  130.474
 230  216.029
 231  104.0949
 232  9.827635
 233  52.99621
 234  -37.27134
 235  114.2835
 236  161.8584
 237  81.45171
 238  195.2047
 239  191.1625
 240  192.1309
 241  154.8936
 242  15.67549
 243  56.22039
 244  216.6468
 245  83.35975
 246  72.13072
 247  185.326
 248  109.4356
 249  -26.44721
 250  -23.64653
 251  72.74609
 252  74.53436
 253  187.6073
 254  126.0798
 255  167.1522
 256  202.091
 257  100.4148
 258  13.54267
 259  192.0421
 260  116.6957
 261  24.2258
 262  12.24125
 263  40.86451
 264  143.4679
 265  145.2886
 266  127.775
 267  24.62673
 268  71.47118
 269  -38.88915
 270  68.99438
 271  110.9609
 272  -29.97604
 273  -5.360805
 274  -69.77155
 275  -26.28806
 276  103.3951
 277  81.63217
 278  161.9037
 279  31.71831
 280  87.96148
 281  212.0974
 282  106.1375
 283  71.48776
 284  138.7272
 285  90.453
 286  117.4027
 287  81.68109
 288  136.1901
 289  96.41419
 290  65.88744
 291  189.3916
 292  201.8194
 293  156.4696
 294  82.62778
 295  191.5633
 296  259.6758
 297  181.6919
 298  165.9449
 299  90.91511
 300  115.5096
 301  87.54623
 302  28.96209
 303  -28.70398
 304  -2.422103
 305  63.83482
 306  155.109
 307  8.888452
 308  -188.6197
 309  -42.51541
 310  64.72263
 311  32.39317
 312  144.2395
 313  -26.29572
 314  74.73379
 315  86.70054
 316  217.1387
 317  136.1728
 318  52.86021
 319  -12.33405
 320  26.1293
 321  44.09425
 322  -43.12894
 323  -54.53839
 324  66.2955
 325  147.3576
 326  100.7167
 327  29.42033
 328  81.3443
 329  41.89698
 330  38.25655
 331  31.95965
 332  2.125416
 333  48.99226
 334  64.24931
 335  42.29149
 336  123.6737
 337  127.0116
 338  123.8238
 339  71.95422
 340  20.86196
 341  -87.13336
 342  94.39866
 343  171.1889
 344  -31.84401
 345  64.44406
 346  73.57454
 347  122.9624
 348  78.63941
 349  97.26273
 350  116.5648
 351  114.0011
 352  151.5046
 353  145.9484
 354  102.7862
 355  79.37424
 356  108.0701
 357  205.3265
 358  166.821
 359  79.60174
 360  -25.84071
 361  41.85708
 362  147.7616
 363  105.1917
 364  130.7684
 365  166.0668
 366  137.2422
 367  231.2516
 368  95.1844
 369  230.2958
 370  273.8017
 371  145.0929
 372  144.5574
 373  176.0521
 374  245.9533
 375  77.80736
 376  -20.65075
 377  50.83905
 378  158.4238
 379  202.9426
 380  92.74571
 381  49.94852
 382  173.5231
 383  129.1076
 384  55.17247
 385  197.5306
 386  287.9613
 387  143.8666
 388  158.3818
 389  198.7783
 390  90.12507
 391  18.76511
 392  122.5244
 393  91.02782
 394  -95.90887
 395  33.11496
 396  14.76746
 397  83.43832
 398  194.7741
 399  122.8867
 400  -68.77045
 401  144.5316
 402  143.7271
 403  152.4104
 404  204.1422
 405  208.4889
 406  277.0354
 407  164.511
 408  132.3073
 409  82.8129
 410  39.59195
 411  91.43671
 412  135.6989
 413  60.51612
 414  198.9435
 415  211.0508
 416  130.4064
 417  151.099
 418  130.4693
 419  50.28082
 420  64.68973
 421  174.9665
 422  150.4256
 423  73.83382
 424  182.5117
 425  100.6586
 426  75.1676
 427  72.0573
 428  225.1064
 429  153.4054
 430  162.2248
 431  228.5991
 432  144.8555
 433  140.312
 434  166.9458
 435  306.8734
 436  207.0593
 437  118.6017
 438  177.2908
 439  223.4055
 440  206.2938
 441  209.5037
 442  98.52545
 443  114.9485
 444  300.1799
 445  357.4814
 446  369.9042
 447  196.8367
 448  303.3862
 449  275.6489
 450  169.1903
 451  151.7435
 452  128.1121
 453  108.7393
 454  160.8982
 455  332.494
 456  154.3463
 457  -51.64263
 458  -11.14457
 459  151.7966
 460  133.0859
 461  38.18375
 462  85.6115
 463  263.981
 464  58.47832
 465  164.7054
 466  99.15827
 467  5.90956
 468  77.69073
 469  180.0192
 470  142.059
 471  81.63799
 472  118.6422
 473  60.6363
 474  93.08737
 475  163.9943
 476  187.2628
 477  313.8866
 478  335.0455
 479  275.6165
 480  130.1736
 481  158.6834
 482  204.8886
 483  135.3224
 484  93.60468
 485  162.3717
 486  184.4855
 487  139.7732
 488  222.1215
 489  200.6785
 490  267.8905
 491  253.9425
 492  280.3584
 493  192.4245
 494  177.8259
 495  136.3544
 496  314.7806
 497  259.22
 498  211.9077
 499  204.8565
 500  322.5385
 501  293.4481
 502  281.3736
 503  240.2812
 504  296.8265
 505  403.216
 506  441.8564
 507  451.0954
 508  509.3898
 509  632.8757
 510  822.5759
 511  827.8184
