# Input file       =  1191609817.124128-PSRB0329-2ms-sampling-dd.dat
# Candidate        =  PSR_0332+5434
# Telescope        =  AR
# Epoch_topo       =  58035.780510695928
# Epoch_bary       =  N/A
# T_sample         =  0.002
# Data Folded      =  7208960
# Data Avg         =  -3.09033868119022e-10
# Data StdDev      =  4.35720264652021 
# Profile Bins     =  512
# Profile Avg      =  -0.234714213579508
# Profile StdDev   =  517.022074801478 
# Reduced chi-sqr  =  0.627
# Prob(Noise)      <  1   (~0.0 sigma)
# P_topo (ms)      =  714.47789057828   +/- 9.74e-05
# P'_topo (s/s)    =  -0                +/- 5.23e-11
# P''_topo (s/s^2) =  0                 +/- 2.35e-14
# P_bary (ms)      =  N/A
# P'_bary (s/s)    =  N/A
# P''_bary (s/s^2) =  N/A
# P_orb (s)        =  N/A
# asin(i)/c (s)    =  N/A
# eccentricity     =  N/A
# w (rad)          =  N/A
# T_peri           =  N/A
######################################################
   0  -167.1124
   1  -185.7692
   2  -109.8148
   3  -453.407
   4  -395.4388
   5  -111.9098
   6  40.38898
   7  74.89656
   8  -246.5867
   9  -16.89425
  10  -335.2595
  11  -131.3605
  12  155.9403
  13  -37.49995
  14  13.15535
  15  194.2215
  16  -60.64582
  17  -134.7079
  18  -179.1451
  19  167.9156
  20  480.7969
  21  218.2597
  22  -38.62052
  23  276.7098
  24  422.5716
  25  59.8552
  26  -195.5984
  27  -146.1584
  28  63.39072
  29  -255.2324
  30  -36.40054
  31  7.582632
  32  -269.33
  33  198.5307
  34  -65.43181
  35  -488.0159
  36  -479.4246
  37  -317.1243
  38  2.856398
  39  -164.8834
  40  -74.43359
  41  206.6015
  42  76.84693
  43  -113.804
  44  -212.6107
  45  -327.3274
  46  -41.73944
  47  21.35298
  48  356.8828
  49  57.08482
  50  -63.76125
  51  -250.1557
  52  31.12172
  53  -141.1664
  54  -322.6535
  55  -12.37417
  56  -255.9652
  57  -175.97
  58  -285.8666
  59  -252.8061
  60  -418.7169
  61  -273.6683
  62  -342.1315
  63  -367.6059
  64  -278.4797
  65  -58.50653
  66  -176.8564
  67  -95.85535
  68  -156.3723
  69  -299.1091
  70  -556.4105
  71  -503.7561
  72  -207.8948
  73  -8.486161
  74  158.0847
  75  -138.6869
  76  -313.1927
  77  -184.2352
  78  -267.2338
  79  62.6751
  80  -67.41125
  81  -112.1407
  82  88.99921
  83  -147.998
  84  -578.5532
  85  -504.5352
  86  -121.0264
  87  294.1135
  88  -21.30905
  89  -220.0293
  90  -8.904522
  91  -85.59396
  92  -663.8549
  93  -445.1598
  94  -31.75664
  95  248.1384
  96  148.6475
  97  153.7028
  98  439.419
  99  -53.5756
 100  -371.5391
 101  -218.3962
 102  155.4766
 103  250.5109
 104  219.726
 105  -26.76195
 106  77.54179
 107  342.8334
 108  255.1804
 109  -48.12908
 110  -4.502803
 111  184.3321
 112  -205.0173
 113  -116.7406
 114  -5.517672
 115  21.71052
 116  -60.38337
 117  -28.07293
 118  -208.0908
 119  -143.0646
 120  -43.96912
 121  -202.6103
 122  -144.6108
 123  -317.9579
 124  -155.4125
 125  -388.5295
 126  -227.3603
 127  -31.51295
 128  57.57729
 129  202.7812
 130  298.8645
 131  338.9625
 132  374.7716
 133  35.37782
 134  -29.84291
 135  6.695187
 136  162.4511
 137  355.5034
 138  450.9639
 139  357.2968
 140  23.36229
 141  166.9615
 142  -140.9796
 143  205.4576
 144  589.0178
 145  571.0154
 146  240.146
 147  17.40541
 148  427.6797
 149  246.6607
 150  187.5414
 151  80.3349
 152  -83.55795
 153  157.4898
 154  317.9733
 155  -43.09219
 156  18.96379
 157  -42.08437
 158  -188.5215
 159  -430.5071
 160  -353.8641
 161  58.83186
 162  388.0003
 163  422.6411
 164  239.0124
 165  145.0389
 166  -112.7821
 167  -266.5423
 168  -629.3982
 169  -272.6782
 170  -69.4342
 171  250.6361
 172  174.1273
 173  191.3059
 174  -14.1092
 175  -37.46334
 176  -310.4559
 177  -47.62508
 178  243.7752
 179  -128.4766
 180  -120.1052
 181  -84.36333
 182  -82.34853
 183  -251.927
 184  126.5234
 185  -290.672
 186  -53.16618
 187  397.6708
 188  119.9613
 189  1.214329
 190  -289.2957
 191  -271.7752
 192  -320.6487
 193  -184.8919
 194  -196.6642
 195  -125.9733
 196  19.12612
 197  -221.4515
 198  -400.1631
 199  -287.8791
 200  -628.6909
 201  -611.9922
 202  -249.7757
 203  -250.1922
 204  -344.5332
 205  -326.1961
 206  -134.9531
 207  -161.5135
 208  -286.2125
 209  -257.5953
 210  -682.8656
 211  -358.0132
 212  2.732833
 213  -37.54442
 214  -260.8963
 215  -251.2604
 216  -718.5701
 217  -553.6488
 218  -405.2716
 219  141.1022
 220  158.1982
 221  134.1611
 222  89.84521
 223  -117.2226
 224  -496.7955
 225  -412.7289
 226  -265.4282
 227  -181.2935
 228  59.97017
 229  83.5017
 230  186.4754
 231  22.92315
 232  181.2286
 233  509.0418
 234  499.2507
 235  1085.696
 236  1674.607
 237  1403.364
 238  1078.82
 239  395.4427
 240  174.3781
 241  -383.1008
 242  -755.4497
 243  -976.3255
 244  -788.7035
 245  -196.7096
 246  -225.7148
 247  -624.7668
 248  -613.059
 249  -445.4081
 250  -438.2288
 251  -82.37305
 252  106.0503
 253  -168.0952
 254  -101.5909
 255  -117.8592
 256  -60.16678
 257  -411.8062
 258  -224.6364
 259  -76.13966
 260  -140.5168
 261  -36.75252
 262  -35.24245
 263  5.923643
 264  -209.2731
 265  -52.77654
 266  -226.7625
 267  -244.2318
 268  -158.1453
 269  -386.0852
 270  68.69785
 271  610.4318
 272  170.8237
 273  -384.907
 274  -356.028
 275  214.2481
 276  123.7953
 277  299.037
 278  322.0476
 279  174.9199
 280  11.75157
 281  -179.6692
 282  -335.3379
 283  -352.3146
 284  -246.5857
 285  -94.39912
 286  -347.2854
 287  -371.9443
 288  -293.0036
 289  -164.6782
 290  -93.33518
 291  109.0287
 292  -100.8883
 293  -464.1038
 294  -651.1106
 295  -344.0034
 296  -436.9096
 297  -377.1765
 298  -101.4812
 299  -33.73508
 300  -26.60984
 301  -20.60583
 302  -86.1286
 303  -409.5841
 304  -212.3083
 305  -141.1065
 306  41.02507
 307  285.3702
 308  292.5073
 309  265.4128
 310  123.9481
 311  -76.97198
 312  26.3022
 313  178.9643
 314  68.54681
 315  26.71178
 316  124.7891
 317  252.9641
 318  -43.42201
 319  -63.49687
 320  -43.86347
 321  161.2697
 322  54.41233
 323  -131.4646
 324  54.94644
 325  -190.2254
 326  128.6133
 327  478.4998
 328  791.2655
 329  494.7953
 330  183.0262
 331  -341.9504
 332  -371.4883
 333  219.1858
 334  397.5363
 335  261.5344
 336  -41.58506
 337  278.8582
 338  255.6724
 339  -41.1926
 340  35.36013
 341  -304.1246
 342  168.1702
 343  826.7235
 344  483.9857
 345  110.93
 346  142.9188
 347  21.96444
 348  -97.54227
 349  86.15868
 350  -91.21537
 351  246.6957
 352  107.2445
 353  164.0527
 354  479.9564
 355  279.7241
 356  228.1965
 357  428.1244
 358  362.141
 359  300.0302
 360  74.02516
 361  406.8723
 362  241.2542
 363  431.682
 364  297.0834
 365  14.75584
 366  -243.5312
 367  -148.4276
 368  -372.9682
 369  -208.3195
 370  44.51009
 371  495.7381
 372  381.8338
 373  396.811
 374  -25.16642
 375  -223.2169
 376  170.0531
 377  -124.1061
 378  58.7887
 379  319.3272
 380  262.8127
 381  218.9747
 382  -188.6222
 383  -299.5587
 384  -181.5572
 385  211.3476
 386  217.7829
 387  621.2357
 388  560.6447
 389  338.631
 390  470.5355
 391  363.5365
 392  166.8595
 393  64.95615
 394  200.5477
 395  371.89
 396  115.3788
 397  101.2275
 398  -126.8246
 399  -61.98235
 400  206.1884
 401  81.62601
 402  258.852
 403  512.7865
 404  109.1746
 405  -155.2324
 406  -75.16151
 407  6.721066
 408  -75.23597
 409  69.3763
 410  35.19962
 411  -17.40319
 412  -11.58206
 413  53.59991
 414  -147.7677
 415  -227.5111
 416  66.19804
 417  513.9468
 418  363.2802
 419  -205.9304
 420  -91.47089
 421  -249.42
 422  -289.6495
 423  57.12635
 424  -207.4627
 425  -51.99899
 426  122.2492
 427  77.39979
 428  648.1403
 429  513.9484
 430  154.4273
 431  -307.4192
 432  -30.64472
 433  221.5238
 434  279.6903
 435  145.5322
 436  -164.0623
 437  -158.7727
 438  -315.1188
 439  -349.3753
 440  91.90766
 441  391.4917
 442  90.31717
 443  241.9098
 444  13.05314
 445  -85.26387
 446  34.38353
 447  61.39695
 448  254.3701
 449  530.2197
 450  130.4711
 451  203.0066
 452  322.9806
 453  601.3889
 454  796.5414
 455  234.5937
 456  160.8256
 457  366.002
 458  454.3108
 459  235.2954
 460  309.1999
 461  519.7984
 462  530.5406
 463  411.5507
 464  201.7874
 465  109.6314
 466  -63.57244
 467  9.567583
 468  101.1266
 469  264.019
 470  261.9502
 471  146.5253
 472  -213.8101
 473  -433.5198
 474  -120.7961
 475  -329.0966
 476  -350.0421
 477  -102.2937
 478  77.38958
 479  255.7901
 480  89.3653
 481  92.88734
 482  -38.04704
 483  -205.3542
 484  -410.733
 485  11.59334
 486  293.7643
 487  -7.667908
 488  110.1572
 489  -142.4969
 490  -169.6443
 491  -198.0028
 492  41.56652
 493  210.5271
 494  30.57233
 495  253.3597
 496  -35.65008
 497  -34.41359
 498  -42.58949
 499  160.4368
 500  231.9258
 501  96.19978
 502  67.6342
 503  185.7343
 504  112.7313
 505  -87.92886
 506  -143.9624
 507  -176.0122
 508  113.6821
 509  191.4512
 510  156.4331
 511  -57.1577
