# Input file       =  1191538293.107866_cleaned.dat
# Candidate        =  PSR_0332+5434
# Telescope        =  AR
# Epoch_topo       =  58034.952686433637
# Epoch_bary       =  N/A
# T_sample         =  0.002
# Data Folded      =  7340032
# Data Avg         =  0.0145498295406901
# Data StdDev      =  0.999996864722535
# Profile Bins     =  512
# Profile Avg      =  208.603094434739 
# Profile StdDev   =  119.732660980475 
# Reduced chi-sqr  =  1.728
# Prob(Noise)      <  2.68e-22   (~9.6 sigma)
# P_topo (ms)      =  714.477362265194  +/- 0.000252
# P'_topo (s/s)    =  -0                +/- 1.33e-10
# P''_topo (s/s^2) =  0                 +/- 5.86e-14
# P_bary (ms)      =  N/A
# P'_bary (s/s)    =  N/A
# P''_bary (s/s^2) =  N/A
# P_orb (s)        =  N/A
# asin(i)/c (s)    =  N/A
# eccentricity     =  N/A
# w (rad)          =  N/A
# T_peri           =  N/A
######################################################
   0  267.3006
   1  373.5819
   2  278.2109
   3  149.6783
   4  230.5549
   5  327.2256
   6  232.8435
   7  191.6586
   8  197.2312
   9  200.9382
  10  270.045
  11  361.4213
  12  282.9511
  13  103.7501
  14  147.5426
  15  135.5853
  16  203.0232
  17  166.6752
  18  130.9629
  19  239.4985
  20  179.1583
  21  84.68604
  22  46.50048
  23  137.472
  24  172.2384
  25  134.5866
  26  199.4182
  27  172.8602
  28  281.2103
  29  297.8583
  30  106.2495
  31  97.37804
  32  188.1294
  33  72.29761
  34  18.92575
  35  121.783
  36  150.9586
  37  54.48543
  38  20.20866
  39  250.5407
  40  243.8811
  41  148.2838
  42  280.4937
  43  357.9939
  44  142.5989
  45  -5.573174
  46  87.55238
  47  197.8818
  48  139.0842
  49  205.4735
  50  313.8285
  51  345.8784
  52  294.4375
  53  209.1619
  54  175.0468
  55  187.6583
  56  328.3989
  57  321.1814
  58  214.0109
  59  112.9711
  60  137.2992
  61  107.2578
  62  189.8534
  63  370.9621
  64  412.8042
  65  386.7885
  66  485.1014
  67  838.2444
  68  1090.769
  69  1065.329
  70  1046.08
  71  800.8422
  72  509.9505
  73  480.9265
  74  301.5752
  75  225.9811
  76  130.9418
  77  155.4561
  78  174.394
  79  176.0618
  80  167.6555
  81  238.0157
  82  130.9305
  83  118.7753
  84  102.0199
  85  150.939
  86  268.7915
  87  271.0229
  88  159.6381
  89  169.8786
  90  211.9331
  91  96.88962
  92  155.2986
  93  96.6021
  94  146.6542
  95  174.4241
  96  168.3693
  97  179.5876
  98  219.5407
  99  173.5067
 100  272.23
 101  250.6225
 102  165.7241
 103  94.08528
 104  213.0999
 105  197.5451
 106  41.54387
 107  89.32398
 108  176.2964
 109  105.1959
 110  51.00186
 111  127.1363
 112  157.3048
 113  22.19896
 114  65.89831
 115  187.3592
 116  193.1419
 117  71.78161
 118  64.83693
 119  275.2668
 120  234.7876
 121  68.93199
 122  154.4316
 123  184.118
 124  133.1193
 125  147.9319
 126  117.9915
 127  153.3881
 128  29.47122
 129  105.1361
 130  161.6009
 131  158.1756
 132  219.0374
 133  272.8806
 134  226.8552
 135  196.01
 136  263.1532
 137  229.1456
 138  238.3237
 139  255.2802
 140  155.8207
 141  186.9814
 142  230.0481
 143  185.9576
 144  88.73535
 145  152.6162
 146  163.9033
 147  161.5511
 148  116.2431
 149  74.94482
 150  133.4082
 151  264.4497
 152  320.0791
 153  340.1532
 154  189.4217
 155  78.61002
 156  169.2695
 157  269.9874
 158  208.6453
 159  295.8556
 160  279.6513
 161  109.9117
 162  44.62761
 163  168.9557
 164  176.9492
 165  116.0994
 166  109.1637
 167  5.904117
 168  114.25
 169  165.897
 170  116.1919
 171  243.865
 172  312.0259
 173  190.9867
 174  52.42622
 175  8.220082
 176  29.67333
 177  119.553
 178  108.0197
 179  74.25844
 180  238.1827
 181  294.8073
 182  289.3827
 183  255.0026
 184  202.7338
 185  178.1436
 186  215.2918
 187  275.9109
 188  197.438
 189  82.24199
 190  140.2229
 191  115.01
 192  -4.812195
 193  89.95901
 194  167.8392
 195  276.0541
 196  289.9094
 197  75.58366
 198  39.11807
 199  8.135992
 200  34.44395
 201  195.8116
 202  223.3481
 203  235.5301
 204  283.611
 205  277.5534
 206  275.6413
 207  326.985
 208  232.8382
 209  208.8197
 210  304.8977
 211  245.6246
 212  305.4909
 213  295.1974
 214  261.3883
 215  213.2061
 216  309.0305
 217  383.7255
 218  219.9692
 219  105.4645
 220  132.6781
 221  127.6011
 222  172.7046
 223  170.2888
 224  126.1597
 225  83.60377
 226  157.0872
 227  291.7831
 228  241.0778
 229  201.0032
 230  137.1381
 231  147.1898
 232  293.2835
 233  324.159
 234  197.4198
 235  180.8818
 236  89.22651
 237  152.3968
 238  152.3976
 239  236.6294
 240  226.7882
 241  259.71
 242  234.7832
 243  148.9852
 244  205.6871
 245  255.3424
 246  106.689
 247  186.3937
 248  281.2615
 249  362.0734
 250  319.6214
 251  236.5321
 252  306.2688
 253  242.163
 254  335.2913
 255  216.0392
 256  159.6277
 257  182.7803
 258  193.7234
 259  242.2992
 260  322.6569
 261  253.932
 262  221.6192
 263  271.3717
 264  261.4885
 265  238.5035
 266  314.9579
 267  295.8599
 268  183.6021
 269  264.7158
 270  292.6187
 271  238.9004
 272  177.4503
 273  123.4989
 274  186.7342
 275  300.0132
 276  203.3116
 277  261.2083
 278  138.7104
 279  124.4146
 280  81.31149
 281  221.4336
 282  290.8228
 283  313.4324
 284  315.9584
 285  221.5851
 286  253.2554
 287  276.3047
 288  316.3577
 289  294.0765
 290  131.8467
 291  170.2263
 292  163.9808
 293  265.148
 294  300.7442
 295  310.0498
 296  308.207
 297  264.9953
 298  264.2188
 299  252.7301
 300  64.13501
 301  -0.3844636
 302  208.6851
 303  262.2413
 304  254.3702
 305  359.4215
 306  235.941
 307  147.7807
 308  154.2988
 309  108.9392
 310  198.1312
 311  287.8439
 312  194.3378
 313  182.5536
 314  146.6145
 315  92.21538
 316  267.0059
 317  236.0224
 318  188.9429
 319  196.3952
 320  205.9491
 321  222.3681
 322  127.9998
 323  185.1751
 324  117.4952
 325  50.75613
 326  49.27148
 327  188.8501
 328  235.843
 329  322.4862
 330  298.1605
 331  278.7282
 332  245.8906
 333  227.5189
 334  230.0311
 335  155.2915
 336  171.6901
 337  257.4978
 338  89.9979
 339  99.09554
 340  179.7507
 341  182.7184
 342  135.3777
 343  181.5791
 344  214.0508
 345  271.5086
 346  233.9783
 347  415.7104
 348  178.1468
 349  153.5389
 350  222.0524
 351  218.3706
 352  154.2433
 353  237.4834
 354  221.1556
 355  252.1573
 356  357.5945
 357  296.0819
 358  186.2637
 359  253.5746
 360  261.1673
 361  133.3707
 362  229.7178
 363  182.4112
 364  103.0166
 365  34.05552
 366  124.1365
 367  164.8965
 368  285.1914
 369  218.5157
 370  221.3868
 371  183.3255
 372  120.9635
 373  127.3261
 374  347.2685
 375  371.0375
 376  377.1858
 377  425.5413
 378  191.8302
 379  77.96908
 380  140.3432
 381  99.77879
 382  154.1388
 383  232.1373
 384  238.3984
 385  163.4841
 386  208.4461
 387  371.6608
 388  258.614
 389  150.8041
 390  133.6652
 391  161.2974
 392  296.489
 393  411.4521
 394  314.3595
 395  212.6043
 396  285.1754
 397  188.7784
 398  146.9625
 399  304.0327
 400  213.5363
 401  184.3108
 402  151.129
 403  206.2074
 404  159.7998
 405  141.8514
 406  193.2926
 407  293.9952
 408  228.6153
 409  211.3272
 410  253.2837
 411  284.5447
 412  253.5726
 413  251.6006
 414  114.5731
 415  61.96459
 416  169.0283
 417  137.648
 418  203.1768
 419  114.964
 420  179.5163
 421  279.1827
 422  249.7106
 423  99.23528
 424  84.07656
 425  308.8675
 426  327.1553
 427  173.2722
 428  61.12654
 429  128.5093
 430  159.5831
 431  233.5316
 432  256.0519
 433  181.7371
 434  246.3173
 435  240.8649
 436  209.1578
 437  197.2946
 438  239.9168
 439  110.3813
 440  142.344
 441  122.8596
 442  166.7369
 443  221.3809
 444  224.2752
 445  148.3925
 446  222.9609
 447  172.874
 448  135.9251
 449  159.684
 450  236.2803
 451  292.2563
 452  260.4794
 453  155.3674
 454  107.9181
 455  172.5433
 456  125.4525
 457  196.1983
 458  76.24033
 459  150.8782
 460  332.2659
 461  247.379
 462  272.0669
 463  206.9867
 464  207.2078
 465  234.1284
 466  319.5757
 467  386.1451
 468  150.3272
 469  209.5138
 470  272.5501
 471  329.0537
 472  332.5538
 473  235.0762
 474  310.7646
 475  291.268
 476  312.0824
 477  152.7265
 478  326.7433
 479  333.4412
 480  141.7918
 481  145.2816
 482  227.948
 483  115.7138
 484  245.2337
 485  167.0237
 486  214.8961
 487  257.6142
 488  303.736
 489  243.2915
 490  209.0726
 491  194.6797
 492  104.7469
 493  107.4793
 494  297.818
 495  199.0494
 496  60.33461
 497  234.2227
 498  306.3844
 499  239.4758
 500  187.1992
 501  85.50703
 502  109.7119
 503  161.5202
 504  219.427
 505  191.9995
 506  138.6048
 507  289.6831
 508  357.7693
 509  218.6659
 510  127.5028
 511  67.33448
