# Input file       =  1191467071.114228_cleaned.dat
# Candidate        =  PSR_0332+5434
# Telescope        =  AR
# Epoch_topo       =  58034.128357803565
# Epoch_bary       =  N/A
# T_sample         =  0.002
# Data Folded      =  7340032
# Data Avg         =  0.0149768440034838
# Data StdDev      =  1.00003826967094 
# Profile Bins     =  512
# Profile Avg      =  214.541298425542 
# Profile StdDev   =  119.737618520669 
# Reduced chi-sqr  =  1.387
# Prob(Noise)      <  1.45e-08   (~5.5 sigma)
# P_topo (ms)      =  714.477165646472  +/- 0.000175
# P'_topo (s/s)    =  -0                +/- 9.21e-11
# P''_topo (s/s^2) =  0                 +/- 4.07e-14
# P_bary (ms)      =  N/A
# P'_bary (s/s)    =  N/A
# P''_bary (s/s^2) =  N/A
# P_orb (s)        =  N/A
# asin(i)/c (s)    =  N/A
# eccentricity     =  N/A
# w (rad)          =  N/A
# T_peri           =  N/A
######################################################
   0  1005.767
   1  833.0313
   2  576.429
   3  439.2392
   4  261.1072
   5  349.8132
   6  238.2746
   7  183.102
   8  259.248
   9  227.4922
  10  159.7226
  11  256.9429
  12  320.442
  13  243.4711
  14  168.5931
  15  272.0186
  16  379.0193
  17  299.7022
  18  289.105
  19  270.9935
  20  321.3758
  21  145.6509
  22  20.56464
  23  146.2061
  24  265.3337
  25  224.4754
  26  52.04848
  27  70.45258
  28  234.1736
  29  151.3383
  30  229.8634
  31  248.7887
  32  201.0875
  33  205.5205
  34  198.0428
  35  221.591
  36  139.8982
  37  164.7136
  38  127.7957
  39  145.2722
  40  276.9523
  41  221.0432
  42  236.3032
  43  243.8044
  44  244.1154
  45  251.0898
  46  107.4224
  47  178.3322
  48  45.3132
  49  41.45851
  50  190.8542
  51  254.3537
  52  288.1227
  53  164.9418
  54  116.8117
  55  268.9391
  56  132.0299
  57  154.2103
  58  178.6699
  59  244.1338
  60  204.0124
  61  180.1401
  62  257.0085
  63  356.4748
  64  241.0994
  65  144.9697
  66  223.6859
  67  294.5753
  68  157.9422
  69  44.11416
  70  120.5291
  71  154.0327
  72  162.5325
  73  238.1769
  74  258.3764
  75  395.2612
  76  300.7463
  77  334.2
  78  216.5303
  79  149.02
  80  80.66207
  81  130.1992
  82  106.697
  83  259.2502
  84  230.4441
  85  144.2418
  86  198.6233
  87  82.24742
  88  193.9966
  89  269.2725
  90  284.4347
  91  128.0241
  92  84.49394
  93  262.4135
  94  217.7682
  95  259.6971
  96  216.1701
  97  252.8439
  98  160.4692
  99  116.0404
 100  130.4123
 101  202.9744
 102  110.2193
 103  96.9059
 104  196.1028
 105  269.6833
 106  255.6812
 107  162.3978
 108  80.9352
 109  84.43588
 110  204.3114
 111  130.3523
 112  177.6035
 113  166.2595
 114  77.71235
 115  116.1923
 116  167.1941
 117  161.363
 118  168.9721
 119  207.3319
 120  264.6633
 121  201.1142
 122  177.4269
 123  289.6196
 124  215.4351
 125  237.0186
 126  263.1765
 127  138.7119
 128  116.7341
 129  177.3478
 130  213.4505
 131  259.0794
 132  114.7282
 133  197.5444
 134  221.3878
 135  149.9058
 136  202.6901
 137  197.5644
 138  201.9021
 139  290.1191
 140  351.6201
 141  82.33269
 142  -83.06572
 143  128.3793
 144  127.4863
 145  112.1
 146  107.7176
 147  152.6775
 148  250.3906
 149  220.9722
 150  152.147
 151  108.0045
 152  171.5952
 153  149.9549
 154  336.5517
 155  328.0923
 156  207.6356
 157  114.2907
 158  63.40446
 159  142.5776
 160  148.384
 161  171.0347
 162  220.6852
 163  253.9056
 164  300.8288
 165  267.5362
 166  194.3197
 167  270.8924
 168  250.8512
 169  71.13702
 170  169.8618
 171  145.785
 172  68.95742
 173  130.3148
 174  52.13787
 175  158.3407
 176  183.2462
 177  130.5114
 178  74.72305
 179  151.6403
 180  281.1501
 181  209.0187
 182  206.2852
 183  234.8342
 184  109.6986
 185  67.29507
 186  72.04955
 187  126.7129
 188  253.6662
 189  251.5521
 190  265.8836
 191  162.2828
 192  281.4633
 193  168.8993
 194  143.2901
 195  277.5955
 196  319.3245
 197  315.388
 198  243.8157
 199  117.7044
 200  161.7537
 201  201.653
 202  204.3782
 203  206.8385
 204  271.2366
 205  196.8875
 206  275.043
 207  94.20467
 208  93.97
 209  140.3697
 210  236.4134
 211  247.8759
 212  209.5135
 213  192.2876
 214  150.0499
 215  259.7176
 216  270.2067
 217  180.4633
 218  94.41701
 219  123.1562
 220  84.74532
 221  106.4955
 222  202.0817
 223  164.022
 224  162.8884
 225  193.5047
 226  77.62062
 227  197.7879
 228  338.8861
 229  365.2412
 230  408.5081
 231  323.6921
 232  211.7757
 233  95.10655
 234  124.7674
 235  191.3416
 236  237.3185
 237  301.7955
 238  302.5244
 239  271.385
 240  293.4515
 241  319.3413
 242  197.4895
 243  260.351
 244  289.2099
 245  228.7858
 246  69.06911
 247  211.6895
 248  151.3022
 249  155.3423
 250  106.8522
 251  256.094
 252  211.8294
 253  197.1879
 254  111.6828
 255  157.5853
 256  218.1978
 257  195.3224
 258  152.7275
 259  138.6899
 260  148.0482
 261  227.4056
 262  236.945
 263  189.0188
 264  151.6732
 265  268.8894
 266  279.0876
 267  173.353
 268  192.0095
 269  199.0454
 270  257.9478
 271  205.6031
 272  120.8437
 273  111.2773
 274  271.5013
 275  236.9241
 276  186.8561
 277  320.1962
 278  287.1051
 279  315.3518
 280  174.4595
 281  222.8149
 282  280.4895
 283  278.867
 284  178.3805
 285  219.5475
 286  145.6831
 287  120.9108
 288  148.7207
 289  214.1212
 290  181.7343
 291  163.8688
 292  220.2727
 293  204.3043
 294  229.1362
 295  300.2672
 296  231.1101
 297  363.3798
 298  308.5868
 299  134.0326
 300  78.79714
 301  145.1422
 302  356.3867
 303  251.7031
 304  248.155
 305  252.7999
 306  219.6452
 307  203.8771
 308  308.1087
 309  314.4109
 310  314.1
 311  261.0208
 312  224.2312
 313  153.5822
 314  100.0539
 315  268.9721
 316  189.4133
 317  156.466
 318  113.2632
 319  191.6996
 320  189.746
 321  111.3283
 322  108.3546
 323  34.64056
 324  40.2528
 325  257.9346
 326  185.4211
 327  131.3206
 328  84.13636
 329  180.6173
 330  65.51015
 331  87.20181
 332  144.6742
 333  267.3229
 334  344.9478
 335  292.1168
 336  231.9003
 337  192.5425
 338  284.2822
 339  271.772
 340  249.2702
 341  294.6336
 342  184.9322
 343  117.3416
 344  79.91029
 345  247.7729
 346  278.8507
 347  310.9035
 348  221.1659
 349  220.6006
 350  253.0908
 351  267.8923
 352  366.9789
 353  285.9197
 354  208.8039
 355  64.77799
 356  288.539
 357  254.5238
 358  331.8448
 359  223.7622
 360  273.8949
 361  341.9915
 362  349.4434
 363  299.6187
 364  378.489
 365  298.6704
 366  192.4151
 367  117.211
 368  230.7173
 369  271.5659
 370  141.675
 371  159.4257
 372  178.1548
 373  160.3772
 374  195.8295
 375  279.5034
 376  416.7484
 377  307.8596
 378  278.6212
 379  246.3114
 380  253.0411
 381  302.3156
 382  283.9019
 383  275.5783
 384  283.417
 385  260.3974
 386  233.8891
 387  291.1133
 388  287.5509
 389  125.4735
 390  177.6893
 391  205.0859
 392  164.4509
 393  291.1056
 394  295.7704
 395  213.9078
 396  182.3718
 397  138.2622
 398  164.8884
 399  253.6239
 400  209.5309
 401  209.2319
 402  195.2765
 403  100.1129
 404  215.8799
 405  273.3088
 406  337.2125
 407  177.3972
 408  198.0097
 409  174.1454
 410  241.2263
 411  269.9397
 412  128.0586
 413  95.4139
 414  113.4623
 415  243.0094
 416  176.6616
 417  180.575
 418  144.9121
 419  80.38515
 420  139.3365
 421  238.5152
 422  329.0953
 423  340.3273
 424  291.6068
 425  260.4998
 426  194.9722
 427  78.83755
 428  185.6433
 429  203.7327
 430  158.542
 431  251.2135
 432  185.5886
 433  140.9442
 434  220.2513
 435  170.1605
 436  193.9585
 437  243.3131
 438  288.0562
 439  282.3334
 440  246.4646
 441  301.8154
 442  207.5064
 443  180.9623
 444  126.4894
 445  139.2076
 446  128.6102
 447  265.1435
 448  267.8334
 449  214.1345
 450  204.721
 451  139.9139
 452  188.5919
 453  280.8583
 454  318.2939
 455  280.8736
 456  263.622
 457  222.915
 458  159.3784
 459  199.1766
 460  297.8852
 461  348.2144
 462  225.436
 463  252.1434
 464  379.9128
 465  350.1174
 466  328.7684
 467  254.4801
 468  404.121
 469  364.138
 470  223.2118
 471  190.5324
 472  265.802
 473  275.8185
 474  297.3659
 475  287.8168
 476  142.0524
 477  160.8531
 478  196.7436
 479  87.08524
 480  18.39313
 481  183.5083
 482  377.8067
 483  310.8566
 484  229.5996
 485  184.3623
 486  129.8019
 487  146.0064
 488  159.7333
 489  202.9431
 490  219.3941
 491  106.5966
 492  126.2975
 493  122.1218
 494  165.5461
 495  234.6182
 496  249.5795
 497  220.2075
 498  171.0999
 499  247.3475
 500  165.3216
 501  169.5746
 502  213.3532
 503  221.3807
 504  235.8585
 505  261.2732
 506  190.3358
 507  197.5288
 508  374.4553
 509  583.5264
 510  883.4359
 511  965.4188
