# Input file       =  1191969090.136214-PSRB0329-2ms-sampling-dd.dat
# Candidate        =  PSR_0332+5434
# Telescope        =  AR
# Epoch_topo       =  58039.938763150625
# Epoch_bary       =  N/A
# T_sample         =  0.002
# Data Folded      =  7340032
# Data Avg         =  2.28072045636412e-10
# Data StdDev      =  3.33452107617647 
# Profile Bins     =  512
# Profile Avg      =  0.285358173802841
# Profile StdDev   =  399.252333312931 
# Reduced chi-sqr  =  1.544
# Prob(Noise)      <  3.14e-14   (~7.5 sigma)
# P_topo (ms)      =  714.480773797543  +/- 0.000254
# P'_topo (s/s)    =  -0                +/- 1.34e-10
# P''_topo (s/s^2) =  0                 +/- 5.93e-14
# P_bary (ms)      =  N/A
# P'_bary (s/s)    =  N/A
# P''_bary (s/s^2) =  N/A
# P_orb (s)        =  N/A
# asin(i)/c (s)    =  N/A
# eccentricity     =  N/A
# w (rad)          =  N/A
# T_peri           =  N/A
######################################################
   0  -330.0467
   1  -141.1875
   2  -165.2406
   3  -9.075083
   4  -249.4192
   5  -628.3633
   6  -325.7195
   7  -605.4539
   8  -438.4607
   9  -220.2503
  10  -356.4098
  11  -122.0457
  12  -221.0176
  13  -217.3281
  14  -210.3315
  15  -270.4393
  16  -212.4545
  17  -392.0431
  18  -309.8282
  19  -362.4136
  20  -317.4805
  21  -289.0589
  22  215.6083
  23  -168.2621
  24  -232.0698
  25  -337.7233
  26  -282.8705
  27  -504.6596
  28  -411.9822
  29  -70.88623
  30  81.13972
  31  -157.5041
  32  156.2333
  33  283.0587
  34  125.1199
  35  -232.2186
  36  -86.95225
  37  -38.86329
  38  63.02322
  39  -191.7684
  40  -71.60082
  41  161.2799
  42  -14.88418
  43  -118.7428
  44  31.09674
  45  -74.94452
  46  21.36344
  47  377.5322
  48  481.7115
  49  476.5539
  50  675.5364
  51  391.3733
  52  96.31563
  53  318.5597
  54  474.7375
  55  605.5005
  56  406.0987
  57  284.6971
  58  200.8831
  59  -120.1133
  60  -168.727
  61  56.60133
  62  -140.4006
  63  47.1974
  64  104.909
  65  -74.62713
  66  164.1852
  67  125.3853
  68  145.6844
  69  74.71822
  70  14.09047
  71  198.5543
  72  -1.430398
  73  31.98064
  74  33.6963
  75  277.0784
  76  711.0632
  77  552.6371
  78  350.1416
  79  20.32961
  80  21.14079
  81  234.3773
  82  529.016
  83  475.2446
  84  306.0861
  85  7.086291
  86  27.13598
  87  9.795604
  88  -120.8689
  89  269.5022
  90  310.3974
  91  224.8111
  92  315.2489
  93  14.73028
  94  84.27582
  95  183.6813
  96  37.59382
  97  283.6357
  98  534.3233
  99  803.9967
 100  669.0679
 101  132.9675
 102  37.70197
 103  255.9652
 104  403.0983
 105  533.2764
 106  419.1123
 107  214.3587
 108  -132.8024
 109  -388.9401
 110  -262.1221
 111  -77.26562
 112  271.0255
 113  135.179
 114  -64.20875
 115  -18.06845
 116  3.29157
 117  -106.5809
 118  84.39882
 119  104.8855
 120  131.8163
 121  207.4732
 122  120.8093
 123  83.69151
 124  199.6638
 125  -367.6719
 126  -579.9641
 127  -666.9384
 128  -584.9663
 129  -473.2827
 130  -426.3631
 131  -80.75594
 132  17.36431
 133  -225.3793
 134  -426.9001
 135  -206.1251
 136  -352.9157
 137  -392.5793
 138  187.4993
 139  -87.77702
 140  -100.5222
 141  89.00959
 142  332.8843
 143  -29.15195
 144  -407.0864
 145  -69.0631
 146  139.6801
 147  541.8607
 148  348.3677
 149  396.872
 150  154.3457
 151  183.1592
 152  198.9851
 153  150.4766
 154  173.4325
 155  -57.54605
 156  -116.1405
 157  75.69653
 158  140.3703
 159  129.3062
 160  -200.6857
 161  -321.0096
 162  -426.1219
 163  -189.1632
 164  -118.9004
 165  11.76009
 166  297.715
 167  309.3658
 168  466.2858
 169  357.8648
 170  89.62831
 171  -262.0709
 172  22.95873
 173  632.0978
 174  719.3838
 175  290.6857
 176  -437.8292
 177  -565.5046
 178  -23.1307
 179  -223.9829
 180  -154.3812
 181  -102.5169
 182  -160.1886
 183  -218.4084
 184  -293.5993
 185  -545.5185
 186  -381.814
 187  -327.6699
 188  -292.9974
 189  -303.844
 190  -445.2924
 191  79.82021
 192  309.46
 193  -6.908525
 194  -336.8628
 195  -534.6451
 196  -452.9872
 197  -1011.731
 198  -595.7689
 199  -227.8604
 200  -296.8667
 201  -369.6956
 202  -223.4377
 203  -251.3976
 204  -554.2662
 205  -325.8258
 206  -44.46083
 207  -311.6349
 208  14.01769
 209  285.1476
 210  166.3032
 211  -8.385664
 212  -60.98248
 213  84.60016
 214  9.84471
 215  -96.74737
 216  -149.7185
 217  -133.2546
 218  87.36361
 219  -174.6813
 220  -325.7829
 221  -85.38503
 222  263.3015
 223  53.61016
 224  -238.1584
 225  -68.30157
 226  -41.13645
 227  -308.002
 228  -476.98
 229  -414.704
 230  -97.1638
 231  18.35952
 232  -144.8879
 233  164.4881
 234  152.2165
 235  238.1164
 236  227.4625
 237  328.9579
 238  494.3031
 239  391.5537
 240  191.5679
 241  -179.4329
 242  218.7274
 243  807.048
 244  664.4493
 245  -48.52728
 246  63.65338
 247  507.3391
 248  266.3061
 249  -14.43491
 250  -330.9653
 251  171.1907
 252  274.1595
 253  162.5397
 254  164.9957
 255  138.0781
 256  124.5766
 257  138.3399
 258  -27.99307
 259  -367.7528
 260  -481.7873
 261  -202.064
 262  -259.7228
 263  -105.7963
 264  270.3813
 265  335.1364
 266  256.1226
 267  348.9036
 268  759.9424
 269  801.8848
 270  505.3972
 271  408.9285
 272  343.4501
 273  77.04855
 274  19.75372
 275  137.7714
 276  341.9672
 277  460.3074
 278  722.8425
 279  487.597
 280  381.9667
 281  250.2444
 282  339.3821
 283  103.3224
 284  -36.09571
 285  383.4207
 286  539.6185
 287  121.8878
 288  -56.1005
 289  -121.4959
 290  223.1515
 291  341.6913
 292  265.3402
 293  713.0348
 294  529.9747
 295  27.02662
 296  559.5696
 297  942.4742
 298  962.1175
 299  1100.644
 300  630.2874
 301  457.6978
 302  619.7139
 303  696.9401
 304  479.6771
 305  256.0772
 306  -65.01055
 307  178.2664
 308  -37.64889
 309  -36.15102
 310  -266.6041
 311  -260.9529
 312  -112.2888
 313  -22.29732
 314  355.3044
 315  300.1247
 316  -120.0186
 317  -429.2209
 318  11.88764
 319  -324.7333
 320  -173.5278
 321  85.68384
 322  -29.2053
 323  -367.8388
 324  -501.9233
 325  -306.7507
 326  -208.025
 327  199.9926
 328  247.0057
 329  -86.88805
 330  -317.656
 331  -459.2706
 332  -579.7618
 333  -401.9407
 334  -234.169
 335  35.52954
 336  369.5995
 337  267.4489
 338  139.7203
 339  -17.41335
 340  -103.4454
 341  77.26403
 342  210.0184
 343  265.1164
 344  446.1057
 345  143.0198
 346  92.91408
 347  48.72342
 348  -159.6185
 349  -421.4503
 350  -42.03099
 351  45.87304
 352  111.3335
 353  206.7226
 354  -39.29278
 355  -35.6423
 356  -417.8837
 357  -28.67533
 358  -30.74117
 359  35.86304
 360  61.75978
 361  -66.72144
 362  -74.10664
 363  249.2592
 364  278.448
 365  -122.7775
 366  -116.9749
 367  140.6114
 368  -94.35063
 369  -247.3156
 370  -108.3073
 371  -61.33276
 372  -119.4162
 373  -54.71839
 374  -208.4803
 375  -207.5604
 376  208.8158
 377  753.2128
 378  1440.963
 379  2185.401
 380  2268.561
 381  1874.857
 382  1201.461
 383  586.2044
 384  122.5204
 385  -134.5823
 386  -364.3311
 387  -400.8932
 388  -206.5378
 389  -80.27199
 390  -232.667
 391  -250.4065
 392  -317.8846
 393  46.5424
 394  77.26575
 395  -0.9921301
 396  -156.712
 397  -31.94336
 398  -124.7654
 399  -392.1237
 400  -288.3663
 401  -64.60337
 402  -198.6255
 403  -400.8501
 404  -411.5875
 405  -452.9551
 406  -375.7464
 407  -58.86746
 408  80.11903
 409  133.3986
 410  -380.2697
 411  -180.4224
 412  -126.3198
 413  -413.424
 414  -311.8779
 415  -247.2684
 416  -155.3418
 417  -722.4452
 418  -777.306
 419  -535.2826
 420  -501.1756
 421  -669.7842
 422  -613.9273
 423  -538.6362
 424  -467.4597
 425  -277.6877
 426  -52.81504
 427  -49.58228
 428  -284.0691
 429  -290.4221
 430  -251.4328
 431  -363.9587
 432  -242.9474
 433  -492.888
 434  -164.7506
 435  -15.90253
 436  -114.718
 437  -63.98527
 438  -210.1898
 439  -358.8932
 440  -471.7995
 441  -515.0461
 442  -365.5515
 443  -318.4771
 444  -221.248
 445  -147.612
 446  -180.6113
 447  -241.912
 448  -216.9581
 449  -189.1709
 450  -44.25345
 451  6.008916
 452  -196.9771
 453  -153.0857
 454  -265.0353
 455  -496.3709
 456  -354.0315
 457  -199.6796
 458  -150.2744
 459  -280.9122
 460  -351.5835
 461  -368.6365
 462  -351.0517
 463  -199.9642
 464  -662.9987
 465  -462.4508
 466  -5.641616
 467  -66.85549
 468  -394.9078
 469  -439.6296
 470  -422.9178
 471  -29.59736
 472  -90.41062
 473  -73.8157
 474  -161.7278
 475  -99.29868
 476  63.64461
 477  133.9824
 478  84.15249
 479  111.614
 480  -3.447659
 481  -126.7856
 482  -23.36915
 483  -43.99482
 484  12.36798
 485  -71.3484
 486  -66.25429
 487  338.7954
 488  6.448141
 489  -158.8268
 490  -187.1201
 491  189.6642
 492  282.5848
 493  98.64062
 494  75.91103
 495  121.8855
 496  287.948
 497  2.075533
 498  137.8315
 499  62.20671
 500  97.36029
 501  -104.7456
 502  -219.7482
 503  -31.22448
 504  240.0134
 505  250.9216
 506  -135.1728
 507  -262.2276
 508  -216.2404
 509  -42.47208
 510  384.7293
 511  274.4258
