# Input file       =  1191796778.119522_cleaned.dat
# Candidate        =  PSR_0332+5434
# Telescope        =  AR
# Epoch_topo       =  58037.944411105578
# Epoch_bary       =  N/A
# T_sample         =  0.002
# Data Folded      =  7340032
# Data Avg         =  0.0289299860565474
# Data StdDev      =  2.27255748115788 
# Profile Bins     =  512
# Profile Avg      =  414.927227792066 
# Profile StdDev   =  272.100207559769 
# Reduced chi-sqr  =  1.694
# Prob(Noise)      <  1.1e-20   (~9.3 sigma)
# P_topo (ms)      =  714.47936776755   +/- 0.000282
# P'_topo (s/s)    =  -0                +/- 1.49e-10
# P''_topo (s/s^2) =  0                 +/- 6.57e-14
# P_bary (ms)      =  N/A
# P'_bary (s/s)    =  N/A
# P''_bary (s/s^2) =  N/A
# P_orb (s)        =  N/A
# asin(i)/c (s)    =  N/A
# eccentricity     =  N/A
# w (rad)          =  N/A
# T_peri           =  N/A
######################################################
   0  404.5042
   1  115.7274
   2  169.8711
   3  71.79254
   4  206.326
   5  341.6817
   6  267.4579
   7  412.8772
   8  579.0752
   9  440.9931
  10  251.2198
  11  322.1586
  12  50.77348
  13  14.33543
  14  445.7905
  15  574.0576
  16  648.9717
  17  888.9628
  18  557.3356
  19  287.6259
  20  213.5806
  21  316.7356
  22  245.5379
  23  524.288
  24  202.8584
  25  331.8591
  26  432.6859
  27  886.8563
  28  631.0905
  29  517.1782
  30  370.4223
  31  650.7557
  32  421.3849
  33  438.9694
  34  496.3252
  35  352.9504
  36  746.392
  37  832.0449
  38  491.4376
  39  316.3966
  40  360.9095
  41  395.4906
  42  303.8703
  43  257.052
  44  486.7779
  45  271.0658
  46  365.6903
  47  618.5212
  48  436.0602
  49  449.5971
  50  686.8628
  51  479.032
  52  445.4129
  53  345.0513
  54  532.3651
  55  630.4092
  56  476.9772
  57  202.1084
  58  203.9144
  59  453.4131
  60  562.1345
  61  350.9496
  62  616.3777
  63  657.9174
  64  369.309
  65  218.933
  66  253.0104
  67  710.7358
  68  878.2202
  69  622.4572
  70  437.2889
  71  410.2148
  72  341.2845
  73  184.5547
  74  139.2567
  75  580.2158
  76  868.63
  77  639.1453
  78  751.5324
  79  448.9963
  80  594.1122
  81  524.1693
  82  358.3931
  83  357.736
  84  271.4308
  85  134.7762
  86  197.5958
  87  491.4512
  88  441.4259
  89  407.8533
  90  643.9061
  91  238.9296
  92  489.4321
  93  234.1817
  94  274.3887
  95  370.5016
  96  517.8037
  97  308.9541
  98  124.6016
  99  275.4299
 100  578.3682
 101  559.9473
 102  292.7487
 103  364.7236
 104  433.8011
 105  628.4381
 106  448.9603
 107  333.4553
 108  311.7249
 109  261.2315
 110  -53.35205
 111  -102.3119
 112  282.0609
 113  414.8934
 114  482.6479
 115  408.0901
 116  441.7328
 117  594.6005
 118  233.9461
 119  170.896
 120  491.9987
 121  501.2262
 122  865.8288
 123  587.1807
 124  456.3694
 125  246.3777
 126  88.12186
 127  282.0973
 128  625.8273
 129  556.7562
 130  501.0449
 131  421.5719
 132  450.6065
 133  319.105
 134  514.986
 135  503.3166
 136  592.374
 137  459.5995
 138  397.1054
 139  335.5432
 140  570.1155
 141  393.4982
 142  196.5899
 143  243.0547
 144  548.2697
 145  512.2677
 146  371.8945
 147  215.2577
 148  327.3644
 149  426.2288
 150  73.51611
 151  20.53297
 152  505.8845
 153  201.5188
 154  144.5354
 155  584.334
 156  367.8658
 157  399.1125
 158  380.5933
 159  512.5905
 160  521.1352
 161  452.7495
 162  624.0962
 163  762.6995
 164  743.1057
 165  728.7738
 166  553.6981
 167  455.9462
 168  430.0321
 169  381.3639
 170  310.9373
 171  429.7497
 172  308.2982
 173  688.8184
 174  253.2135
 175  195.2562
 176  308.9489
 177  412.8091
 178  267.4077
 179  376.0242
 180  396.7943
 181  264.9659
 182  332.5795
 183  340.8053
 184  168.8731
 185  143.2685
 186  -33.09278
 187  54.18121
 188  91.44123
 189  551.0151
 190  596.2836
 191  652.9804
 192  625.5057
 193  410.2685
 194  164.0266
 195  381.2718
 196  663.2206
 197  579.6952
 198  68.51657
 199  346.5099
 200  581.9499
 201  414.897
 202  396.1151
 203  601.6627
 204  363.8032
 205  243.7689
 206  481.8633
 207  499.3061
 208  -81.18919
 209  -185.7898
 210  469.5742
 211  510.368
 212  500.4652
 213  377.1572
 214  176.4433
 215  141.3576
 216  295.9396
 217  409.1642
 218  314.5241
 219  343.1417
 220  327.1515
 221  388.2478
 222  722.8738
 223  345.3296
 224  326.0034
 225  503.3356
 226  228.9794
 227  287.5974
 228  387.4969
 229  247.4476
 230  675.5024
 231  574.5722
 232  576.7205
 233  565.8446
 234  525.1232
 235  229.6469
 236  232.0784
 237  495.3384
 238  586.7812
 239  529.6422
 240  488.483
 241  478.1755
 242  249.1954
 243  492.6016
 244  424.4507
 245  301.7074
 246  472.0294
 247  174.8513
 248  461.2293
 249  607.9528
 250  359.7367
 251  132.323
 252  331.0398
 253  383.615
 254  595.6703
 255  562.5242
 256  532.8513
 257  314.2876
 258  425.2091
 259  271.5812
 260  249.2294
 261  549.6904
 262  613.0742
 263  404.5446
 264  214.0947
 265  314.3238
 266  101.0244
 267  55.51951
 268  268.1359
 269  430.4012
 270  487.8774
 271  503.9773
 272  167.3018
 273  110.3012
 274  136.3199
 275  274.6353
 276  118.8176
 277  315.376
 278  110.7771
 279  67.40472
 280  -151.1346
 281  141.3406
 282  357.876
 283  188.3941
 284  -47.14663
 285  173.64
 286  49.96296
 287  195.651
 288  188.6633
 289  614.8726
 290  681.611
 291  562.6252
 292  503.6539
 293  277.6208
 294  587.5731
 295  632.4548
 296  451.9174
 297  489.8594
 298  486.2273
 299  482.6788
 300  402.1043
 301  415.1249
 302  115.2328
 303  132.6792
 304  526.4216
 305  258.2313
 306  350.452
 307  576.0032
 308  275.7179
 309  246.3431
 310  233.291
 311  480.9936
 312  544.4878
 313  202.2355
 314  367.8523
 315  130.2257
 316  249.7858
 317  298.9787
 318  499.079
 319  586.1471
 320  655.1834
 321  332.9299
 322  567.4387
 323  537.6335
 324  179.5911
 325  309.29
 326  568.2769
 327  375.3095
 328  167.6008
 329  380.645
 330  345.769
 331  429.1064
 332  300.1221
 333  155.108
 334  160.6082
 335  158.6315
 336  470.3421
 337  569.086
 338  675.5414
 339  506.3447
 340  497.303
 341  541.1938
 342  266.3435
 343  325.7045
 344  437.1206
 345  373.9152
 346  288.1275
 347  720.1253
 348  603.2394
 349  255.8205
 350  167.4129
 351  137.6248
 352  318.7617
 353  293.9648
 354  384.1257
 355  278.9528
 356  200.6973
 357  399.4315
 358  602.8224
 359  521.6989
 360  118.9936
 361  608.7729
 362  637.7943
 363  431.0092
 364  263.4682
 365  248.3402
 366  81.14066
 367  337.0925
 368  547.5381
 369  394.4053
 370  264.835
 371  457.9764
 372  286.6272
 373  25.70096
 374  186.7311
 375  240.6468
 376  354.8197
 377  481.3013
 378  77.20866
 379  282.5146
 380  510.0684
 381  213.8458
 382  554.5692
 383  604.6581
 384  347.2
 385  311.717
 386  428.0519
 387  359.3804
 388  414.8896
 389  391.8433
 390  569.7019
 391  184.6843
 392  162.304
 393  502.3336
 394  394.7169
 395  125.6356
 396  328.3061
 397  369.5992
 398  458.9605
 399  248.3082
 400  116.781
 401  337.7981
 402  404.4965
 403  145.5293
 404  501.2202
 405  654.6588
 406  447.5764
 407  509.5301
 408  546.4835
 409  461.564
 410  467.0505
 411  118.2405
 412  322.2451
 413  181.0924
 414  439.6557
 415  454.1607
 416  556.2904
 417  432.0522
 418  413.8484
 419  607.8427
 420  550.7283
 421  166.0257
 422  262.282
 423  441.7528
 424  611.4168
 425  671.9407
 426  949.3922
 427  1136.789
 428  1538.535
 429  1772.457
 430  2081.412
 431  2090.172
 432  2109.037
 433  2197.751
 434  1652.154
 435  885.1147
 436  727.5483
 437  517.8553
 438  426.2734
 439  461.9536
 440  633.0722
 441  682.4451
 442  450.3652
 443  636.9728
 444  770.4739
 445  693.93
 446  558.5441
 447  520.7073
 448  324.1059
 449  265.9363
 450  372.4197
 451  149.9641
 452  382.9817
 453  589.1473
 454  511.7327
 455  785.3422
 456  577.5097
 457  787.5698
 458  340.1943
 459  190.6631
 460  407.0281
 461  484.5268
 462  294.8779
 463  357.3538
 464  354.4402
 465  498.3396
 466  529.3098
 467  506.3553
 468  513.4525
 469  713.3955
 470  162.5716
 471  98.81281
 472  304.698
 473  384.5399
 474  524.968
 475  353.1163
 476  264.442
 477  537.862
 478  381.1745
 479  336.4352
 480  237.0062
 481  356.3225
 482  425.1557
 483  516.1422
 484  566.3165
 485  391.5011
 486  386.5497
 487  533.8583
 488  335.9471
 489  448.9349
 490  278.7742
 491  235.0384
 492  524.6862
 493  598.8069
 494  320.0332
 495  165.2348
 496  263.39
 497  434.1397
 498  296.7375
 499  267.4395
 500  323.2495
 501  73.31535
 502  191.7586
 503  282.5901
 504  475.8706
 505  245.4677
 506  401.3959
 507  452.7781
 508  234.6812
 509  202.9254
 510  312.318
 511  422.0081
