# Input file       =  1191452153.131497_cleaned.dat
# Candidate        =  PSR_0332+5434
# Telescope        =  AR
# Epoch_topo       =  58033.955695966397
# Epoch_bary       =  N/A
# T_sample         =  0.002
# Data Folded      =  7340032
# Data Avg         =  0.030478658125503
# Data StdDev      =  2.33553583031935 
# Profile Bins     =  512
# Profile Avg      =  436.974584391854 
# Profile StdDev   =  279.640796530867 
# Reduced chi-sqr  =  1.610
# Prob(Noise)      <  6.03e-17   (~8.3 sigma)
# P_topo (ms)      =  714.476720836795  +/- 0.000251
# P'_topo (s/s)    =  -0                +/- 1.33e-10
# P''_topo (s/s^2) =  0                 +/- 5.85e-14
# P_bary (ms)      =  N/A
# P'_bary (s/s)    =  N/A
# P''_bary (s/s^2) =  N/A
# P_orb (s)        =  N/A
# asin(i)/c (s)    =  N/A
# eccentricity     =  N/A
# w (rad)          =  N/A
# T_peri           =  N/A
######################################################
   0  547.8044
   1  309.3351
   2  303.8541
   3  476.6102
   4  438.6443
   5  630.2064
   6  811.2801
   7  769.4769
   8  370.0274
   9  572.2776
  10  955.8381
  11  660.6858
  12  518.507
  13  585.46
  14  380.7865
  15  518.7879
  16  591.7106
  17  409.4881
  18  484.1179
  19  485.1529
  20  301.1512
  21  196.9183
  22  355.7121
  23  350.4023
  24  411.8529
  25  322.2202
  26  236.3669
  27  36.9524
  28  358.0806
  29  504.2842
  30  521.9385
  31  430.6787
  32  559.1913
  33  746.287
  34  834.5195
  35  431.4919
  36  112.4535
  37  371.2958
  38  610.2877
  39  865.844
  40  662.0598
  41  650.9221
  42  462.1663
  43  523.5474
  44  746.5487
  45  690.1623
  46  419.811
  47  97.39496
  48  519.4575
  49  503.4932
  50  417.3091
  51  644.9055
  52  743.0288
  53  393.3177
  54  209.9476
  55  164.797
  56  330.0493
  57  430.6469
  58  515.6556
  59  531.0689
  60  346.2321
  61  490.2109
  62  409.3695
  63  464.3078
  64  185.4769
  65  344.0523
  66  660.6729
  67  627.0029
  68  507.2639
  69  208.4099
  70  132.1045
  71  374.0446
  72  407.2362
  73  278.5915
  74  295.4547
  75  543.2623
  76  484.1554
  77  393.873
  78  344.2745
  79  514.0963
  80  549.3864
  81  380.7711
  82  273.4486
  83  331.6621
  84  546.8841
  85  476.2824
  86  337.5045
  87  400.4832
  88  331.6694
  89  352.3497
  90  100.1443
  91  253.085
  92  321.526
  93  220.7044
  94  444.0966
  95  460.7514
  96  594.4526
  97  544.4148
  98  446.4964
  99  299.5184
 100  284.5026
 101  570.8958
 102  296.4286
 103  188.8489
 104  429.682
 105  546.2401
 106  686.912
 107  425.1411
 108  342.8799
 109  467.1731
 110  537.4048
 111  349.1994
 112  440.8991
 113  513.7715
 114  659.741
 115  317.1882
 116  291.7957
 117  561.431
 118  547.4757
 119  392.1373
 120  265.7997
 121  380.5572
 122  499.3531
 123  689.6027
 124  503.3219
 125  46.61577
 126  -197.1496
 127  159.4597
 128  161.7238
 129  -36.37579
 130  330.4067
 131  588.8303
 132  427.3495
 133  233.1009
 134  330.8064
 135  330.7982
 136  223.3787
 137  288.6964
 138  467.5951
 139  349.3103
 140  392.2694
 141  632.8185
 142  499.3252
 143  438.7928
 144  179.8991
 145  361.5328
 146  567.7
 147  326.1794
 148  379.5475
 149  281.5335
 150  239.4635
 151  469.485
 152  496.7755
 153  378.1159
 154  290.7468
 155  135.8856
 156  407.1298
 157  797.1034
 158  341.1221
 159  269.9686
 160  237.0725
 161  375.0928
 162  366.2911
 163  509.7675
 164  685.7489
 165  448.172
 166  486.8673
 167  257.3928
 168  85.45292
 169  150.567
 170  400.9909
 171  533.4099
 172  184.5112
 173  -20.11871
 174  307.4698
 175  592.9328
 176  494.0522
 177  424.0318
 178  597.1218
 179  840.3839
 180  651.5631
 181  309.2429
 182  607.1116
 183  453.2908
 184  234.987
 185  425.8338
 186  582.4389
 187  688.1147
 188  517.9637
 189  596.6595
 190  628.7717
 191  321.5508
 192  485.0326
 193  448.2549
 194  487.4378
 195  626.1013
 196  477.2693
 197  381.7513
 198  339.9649
 199  517.676
 200  401.3742
 201  523.0355
 202  389.6691
 203  404.1483
 204  392.2975
 205  720.9187
 206  755.0925
 207  725.998
 208  593.0648
 209  569.6739
 210  298.229
 211  84.08253
 212  281.1282
 213  266.4378
 214  490.7589
 215  557.3345
 216  261.5615
 217  351.5858
 218  359.0161
 219  517.5154
 220  411.6875
 221  236.9055
 222  104.3953
 223  375.142
 224  260.3235
 225  168.213
 226  387.7705
 227  625.7396
 228  705.495
 229  468.689
 230  88.17744
 231  147.5955
 232  463.0385
 233  408.2815
 234  42.7978
 235  50.18955
 236  325.5789
 237  239.3781
 238  417.7274
 239  401.7449
 240  309.1994
 241  113.1329
 242  201.9044
 243  263.3499
 244  391.6057
 245  538.7723
 246  526.7842
 247  525.6977
 248  402.0697
 249  230.7586
 250  415.8609
 251  267.6239
 252  251.4201
 253  272.3581
 254  518.4074
 255  461.3477
 256  220.5678
 257  278.9803
 258  738.1735
 259  430.497
 260  110.6384
 261  414.5105
 262  477.1609
 263  203.3987
 264  275.1284
 265  228.3997
 266  536.5955
 267  456.9686
 268  474.4093
 269  592.3763
 270  473.2456
 271  286.2987
 272  162.6968
 273  -19.58545
 274  216.3284
 275  214.4083
 276  161.4113
 277  72.4677
 278  85.8624
 279  248.4417
 280  292.1969
 281  476.1316
 282  584.2777
 283  463.7807
 284  400.0206
 285  268.4468
 286  292.5911
 287  406.7638
 288  536.5113
 289  609.942
 290  485.6821
 291  343.6214
 292  647.2226
 293  593.0438
 294  -42.92682
 295  -58.14674
 296  513.4235
 297  653.2211
 298  651.162
 299  725.5759
 300  471.1796
 301  496.8951
 302  446.8103
 303  609.566
 304  644.5152
 305  414.5591
 306  490.5184
 307  768.9117
 308  606.3508
 309  596.8773
 310  320.877
 311  176.374
 312  478.4927
 313  370.6617
 314  97.26406
 315  315.1279
 316  470.8662
 317  370.8788
 318  379.0644
 319  619.5186
 320  680.259
 321  412.3647
 322  483.2032
 323  511.7979
 324  -15.33643
 325  427.7588
 326  732.4724
 327  237.3383
 328  88.89055
 329  187.8925
 330  265.7179
 331  83.97854
 332  654.9749
 333  512.4699
 334  29.81499
 335  140.4409
 336  415.3366
 337  371.1068
 338  568.4417
 339  522.2382
 340  492.5285
 341  309.8211
 342  345.5996
 343  355.678
 344  432.7676
 345  390.9192
 346  95.80682
 347  333.1497
 348  619.7984
 349  302.6274
 350  198.7442
 351  394.4636
 352  557.3509
 353  425.9803
 354  177.2271
 355  219.5243
 356  447.1519
 357  459.9705
 358  573.8823
 359  252.7182
 360  433.5605
 361  456.7377
 362  327.6787
 363  359.3611
 364  470.6281
 365  488.7943
 366  690.4615
 367  900.35
 368  778.3264
 369  515.6285
 370  448.2986
 371  578.7094
 372  510.2875
 373  693.6988
 374  810.2297
 375  516.9448
 376  276.8657
 377  283.5994
 378  562.0432
 379  602.9758
 380  816.7302
 381  782.7249
 382  748.941
 383  730.4224
 384  1134.513
 385  1338.333
 386  1995.795
 387  2374.841
 388  2461.679
 389  2202.139
 390  1571.06
 391  809.4101
 392  238.7583
 393  210.4438
 394  221.1163
 395  354.6295
 396  218.6796
 397  248.1749
 398  381.5264
 399  412.5977
 400  622.2039
 401  716.7552
 402  548.7459
 403  696.522
 404  720.0659
 405  593.2255
 406  536.788
 407  613.6226
 408  483.955
 409  307.0668
 410  134.8136
 411  157.0187
 412  78.02694
 413  314.9442
 414  313.2992
 415  352.9612
 416  591.8497
 417  504.1087
 418  763.8366
 419  377.5847
 420  300.4573
 421  183.67
 422  591.6808
 423  1044.109
 424  673.0031
 425  611.3829
 426  644.6915
 427  647.6376
 428  472.3513
 429  416.6084
 430  522.6882
 431  421.3076
 432  357.7089
 433  79.37434
 434  330.2045
 435  460.1834
 436  349.968
 437  223.5473
 438  195.3708
 439  230.4059
 440  311.34
 441  368.8919
 442  552.0778
 443  439.0294
 444  149.384
 445  588.1538
 446  485.4081
 447  135.9948
 448  536.0744
 449  409.802
 450  116.8076
 451  260.8437
 452  343.8965
 453  292.1432
 454  220.4573
 455  441.9772
 456  583.711
 457  224.6476
 458  397.6803
 459  314.3233
 460  464.7647
 461  630.2389
 462  505.1816
 463  145.5842
 464  210.6336
 465  399.2444
 466  266.7204
 467  19.14925
 468  233.3509
 469  382.6915
 470  455.3066
 471  400.6322
 472  524.9361
 473  365.3987
 474  293.7245
 475  345.684
 476  836.4078
 477  766.002
 478  594.5287
 479  396.3123
 480  623.0002
 481  662.2907
 482  797.8571
 483  717.1614
 484  473.4061
 485  423.4413
 486  271.6905
 487  55.4277
 488  567.0807
 489  700.1404
 490  366.6408
 491  329.0927
 492  537.1738
 493  527.0042
 494  331.0472
 495  225.3339
 496  491.5927
 497  492.7924
 498  117.4313
 499  377.3114
 500  365.1689
 501  217.1406
 502  307.4973
 503  469.3174
 504  540.4919
 505  175.338
 506  289.4213
 507  284.1141
 508  321.1812
 509  632.6998
 510  683.9728
 511  594.4208
