# Input file       =  1191954469.124143_cleaned.dat
# Candidate        =  PSR_0332+5434
# Telescope        =  AR
# Epoch_topo       =  58039.769538473876
# Epoch_bary       =  N/A
# T_sample         =  0.002
# Data Folded      =  7208960
# Data Avg         =  0.0728060162255796
# Data StdDev      =  3.07966339258352 
# Profile Bins     =  1024
# Profile Avg      =  512.507966337058 
# Profile StdDev   =  258.398257242184 
# Reduced chi-sqr  =  1.061
# Prob(Noise)      <  0.0859   (~1.4 sigma)
# P_topo (ms)      =  714.480638536522  +/- 0.000158
# P'_topo (s/s)    =  -0                +/- 8.5e-11
# P''_topo (s/s^2) =  0                 +/- 3.82e-14
# P_bary (ms)      =  N/A
# P'_bary (s/s)    =  N/A
# P''_bary (s/s^2) =  N/A
# P_orb (s)        =  N/A
# asin(i)/c (s)    =  N/A
# eccentricity     =  N/A
# w (rad)          =  N/A
# T_peri           =  N/A
######################################################
   0  458.7071
   1  428.3028
   2  407.999
   3  374.5508
   4  382.5897
   5  430.4221
   6  521.9229
   7  577.0076
   8  597.5669
   9  589.1198
  10  650.8122
  11  618.7244
  12  601.4973
  13  575.7556
  14  417.8702
  15  362.2067
  16  362.5629
  17  405.7931
  18  367.7675
  19  453.9415
  20  605.1472
  21  586.037
  22  506.4398
  23  466.6493
  24  472.2927
  25  493.8782
  26  508.1195
  27  561.8582
  28  524.9955
  29  470.4173
  30  411.5413
  31  526.2341
  32  696.8962
  33  708.9174
  34  649.1677
  35  535.0455
  36  456.5505
  37  408.4692
  38  477.929
  39  451.174
  40  430.0971
  41  358.6923
  42  424.7065
  43  414.4762
  44  498.5772
  45  520.0345
  46  544.3372
  47  469.8416
  48  482.0302
  49  514.5582
  50  553.8766
  51  422.1283
  52  332.1889
  53  401.4368
  54  494.1936
  55  540.3184
  56  513.7271
  57  501.4807
  58  486.4332
  59  462.1687
  60  517.2126
  61  644.9999
  62  626.282
  63  604.0273
  64  513.0247
  65  431.5554
  66  336.2195
  67  294.666
  68  333.8928
  69  362.6734
  70  462.2831
  71  503.8367
  72  649.4271
  73  589.6766
  74  679.0142
  75  682.5756
  76  743.6747
  77  655.8156
  78  593.0838
  79  525.2375
  80  463.3804
  81  468.1293
  82  485.5598
  83  452.5363
  84  427.7073
  85  493.8698
  86  600.6642
  87  429.5995
  88  418.378
  89  302.8825
  90  360.4615
  91  317.5611
  92  459.9432
  93  544.4585
  94  507.6135
  95  434.6733
  96  432.9818
  97  471.3228
  98  574.2653
  99  543.043
 100  505.7274
 101  421.1788
 102  435.3357
 103  485.5075
 104  548.9489
 105  574.0395
 106  587.751
 107  546.5558
 108  500.746
 109  504.4191
 110  516.2437
 111  561.8076
 112  681.4174
 113  731.3646
 114  646.8908
 115  496.2555
 116  544.7331
 117  665.28
 118  759.7903
 119  646.2896
 120  444.1796
 121  308.7485
 122  357.5745
 123  464.7751
 124  487.5147
 125  535.838
 126  443.9488
 127  383.7086
 128  373.4889
 129  423.2062
 130  375.7282
 131  277.7021
 132  321.7716
 133  360.0494
 134  338.3589
 135  362.6225
 136  387.243
 137  372.3691
 138  360.0061
 139  472.3399
 140  605.4494
 141  548.0917
 142  486.5128
 143  467.507
 144  595.6033
 145  638.9551
 146  698.5245
 147  629.7247
 148  530.7267
 149  358.9292
 150  386.6029
 151  442.8779
 152  418.0418
 153  434.0286
 154  416.002
 155  396.1603
 156  351.7533
 157  387.5371
 158  518.4135
 159  442.2151
 160  464.8932
 161  481.7489
 162  576.0279
 163  567.8821
 164  568.1921
 165  571.6479
 166  523.2208
 167  440.298
 168  435.879
 169  326.7055
 170  241.3784
 171  271.5297
 172  378.8615
 173  384.4273
 174  279.0375
 175  238.63
 176  325.3836
 177  313.338
 178  392.3431
 179  444.8931
 180  448.8349
 181  445.448
 182  466.046
 183  569.5614
 184  495.8301
 185  469.1774
 186  460.2844
 187  441.8549
 188  484.9831
 189  538.3422
 190  629.5133
 191  621.4719
 192  534.2999
 193  508.029
 194  466.9898
 195  510.7208
 196  499.8615
 197  484.1782
 198  396.4496
 199  322.8518
 200  314.0634
 201  294.3726
 202  370.4721
 203  462.4373
 204  532.3179
 205  523.2901
 206  538.9146
 207  565.364
 208  588.3422
 209  476.2918
 210  399.0206
 211  369.5874
 212  420.1852
 213  537.9971
 214  534.5273
 215  534.2308
 216  461.2795
 217  381.1328
 218  374.3123
 219  424.2571
 220  535.7052
 221  556.281
 222  533.132
 223  491.2854
 224  417.9353
 225  428.9602
 226  428.7448
 227  409.1276
 228  447.9065
 229  493.6299
 230  599.1564
 231  564.0821
 232  533.8378
 233  455.8202
 234  392.7387
 235  323.9553
 236  358.2389
 237  405.3948
 238  377.9701
 239  227.2054
 240  312.0222
 241  413.1296
 242  451.9207
 243  402.0884
 244  452.9689
 245  563.0632
 246  540.6556
 247  444.2373
 248  444.3113
 249  490.6333
 250  591.0682
 251  555.9615
 252  664.7974
 253  558.2933
 254  644.6517
 255  568.3345
 256  660.8373
 257  592.0394
 258  613.0274
 259  585.6227
 260  508.519
 261  472.791
 262  546.8852
 263  514.175
 264  429.1632
 265  276.6157
 266  377.9589
 267  428.7102
 268  492.378
 269  566.0801
 270  610.3336
 271  566.487
 272  384.2962
 273  419.087
 274  538.9869
 275  524.3163
 276  387.0616
 277  315.0088
 278  460.8466
 279  436.0919
 280  362.5671
 281  355.7485
 282  312.3559
 283  381.4769
 284  355.5797
 285  501.3661
 286  483.3852
 287  467.7723
 288  504.8404
 289  565.7788
 290  571.6356
 291  502.6202
 292  459.7207
 293  442.7007
 294  434.5689
 295  404.7212
 296  378.3119
 297  375.3253
 298  502.0629
 299  537.3724
 300  563.4042
 301  495.4994
 302  543.312
 303  455.9582
 304  455.2758
 305  550.2307
 306  692.757
 307  677.4747
 308  550.0738
 309  476.4374
 310  485.1841
 311  537.5674
 312  621.1506
 313  551.8759
 314  505.2277
 315  497.857
 316  575.7277
 317  658.2939
 318  610.3275
 319  597.1702
 320  614.7781
 321  673.8987
 322  594.2839
 323  506.5967
 324  438.4719
 325  327.9201
 326  415.7706
 327  569.4509
 328  731.4257
 329  571.7838
 330  462.5918
 331  482.2274
 332  417.3086
 333  415.8544
 334  324.6956
 335  404.3755
 336  469.2765
 337  546.0524
 338  576.001
 339  662.8495
 340  623.7299
 341  580.2428
 342  507.9546
 343  580.6733
 344  553.655
 345  566.434
 346  534.2379
 347  599.195
 348  627.722
 349  606.6248
 350  438.791
 351  396.4254
 352  431.7388
 353  655.106
 354  651.7035
 355  633.5583
 356  509.7203
 357  470.9727
 358  508.2893
 359  532.0873
 360  519.2615
 361  491.0096
 362  367.172
 363  354.2603
 364  432.2885
 365  549.8391
 366  592.2641
 367  494.4517
 368  540.6266
 369  608.2885
 370  691.7296
 371  572.7494
 372  475.6764
 373  425.3769
 374  438.6495
 375  472.6989
 376  469.15
 377  483.1612
 378  512.4856
 379  503.2231
 380  458.4639
 381  372.1017
 382  399.9518
 383  410.275
 384  411.4382
 385  401.3969
 386  548.1431
 387  667.845
 388  706.6613
 389  554.4858
 390  481.8611
 391  441.2659
 392  479.749
 393  412.5892
 394  375.5899
 395  380.6757
 396  432.2047
 397  521.5134
 398  491.3885
 399  481.9966
 400  472.4577
 401  569.8503
 402  654.2198
 403  643.7305
 404  494.5726
 405  338.5287
 406  357.849
 407  473.5476
 408  591.0804
 409  498.062
 410  443.4081
 411  325.6608
 412  364.2826
 413  436.4379
 414  497.4608
 415  471.5231
 416  468.2504
 417  451.0712
 418  436.631
 419  383.0773
 420  506.3654
 421  556.2852
 422  646.8622
 423  644.3192
 424  683.494
 425  613.8026
 426  557.0649
 427  516.1027
 428  498.2336
 429  478.9301
 430  512.961
 431  404.5964
 432  394.6548
 433  346.0592
 434  513.439
 435  535.2493
 436  459.0226
 437  405.4398
 438  370.9445
 439  411.5508
 440  441.6327
 441  518.3122
 442  510.7487
 443  466.922
 444  453.118
 445  484.1389
 446  470.9727
 447  370.3255
 448  371.7477
 449  328.2613
 450  366.8026
 451  425.8322
 452  510.508
 453  595.0496
 454  555.9189
 455  580.5709
 456  586.9495
 457  600.1864
 458  587.8047
 459  493.4697
 460  559.1898
 461  577.5306
 462  624.8712
 463  586.5666
 464  632.1143
 465  596.762
 466  514.6063
 467  459.2009
 468  422.4372
 469  413.1155
 470  399.434
 471  403.6289
 472  474.005
 473  561.3738
 474  665.757
 475  732.1224
 476  776.6517
 477  632.7453
 478  467.482
 479  359.9919
 480  529.7433
 481  456.7561
 482  400.312
 483  357.1043
 484  456.7555
 485  503.6241
 486  469.3417
 487  469.7849
 488  530.5888
 489  659.1349
 490  696.3505
 491  734.587
 492  659.1453
 493  609.3685
 494  510.3651
 495  368.2171
 496  204.7101
 497  122.4764
 498  167.0355
 499  292.2102
 500  355.1189
 501  361.8203
 502  342.4451
 503  439.2785
 504  529.8782
 505  572.6766
 506  561.2059
 507  500.8582
 508  388.4948
 509  453.8088
 510  548.6129
 511  554.6124
 512  372.6228
 513  340.0203
 514  406.7177
 515  408.6964
 516  352.9668
 517  392.1577
 518  445.6734
 519  428.6382
 520  314.0384
 521  373.3522
 522  470.5993
 523  523.0384
 524  493.2725
 525  466.6443
 526  553.8583
 527  648.8466
 528  642.72
 529  542.7938
 530  475.5997
 531  480.6174
 532  568.3304
 533  583.9168
 534  456.0957
 535  385.3145
 536  402.5419
 537  515.1362
 538  461.2875
 539  530.0886
 540  553.2601
 541  665.4579
 542  557.0772
 543  462.0374
 544  335.798
 545  444.3729
 546  501.9164
 547  670.5673
 548  663.5872
 549  614.3397
 550  578.1717
 551  657.1213
 552  541.8997
 553  444.2961
 554  344.0436
 555  568.6568
 556  480.3945
 557  563.6736
 558  574.6541
 559  726.9796
 560  763.1223
 561  727.0723
 562  657.7469
 563  580.3032
 564  521.4435
 565  495.5259
 566  472.4188
 567  414.9524
 568  378.6202
 569  415.0515
 570  497.5702
 571  594.2891
 572  563.0128
 573  612.0106
 574  750.3016
 575  735.3625
 576  627.5176
 577  418.7946
 578  508.092
 579  639.6381
 580  615.2975
 581  515.8861
 582  496.204
 583  549.699
 584  613.8791
 585  541.106
 586  492.416
 587  482.8266
 588  498.8131
 589  554.8058
 590  574.1747
 591  541.9535
 592  563.3734
 593  469.7937
 594  514.2509
 595  519.046
 596  561.0076
 597  498.9109
 598  513.8555
 599  535.4398
 600  526.9672
 601  546.7764
 602  525.8654
 603  503.1843
 604  474.3634
 605  633.1899
 606  644.6174
 607  609.2702
 608  529.5583
 609  573.311
 610  567.363
 611  482.7628
 612  429.7326
 613  471.647
 614  462.3961
 615  563.2838
 616  637.4871
 617  597.0048
 618  505.3067
 619  497.946
 620  671.6882
 621  761.4099
 622  856.4022
 623  819.6019
 624  852.5583
 625  682.6752
 626  588.0237
 627  526.9725
 628  640.8033
 629  790.8062
 630  827.5161
 631  820.2512
 632  1005.902
 633  1250.367
 634  1468.556
 635  1433.307
 636  1549.495
 637  1671.412
 638  1782.138
 639  1679.949
 640  1459.381
 641  1301.009
 642  1221.22
 643  1179.719
 644  1086.961
 645  835.6437
 646  739.33
 647  656.1851
 648  685.3889
 649  680.5519
 650  755.6003
 651  695.7482
 652  616.0251
 653  488.9233
 654  570.8236
 655  597.7225
 656  647.6191
 657  630.217
 658  666.7873
 659  684.8985
 660  619.6585
 661  514.8978
 662  569.6797
 663  500.6197
 664  552.5968
 665  600.0123
 666  737.8087
 667  716.7209
 668  580.2459
 669  648.0584
 670  772.4846
 671  761.4828
 672  776.3201
 673  688.5148
 674  656.5748
 675  551.1025
 676  556.3142
 677  598.1429
 678  524.9037
 679  408.8876
 680  391.8574
 681  428.3243
 682  452.1966
 683  491.8048
 684  600.5605
 685  571.7325
 686  533.363
 687  496.5406
 688  565.9748
 689  416.7654
 690  372.8916
 691  414.2589
 692  538.6327
 693  573.2291
 694  570.0047
 695  553.7085
 696  540.3951
 697  340.1863
 698  275.9265
 699  253.0476
 700  402.0956
 701  436.5849
 702  515.2344
 703  638.9286
 704  661.2146
 705  714.5305
 706  542.5859
 707  489.0906
 708  509.0384
 709  648.7181
 710  625.2304
 711  496.5898
 712  376.3051
 713  352.4454
 714  408.0724
 715  393.3658
 716  391.6974
 717  344.4501
 718  358.7619
 719  442.7956
 720  496.4753
 721  586.2905
 722  549.9846
 723  491.9255
 724  483.3145
 725  468.6989
 726  492.2371
 727  388.7784
 728  476.8326
 729  471.2162
 730  393.4259
 731  157.266
 732  284.8799
 733  423.2683
 734  462.1404
 735  394.8994
 736  405.3555
 737  402.3984
 738  389.2318
 739  494.4324
 740  587.8411
 741  606.6382
 742  619.328
 743  639.1506
 744  643.3798
 745  565.5279
 746  573.1644
 747  484.981
 748  485.9823
 749  431.6326
 750  418.2073
 751  389.8696
 752  355.9228
 753  400.0672
 754  456.95
 755  564.9325
 756  573.1849
 757  500.9231
 758  506.5031
 759  496.1552
 760  485.4701
 761  492.472
 762  584.7549
 763  541.1069
 764  407.3211
 765  378.576
 766  423.7543
 767  459.9262
 768  452.7928
 769  498.5854
 770  522.8267
 771  524.8812
 772  466.684
 773  419.328
 774  444.2223
 775  483.7065
 776  504.9114
 777  408.3302
 778  382.2401
 779  507.5856
 780  608.4803
 781  730.2208
 782  662.8831
 783  590.7964
 784  552.9052
 785  596.048
 786  711.4224
 787  668.0936
 788  615.8511
 789  558.2668
 790  552.0485
 791  481.7147
 792  419.3933
 793  282.9459
 794  248.9162
 795  311.0921
 796  354.0255
 797  384.9822
 798  483.1378
 799  678.4789
 800  753.9641
 801  564.6937
 802  409.9916
 803  410.4569
 804  491.1176
 805  489.675
 806  313.7235
 807  360.9254
 808  318.8394
 809  370.5798
 810  328.2
 811  269.7602
 812  225.1614
 813  249.8806
 814  308.7627
 815  448.7205
 816  467.5113
 817  558.9022
 818  512.0618
 819  547.6645
 820  557.7403
 821  506.6171
 822  522.5803
 823  485.8882
 824  591.8257
 825  510.4566
 826  505.1813
 827  520.9616
 828  488.7953
 829  461.7376
 830  341.0013
 831  386.4983
 832  428.3253
 833  474.5014
 834  401.9036
 835  442.045
 836  422.4316
 837  481.356
 838  468.1225
 839  460.0167
 840  492.2241
 841  467.0347
 842  591.9433
 843  618.3599
 844  680.6432
 845  554.6411
 846  592.8332
 847  509.0694
 848  474.407
 849  266.03
 850  261.5655
 851  401.3436
 852  599.6317
 853  624.0684
 854  516.1204
 855  490.7779
 856  526.4263
 857  512.5846
 858  419.0515
 859  485.3583
 860  474.9404
 861  425.1179
 862  432.8943
 863  456.4123
 864  488.3275
 865  500.3557
 866  478.1884
 867  490.8186
 868  447.7531
 869  506.9699
 870  478.7272
 871  487.1325
 872  472.2502
 873  570.3359
 874  673.5003
 875  590.6359
 876  432.744
 877  442.5289
 878  535.4268
 879  578.4133
 880  579.5207
 881  648.3549
 882  595.6003
 883  483.8947
 884  468.2923
 885  560.2655
 886  537.4447
 887  475.4369
 888  460.6276
 889  545.5966
 890  614.8822
 891  722.316
 892  684.654
 893  614.3158
 894  508.4637
 895  528.7581
 896  465.7599
 897  347.9721
 898  278.6857
 899  337.5598
 900  465.5337
 901  557.7111
 902  560.239
 903  489.6358
 904  415.4977
 905  464.4778
 906  631.0311
 907  646.8531
 908  568.2026
 909  451.9764
 910  510.8194
 911  489.0083
 912  508.8869
 913  590.7463
 914  621.0574
 915  581.417
 916  524.0975
 917  595.8926
 918  574.8734
 919  528.2549
 920  534.738
 921  519.8145
 922  437.9046
 923  408.9549
 924  515.4328
 925  584.3423
 926  432.0748
 927  399.6911
 928  502.5405
 929  518.6123
 930  397.4382
 931  391.2499
 932  499.4876
 933  566.5384
 934  557.4617
 935  544.4462
 936  547.2202
 937  565.9922
 938  590.1525
 939  566.5085
 940  505.5835
 941  535.231
 942  623.8759
 943  591.709
 944  442.2195
 945  349.5299
 946  344.8374
 947  359.1859
 948  377.9723
 949  447.3245
 950  566.6497
 951  597.3234
 952  652.3111
 953  685.9136
 954  697.4457
 955  716.259
 956  557.0002
 957  508.3474
 958  331.9404
 959  372.1963
 960  416.7
 961  463.7279
 962  481.2271
 963  405.1568
 964  424.2341
 965  498.6801
 966  579.8311
 967  576.8065
 968  470.6243
 969  518.2347
 970  514.734
 971  485.7131
 972  360.1348
 973  360.6121
 974  394.0579
 975  419.8676
 976  483.9291
 977  505.6833
 978  484.5378
 979  450.3069
 980  459.4497
 981  570.1801
 982  548.9052
 983  514.4604
 984  489.0472
 985  573.9605
 986  503.2001
 987  463.0114
 988  411.5536
 989  494.2866
 990  465.1829
 991  527.3633
 992  537.9556
 993  518.0117
 994  437.5821
 995  367.1032
 996  487.6034
 997  532.9623
 998  578.81
 999  436.5682
1000  438.6282
1001  415.7379
1002  437.7247
1003  519.3841
1004  536.077
1005  476.9998
1006  456.2693
1007  486.2047
1008  582.4862
1009  464.893
1010  480.174
1011  454.0202
1012  587.9152
1013  499.3393
1014  482.602
1015  426.5114
1016  521.7587
1017  524.4056
1018  673.9801
1019  707.5438
1020  701.0894
1021  522.2354
1022  475.3188
1023  477.7742
