# Input file       =  1191624449.125625_cleaned.dat
# Candidate        =  PSR_0332+5434
# Telescope        =  AR
# Epoch_topo       =  58035.949862565103
# Epoch_bary       =  N/A
# T_sample         =  0.002
# Data Folded      =  7340032
# Data Avg         =  0.0361017623862217
# Data StdDev      =  2.38203154660053 
# Profile Bins     =  256
# Profile Avg      =  1035.81818494461 
# Profile StdDev   =  403.344837594597 
# Reduced chi-sqr  =  1.692
# Prob(Noise)      <  3.18e-11   (~6.5 sigma)
# P_topo (ms)      =  714.478016823279  +/- 0.00021
# P'_topo (s/s)    =  -0                +/- 1.11e-10
# P''_topo (s/s^2) =  0                 +/- 4.89e-14
# P_bary (ms)      =  N/A
# P'_bary (s/s)    =  N/A
# P''_bary (s/s^2) =  N/A
# P_orb (s)        =  N/A
# asin(i)/c (s)    =  N/A
# eccentricity     =  N/A
# w (rad)          =  N/A
# T_peri           =  N/A
######################################################
   0  677.7924
   1  1017.048
   2  1109.54
   3  1766.726
   4  1540.621
   5  1099.51
   6  1160.042
   7  1134.745
   8  598.1857
   9  1480.333
  10  1055.045
  11  1194.628
  12  1365.953
  13  1052.153
  14  1013.417
  15  1044.607
  16  954.9941
  17  991.9377
  18  672.106
  19  1086.739
  20  966.4711
  21  798.0905
  22  705.8995
  23  967.115
  24  755.164
  25  1041.605
  26  639.8458
  27  999.0132
  28  965.2809
  29  572.6119
  30  903.4293
  31  1152.038
  32  1449.123
  33  825.5197
  34  1033.49
  35  1325.557
  36  1369.569
  37  884.166
  38  1045.666
  39  1256.132
  40  1038.277
  41  961.2982
  42  729.7938
  43  400.0959
  44  1410.13
  45  1482.653
  46  351.5099
  47  629.525
  48  400.897
  49  892.4012
  50  900.4503
  51  1280.044
  52  1866.022
  53  944.5173
  54  952.4167
  55  785.4981
  56  680.1206
  57  1153.251
  58  1698.417
  59  1433.332
  60  1148.31
  61  1186.715
  62  1003.984
  63  1167.722
  64  1304.066
  65  1740.2
  66  1111.074
  67  1617.071
  68  1371.812
  69  1018.601
  70  650.1912
  71  861.2248
  72  994.7457
  73  800.7287
  74  515.5435
  75  1045.365
  76  1235.462
  77  1200.436
  78  706.2545
  79  556.3544
  80  913.1827
  81  1356.237
  82  1088.676
  83  1412.893
  84  801.7905
  85  810.1388
  86  1038.62
  87  834.0423
  88  523.3185
  89  495.6438
  90  1331.107
  91  682.9512
  92  1238.994
  93  1246.603
  94  1184.213
  95  854.7314
  96  1385.69
  97  1614.86
  98  1366.51
  99  998.3942
 100  124.2568
 101  1020.474
 102  1311.669
 103  1020.106
 104  912.4159
 105  805.3345
 106  697.9448
 107  1170.927
 108  1070.751
 109  911.743
 110  500.0049
 111  1076.369
 112  1225.962
 113  1193.63
 114  1260.807
 115  1564.28
 116  1722.334
 117  1025.19
 118  913.6393
 119  1110.353
 120  1230.671
 121  898.7782
 122  1709.777
 123  1212.422
 124  889.2114
 125  1347.761
 126  1287.012
 127  450.8659
 128  794.1774
 129  1174.637
 130  1514.034
 131  1325.57
 132  886.2819
 133  574.1799
 134  1114.441
 135  971.4247
 136  597.8338
 137  473.0727
 138  583.1305
 139  843.167
 140  860.5164
 141  290.2032
 142  1469.553
 143  1053.521
 144  1206.676
 145  896.4357
 146  1251.112
 147  805.3594
 148  1034.954
 149  781.7574
 150  1055.249
 151  1306.857
 152  1413.65
 153  1119.448
 154  1247.426
 155  1387.56
 156  1363.103
 157  1596.869
 158  3233.969
 159  4645.028
 160  3689.425
 161  1835.339
 162  954.5425
 163  949.347
 164  1316.766
 165  1018.516
 166  1203.825
 167  1618.49
 168  1206.711
 169  802.2419
 170  888.6489
 171  893.0376
 172  1123.954
 173  928.7361
 174  519.2051
 175  1064.19
 176  975.8788
 177  543.2891
 178  884.7973
 179  785.637
 180  886.1219
 181  399.7679
 182  776.443
 183  710.7073
 184  1213.643
 185  664.2723
 186  1114.111
 187  771.2614
 188  128.5366
 189  1101.353
 190  621.2107
 191  939.6582
 192  426.0253
 193  637.6415
 194  820.9468
 195  57.43917
 196  411.4091
 197  838.4199
 198  693.2327
 199  581.5697
 200  887.4885
 201  914.6156
 202  749.8156
 203  674.1014
 204  874.9653
 205  1110.354
 206  297.198
 207  404.9911
 208  1368.137
 209  462.3188
 210  273.5364
 211  931.0065
 212  1077.35
 213  1056.255
 214  804.8748
 215  865.4077
 216  1121.091
 217  1008.907
 218  761.2403
 219  682.4285
 220  776.4991
 221  741.293
 222  540.9182
 223  1103.426
 224  1471.759
 225  845.9343
 226  916.6289
 227  1272.765
 228  933.2408
 229  1127.312
 230  772.8845
 231  1407.13
 232  1144.456
 233  1202.397
 234  1033.453
 235  1287.598
 236  1286.14
 237  1302.848
 238  1296.324
 239  1175.483
 240  596.3248
 241  693.0349
 242  1524.868
 243  993.0051
 244  1225.839
 245  810.0255
 246  1175.297
 247  1476.823
 248  614.5555
 249  919.1715
 250  1142.539
 251  1268.241
 252  1610.018
 253  1263.441
 254  1013.931
 255  1268.519
