# Input file       =  1191811690.126897_cleaned.dat
# Candidate        =  PSR_0332+5434
# Telescope        =  AR
# Epoch_topo       =  58038.117003783533
# Epoch_bary       =  N/A
# T_sample         =  0.002
# Data Folded      =  7340032
# Data Avg         =  0.05311458012771 
# Data StdDev      =  2.9728423031339  
# Profile Bins     =  1024
# Profile Avg      =  380.715114864173 
# Profile StdDev   =  251.692845475353 
# Reduced chi-sqr  =  1.437
# Prob(Noise)      <  1.14e-18   (~8.7 sigma)
# P_topo (ms)      =  714.479822246949  +/- 1.71e-05
# P'_topo (s/s)    =  -0                +/- 9.05e-12
# P''_topo (s/s^2) =  0                 +/- 3.99e-15
# P_bary (ms)      =  N/A
# P'_bary (s/s)    =  N/A
# P''_bary (s/s^2) =  N/A
# P_orb (s)        =  N/A
# asin(i)/c (s)    =  N/A
# eccentricity     =  N/A
# w (rad)          =  N/A
# T_peri           =  N/A
######################################################
   0  385.0662
   1  423.5444
   2  216.3936
   3  81.25977
   4  174.4714
   5  425.4465
   6  555.652
   7  340.6635
   8  307.0701
   9  349.7304
  10  347.1223
  11  284.8558
  12  305.9317
  13  328.0782
  14  302.6401
  15  168.9931
  16  244.5008
  17  197.188
  18  290.0284
  19  293.5251
  20  412.9318
  21  442.1404
  22  309.1633
  23  208.7682
  24  237.1412
  25  327.1191
  26  225.1969
  27  276.1935
  28  481.0156
  29  686.2167
  30  585.0673
  31  358.7694
  32  355.765
  33  314.8493
  34  302.4123
  35  213.0331
  36  387.8067
  37  364.3344
  38  363.5842
  39  270.4836
  40  441.7372
  41  621.3842
  42  617.4926
  43  492.5599
  44  391.9185
  45  390.8024
  46  381.0365
  47  330.3717
  48  426.8395
  49  588.48
  50  696.2319
  51  627.9579
  52  389.2311
  53  363.7237
  54  342.3813
  55  474.8326
  56  445.9669
  57  448.4544
  58  227.2459
  59  248.8512
  60  498.3582
  61  597.402
  62  450.9629
  63  262.9198
  64  332.9716
  65  446.6139
  66  324.644
  67  285.1791
  68  284.1307
  69  269.5301
  70  216.2034
  71  134.6157
  72  322.778
  73  329.4571
  74  323.4325
  75  396.3417
  76  494.9049
  77  464.9726
  78  196.8983
  79  136.0701
  80  267.3659
  81  332.5369
  82  375.1289
  83  228.1871
  84  373.5206
  85  272.5628
  86  344.7966
  87  286.8354
  88  368.2852
  89  397.2902
  90  318.5174
  91  377.6584
  92  337.8593
  93  224.688
  94  91.86676
  95  139.8828
  96  257.1494
  97  225.9013
  98  206.4784
  99  379.7911
 100  498.5953
 101  329.6588
 102  179.5254
 103  253.317
 104  469.4354
 105  406.0492
 106  327.7189
 107  458.9026
 108  569.0109
 109  571.6583
 110  533.7738
 111  589.3065
 112  526.8627
 113  398.1009
 114  409.0392
 115  517.2524
 116  458.3423
 117  324.7183
 118  202.1954
 119  343.3234
 120  512.7928
 121  508.6163
 122  388.4972
 123  421.155
 124  532.6463
 125  504.38
 126  454.383
 127  552.9424
 128  537.3889
 129  402.287
 130  193.8953
 131  161.6626
 132  164.6206
 133  205.4032
 134  264.1558
 135  375.2133
 136  365.5991
 137  225.9754
 138  164.8328
 139  340.2003
 140  369.6335
 141  278.3781
 142  155.8144
 143  271.8198
 144  351.7954
 145  188.9303
 146  230.1913
 147  359.707
 148  540.0744
 149  428.7414
 150  249.1593
 151  239.4912
 152  335.1679
 153  384.4734
 154  427.7693
 155  519.7812
 156  569.4383
 157  427.9034
 158  252.0677
 159  263.5379
 160  311.0241
 161  327.7636
 162  320.7114
 163  361.5374
 164  350.1442
 165  250.238
 166  274.9998
 167  410.9533
 168  522.2455
 169  485.4605
 170  519.7756
 171  559.9937
 172  539.7462
 173  338.4346
 174  423.2443
 175  584.4131
 176  585.8428
 177  411.4233
 178  325.9282
 179  408.357
 180  441.4997
 181  283.0337
 182  372.2305
 183  481.3231
 184  467.7549
 185  191.6761
 186  173.7384
 187  230.4138
 188  267.9826
 189  251.98
 190  425.3444
 191  540.1382
 192  546.8618
 193  356.3187
 194  399.5129
 195  365.881
 196  419.7393
 197  314.7689
 198  412.8883
 199  454.8981
 200  337.956
 201  325.4287
 202  418.8378
 203  405.9057
 204  245.3063
 205  308.9479
 206  525.0441
 207  663.6252
 208  463.8226
 209  352.5986
 210  397.9805
 211  548.1339
 212  602.4405
 213  479.1082
 214  368.648
 215  366.6798
 216  347.1157
 217  303.579
 218  217.7751
 219  247.0381
 220  296.2496
 221  442.416
 222  537.7803
 223  540.7893
 224  223.4575
 225  88.41429
 226  212.4734
 227  370.5663
 228  250.9929
 229  241.0817
 230  280.028
 231  344.9156
 232  259.1535
 233  346.482
 234  440.2751
 235  434.2004
 236  216.1523
 237  210.1983
 238  182.5767
 239  265.0781
 240  276.8052
 241  360.9788
 242  488.6312
 243  316.9387
 244  144.9352
 245  -26.0692
 246  109.7448
 247  125.9331
 248  252.1664
 249  319.4909
 250  380.4781
 251  243.0662
 252  212.7809
 253  338.9489
 254  593.8738
 255  586.2685
 256  461.5846
 257  357.3908
 258  422.144
 259  361.5292
 260  247.8791
 261  274.326
 262  477.5718
 263  505.1976
 264  380.3595
 265  289.7463
 266  435.0586
 267  448.8944
 268  387.9954
 269  287.2905
 270  338.6701
 271  234.9746
 272  135.0583
 273  99.68826
 274  288.5026
 275  392.0731
 276  504.7969
 277  575.3845
 278  661.1608
 279  472.0765
 280  307.1897
 281  257.8063
 282  402.4741
 283  296.5845
 284  187.6128
 285  196.4601
 286  371.6829
 287  446.9211
 288  420.3031
 289  476.3282
 290  423.4545
 291  368.7758
 292  286.3823
 293  538.7789
 294  655.8774
 295  483.6301
 296  205.4222
 297  155.9069
 298  279.4649
 299  230.0508
 300  140.1414
 301  244.973
 302  284.2968
 303  235.2183
 304  251.1748
 305  409.6281
 306  511.6526
 307  454.4043
 308  461.681
 309  554.1846
 310  502.9617
 311  430.174
 312  358.7343
 313  384.5061
 314  413.6845
 315  267.8153
 316  140.914
 317  208.5079
 318  268.9691
 319  416.509
 320  387.7476
 321  394.3856
 322  252.4405
 323  202.4478
 324  299.0432
 325  492.7327
 326  482.7409
 327  405.8127
 328  318.2976
 329  479.3386
 330  514.4871
 331  440.1478
 332  275.149
 333  342.9471
 334  342.321
 335  369.0148
 336  388.0625
 337  476.1354
 338  420.2302
 339  325.5318
 340  368.7254
 341  469.4742
 342  511.5156
 343  429.4387
 344  318.0056
 345  261.6097
 346  218.587
 347  171.4845
 348  246.567
 349  340.3433
 350  441.6156
 351  344.7436
 352  342.497
 353  353.5389
 354  445.1629
 355  411.118
 356  365.4799
 357  434.0983
 358  504.8192
 359  495.4522
 360  580.5073
 361  560.5947
 362  485.7116
 363  277.1245
 364  212.5703
 365  330.6967
 366  382.2256
 367  329.618
 368  365.8023
 369  385.4562
 370  504.9875
 371  474.4454
 372  482.3969
 373  470.7472
 374  462.2916
 375  446.2155
 376  459.2797
 377  333.5664
 378  183.2598
 379  103.9973
 380  295.9904
 381  461.1253
 382  433.9932
 383  434.4993
 384  384.0157
 385  407.7414
 386  280.7624
 387  234.8382
 388  153.4918
 389  196.8765
 390  254.1893
 391  393.6472
 392  476.8397
 393  465.3065
 394  335.8504
 395  292.9676
 396  447.0883
 397  540.5707
 398  359.7345
 399  188.9761
 400  219.8087
 401  426.1208
 402  374.3692
 403  402.6223
 404  508.8264
 405  564.6895
 406  387.5146
 407  277.3392
 408  358.5003
 409  480.3591
 410  402.273
 411  400.7687
 412  418.3488
 413  462.4982
 414  331.8298
 415  289.3007
 416  345.761
 417  291.4584
 418  216.7505
 419  451.9385
 420  615.5303
 421  599.7578
 422  308.7808
 423  224.3102
 424  209.6664
 425  142.0548
 426  160.0988
 427  309.6425
 428  525.8734
 429  461.1462
 430  379.0294
 431  306.3103
 432  338.209
 433  274.8935
 434  249.7647
 435  454.0883
 436  599.7669
 437  453.526
 438  261.7831
 439  228.9909
 440  266.892
 441  228.0697
 442  51.79405
 443  127.7198
 444  256.408
 445  321.6429
 446  259.652
 447  226.7428
 448  443.5225
 449  525.8984
 450  345.6205
 451  262.5463
 452  216.2508
 453  197.6673
 454  119.2669
 455  272.0397
 456  306.8979
 457  287.3054
 458  278.7402
 459  510.892
 460  537.6692
 461  448.0473
 462  394.8784
 463  569.7354
 464  624.3833
 465  493.1574
 466  324.62
 467  419.6113
 468  505.6874
 469  461.4627
 470  343.2526
 471  310.6614
 472  289.0264
 473  79.48602
 474  -20.88783
 475  165.3591
 476  386.0289
 477  533.9179
 478  457.1052
 479  528.4653
 480  485.6633
 481  395.7803
 482  346.4412
 483  468.0852
 484  583.0056
 485  447.367
 486  328.1769
 487  416.0232
 488  515.5948
 489  436.3821
 490  379.6644
 491  411.0008
 492  419.1619
 493  300.639
 494  312.0171
 495  376.2721
 496  290.7114
 497  133.3671
 498  136.3327
 499  354.7614
 500  394.7917
 501  300.6838
 502  181.0143
 503  315.3511
 504  343.7671
 505  324.2533
 506  257.3302
 507  241.7113
 508  153.3905
 509  87.31204
 510  203.0319
 511  456.412
 512  518.012
 513  511.0412
 514  506.0482
 515  521.498
 516  406.282
 517  168.6407
 518  292.3796
 519  398.6245
 520  427.2963
 521  305.7494
 522  474.2025
 523  678.8539
 524  740.8298
 525  504.5428
 526  416.4125
 527  466.3562
 528  533.8934
 529  435.8429
 530  343.6848
 531  352.1143
 532  240.4936
 533  -24.4577
 534  108.2464
 535  310.2061
 536  415.1958
 537  277.1891
 538  311.0163
 539  411.691
 540  413.8589
 541  282.8008
 542  327.1125
 543  508.9901
 544  559.3987
 545  520.0652
 546  494.5852
 547  564.3344
 548  535.0963
 549  503.6989
 550  467.6922
 551  449.1022
 552  457.2586
 553  508.0205
 554  472.7579
 555  419.3885
 556  342.7887
 557  313.2753
 558  318.7186
 559  439.7146
 560  373.0909
 561  307.1094
 562  272.8555
 563  437.4522
 564  454.7398
 565  440.2061
 566  374.0503
 567  440.3902
 568  297.8955
 569  277.9763
 570  314.8328
 571  325.9278
 572  108.5646
 573  53.16552
 574  65.54443
 575  250.9778
 576  239.8685
 577  423.0586
 578  536.5162
 579  539.5786
 580  445.5057
 581  551.8479
 582  560.7773
 583  549.4665
 584  376.0057
 585  452.4911
 586  553.7165
 587  400.2827
 588  183.4357
 589  146.8861
 590  317.9172
 591  452.7608
 592  511.8763
 593  560.0368
 594  597.4822
 595  498.7903
 596  499.9233
 597  582.9102
 598  692.9739
 599  621.998
 600  439.8492
 601  363.6127
 602  395.0778
 603  405.7303
 604  375.7586
 605  383.4694
 606  548.0314
 607  615.3307
 608  519.3461
 609  489.9337
 610  488.0178
 611  463.5993
 612  339.0619
 613  479.5174
 614  610.9079
 615  604.7173
 616  427.7923
 617  499.4584
 618  634.0955
 619  580.3455
 620  544.1408
 621  523.5374
 622  626.2337
 623  519.8824
 624  462.3247
 625  436.3654
 626  545.0687
 627  588.6859
 628  694.1603
 629  687.2225
 630  783.4227
 631  753.5996
 632  715.6183
 633  956.1765
 634  1313
 635  1481.131
 636  1435.614
 637  1508.88
 638  1647.256
 639  1552.502
 640  1346.529
 641  1249.042
 642  1198.035
 643  994.2211
 644  829.2189
 645  682.9357
 646  652.2912
 647  512.9592
 648  429.519
 649  499.431
 650  612.1073
 651  597.1238
 652  404.8473
 653  440.7694
 654  453.778
 655  562.436
 656  481.455
 657  550.0175
 658  563.3476
 659  428.223
 660  276.6301
 661  235.9769
 662  204.6447
 663  221.7052
 664  309.8596
 665  568.6801
 666  676.9167
 667  605.3968
 668  509.6121
 669  585.1909
 670  543.3281
 671  538.742
 672  513.0848
 673  464.2349
 674  424.0208
 675  311.0245
 676  394.2051
 677  532.0134
 678  564.3896
 679  525.1782
 680  457.5691
 681  501.7566
 682  454.6931
 683  315.4676
 684  341.7837
 685  466.3797
 686  550.4072
 687  408.6474
 688  341.572
 689  456.653
 690  562.7565
 691  489.6783
 692  417.7019
 693  363.8001
 694  311.4041
 695  277.0675
 696  436
 697  460.2589
 698  328.3029
 699  330.8788
 700  428.2978
 701  638.107
 702  532.1146
 703  382.1761
 704  329.8074
 705  387.1571
 706  478.5798
 707  438.7192
 708  292.2959
 709  296.9866
 710  164.2097
 711  190.5458
 712  306.8313
 713  448.8459
 714  554.5054
 715  467.4062
 716  482.2817
 717  475.1598
 718  256.6745
 719  124.4628
 720  297.1054
 721  587.9206
 722  587.6767
 723  370.6465
 724  410.9751
 725  477.913
 726  367.47
 727  308.476
 728  488.5916
 729  662.6899
 730  561.8777
 731  487.295
 732  358.0985
 733  262.421
 734  197.9468
 735  425.3661
 736  636.1805
 737  620.9813
 738  423.7395
 739  332.6452
 740  452.5311
 741  502.9437
 742  469.5161
 743  421.4069
 744  467.2598
 745  554.0067
 746  378.9556
 747  325.7397
 748  300.9754
 749  415.7278
 750  437.7693
 751  399.0868
 752  348.1765
 753  244.9591
 754  221.9704
 755  239.6985
 756  338.5966
 757  462.9464
 758  417.9734
 759  398.6371
 760  263.5716
 761  230.0167
 762  207.3648
 763  355.2844
 764  465.7836
 765  390.0575
 766  263.7111
 767  229.3298
 768  276.2638
 769  280.6524
 770  307.9439
 771  289.2003
 772  333.9274
 773  324.0472
 774  279.6277
 775  182.3847
 776  146.3307
 777  215.2717
 778  258.1796
 779  433.9406
 780  523.3329
 781  480.3396
 782  310.159
 783  252.0508
 784  347.9368
 785  472.3852
 786  395.6933
 787  463.5485
 788  486.3848
 789  542.2452
 790  520.9316
 791  500.3681
 792  572.451
 793  417.1986
 794  324.2985
 795  219.3384
 796  360.8875
 797  304.7566
 798  302.2086
 799  226.9573
 800  240.6738
 801  211.8653
 802  260.8871
 803  284.5388
 804  269.1856
 805  173.5232
 806  316.7296
 807  472.9363
 808  469.8985
 809  414.6819
 810  301.2979
 811  489.1808
 812  506.7756
 813  543.9485
 814  355.5758
 815  379.6369
 816  363.8327
 817  260.3416
 818  106.7694
 819  181.5398
 820  339.6593
 821  432.316
 822  396.1935
 823  423.1848
 824  465.066
 825  450.0229
 826  387.9513
 827  387.9963
 828  316.4727
 829  249.6334
 830  218.5865
 831  419.8939
 832  428.2927
 833  370.3526
 834  279.9866
 835  490.611
 836  533.9951
 837  351.3149
 838  152.7846
 839  184.7645
 840  303.2475
 841  228.9041
 842  294.063
 843  438.811
 844  564.713
 845  405.5415
 846  299.4791
 847  352.6841
 848  454.6295
 849  443.971
 850  435.5265
 851  436.6408
 852  427.1693
 853  138.3694
 854  145.722
 855  256.9865
 856  443.5651
 857  328.219
 858  284.2673
 859  326.7743
 860  274.8504
 861  108.9694
 862  120.096
 863  390.0876
 864  515.8881
 865  487.864
 866  314.0991
 867  274.3472
 868  101.7878
 869  33.09801
 870  222.507
 871  471.9645
 872  425.9243
 873  283.6242
 874  327.232
 875  381.3124
 876  306.1933
 877  228.7181
 878  385.4104
 879  533.2971
 880  489.3524
 881  287.4391
 882  227.4557
 883  171.6752
 884  149.8361
 885  154.6842
 886  223.6078
 887  416.7414
 888  331.965
 889  276.3541
 890  289.647
 891  371.8657
 892  379.6199
 893  363.5995
 894  345.7267
 895  459.9344
 896  358.8986
 897  304.3796
 898  307.2033
 899  529.8098
 900  479.9915
 901  289.9293
 902  239.3979
 903  375.9644
 904  310.898
 905  204.1421
 906  363.5757
 907  484.4621
 908  371.3029
 909  359.5282
 910  397.2948
 911  436.1935
 912  225.354
 913  210.5856
 914  335.2915
 915  317.831
 916  283.9608
 917  248.3335
 918  265.1718
 919  235.5799
 920  245.5139
 921  305.1873
 922  362.1641
 923  330.8036
 924  319.9035
 925  287.7986
 926  450.4146
 927  573.6567
 928  528.011
 929  482.7787
 930  485.4842
 931  507.4
 932  361.178
 933  275.6989
 934  271.6296
 935  275.2562
 936  139.6695
 937  110.1754
 938  219.3485
 939  167.3909
 940  46.79358
 941  -10.22571
 942  216.3948
 943  187.4181
 944  44.5329
 945  19.79711
 946  202.2101
 947  269.3368
 948  258.5799
 949  394.8524
 950  546.5349
 951  411.9106
 952  125.4255
 953  89.85566
 954  211.1409
 955  244.6058
 956  278.8348
 957  440.716
 958  647.8297
 959  640.1446
 960  404.2928
 961  285.0422
 962  300.575
 963  381.239
 964  398.7486
 965  482.7931
 966  691.9022
 967  557.6631
 968  354.2023
 969  133.1088
 970  183.0421
 971  125.3013
 972  181.8032
 973  298.1865
 974  433.0493
 975  262.4598
 976  48.20284
 977  99.98934
 978  277.722
 979  328.0058
 980  296.162
 981  300.246
 982  380.0562
 983  264.9373
 984  218.805
 985  220.2406
 986  369.5549
 987  312.1707
 988  195.8385
 989  248.2307
 990  237.7051
 991  386.7845
 992  361.7005
 993  437.7433
 994  433.899
 995  501.2408
 996  571.2959
 997  554.3016
 998  462.5926
 999  434.434
1000  454.7701
1001  473.4449
1002  443.3614
1003  395.505
1004  333.761
1005  354.6582
1006  311.0224
1007  298.559
1008  420.4291
1009  471.6697
1010  447.1004
1011  202.3943
1012  147.916
1013  241.709
1014  335.743
1015  307.9092
1016  309.243
1017  401.5249
1018  410.4817
1019  341.098
1020  294.0652
1021  446.4891
1022  426.3951
1023  416.3363
