# Input file       =  1191969090.136214_cleaned.dat
# Candidate        =  PSR_0332+5434
# Telescope        =  AR
# Epoch_topo       =  58039.938763150625
# Epoch_bary       =  N/A
# T_sample         =  0.002
# Data Folded      =  7340032
# Data Avg         =  0.0257831084080473
# Data StdDev      =  2.23396815268192 
# Profile Bins     =  512
# Profile Avg      =  369.782073907018 
# Profile StdDev   =  267.479790089602 
# Reduced chi-sqr  =  2.127
# Prob(Noise)      <  1.09e-43   (~13.8 sigma)
# P_topo (ms)      =  714.480773706426  +/- 0.000194
# P'_topo (s/s)    =  -0                +/- 1.02e-10
# P''_topo (s/s^2) =  0                 +/- 4.52e-14
# P_bary (ms)      =  N/A
# P'_bary (s/s)    =  N/A
# P''_bary (s/s^2) =  N/A
# P_orb (s)        =  N/A
# asin(i)/c (s)    =  N/A
# eccentricity     =  N/A
# w (rad)          =  N/A
# T_peri           =  N/A
######################################################
   0  83.8819
   1  31.30889
   2  325.455
   3  366.6111
   4  373.8168
   5  506.9421
   6  300.0846
   7  245.8398
   8  98.67372
   9  71.68405
  10  200.9186
  11  46.0295
  12  181.2356
  13  51.66766
  14  310.624
  15  352.2997
  16  245.1107
  17  114.466
  18  133.6149
  19  311.6125
  20  513.6204
  21  617.4274
  22  510.1628
  23  233.9557
  24  147.2428
  25  231.688
  26  289.8682
  27  56.22047
  28  203.6376
  29  143.4214
  30  210.1645
  31  375.2776
  32  84.69596
  33  305.758
  34  189.3151
  35  136.5202
  36  239.3047
  37  395.4908
  38  677.5415
  39  476.3052
  40  187.9548
  41  232.0403
  42  298.3043
  43  278.9324
  44  463.7935
  45  323.1451
  46  365.7899
  47  99.64281
  48  14.06846
  49  27.78326
  50  243.4387
  51  402.0833
  52  257.9341
  53  279.2715
  54  517.8809
  55  430.3416
  56  228.7141
  57  374.1198
  58  323.1876
  59  433.7763
  60  525.2394
  61  541.2867
  62  665.8336
  63  614.3367
  64  141.8521
  65  44.87783
  66  23.52038
  67  167.6964
  68  195.5696
  69  385.9839
  70  522.8441
  71  661.4235
  72  190.6516
  73  181.2087
  74  233.5769
  75  132.4232
  76  359.9393
  77  416.1534
  78  119.8883
  79  146.0056
  80  361.014
  81  602.9775
  82  121.0742
  83  50.48626
  84  199.8151
  85  469.3239
  86  615.4291
  87  340.3763
  88  555.1152
  89  398.1669
  90  413.2375
  91  283.6629
  92  240.8813
  93  349.2885
  94  85.63029
  95  139.0763
  96  436.0054
  97  451.6474
  98  355.1992
  99  177.0028
 100  133.9566
 101  23.85835
 102  112.8503
 103  141.5648
 104  340.0103
 105  510.3019
 106  418.0697
 107  628.732
 108  416.4145
 109  260.1144
 110  68.42914
 111  592.1195
 112  916.6117
 113  935.9009
 114  493.844
 115  -30.48086
 116  149.3785
 117  650.1837
 118  300.6583
 119  462.1783
 120  289.3447
 121  444.8009
 122  328.0715
 123  306.4912
 124  12.76168
 125  253.5622
 126  314.9821
 127  409.0606
 128  209.2596
 129  356.6082
 130  738.8251
 131  516.6215
 132  312.1112
 133  236.4949
 134  431.4076
 135  239.2742
 136  -198.9927
 137  447.2542
 138  470.3969
 139  370.1303
 140  163.9836
 141  436.5151
 142  253.7668
 143  -2.304823
 144  344.1585
 145  418.9179
 146  201.5855
 147  526.9768
 148  752.5461
 149  533.3988
 150  404.9214
 151  413.9699
 152  607.4539
 153  440.222
 154  389.7664
 155  323.5865
 156  362.1453
 157  397.694
 158  191.8312
 159  173.6505
 160  323.634
 161  466.2496
 162  138.8339
 163  132.8066
 164  293.6837
 165  300.4981
 166  169.54
 167  116.1349
 168  185.443
 169  384.602
 170  397.7174
 171  452.6481
 172  691.3138
 173  646.1879
 174  545.6153
 175  368.2439
 176  549.0773
 177  600.6507
 178  457.1148
 179  172.3013
 180  -78.54726
 181  481.9058
 182  832.3534
 183  619.5442
 184  121.8304
 185  507.1347
 186  643.0857
 187  411.3721
 188  56.14576
 189  40.94662
 190  609.5225
 191  559.6411
 192  398.3347
 193  366.5757
 194  360.7264
 195  447.6976
 196  540.2222
 197  346.4128
 198  108.8426
 199  44.38967
 200  78.84745
 201  -182.618
 202  136.8916
 203  371.7524
 204  460.0161
 205  323.316
 206  437.5016
 207  521.9828
 208  457.3601
 209  279.2195
 210  353.9694
 211  275.4076
 212  238.4068
 213  162.3547
 214  397.4884
 215  350.7592
 216  505.8734
 217  628.7087
 218  396.623
 219  444.8674
 220  364.0717
 221  448.8179
 222  112.8415
 223  175.1459
 224  575.983
 225  712.4995
 226  481.8444
 227  371.3691
 228  363.8895
 229  632.6394
 230  571.8093
 231  531.9987
 232  740.2945
 233  450.5196
 234  232.2761
 235  796.5557
 236  677.6279
 237  740.913
 238  789.2571
 239  703.5811
 240  512.2947
 241  689.5746
 242  609.7463
 243  642.1443
 244  497.8957
 245  405.9842
 246  601.2733
 247  383.0609
 248  254.7292
 249  80.8309
 250  186.7868
 251  374.8587
 252  538.8409
 253  715.1527
 254  606.5455
 255  124.2158
 256  207.0634
 257  469.9484
 258  90.38567
 259  355.7845
 260  446.6612
 261  233.736
 262  120.1838
 263  100.7697
 264  284.1346
 265  243.4745
 266  577.7435
 267  494.9012
 268  289.6023
 269  175.8612
 270  120.5292
 271  -61.03964
 272  101.8345
 273  15.56127
 274  387.7588
 275  478.153
 276  617.6708
 277  507.0744
 278  340.0643
 279  155.3064
 280  464.0749
 281  436.348
 282  594.8386
 283  652.7417
 284  401.2353
 285  449.7048
 286  353.3811
 287  136.5719
 288  106.5315
 289  415.9903
 290  441.1945
 291  560.3763
 292  543.359
 293  385.9419
 294  261.9608
 295  -95.02055
 296  329.4399
 297  212.8708
 298  648.1242
 299  504.6566
 300  457.3573
 301  390.9848
 302  838.3477
 303  611.2818
 304  340.924
 305  486.1942
 306  536.8888
 307  327.6674
 308  467.9466
 309  503.1718
 310  494.6654
 311  475.9811
 312  611.0798
 313  383.1354
 314  540.0865
 315  998.3669
 316  1552.474
 317  2250.939
 318  2826.142
 319  2606.797
 320  2214.561
 321  1599.765
 322  1023.444
 323  635.6744
 324  317.0763
 325  134.9771
 326  201.942
 327  358.4852
 328  505.0141
 329  341.883
 330  470.2566
 331  416.8481
 332  589.1298
 333  557.4016
 334  429.8958
 335  413.9164
 336  572.9879
 337  364.084
 338  263.2633
 339  349.7077
 340  588.9797
 341  468.336
 342  246.9542
 343  253.2716
 344  172.9498
 345  368.9926
 346  534.4379
 347  802.9954
 348  598.0474
 349  297.842
 350  528.1121
 351  348.551
 352  240.4475
 353  307.2491
 354  458.1483
 355  468.8006
 356  -127.6519
 357  24.33909
 358  154.6608
 359  155.135
 360  30.29715
 361  162.9053
 362  220.7557
 363  395.6271
 364  532.4953
 365  577.0663
 366  470.644
 367  223.5525
 368  223.9838
 369  356.8761
 370  513.4097
 371  505.5934
 372  378.915
 373  677.1774
 374  600.4972
 375  507.5194
 376  543.246
 377  413.9458
 378  368.6555
 379  295.1438
 380  243.2728
 381  326.1122
 382  255.6226
 383  327.4143
 384  514.7137
 385  432.3217
 386  364.7477
 387  230.8311
 388  233.4861
 389  356.1459
 390  408.6056
 391  337.8317
 392  386.9829
 393  113.7287
 394  41.81607
 395  241.2838
 396  278.5989
 397  446.9245
 398  330.4938
 399  419.1286
 400  336.391
 401  474.7336
 402  311.4218
 403  -177.5541
 404  139.6081
 405  515.3131
 406  441.1666
 407  165.246
 408  139.3945
 409  241.0998
 410  439.3587
 411  352.96
 412  336.8575
 413  440.5661
 414  436.0543
 415  587.5563
 416  511.3208
 417  482.5133
 418  614.2067
 419  453.946
 420  411.7284
 421  484.9806
 422  412.3618
 423  506.1349
 424  366.8068
 425  613.0375
 426  865.9982
 427  410.6534
 428  252.5022
 429  276.9056
 430  586.0919
 431  512.5067
 432  340.0146
 433  267.0518
 434  275.9908
 435  276.1522
 436  145.5147
 437  313.8733
 438  329.3528
 439  342.5759
 440  9.396414
 441  -18.40716
 442  201.8498
 443  469.2731
 444  486.0418
 445  219.03
 446  208.0159
 447  300.1572
 448  365.0151
 449  815.7535
 450  461.1794
 451  340.2035
 452  491.9646
 453  553.2305
 454  559.3204
 455  182.941
 456  -128.2576
 457  188.5391
 458  -84.46918
 459  250.9188
 460  297.3997
 461  285.134
 462  399.1687
 463  225.9345
 464  353.3786
 465  364.8749
 466  405.4872
 467  533.2228
 468  374.1779
 469  445.2784
 470  377.7087
 471  272.7939
 472  309.3987
 473  565.1478
 474  174.9951
 475  164.134
 476  81.11391
 477  163.8898
 478  -135.0734
 479  19.70645
 480  304.8637
 481  158.5042
 482  136.9388
 483  390.0851
 484  546.4782
 485  284.3013
 486  180.4778
 487  323.1301
 488  506.0492
 489  358.1324
 490  113.1871
 491  369.9845
 492  436.86
 493  288.0158
 494  289.9559
 495  465.1467
 496  173.0163
 497  235.3659
 498  335.2269
 499  390.4297
 500  397.5347
 501  582.1317
 502  244.7909
 503  51.93438
 504  14.33377
 505  31.02953
 506  50.58103
 507  -51.67949
 508  124.4243
 509  177.8685
 510  -118.7499
 511  -23.4831
