# Input file       =  1191897833.137104_cleaned.dat
# Candidate        =  PSR_0332+5434
# Telescope        =  AR
# Epoch_topo       =  58039.114029364631
# Epoch_bary       =  N/A
# T_sample         =  0.002
# Data Folded      =  7340032
# Data Avg         =  0.0265116302512719
# Data StdDev      =  2.87921204345658 
# Profile Bins     =  512
# Profile Avg      =  379.561602681875 
# Profile StdDev   =  344.73680033561  
# Reduced chi-sqr  =  1.748
# Prob(Noise)      <  3.22e-23   (~9.9 sigma)
# P_topo (ms)      =  714.480520167145  +/- 0.000273
# P'_topo (s/s)    =  -0                +/- 1.44e-10
# P''_topo (s/s^2) =  0                 +/- 6.35e-14
# P_bary (ms)      =  N/A
# P'_bary (s/s)    =  N/A
# P''_bary (s/s^2) =  N/A
# P_orb (s)        =  N/A
# asin(i)/c (s)    =  N/A
# eccentricity     =  N/A
# w (rad)          =  N/A
# T_peri           =  N/A
######################################################
   0  411.833
   1  84.04463
   2  -177.8129
   3  -30.43372
   4  287.5072
   5  267.3192
   6  301.0092
   7  481.4457
   8  353.7611
   9  583.7637
  10  191.6131
  11  538.8716
  12  719.9972
  13  375.311
  14  340.2144
  15  413.3561
  16  522.0394
  17  223.4534
  18  -55.48967
  19  79.54848
  20  389.0527
  21  558.5296
  22  232.7949
  23  -42.00137
  24  461.5457
  25  352.7777
  26  144.9147
  27  442.391
  28  725.5231
  29  442.4355
  30  399.2249
  31  518.8843
  32  265.7796
  33  34.83052
  34  233.7049
  35  278.0995
  36  -307.0957
  37  6.7343
  38  21.06755
  39  117.7562
  40  492.3561
  41  362.0238
  42  -228.74
  43  339.7302
  44  355.0982
  45  404.7554
  46  584.35
  47  604.9608
  48  823.7707
  49  567.2843
  50  329.2964
  51  181.5246
  52  73.86098
  53  281.0209
  54  445.2226
  55  93.30142
  56  547.4813
  57  657.7465
  58  402.2407
  59  340.7132
  60  314.6335
  61  100.3389
  62  212.7759
  63  527.6003
  64  510.2936
  65  224.6917
  66  527.1262
  67  370.7921
  68  201.7047
  69  180.7419
  70  538.8308
  71  375.0079
  72  363.9275
  73  640.0031
  74  387.7816
  75  339.0736
  76  427.9505
  77  709.8488
  78  569.4165
  79  385.2559
  80  523.9662
  81  748.5152
  82  595.6989
  83  505.3991
  84  130.5977
  85  184.1889
  86  806.3884
  87  993.0975
  88  1005.533
  89  653.1097
  90  984.0021
  91  960.5989
  92  497.6878
  93  371.3708
  94  385.6921
  95  314.1926
  96  359.266
  97  962.2841
  98  606.9306
  99  -41.98226
 100  12.71838
 101  394.1905
 102  326.5371
 103  152.5382
 104  187.7954
 105  761.9865
 106  242.9462
 107  453.918
 108  349.0752
 109  -35.09036
 110  191.524
 111  437.7772
 112  368.226
 113  139.7529
 114  227.4753
 115  174.9109
 116  240.6066
 117  442.8208
 118  491.3919
 119  760.4207
 120  876.7714
 121  726.3843
 122  455.1942
 123  510.2881
 124  686.9185
 125  481.4671
 126  237.5192
 127  354.1386
 128  551.2204
 129  400.3394
 130  683.968
 131  631.856
 132  791.3337
 133  688.9266
 134  721.7907
 135  444.9278
 136  545.4393
 137  410.0402
 138  832.6053
 139  827.1838
 140  705.1174
 141  600.3101
 142  881.8895
 143  787.759
 144  655.3163
 145  563.203
 146  770.9578
 147  1179.9
 148  1235.305
 149  1307.06
 150  1400.7
 151  1613.133
 152  2179.077
 153  2175.768
 154  2690.635
 155  2630.074
 156  1617.684
 157  1068.089
 158  646.8215
 159  440.2262
 160  382.0669
 161  534.3593
 162  765.8009
 163  594.6463
 164  934.843
 165  1145.483
 166  767.8979
 167  309.9435
 168  581.6086
 169  893.1502
 170  773.7599
 171  918.6901
 172  874.5603
 173  726.1456
 174  423.4884
 175  454.644
 176  602.438
 177  472.435
 178  351.1358
 179  525.8852
 180  641.0087
 181  594.0457
 182  141.548
 183  466.3288
 184  598.0359
 185  560.1059
 186  493.5432
 187  293.604
 188  514.2845
 189  834.3755
 190  351.1772
 191  181.3317
 192  654.9504
 193  412.1202
 194  120.5239
 195  410.8633
 196  403.3585
 197  487.0748
 198  469.1378
 199  442.7408
 200  436.8673
 201  493.8613
 202  450.3723
 203  722.9363
 204  513.007
 205  952.2985
 206  993.7911
 207  464.7982
 208  289.0473
 209  50.68762
 210  237.2158
 211  65.8299
 212  -24.10956
 213  217.9412
 214  391.7154
 215  386.2267
 216  188.6343
 217  533.9061
 218  237.8399
 219  497.365
 220  624.1177
 221  606.6251
 222  505.636
 223  -49.98144
 224  17.30969
 225  444.6508
 226  453.6765
 227  65.43455
 228  110.2425
 229  -32.94644
 230  -66.21461
 231  204.112
 232  231.9226
 233  406.3492
 234  213.1418
 235  490.4022
 236  439.5699
 237  446.0096
 238  677.4755
 239  721.1088
 240  406.0978
 241  562.3147
 242  681.397
 243  622.038
 244  308.2524
 245  238.2774
 246  1.851501
 247  44.89736
 248  303.4293
 249  272.5213
 250  15.7355
 251  -72.22942
 252  89.56155
 253  69.3597
 254  -59.03202
 255  199.1046
 256  319.5352
 257  97.13025
 258  205.1921
 259  441.722
 260  249.2213
 261  210.17
 262  460.2763
 263  753.7093
 264  715.5169
 265  329.9975
 266  284.7795
 267  416.7216
 268  401.9576
 269  715.4415
 270  746.1968
 271  625.2466
 272  134.805
 273  401.7476
 274  358.3719
 275  327.9996
 276  527.7043
 277  447.1969
 278  375.2832
 279  537.314
 280  376.192
 281  743.2334
 282  400.6918
 283  276.8095
 284  343.4625
 285  414.1114
 286  667.9824
 287  539.817
 288  476.1108
 289  187.9988
 290  99.10711
 291  131.7187
 292  143.9417
 293  177.7949
 294  242.1561
 295  464.1159
 296  559.1888
 297  245.8777
 298  534.9323
 299  783.5134
 300  692.1556
 301  506.9333
 302  427.436
 303  336.7971
 304  315.5984
 305  407.7475
 306  569.6595
 307  281.0913
 308  300.942
 309  483.2231
 310  380.5014
 311  53.32858
 312  263.6494
 313  400.402
 314  596.7678
 315  346.3218
 316  431.6054
 317  530.2628
 318  796.0639
 319  771.5935
 320  613.51
 321  497.0297
 322  388.1871
 323  -15.26088
 324  239.3388
 325  546.347
 326  411.5979
 327  434.3307
 328  264.9408
 329  274.2784
 330  198.7048
 331  492.8541
 332  491.4056
 333  92.52612
 334  176.7751
 335  458.8213
 336  519.6445
 337  409.2609
 338  641.4614
 339  329.5047
 340  179.1559
 341  301.4304
 342  506.5926
 343  537.6674
 344  67.80625
 345  431.5454
 346  456.3219
 347  311.6178
 348  327.4503
 349  252.5596
 350  556.5535
 351  480.2419
 352  379.6733
 353  286.2728
 354  442.3653
 355  327.3915
 356  351.4923
 357  560.558
 358  401.1224
 359  107.1792
 360  93.24286
 361  266.5865
 362  423.6685
 363  229.9048
 364  431.7776
 365  378.1622
 366  541.2896
 367  661.3054
 368  642.2688
 369  488.4835
 370  507.6006
 371  557.1094
 372  489.6787
 373  113.7851
 374  463.852
 375  447.7844
 376  375.9617
 377  475.1815
 378  84.53404
 379  305.5388
 380  152.0284
 381  274.3476
 382  365.3886
 383  349.3409
 384  503.4026
 385  273.65
 386  -86.77592
 387  118.4133
 388  -80.14966
 389  266.2456
 390  385.1239
 391  161.151
 392  433.7729
 393  536.0139
 394  497.2823
 395  432.9917
 396  3.770664
 397  -5.072502
 398  540.2822
 399  183.2353
 400  71.33604
 401  390.8978
 402  250.4871
 403  -205.1449
 404  -90.08584
 405  229.604
 406  200.7616
 407  531.2526
 408  461.3585
 409  504.9259
 410  418.5379
 411  61.80827
 412  -125.7498
 413  427.6041
 414  277.0885
 415  143.9715
 416  96.80287
 417  183.3795
 418  333.133
 419  279.2322
 420  263.5359
 421  35.98361
 422  216.8587
 423  -187.6584
 424  -19.51919
 425  377.3396
 426  -22.11082
 427  -58.89672
 428  -304.9082
 429  -223.1778
 430  162.8313
 431  79.70744
 432  329.8959
 433  -31.11508
 434  48.41059
 435  469.0823
 436  280.7219
 437  72.11005
 438  256.5717
 439  171.6865
 440  287.4038
 441  152.8103
 442  242.5
 443  199.7353
 444  137.017
 445  469.4572
 446  406.8127
 447  284.919
 448  69.32828
 449  337.6208
 450  609.1799
 451  426.6483
 452  465.0766
 453  261.9259
 454  308.6122
 455  163.6085
 456  25.42885
 457  -163.3618
 458  -102.7334
 459  143.0305
 460  311.0304
 461  -75.79469
 462  -580.9408
 463  -217.2397
 464  174.282
 465  50.37636
 466  376.4342
 467  -63.03576
 468  31.81959
 469  159.8149
 470  488.5831
 471  258.8676
 472  10.36183
 473  -72.54202
 474  0.2980979
 475  94.46099
 476  -58.43512
 477  -298.4662
 478  32.80716
 479  347.8523
 480  267.7978
 481  -9.310821
 482  81.23953
 483  66.80564
 484  119.2737
 485  0.6064669
 486  -116.0816
 487  -12.519
 488  121.2313
 489  47.91682
 490  354.4351
 491  375.7579
 492  385.8363
 493  164.2441
 494  27.4025
 495  -201.2111
 496  149.6538
 497  343.9425
 498  -196.1948
 499  138.5058
 500  210.8463
 501  332.451
 502  125.5679
 503  193.238
 504  294.4578
 505  266.36
 506  349.9764
 507  379.1808
 508  317.1723
 509  182.5995
 510  271.7782
 511  426.9048
