# Input file       =  1191036238.128165_cleaned.dat
# Candidate        =  PSR_0332+5434
# Telescope        =  AR
# Epoch_topo       =  58029.141864909318
# Epoch_bary       =  N/A
# T_sample         =  0.002
# Data Folded      =  7340032
# Data Avg         =  0.0310062962931365
# Data StdDev      =  3.13586244713247 
# Profile Bins     =  256
# Profile Avg      =  889.26991891812  
# Profile StdDev   =  530.989579572414 
# Reduced chi-sqr  =  1.419
# Prob(Noise)      <  1.18e-05   (~4.2 sigma)
# P_topo (ms)      =  714.474142173475  +/- 0.000179
# P'_topo (s/s)    =  -0                +/- 9.42e-11
# P''_topo (s/s^2) =  0                 +/- 4.16e-14
# P_bary (ms)      =  N/A
# P'_bary (s/s)    =  N/A
# P''_bary (s/s^2) =  N/A
# P_orb (s)        =  N/A
# asin(i)/c (s)    =  N/A
# eccentricity     =  N/A
# w (rad)          =  N/A
# T_peri           =  N/A
######################################################
   0  1052.756
   1  427.7269
   2  408.6335
   3  467.9222
   4  1279.155
   5  574.2535
   6  683.6954
   7  521.5729
   8  221.5923
   9  890.9178
  10  1108.42
  11  692.1945
  12  1764.075
  13  467.2725
  14  24.80892
  15  818.2328
  16  862.7042
  17  546.5596
  18  335.0026
  19  1708.01
  20  1445.91
  21  812.572
  22  1304.488
  23  1290.132
  24  1332.717
  25  808.7898
  26  672.2449
  27  261.106
  28  325.0797
  29  633.7286
  30  2188.302
  31  952.1188
  32  436.6221
  33  529.0016
  34  -91.0141
  35  542.2809
  36  471.5081
  37  1148.017
  38  1364.513
  39  1461.059
  40  950.8073
  41  589.1125
  42  1133.047
  43  965.3691
  44  905.642
  45  1158.094
  46  566.5918
  47  903.0397
  48  810.3807
  49  1346.911
  50  1425.99
  51  958.7966
  52  387.7546
  53  754.0571
  54  1012.559
  55  964.7952
  56  1295.1
  57  2124.935
  58  1228.17
  59  556.6903
  60  1320.159
  61  577.8238
  62  1332.635
  63  2068.84
  64  265.6025
  65  916.2665
  66  1499.624
  67  2079.565
  68  1391.525
  69  1211.552
  70  1241.408
  71  988.3502
  72  1784.066
  73  1009.174
  74  1227.935
  75  1335.229
  76  1387.928
  77  1403.315
  78  992.5765
  79  522.3645
  80  179.3477
  81  186.3303
  82  981.353
  83  729.5566
  84  727.8033
  85  505.6458
  86  192.7407
  87  585.9385
  88  1556.796
  89  1191.321
  90  810.5443
  91  809.2661
  92  842.1668
  93  757.5741
  94  772.7128
  95  892.3811
  96  746.7963
  97  1136.054
  98  370.2835
  99  -152.9079
 100  488.546
 101  340.0728
 102  459.8453
 103  -41.17927
 104  -205.9694
 105  349.9025
 106  738.8729
 107  30.96361
 108  70.09534
 109  30.73835
 110  1168.909
 111  1087.297
 112  643.4476
 113  1334.354
 114  697.2528
 115  485.9698
 116  271.8036
 117  652.2067
 118  485.0215
 119  301.8888
 120  1317.718
 121  626.736
 122  730.6766
 123  1237.975
 124  1576.412
 125  1184.597
 126  684.7133
 127  1080.493
 128  1032.913
 129  653.3371
 130  1330.29
 131  2071.523
 132  1168.663
 133  748.5023
 134  1436.006
 135  1068.903
 136  1356.54
 137  686.8365
 138  1180.075
 139  945.0117
 140  1313.761
 141  276.7201
 142  728.5661
 143  1054.123
 144  811.9591
 145  1012.15
 146  834.4943
 147  564.5654
 148  19.17499
 149  929.0657
 150  711.3533
 151  457.3641
 152  433.8226
 153  306.2715
 154  896.1198
 155  806.7919
 156  840.4446
 157  1153.527
 158  2436.49
 159  3317.131
 160  3962.197
 161  2521
 162  1553.286
 163  1082.431
 164  1613.845
 165  2129.271
 166  1021.956
 167  898.1537
 168  1683.035
 169  842.9942
 170  1458.8
 171  1065.418
 172  514.584
 173  526.1451
 174  884.9404
 175  173.5867
 176  593.093
 177  813.3379
 178  1602.011
 179  260.5145
 180  887.2214
 181  1107.531
 182  1821.178
 183  782.0595
 184  1209.512
 185  909.1384
 186  1003.975
 187  687.4614
 188  1420.602
 189  545.6754
 190  1436.843
 191  1100.253
 192  1.791997
 193  685.5172
 194  795.2694
 195  587.5485
 196  628.235
 197  735.4004
 198  1108.253
 199  175.1756
 200  213.6976
 201  320.2998
 202  345.3837
 203  -271.3164
 204  214.0936
 205  928.1804
 206  1612.949
 207  548.1525
 208  931.9292
 209  660.6135
 210  778.7318
 211  741.7542
 212  161.2704
 213  164.6722
 214  625.4803
 215  1452.755
 216  969.9859
 217  698.6019
 218  143.8787
 219  167.8588
 220  816.0085
 221  1362.606
 222  1459.053
 223  837.5139
 224  996.8237
 225  1047.841
 226  1161.937
 227  410.386
 228  639.7704
 229  1687.343
 230  1428.076
 231  642.3696
 232  490.0524
 233  1399.472
 234  878.1227
 235  734.0531
 236  1555.46
 237  173.7506
 238  373.3317
 239  696.1975
 240  90.18904
 241  506.778
 242  1058.544
 243  1127.056
 244  811.863
 245  1149.37
 246  1006.779
 247  1186.811
 248  924.4209
 249  1040.828
 250  526.9792
 251  529.111
 252  410.5667
 253  1277.295
 254  1207.936
 255  198.1664
