# Input file       =  1191609817.124128_cleaned.dat
# Candidate        =  PSR_0332+5434
# Telescope        =  AR
# Epoch_topo       =  58035.780510695928
# Epoch_bary       =  N/A
# T_sample         =  0.002
# Data Folded      =  7208960
# Data Avg         =  0.00873599220160632
# Data StdDev      =  1.00015729448323 
# Profile Bins     =  512
# Profile Avg      =  122.91070246122  
# Profile StdDev   =  118.677840227267 
# Reduced chi-sqr  =  1.663
# Prob(Noise)      <  2.64e-19   (~8.9 sigma)
# P_topo (ms)      =  714.47789057828   +/- 0.000181
# P'_topo (s/s)    =  -0                +/- 9.74e-11
# P''_topo (s/s^2) =  0                 +/- 4.38e-14
# P_bary (ms)      =  N/A
# P'_bary (s/s)    =  N/A
# P''_bary (s/s^2) =  N/A
# P_orb (s)        =  N/A
# asin(i)/c (s)    =  N/A
# eccentricity     =  N/A
# w (rad)          =  N/A
# T_peri           =  N/A
######################################################
   0  132.443
   1  190.0714
   2  193.0992
   3  52.40672
   4  84.07584
   5  131.3238
   6  135.358
   7  123.3503
   8  80.88827
   9  171.4234
  10  76.48456
  11  122.9934
  12  147.0729
  13  26.27211
  14  100.9095
  15  217.0951
  16  91.19678
  17  16.83464
  18  43.58432
  19  182.7964
  20  304.2076
  21  227.8521
  22  133.7462
  23  227.225
  24  289.3776
  25  134.3757
  26  70.73962
  27  144.0547
  28  198.7901
  29  112.5025
  30  115.3909
  31  131.6184
  32  15.31158
  33  160.5905
  34  136.2348
  35  -3.812232
  36  54.74988
  37  111.2741
  38  134.9897
  39  5.320068
  40  55.66407
  41  171.0183
  42  187.0501
  43  141.0285
  44  118.4289
  45  54.59324
  46  127.019
  47  197.7163
  48  274.0388
  49  147.0988
  50  23.50572
  51  -10.18004
  52  124.0219
  53  60.78047
  54  63.87167
  55  241.7542
  56  105.4113
  57  -17.2852
  58  -69.34832
  59  35.00422
  60  21.11471
  61  78.59541
  62  55.95701
  63  0.4254
  64  23.92219
  65  18.91166
  66  16.26204
  67  79.17073
  68  117.8719
  69  130.7209
  70  5.889246
  71  -43.34372
  72  50.81371
  73  118.5196
  74  165.7483
  75  65.10054
  76  8.767927
  77  52.90992
  78  -45.05357
  79  93.30128
  80  55.87606
  81  74.47961
  82  168.4458
  83  182.4288
  84  88.0517
  85  117.4308
  86  190.3738
  87  238.144
  88  117.9264
  89  11.30492
  90  152.9229
  91  161.6851
  92  2.526483
  93  56.11216
  94  106.704
  95  141.5693
  96  45.56804
  97  120.0773
  98  215.5461
  99  87.9879
 100  6.821069
 101  19.21336
 102  142.0016
 103  159.2966
 104  162.0233
 105  85.50642
 106  86.8217
 107  213.9249
 108  138.1315
 109  17.68586
 110  52.96657
 111  96.01057
 112  19.6771
 113  132.0802
 114  146.6019
 115  125.5576
 116  111.4796
 117  121.5349
 118  26.87684
 119  86.06007
 120  99.15698
 121  32.14671
 122  53.16365
 123  -34.19178
 124  -5.593997
 125  18.48763
 126  27.0153
 127  48.91629
 128  85.66589
 129  154.5182
 130  155.523
 131  174.034
 132  210.899
 133  92.59839
 134  23.79211
 135  103.7407
 136  164.7229
 137  137.96
 138  145.7412
 139  102.5084
 140  12.7005
 141  21.47759
 142  -3.78931
 143  130.8156
 144  205.6011
 145  129.7992
 146  85.08718
 147  8.530392
 148  121.8332
 149  179.2346
 150  157.8427
 151  80.91572
 152  7.094713
 153  136.0475
 154  220.2751
 155  18.74169
 156  77.02912
 157  123.9991
 158  137.799
 159  49.94708
 160  142.5306
 161  220.979
 162  240.8991
 163  214.0181
 164  148.2485
 165  186.8165
 166  117.6271
 167  113.6907
 168  2.795824
 169  24.29771
 170  67.01222
 171  186.6631
 172  172.3287
 173  174.3136
 174  100.7549
 175  133.1814
 176  -4.799448
 177  122.2873
 178  187.2014
 179  87.72312
 180  73.6999
 181  157.4317
 182  97.09319
 183  70.86288
 184  209.8975
 185  32.60917
 186  92.48276
 187  273.0471
 188  184.7386
 189  113.022
 190  42.01481
 191  113.7953
 192  43.94016
 193  71.93708
 194  18.91243
 195  3.403061
 196  34.71932
 197  14.44544
 198  -1.577125
 199  101.5525
 200  -43.72304
 201  -11.34269
 202  155.7185
 203  64.76884
 204  -17.80942
 205  -26.4069
 206  127.9748
 207  134.786
 208  4.769545
 209  42.3149
 210  -63.13255
 211  71.97377
 212  179.1151
 213  196.5193
 214  95.0181
 215  112.74
 216  3.748711
 217  40.76561
 218  104.6078
 219  228.8216
 220  193.7951
 221  195.0322
 222  221.9025
 223  221.6683
 224  71.42558
 225  105.1294
 226  106.3112
 227  187.6548
 228  271.1788
 229  268.4444
 230  253.4418
 231  181.448
 232  321.2425
 233  501.0713
 234  626.7538
 235  853.3388
 236  1060.776
 237  876.1313
 238  663.8002
 239  368.0182
 240  291.2378
 241  140.9423
 242  30.88729
 243  -14.47547
 244  13.02912
 245  135.2124
 246  117.8626
 247  3.651635
 248  13.80967
 249  113.8943
 250  156.5731
 251  292.0907
 252  340.237
 253  160.2716
 254  179.5459
 255  168.568
 256  140.9027
 257  113.9612
 258  235.07
 259  209.1294
 260  180.6942
 261  173.5024
 262  218.3848
 263  241.3394
 264  127.659
 265  167.6818
 266  118.896
 267  87.31745
 268  154.7858
 269  73.3561
 270  243.2241
 271  372.3607
 272  214.9607
 273  -1.660587
 274  -5.820901
 275  251.5962
 276  232.2905
 277  257.4302
 278  153.4082
 279  160.0381
 280  167.2272
 281  163.3516
 282  66.10573
 283  20.19837
 284  17.85571
 285  143.9371
 286  64.33562
 287  65.05617
 288  77.77309
 289  80.19847
 290  116.6325
 291  173.3683
 292  99.71743
 293  42.85369
 294  -47.56155
 295  -19.96488
 296  -71.19767
 297  -9.53865
 298  60.23078
 299  94.27658
 300  173.9839
 301  107.1814
 302  46.7462
 303  1.753058
 304  8.839431
 305  -4.114638
 306  66.83083
 307  194.2321
 308  134.0211
 309  78.50653
 310  58.93843
 311  -2.030087
 312  64.34854
 313  128.4183
 314  79.84046
 315  53.36709
 316  166.8517
 317  227.3618
 318  73.58775
 319  47.15984
 320  111.7843
 321  135.8379
 322  118.7095
 323  61.70582
 324  129.3382
 325  23.43412
 326  52.90684
 327  248.3823
 328  323.3973
 329  244.4142
 330  155.5941
 331  -25.6727
 332  40.97818
 333  159.7965
 334  239.6862
 335  48.29166
 336  9.84203
 337  123.0147
 338  175.7286
 339  146.1125
 340  192.7414
 341  83.22197
 342  168.4292
 343  351.3724
 344  164.387
 345  -21.60578
 346  34.9221
 347  10.52722
 348  29.72699
 349  106.337
 350  25.24731
 351  147.4338
 352  101.8939
 353  105.7614
 354  206.9346
 355  151.6786
 356  153.0081
 357  250.2144
 358  209.3606
 359  211.2118
 360  82.78806
 361  217.1423
 362  91.40357
 363  175.5371
 364  137.0556
 365  -9.267197
 366  -94.85174
 367  5.67226
 368  -44.99096
 369  92.8606
 370  147.8755
 371  269.0593
 372  136.3159
 373  183.4268
 374  -40.80283
 375  -62.19296
 376  68.24866
 377  68.4262
 378  42.76155
 379  52.35437
 380  84.47725
 381  161.1192
 382  85.69604
 383  -7.094828
 384  -36.06633
 385  53.31094
 386  82.27388
 387  207.5666
 388  248.5804
 389  171.6079
 390  291.8189
 391  182.0006
 392  78.84381
 393  77.71617
 394  142.4722
 395  113.2458
 396  36.42147
 397  88.163
 398  47.87051
 399  194.9117
 400  218.0302
 401  106.3757
 402  168.0605
 403  273.9836
 404  96.63102
 405  12.16778
 406  93.69392
 407  136.0945
 408  109.6636
 409  112.3543
 410  93.99393
 411  23.60659
 412  64.44421
 413  166.4635
 414  102.5143
 415  59.97473
 416  104.3539
 417  161.4103
 418  141.7043
 419  27.25867
 420  16.79837
 421  -4.957559
 422  43.90457
 423  186.3237
 424  42.18515
 425  81.0763
 426  70.77605
 427  53.2961
 428  279.4722
 429  203.3187
 430  120.0886
 431  -18.41869
 432  147.2727
 433  188.9922
 434  127.6528
 435  58.58995
 436  -58.72556
 437  -9.892561
 438  -7.759617
 439  -15.19428
 440  138.3659
 441  240.3047
 442  75.73746
 443  157.4398
 444  136.0912
 445  128.4902
 446  107.2116
 447  183.4356
 448  265.6017
 449  382.7292
 450  177.5062
 451  197.1196
 452  222.2575
 453  337.2084
 454  322.4728
 455  83.12357
 456  73.28984
 457  260.0191
 458  353.1141
 459  226.7735
 460  224.5
 461  208.8561
 462  149.0396
 463  112.1452
 464  151.2388
 465  214.8213
 466  126.1057
 467  126.9144
 468  123.9371
 469  185.0718
 470  127.315
 471  187.7355
 472  164.0317
 473  -11.51702
 474  147.8359
 475  117.4517
 476  98.37097
 477  104.09
 478  175.8988
 479  268.7965
 480  143.1124
 481  179.1956
 482  193.465
 483  58.00267
 484  -19.21852
 485  83.90025
 486  218.463
 487  143.6011
 488  194.5274
 489  85.71133
 490  41.29713
 491  -26.0129
 492  173.885
 493  205.8643
 494  126.7069
 495  134.4664
 496  56.63253
 497  108.3984
 498  171.4862
 499  188.7776
 500  229.9553
 501  245.8164
 502  168.4115
 503  200.2295
 504  207.3421
 505  140.2632
 506  90.85402
 507  75.27089
 508  181.6833
 509  167.8621
 510  138.3609
 511  84.46606
