# Input file       =  1191868328.113797_cleaned.dat
# Candidate        =  PSR_0332+5434
# Telescope        =  AR
# Epoch_topo       =  58038.772536039316
# Epoch_bary       =  N/A
# T_sample         =  0.002
# Data Folded      =  7143424
# Data Avg         =  0.0197853615941105
# Data StdDev      =  3.09011861724055 
# Profile Bins     =  512
# Profile Avg      =  275.935616684759 
# Profile StdDev   =  365.000436949519 
# Reduced chi-sqr  =  1.226
# Prob(Noise)      <  0.000353   (~3.4 sigma)
# P_topo (ms)      =  714.479930557259  +/- 0.000106
# P'_topo (s/s)    =  -0                +/- 5.74e-11
# P''_topo (s/s^2) =  0                 +/- 2.6e-14
# P_bary (ms)      =  N/A
# P'_bary (s/s)    =  N/A
# P''_bary (s/s^2) =  N/A
# P_orb (s)        =  N/A
# asin(i)/c (s)    =  N/A
# eccentricity     =  N/A
# w (rad)          =  N/A
# T_peri           =  N/A
######################################################
   0  252.0405
   1  268.791
   2  430.7642
   3  272.3388
   4  507.203
   5  388.9263
   6  306.8016
   7  520.2404
   8  368.2427
   9  251.0143
  10  197.9945
  11  411.0304
  12  397.7025
  13  317.0578
  14  447.7742
  15  520.2307
  16  541.8137
  17  368.777
  18  194.3671
  19  43.5386
  20  351.2876
  21  467.8094
  22  298.9478
  23  156.0207
  24  393.406
  25  365.8549
  26  410.2989
  27  184.8086
  28  284.4092
  29  666.2933
  30  489.494
  31  687.8109
  32  442.5657
  33  336.9129
  34  204.8343
  35  174.1676
  36  369.3553
  37  706.034
  38  688.4617
  39  679.0602
  40  789.1181
  41  593.6236
  42  472.8498
  43  164.6436
  44  369.8259
  45  321.8896
  46  465.7369
  47  298.2177
  48  203.0996
  49  262.6145
  50  -67.63979
  51  -314.1761
  52  -39.4005
  53  -5.45124
  54  200.509
  55  310.1407
  56  256.8607
  57  247.8186
  58  80.94043
  59  -181.8279
  60  -242.0141
  61  -29.23827
  62  284.8754
  63  417.7297
  64  199.0271
  65  176.58
  66  11.28893
  67  -65.20959
  68  -166.6762
  69  -76.37051
  70  472.0565
  71  564.2606
  72  423.5712
  73  412.3099
  74  331.3166
  75  409.3667
  76  372.7624
  77  -76.17461
  78  -382.7427
  79  8.527235
  80  292.7784
  81  332.2115
  82  166.7202
  83  341.5406
  84  291.8976
  85  82.49391
  86  -214.9702
  87  144.0968
  88  228.1776
  89  527.3902
  90  577.6109
  91  455.1814
  92  -25.09805
  93  -34.4435
  94  105.8227
  95  378.4319
  96  687.2814
  97  545.7994
  98  439.4565
  99  423.8803
 100  429.0851
 101  146.1837
 102  382.316
 103  425.2159
 104  360.6853
 105  111.5226
 106  257.7828
 107  257.5826
 108  187.9021
 109  541.3502
 110  265.9406
 111  195.7266
 112  322.7889
 113  584.1765
 114  781.0831
 115  286.9256
 116  291.5873
 117  254.5392
 118  473.6682
 119  419.9857
 120  378.9302
 121  323.4403
 122  655.063
 123  449.8338
 124  -120.0413
 125  120.362
 126  341.8729
 127  198.7331
 128  251.4256
 129  591.3367
 130  594.2659
 131  365.8464
 132  94.88978
 133  327.0894
 134  224.3398
 135  287.7725
 136  299.326
 137  166.9688
 138  76.43729
 139  43.65335
 140  127.1458
 141  177.7418
 142  99.61314
 143  -73.159
 144  144.9601
 145  281.2314
 146  372.4363
 147  441.6467
 148  250.6528
 149  106.1884
 150  -215.0603
 151  -415.7173
 152  -236.2127
 153  5.342424
 154  203.5828
 155  269.6921
 156  300.0041
 157  155.381
 158  236.4502
 159  -59.23901
 160  22.33584
 161  323.2017
 162  484.312
 163  281.2314
 164  161.4371
 165  201.6593
 166  -10.93483
 167  122.2014
 168  213.6851
 169  97.7465
 170  -7.308976
 171  90.75563
 172  93.94782
 173  -89.07376
 174  -359.1416
 175  -353.9745
 176  104.7913
 177  165.326
 178  289.6962
 179  166.6429
 180  48.27999
 181  -63.91396
 182  100.1623
 183  9.849652
 184  149.0157
 185  181.5924
 186  335.8407
 187  213.9095
 188  2.343786
 189  111.686
 190  244.885
 191  27.82445
 192  54.68464
 193  78.40141
 194  250.9204
 195  188.8159
 196  109.7483
 197  384.0561
 198  391.7358
 199  219.4387
 200  208.9369
 201  175.4244
 202  456.4115
 203  478.4572
 204  434.2304
 205  315.3959
 206  367.2163
 207  -36.09185
 208  -234.1629
 209  1.730051
 210  -224.1024
 211  -101.0355
 212  150.2986
 213  33.18695
 214  112.2401
 215  212.8207
 216  -146.1625
 217  -406.6958
 218  -404.7834
 219  198.2046
 220  290.7843
 221  210.1105
 222  219.4677
 223  3.409407
 224  211.8706
 225  201.8377
 226  5.52579
 227  -140.1823
 228  407.4649
 229  579.1416
 230  353.3614
 231  212.0669
 232  307.9508
 233  161.3458
 234  53.50164
 235  -181.396
 236  46.21323
 237  91.24316
 238  104.832
 239  213.2986
 240  259.0632
 241  96.97655
 242  -136.5005
 243  -2.198715
 244  253.9589
 245  333.738
 246  131.8893
 247  277.7368
 248  325.1525
 249  -43.56739
 250  -59.12192
 251  -113.4977
 252  -105.5581
 253  72.994
 254  323.6785
 255  400.0747
 256  299.8971
 257  -134.9159
 258  -409.2988
 259  -301.7354
 260  104.2826
 261  159.081
 262  265.5385
 263  361.7719
 264  113.6326
 265  251.4479
 266  165.8793
 267  279.0617
 268  243.5787
 269  302.3506
 270  281.2203
 271  462.0267
 272  498.9796
 273  164.396
 274  21.88064
 275  285.6112
 276  567.7881
 277  574.8266
 278  660.4368
 279  393.0118
 280  193.5481
 281  288.3731
 282  118.7298
 283  595.0066
 284  339.7327
 285  467.9774
 286  611.8959
 287  403.3161
 288  445.9235
 289  562.0413
 290  588.1874
 291  295.2015
 292  359.0001
 293  294.2784
 294  187.4623
 295  424.9424
 296  606.2606
 297  392.3333
 298  652.3586
 299  581.7231
 300  328.5501
 301  466.9244
 302  80.00625
 303  479.8499
 304  337.3741
 305  292.2303
 306  413.0793
 307  440.8285
 308  627.5458
 309  610.8614
 310  615.2756
 311  688.4459
 312  648.6286
 313  927.4763
 314  860.7098
 315  824.4175
 316  1095.615
 317  1701.635
 318  2109.755
 319  2115.146
 320  2106.281
 321  1780.242
 322  1129.906
 323  518.987
 324  240.3392
 325  227.0759
 326  -124.1528
 327  82.12364
 328  421.1749
 329  375.8735
 330  761.4686
 331  639.8904
 332  385.5404
 333  305.5077
 334  248.2213
 335  396.5997
 336  512.0117
 337  300.2234
 338  368.9888
 339  400.3784
 340  578.0101
 341  188.1275
 342  -63.38523
 343  -83.76096
 344  87.80199
 345  140.2998
 346  381.4612
 347  541.0856
 348  274.2319
 349  738.087
 350  752.5158
 351  449.1774
 352  563.0624
 353  48.51222
 354  275.4499
 355  345.0737
 356  552.0853
 357  338.0078
 358  467.8195
 359  729.4499
 360  370.3271
 361  344.2671
 362  279.0122
 363  -93.94949
 364  -18.62254
 365  -92.13044
 366  3.415757
 367  228.3517
 368  78.52938
 369  209.4334
 370  482.2404
 371  469.5027
 372  502.6242
 373  289.3317
 374  340.9428
 375  100.0483
 376  196.3236
 377  243.9057
 378  370.8865
 379  304.5439
 380  240.5015
 381  255.0596
 382  439.5569
 383  212.2475
 384  -140.1893
 385  101.8316
 386  136.171
 387  331.5676
 388  303.2104
 389  238.5034
 390  408.5014
 391  296.4945
 392  167.5763
 393  128.6534
 394  82.30632
 395  325.4707
 396  405.2213
 397  128.3293
 398  98.45547
 399  -19.00981
 400  94.75739
 401  193.5536
 402  279.4695
 403  426.9085
 404  161.8388
 405  -4.22401
 406  -73.00241
 407  -328.5581
 408  -120.064
 409  -20.05718
 410  139.9097
 411  324.9547
 412  423.7449
 413  544.9305
 414  249.1212
 415  -19.32912
 416  -93.70098
 417  157.1492
 418  79.79579
 419  168.8961
 420  286.795
 421  300.1109
 422  322.2056
 423  340.9779
 424  237.1608
 425  289.243
 426  519.2044
 427  430.9619
 428  354.9645
 429  279.2376
 430  564.9322
 431  605.2713
 432  671.1935
 433  510.0591
 434  247.401
 435  193.009
 436  482.4949
 437  121.4317
 438  335.55
 439  44.35606
 440  -85.41956
 441  280.4942
 442  171.1292
 443  205.7174
 444  354.799
 445  211.7899
 446  508.116
 447  641.3937
 448  178.8343
 449  -101.362
 450  127.2213
 451  54.32735
 452  263.839
 453  465.6226
 454  572.174
 455  293.0743
 456  511.5309
 457  916.1321
 458  764.9641
 459  499.0655
 460  478.118
 461  444.0616
 462  375.4834
 463  396.6348
 464  83.63413
 465  109.9367
 466  324.5516
 467  153.3714
 468  1.700033
 469  -12.10318
 470  -5.374499
 471  -156.9067
 472  -35.27254
 473  11.76798
 474  45.3419
 475  -49.44047
 476  217.8871
 477  125.9906
 478  -153.7729
 479  88.27389
 480  58.30452
 481  189.0436
 482  201.51
 483  98.4509
 484  201.2442
 485  444.953
 486  180.7956
 487  30.21042
 488  -99.73611
 489  53.83051
 490  230.563
 491  160.2175
 492  335.466
 493  167.3039
 494  312.2819
 495  766.5247
 496  645.5405
 497  130.4934
 498  103.0229
 499  315.075
 500  377.7324
 501  576.0975
 502  561.5373
 503  846.3204
 504  649.9091
 505  502.0996
 506  55.51444
 507  96.42281
 508  437.0925
 509  662.8869
 510  607.7426
 511  166.3181
