# Input file       =  1191983994.125854-PSRB0329-2ms-sampling-dd.dat
# Candidate        =  PSR_0332+5434
# Telescope        =  AR
# Epoch_topo       =  58040.111263030718
# Epoch_bary       =  N/A
# T_sample         =  0.002
# Data Folded      =  7340032
# Data Avg         =  8.88685994315446e-11
# Data StdDev      =  4.98042923462105 
# Profile Bins     =  512
# Profile Avg      =  -0.194209514319193
# Profile StdDev   =  596.321914720792 
# Reduced chi-sqr  =  0.822
# Prob(Noise)      <  0.999   (~0.0 sigma)
# P_topo (ms)      =  714.481232806677  +/- 0.000126
# P'_topo (s/s)    =  -0                +/- 6.67e-11
# P''_topo (s/s^2) =  0                 +/- 2.95e-14
# P_bary (ms)      =  N/A
# P'_bary (s/s)    =  N/A
# P''_bary (s/s^2) =  N/A
# P_orb (s)        =  N/A
# asin(i)/c (s)    =  N/A
# eccentricity     =  N/A
# w (rad)          =  N/A
# T_peri           =  N/A
######################################################
   0  -943.2396
   1  -1079.54
   2  -965.5391
   3  -793.0817
   4  -196.0598
   5  -107.2497
   6  49.12173
   7  -278.3354
   8  -314.1394
   9  -486.4906
  10  -321.4666
  11  -171.5187
  12  -174.4342
  13  -72.88585
  14  -180.595
  15  408.272
  16  271.5169
  17  132.4796
  18  190.9072
  19  31.76171
  20  -322.8835
  21  -747.3204
  22  -394.1338
  23  37.06563
  24  215.1226
  25  -52.00045
  26  -134.3236
  27  -255.0757
  28  -475.2632
  29  -684.9486
  30  -258.0219
  31  -329.6722
  32  -61.50581
  33  -353.8738
  34  -222.2643
  35  -625.1197
  36  -437.1566
  37  -273.2487
  38  -136.8394
  39  -48.27649
  40  -445.284
  41  -191.4734
  42  -95.14231
  43  192.1312
  44  280.541
  45  655.4293
  46  414.209
  47  488.5691
  48  512.5903
  49  17.45918
  50  -367.0238
  51  -14.73982
  52  133.057
  53  27.2581
  54  274.8948
  55  264.8799
  56  -6.632929
  57  -482.889
  58  -337.5935
  59  -17.91121
  60  -376.6787
  61  -124.3307
  62  -318.0282
  63  -133.0503
  64  17.99552
  65  -300.5856
  66  -440.6979
  67  -117.8284
  68  -106.8552
  69  -417.0201
  70  2.545059
  71  540.0322
  72  -9.890987
  73  -50.09134
  74  166.8302
  75  427.0511
  76  275.394
  77  281.8412
  78  195.345
  79  364.0586
  80  40.55428
  81  90.96716
  82  -5.430259
  83  157.6761
  84  118.5435
  85  274.4913
  86  114.5285
  87  3.931497
  88  140.7094
  89  509.825
  90  -193.1483
  91  -101.841
  92  122.0939
  93  69.40865
  94  183.2414
  95  156.6945
  96  -29.8857
  97  50.15509
  98  1.489448
  99  -153.367
 100  -166.633
 101  -17.26778
 102  -557.3672
 103  -489.0547
 104  -118.0732
 105  142.194
 106  138.7803
 107  -248.5734
 108  -32.35303
 109  -60.59785
 110  223.9215
 111  -200.5848
 112  227.0771
 113  -19.51948
 114  -155.3196
 115  -212.2587
 116  67.2161
 117  501.8018
 118  173.1039
 119  -283.5815
 120  -275.7304
 121  -164.706
 122  -152.6642
 123  119.412
 124  -201.6893
 125  -226.5704
 126  137.5613
 127  150.5417
 128  -33.21098
 129  -57.13681
 130  37.43111
 131  -334.1177
 132  -283.3488
 133  124.9468
 134  125.8225
 135  600.7051
 136  307.2598
 137  219.4016
 138  -153.3791
 139  -631.2347
 140  -530.8898
 141  -434.2981
 142  255.5677
 143  358.1865
 144  158.6131
 145  102.0926
 146  50.25807
 147  278.6039
 148  557.1089
 149  460.8144
 150  529.8769
 151  853.5963
 152  263.1154
 153  -167.4811
 154  177.305
 155  78.23513
 156  237.2003
 157  501.1846
 158  257.8683
 159  -307.2438
 160  -469.8213
 161  -156.1904
 162  697.9
 163  899.0233
 164  292.0837
 165  222.1783
 166  435.6617
 167  289.1481
 168  180.7324
 169  369.6647
 170  719.0674
 171  849.2651
 172  484.8275
 173  467.3657
 174  420.9184
 175  283.0871
 176  592.5217
 177  377.869
 178  247.0798
 179  81.24628
 180  -203.1106
 181  -66.63765
 182  -18.75004
 183  79.52763
 184  446.8379
 185  466.8495
 186  96.83614
 187  115.7856
 188  603.7079
 189  268.4762
 190  49.78022
 191  -168.207
 192  148.7856
 193  51.09244
 194  178.7981
 195  61.31439
 196  50.62115
 197  -13.3923
 198  65.66455
 199  -65.9552
 200  159.349
 201  -59.37475
 202  -255.8813
 203  -197.8353
 204  -136.5834
 205  48.70965
 206  -89.3489
 207  -450.3068
 208  -238.192
 209  302.5747
 210  394.5752
 211  257.336
 212  99.47417
 213  -185.7005
 214  -492.1585
 215  -606.0425
 216  -217.9356
 217  14.53766
 218  464.3227
 219  319.937
 220  64.46397
 221  -533.0082
 222  -329.4742
 223  -276.44
 224  97.72507
 225  -40.0945
 226  -99.94304
 227  537.4999
 228  -80.44373
 229  182.3765
 230  -209.6904
 231  -462.0083
 232  249.3796
 233  95.47933
 234  -263.6993
 235  -502.6226
 236  -380.8
 237  398.8307
 238  391.2177
 239  593.1717
 240  771.021
 241  753.2593
 242  436.3177
 243  6.29779
 244  92.65685
 245  663.664
 246  76.87696
 247  110.7647
 248  -127.7852
 249  -170.2931
 250  23.90185
 251  79.16796
 252  360.9604
 253  504.1685
 254  582.5832
 255  253.3157
 256  -134.3143
 257  56.00225
 258  67.69307
 259  828.0566
 260  387.6063
 261  406.8746
 262  759.7334
 263  662.6722
 264  310.7786
 265  136.4422
 266  253.2782
 267  15.03734
 268  -164.2642
 269  74.43257
 270  310.8706
 271  705.6854
 272  335.5251
 273  250.0423
 274  230.2882
 275  105.5328
 276  36.80362
 277  429.5874
 278  756.9398
 279  941.3772
 280  491.6701
 281  544.0421
 282  541.7974
 283  602.576
 284  551.8231
 285  7.418962
 286  163.4986
 287  239.8311
 288  -258.7124
 289  -526.5078
 290  -402.8831
 291  103.8644
 292  -94.53844
 293  -51.89749
 294  -221.0643
 295  -458.2747
 296  -470.5356
 297  -620.0748
 298  0.7561811
 299  651.0277
 300  212.5921
 301  360.2449
 302  57.26863
 303  -33.58693
 304  -188.7888
 305  -225.0966
 306  35.91555
 307  -276.2582
 308  -424.5687
 309  -598.8038
 310  -287.575
 311  59.46978
 312  263.733
 313  185.2408
 314  24.18921
 315  -114.1571
 316  -323.9388
 317  -501.3464
 318  -329.2159
 319  -165.3616
 320  353.3917
 321  476.0987
 322  -152.0849
 323  -236.9374
 324  -367.726
 325  -310.4509
 326  201.9273
 327  232.8088
 328  602.3542
 329  -18.72426
 330  -679.6235
 331  -494.0753
 332  -194.3944
 333  54.1664
 334  -181.5925
 335  374.4177
 336  528.2761
 337  231.0816
 338  137.6344
 339  -250.8049
 340  -533.9843
 341  -495.5495
 342  63.60337
 343  -28.86757
 344  -204.8954
 345  -202.9155
 346  -311.989
 347  -463.839
 348  -319.9241
 349  -614.5051
 350  -442.194
 351  -223.9756
 352  9.700657
 353  509.4789
 354  796.5291
 355  354.7914
 356  -377.7999
 357  -35.92698
 358  256.3466
 359  199.9646
 360  486.4691
 361  611.7697
 362  440.3828
 363  56.21022
 364  -209.5919
 365  21.19205
 366  64.98449
 367  -98.65534
 368  -75.03361
 369  -181.4475
 370  -275.7565
 371  -961.9127
 372  -454.4322
 373  -412.1746
 374  -126.8346
 375  -123.5578
 376  92.89703
 377  95.49345
 378  -341.1156
 379  184.5097
 380  299.7066
 381  83.96143
 382  302.7438
 383  -230.713
 384  -129.7706
 385  41.96087
 386  205.1717
 387  444.1117
 388  158.6546
 389  65.22246
 390  -151.4201
 391  -363.3546
 392  -591.8157
 393  -463.4981
 394  138.8395
 395  215.2691
 396  -513.9717
 397  -586.4857
 398  -352.0181
 399  -389.4651
 400  -402.5743
 401  -437.8096
 402  5.453088
 403  132.7033
 404  40.99909
 405  -145.3424
 406  -406.7148
 407  -551.1268
 408  -641.3589
 409  -194.4981
 410  159.4894
 411  -91.5377
 412  -494.8554
 413  -565.6171
 414  -492.5515
 415  -931.116
 416  -864.9096
 417  -547.597
 418  -398.2216
 419  163.7624
 420  179.6281
 421  282.2045
 422  -346.4027
 423  -709.0181
 424  -814.6338
 425  -761.8948
 426  -79.22913
 427  174.4931
 428  126.7632
 429  68.69226
 430  -111.3499
 431  -377.6898
 432  -498.0648
 433  -152.4682
 434  567.4305
 435  949.2656
 436  853.9338
 437  1108.683
 438  1441.254
 439  1597.625
 440  1034.373
 441  1535.386
 442  1398.981
 443  990.8442
 444  878.8633
 445  -72.59402
 446  -325.8211
 447  -355.7414
 448  -297.6551
 449  -211.0092
 450  -457.6677
 451  -65.92559
 452  159.8888
 453  320.041
 454  233.6714
 455  194.1764
 456  133.5981
 457  -132.9687
 458  125.4899
 459  -146.6571
 460  327.3598
 461  309.0532
 462  266.5532
 463  -63.01538
 464  -126.7935
 465  -66.47828
 466  -66.90862
 467  17.38104
 468  -24.28269
 469  -131.4278
 470  -208.3358
 471  -541.6315
 472  -761.9586
 473  -676.7744
 474  -548.8942
 475  -305.4708
 476  -538.8513
 477  -613.4159
 478  -885.5366
 479  -690.0093
 480  -98.16272
 481  -167.2063
 482  -319.8879
 483  -196.4731
 484  -430.0748
 485  -564.6153
 486  -603.9705
 487  -277.1167
 488  349.0196
 489  396.5457
 490  109.464
 491  75.12937
 492  -272.9051
 493  -99.46166
 494  -170.097
 495  306.9584
 496  -129.3734
 497  -201.8372
 498  -228.7252
 499  -416.0737
 500  -288.2708
 501  21.07689
 502  527.7527
 503  203.7149
 504  -127.6375
 505  -283.4115
 506  -463.9929
 507  -779.7787
 508  -239.1573
 509  157.9694
 510  86.62081
 511  -406.4354
