# Input file       =  1191437533.143266-PSRB0329-2ms-sampling-dd.dat
# Candidate        =  PSR_0332+5434
# Telescope        =  AR
# Epoch_topo       =  58033.786483139651
# Epoch_bary       =  N/A
# T_sample         =  0.002
# Data Folded      =  7208960
# Data Avg         =  5.58859682260358e-10
# Data StdDev      =  4.49413009489535 
# Profile Bins     =  512
# Profile Avg      =  0.0705772160325446
# Profile StdDev   =  533.269772969183 
# Reduced chi-sqr  =  0.829
# Prob(Noise)      <  0.998   (~0.0 sigma)
# P_topo (ms)      =  714.476597993033  +/- 0.000135
# P'_topo (s/s)    =  -0                +/- 7.26e-11
# P''_topo (s/s^2) =  0                 +/- 3.26e-14
# P_bary (ms)      =  N/A
# P'_bary (s/s)    =  N/A
# P''_bary (s/s^2) =  N/A
# P_orb (s)        =  N/A
# asin(i)/c (s)    =  N/A
# eccentricity     =  N/A
# w (rad)          =  N/A
# T_peri           =  N/A
######################################################
   0  -529.0904
   1  -623.0856
   2  -566.826
   3  -573.0468
   4  -301.1562
   5  -249.1971
   6  -255.1386
   7  -297.6284
   8  -481.329
   9  -630.4724
  10  -457.7673
  11  -504.4995
  12  -425.4294
  13  -273.2575
  14  -473.9929
  15  -195.3788
  16  -200.4794
  17  -422.478
  18  -209.8424
  19  -434.6385
  20  -432.1992
  21  -217.1637
  22  -235.1604
  23  -394.5289
  24  -478.0398
  25  -637.9017
  26  -747.2987
  27  -737.3266
  28  -539.2951
  29  -719.7701
  30  -650.1865
  31  -295.6805
  32  -323.7592
  33  -379.2508
  34  -536.6933
  35  -449.2741
  36  -234.2348
  37  -81.58757
  38  -409.1724
  39  -381.7331
  40  78.65594
  41  -83.81207
  42  -200.9027
  43  -180.9479
  44  111.0309
  45  -131.9959
  46  104.7434
  47  380.4503
  48  206.8277
  49  191.5728
  50  -133.6162
  51  -320.8179
  52  -394.7899
  53  -314.4632
  54  -380.598
  55  -56.15982
  56  -71.84413
  57  -319.101
  58  -391.6629
  59  -185.1028
  60  -355.1389
  61  -553.6407
  62  -203.8665
  63  -132.7596
  64  117.1041
  65  192.5654
  66  10.30516
  67  -355.1588
  68  -135.3999
  69  -133.9828
  70  -323.6581
  71  -516.0656
  72  -337.6338
  73  -310.8984
  74  -180.9305
  75  -109.4569
  76  -437.1342
  77  -397.5367
  78  -357.7463
  79  -63.36151
  80  202.3075
  81  162.929
  82  -46.80972
  83  -123.0499
  84  -344.7318
  85  -435.5429
  86  -475.9964
  87  -310.7359
  88  382.1392
  89  218.3967
  90  2.469491
  91  -82.66507
  92  -92.58243
  93  -217.0016
  94  -464.3826
  95  -329.0458
  96  -59.05352
  97  65.82056
  98  146.2157
  99  17.7958
 100  -98.89411
 101  -147.2322
 102  -216.3781
 103  -223.134
 104  43.95291
 105  -110.8402
 106  -19.9213
 107  522.6734
 108  690.9628
 109  692.9973
 110  19.09782
 111  -89.834
 112  -405.5336
 113  -106.0833
 114  313.1413
 115  340.4287
 116  -45.01353
 117  -119.4234
 118  -46.89139
 119  -316.2084
 120  8.697777
 121  173.2698
 122  107.7243
 123  286.5157
 124  -238.117
 125  -394.2204
 126  -206.107
 127  -280.6554
 128  174.2109
 129  -0.9421139
 130  225.1787
 131  28.48756
 132  268.4373
 133  490.5735
 134  39.22494
 135  -84.07007
 136  263.0699
 137  1064.781
 138  1479.223
 139  1885.479
 140  1977.8
 141  1557.963
 142  869.4086
 143  6.47081
 144  157.7511
 145  -317.8421
 146  -110.5929
 147  -69.45255
 148  157.584
 149  -85.22214
 150  66.29883
 151  145.6154
 152  -21.82941
 153  343.7637
 154  266.0604
 155  -2.592934
 156  43.61821
 157  -121.1094
 158  188.3908
 159  -347.776
 160  -569.0953
 161  -240.3173
 162  252.557
 163  251.261
 164  221.6221
 165  10.70266
 166  23.00598
 167  14.71573
 168  -45.96254
 169  95.06319
 170  371.2743
 171  596.8367
 172  329.0118
 173  372.7237
 174  562.7111
 175  450.1584
 176  543.2693
 177  88.01787
 178  59.56918
 179  330.7135
 180  575.6478
 181  964.6088
 182  909.2522
 183  439.7233
 184  310.0142
 185  96.88943
 186  250.0132
 187  498.9308
 188  402.0089
 189  715.7113
 190  739.4716
 191  440.1786
 192  367.72
 193  268.7599
 194  98.77185
 195  410.4099
 196  161.1492
 197  115.88
 198  267.7987
 199  17.55277
 200  -98.54161
 201  23.57251
 202  -185.3535
 203  -176.6406
 204  -186.6753
 205  -278.1501
 206  -34.25069
 207  287.0002
 208  90.82722
 209  153.5838
 210  163.9866
 211  104.4112
 212  316.9841
 213  498.5479
 214  375.3322
 215  193.0764
 216  -243.7067
 217  -22.00373
 218  167.5237
 219  55.30324
 220  178.0778
 221  251.0636
 222  106.8368
 223  -115.2123
 224  -521.7061
 225  -354.5513
 226  -242.3524
 227  -383.9778
 228  -116.9027
 229  -79.56704
 230  -322.8031
 231  -431.7814
 232  -131.7858
 233  -443.6213
 234  -630.0715
 235  21.88711
 236  265.5359
 237  372.7438
 238  -24.64805
 239  -172.757
 240  -335.147
 241  -399.0536
 242  -174.4704
 243  61.05987
 244  -62.79058
 245  -433.0196
 246  -192.4996
 247  97.76086
 248  53.35575
 249  -169.8489
 250  -219.8439
 251  -40.8214
 252  -29.37432
 253  -92.18156
 254  4.044305
 255  39.15426
 256  -101.9949
 257  -122.144
 258  75.04935
 259  -219.1949
 260  -231.172
 261  60.35007
 262  600.5536
 263  581.3359
 264  470.4255
 265  513.2073
 266  184.6034
 267  154.6822
 268  215.2206
 269  391.2817
 270  212.2989
 271  268.3351
 272  428.7721
 273  252.9758
 274  500.1098
 275  369.902
 276  92.02181
 277  -111.9016
 278  248.7479
 279  391.3493
 280  206.4828
 281  402.1926
 282  233.8232
 283  67.24224
 284  -123.5606
 285  -268.5628
 286  10.35963
 287  288.5009
 288  261.2579
 289  -3.486471
 290  35.55325
 291  -98.45245
 292  -282.1037
 293  56.50086
 294  205.6124
 295  -161.2904
 296  226.7671
 297  -54.87779
 298  -86.49511
 299  384.2823
 300  276.8543
 301  103.8247
 302  135.0134
 303  78.72557
 304  309.3944
 305  173.1232
 306  -170.913
 307  -91.68189
 308  -52.35775
 309  152.578
 310  533.532
 311  480.3971
 312  170.8469
 313  203.1617
 314  -9.599775
 315  -244.8751
 316  15.50529
 317  164.1168
 318  348.3651
 319  409.0768
 320  242.9377
 321  271.7031
 322  264.2932
 323  283.6646
 324  160.3863
 325  44.74828
 326  -30.22186
 327  -119.5561
 328  18.46276
 329  211.2057
 330  83.42937
 331  312.9305
 332  101.0083
 333  -99.04107
 334  -115.5353
 335  -138.3214
 336  423.5067
 337  844.3695
 338  1324.306
 339  1306.086
 340  1017.674
 341  611.2274
 342  886.3523
 343  745.0283
 344  762.4211
 345  982.7029
 346  802.425
 347  723.1096
 348  292.8792
 349  138.0839
 350  396.8123
 351  -37.42206
 352  -208.9184
 353  63.61341
 354  -59.35662
 355  159.6454
 356  128.8532
 357  -13.64849
 358  -361.9085
 359  -523.1975
 360  -247.4732
 361  -258.2099
 362  -104.4604
 363  -169.5015
 364  -316.8208
 365  -277.5975
 366  -397.4875
 367  -654.1974
 368  -555.1567
 369  -367.4324
 370  -61.73166
 371  103.0203
 372  278.062
 373  81.64451
 374  219.6441
 375  35.94053
 376  17.1984
 377  100.941
 378  -77.73374
 379  -63.51287
 380  -10.66446
 381  -69.4842
 382  14.60505
 383  -251.9978
 384  -134.0173
 385  -177.0372
 386  -323.8978
 387  -99.30391
 388  -238.2857
 389  -50.62188
 390  -231.8176
 391  11.68863
 392  -118.4714
 393  -168.867
 394  -126.8491
 395  -101.6104
 396  -354.4529
 397  -507.5716
 398  -315.3068
 399  -450.2254
 400  -243.8252
 401  -197.5029
 402  -35.39357
 403  268.9008
 404  194.804
 405  -27.16533
 406  120.7
 407  9.03091
 408  -421.7287
 409  -355.9203
 410  106.1597
 411  156.0854
 412  -100.6414
 413  -264.5276
 414  -32.47489
 415  -329.3241
 416  -256.1983
 417  -302.0952
 418  -460.694
 419  -361.06
 420  -141.9948
 421  116.7648
 422  -230.8992
 423  288.2463
 424  340.7895
 425  44.59426
 426  -198.6088
 427  56.68206
 428  106.9219
 429  -165.1185
 430  -764.4665
 431  -389.7707
 432  -205.3572
 433  -200.8462
 434  -53.77568
 435  -54.62491
 436  -28.12652
 437  136.709
 438  126.5407
 439  -288.62
 440  -114.5852
 441  -42.70125
 442  -49.04057
 443  -99.64092
 444  -148.2433
 445  236.9502
 446  -84.2457
 447  -243.0116
 448  -227.8516
 449  230.9593
 450  98.02901
 451  -82.2132
 452  -268.88
 453  -151.5243
 454  198.996
 455  112.4796
 456  -149.2589
 457  -38.75144
 458  -14.97076
 459  -25.70548
 460  241.3151
 461  -83.16639
 462  -174.2341
 463  -368.7443
 464  -195.5943
 465  152.8344
 466  44.63036
 467  -50.88742
 468  -118.0345
 469  -87.48161
 470  66.19865
 471  -235.6754
 472  -248.7451
 473  -143.0094
 474  -147.9191
 475  -103.0803
 476  26.37452
 477  111.6559
 478  195.978
 479  225.9604
 480  -10.12581
 481  -305.7696
 482  -100.6648
 483  118.4519
 484  83.56007
 485  -34.91521
 486  6.138905
 487  91.14172
 488  -188.5066
 489  -453.0689
 490  -39.77344
 491  -199.7416
 492  104.1078
 493  192.3521
 494  78.08174
 495  105.2762
 496  49.89164
 497  -266.1796
 498  -459.5127
 499  -369.7295
 500  -70.00469
 501  -155.6571
 502  -405.4643
 503  -386.4004
 504  -198.715
 505  -66.75614
 506  117.6252
 507  109.8352
 508  187.4711
 509  104.0591
 510  80.45392
 511  -407.3759
