# Input file       =  1191351389.132284_cleaned.dat
# Candidate        =  PSR_0332+5434
# Telescope        =  AR
# Epoch_topo       =  58032.789445975512
# Epoch_bary       =  N/A
# T_sample         =  0.002
# Data Folded      =  7208960
# Data Avg         =  0.0109782836216278
# Data StdDev      =  0.999994949497313
# Profile Bins     =  512
# Profile Avg      =  154.59718042636  
# Profile StdDev   =  118.658576505044 
# Reduced chi-sqr  =  1.265
# Prob(Noise)      <  4.26e-05   (~3.9 sigma)
# P_topo (ms)      =  714.475971755863  +/- 0.000115
# P'_topo (s/s)    =  -0                +/- 6.18e-11
# P''_topo (s/s^2) =  0                 +/- 2.78e-14
# P_bary (ms)      =  N/A
# P'_bary (s/s)    =  N/A
# P''_bary (s/s^2) =  N/A
# P_orb (s)        =  N/A
# asin(i)/c (s)    =  N/A
# eccentricity     =  N/A
# w (rad)          =  N/A
# T_peri           =  N/A
######################################################
   0  188.6006
   1  141.4669
   2  203.3116
   3  159.2266
   4  16.28463
   5  16.61334
   6  199.3522
   7  39.40306
   8  140.7354
   9  251.4779
  10  182.7443
  11  155.0842
  12  240.5543
  13  259.3877
  14  307.7151
  15  228.0158
  16  150.3448
  17  43.15474
  18  -21.55945
  19  133.5269
  20  242.4422
  21  247.546
  22  265.963
  23  198.541
  24  150.5287
  25  194.3181
  26  122.6164
  27  72.72545
  28  104.1411
  29  15.89325
  30  79.92139
  31  225.5447
  32  160.7544
  33  21.04406
  34  -25.63445
  35  1.441076
  36  115.886
  37  307.2655
  38  285.5729
  39  103.2021
  40  64.71075
  41  -43.41363
  42  -3.702013
  43  164.8817
  44  227.8011
  45  184.4999
  46  205.9952
  47  188.6594
  48  196.9459
  49  198.6305
  50  237.8464
  51  220.3798
  52  234.2122
  53  180.2982
  54  187.8536
  55  163.1603
  56  170.9087
  57  202.6728
  58  141.2048
  59  114.3513
  60  196.493
  61  211.5927
  62  256.3229
  63  360.8337
  64  160.5247
  65  194.7853
  66  150.8282
  67  252.3742
  68  80.97027
  69  49.50568
  70  115.3294
  71  276.4384
  72  205.769
  73  91.79808
  74  57.80311
  75  93.02586
  76  115.8484
  77  75.65826
  78  143.8193
  79  329.3433
  80  272.1721
  81  125.554
  82  90.45553
  83  225.5719
  84  315.2922
  85  94.30302
  86  124.4893
  87  206.0004
  88  281.8233
  89  118.6438
  90  142.4622
  91  261.8362
  92  138.2743
  93  208.3624
  94  297.9185
  95  332.7434
  96  197.0038
  97  152.8698
  98  173.6181
  99  102.3869
 100  197.0374
 101  248.7782
 102  172.554
 103  110.1965
 104  167.9261
 105  242.4713
 106  185.7861
 107  84.40406
 108  109.198
 109  92.60912
 110  -20.92707
 111  120.9987
 112  1.36275
 113  171.0339
 114  137.1937
 115  142.4851
 116  33.53574
 117  42.38758
 118  118.2704
 119  235.0353
 120  217.0033
 121  187.6656
 122  103.833
 123  35.42494
 124  76.73615
 125  101.1712
 126  171.5228
 127  114.3709
 128  154.1582
 129  145.8113
 130  114.3986
 131  115.0991
 132  156.0826
 133  140.4812
 134  159.3153
 135  185.0359
 136  178.6846
 137  151.0613
 138  219.0811
 139  234.9402
 140  214.3441
 141  250.6666
 142  196.4077
 143  162.6781
 144  188.3004
 145  272.4829
 146  275.371
 147  100.5514
 148  -35.13106
 149  57.43892
 150  126.9702
 151  104.8031
 152  80.86357
 153  231.0222
 154  278.8618
 155  136.9575
 156  112.7612
 157  200.9906
 158  133.7908
 159  195.6248
 160  283.248
 161  234.456
 162  182.8337
 163  110.3953
 164  109.6553
 165  144.7275
 166  94.6358
 167  65.2211
 168  146.6656
 169  92.6133
 170  92.47701
 171  136.8044
 172  254.5652
 173  206.4948
 174  44.6969
 175  -4.914079
 176  123.2641
 177  321.2729
 178  186.0826
 179  135.7309
 180  148.8904
 181  152.7562
 182  112.9972
 183  83.11407
 184  210.1173
 185  211.1054
 186  248.6593
 187  126.9123
 188  167.5061
 189  139.9208
 190  -5.36654
 191  73.62475
 192  95.53516
 193  166.0985
 194  78.649
 195  91.04088
 196  101.5619
 197  104.2819
 198  62.97168
 199  84.53273
 200  122.9256
 201  141.2956
 202  123.7983
 203  104.4873
 204  81.91188
 205  90.01091
 206  201.2639
 207  170.532
 208  154.1495
 209  114.7582
 210  162.2039
 211  129.628
 212  125.1583
 213  190.2716
 214  130.9615
 215  38.32107
 216  115.7543
 217  98.33208
 218  242.3172
 219  133.8738
 220  173.2263
 221  170.3441
 222  121.4091
 223  177.3883
 224  92.55279
 225  290.7952
 226  205.3067
 227  102.2359
 228  4.252344
 229  119.4011
 230  218.1496
 231  144.4507
 232  70.47952
 233  13.50475
 234  28.10606
 235  49.72235
 236  165.4995
 237  255.4678
 238  253.7398
 239  96.96146
 240  112.3271
 241  133.3817
 242  92.41341
 243  60.54625
 244  117.5075
 245  271.8786
 246  166.129
 247  358.2065
 248  317.8479
 249  125.3225
 250  128.7627
 251  226.4823
 252  248.28
 253  58.23763
 254  69.82433
 255  102.0191
 256  218.9201
 257  198.5012
 258  180.312
 259  126.4292
 260  136.564
 261  83.01075
 262  47.28904
 263  156.177
 264  135.8486
 265  103.7418
 266  75.33428
 267  88.32899
 268  152.591
 269  295.3667
 270  351.0159
 271  166.6888
 272  80.48091
 273  73.93382
 274  82.01468
 275  142.6668
 276  121.568
 277  142.0863
 278  78.61225
 279  125.9078
 280  204.9038
 281  194.9596
 282  117.5722
 283  121.3787
 284  159.3074
 285  202.0923
 286  100.348
 287  153.1583
 288  44.01383
 289  20.91244
 290  137.8703
 291  118.0142
 292  -33.20045
 293  15.50253
 294  42.38696
 295  181.1673
 296  200.4891
 297  123.7118
 298  33.12854
 299  0.3492543
 300  74.28788
 301  152.9766
 302  130.9714
 303  178.4648
 304  238.439
 305  140.8203
 306  124.0243
 307  189.1748
 308  291.5319
 309  120.5586
 310  57.60107
 311  100.8216
 312  186.0824
 313  25.0786
 314  68.67973
 315  93.25462
 316  -85.82656
 317  -4.897744
 318  113.5683
 319  279.9472
 320  216.6723
 321  222.8323
 322  203.9145
 323  176.5934
 324  96.33712
 325  152.9451
 326  157.0196
 327  151.5229
 328  194.7872
 329  172.0095
 330  152.6317
 331  193.489
 332  54.20955
 333  164.7337
 334  210.7384
 335  247.8861
 336  356.4835
 337  288.3355
 338  345.6382
 339  497.2312
 340  637.5989
 341  897.1048
 342  824.7714
 343  549.9554
 344  300.2031
 345  316.8282
 346  283.8499
 347  203.217
 348  230.5548
 349  239.2914
 350  240.6178
 351  264.8141
 352  305.8683
 353  310.1558
 354  293.5798
 355  236.6757
 356  138.6301
 357  106.2476
 358  53.28212
 359  73.17146
 360  242.0982
 361  206.4464
 362  246.3095
 363  259.4246
 364  123.837
 365  86.64622
 366  115.2771
 367  75.49175
 368  105.1424
 369  236.5694
 370  258.0439
 371  247.6446
 372  189.1796
 373  -59.18966
 374  118.5677
 375  225.9026
 376  161.381
 377  127.6986
 378  179.4811
 379  154.8136
 380  149.4814
 381  79.68047
 382  87.17664
 383  113.1064
 384  227.6525
 385  177.2793
 386  157.8076
 387  86.06127
 388  94.31456
 389  191.2024
 390  191.2041
 391  156.8313
 392  106.7744
 393  60.42387
 394  112.6419
 395  226.5697
 396  119.3518
 397  108.3559
 398  117.5542
 399  162.368
 400  109.7022
 401  27.79612
 402  220.6075
 403  255.7523
 404  100.1045
 405  69.89793
 406  3.071249
 407  113.7631
 408  197.8244
 409  341.0586
 410  297.2668
 411  222.8773
 412  221.6343
 413  62.30622
 414  21.52378
 415  119.3327
 416  179.2128
 417  169.0645
 418  216.7214
 419  315.6552
 420  157.7502
 421  -21.01858
 422  61.19264
 423  112.174
 424  102.4174
 425  140.0489
 426  197.7919
 427  185.6263
 428  186.3273
 429  74.39207
 430  98.27258
 431  110.518
 432  190.605
 433  128.5523
 434  239.3421
 435  103.773
 436  122.7954
 437  116.8405
 438  159.2564
 439  97.02744
 440  -1.179084
 441  10.48602
 442  70.96333
 443  147.7583
 444  214.2014
 445  104.7962
 446  143.7124
 447  -15.33015
 448  -36.32048
 449  163.8781
 450  163.5211
 451  237.292
 452  91.49519
 453  67.09139
 454  124.4438
 455  167.7344
 456  159.2108
 457  178.0886
 458  163.7726
 459  169.9587
 460  111.2283
 461  200.6573
 462  66.4225
 463  5.007391
 464  83.99594
 465  12.17583
 466  -3.224362
 467  70.08193
 468  213.5349
 469  77.00757
 470  46.95378
 471  132.935
 472  72.24435
 473  118.0317
 474  195.247
 475  160.3239
 476  117.6032
 477  137.2887
 478  96.62267
 479  167.1981
 480  274.1608
 481  214.0646
 482  6.549755
 483  -97.46893
 484  121.6126
 485  243.8291
 486  148.652
 487  170.3457
 488  181.3774
 489  145.2886
 490  170.7567
 491  160.4668
 492  140.8411
 493  243.3422
 494  215.6834
 495  157.7316
 496  164.8916
 497  78.86053
 498  28.32954
 499  119.3665
 500  261.9713
 501  316.1772
 502  237.5783
 503  244.2714
 504  230.3444
 505  204.5223
 506  237.4611
 507  121.9604
 508  109.6389
 509  171.1974
 510  214.7928
 511  199.5285
