# Input file       =  1191523670.116382_cleaned.dat
# Candidate        =  PSR_0332+5434
# Telescope        =  AR
# Epoch_topo       =  58034.783438847015
# Epoch_bary       =  N/A
# T_sample         =  0.002
# Data Folded      =  7208960
# Data Avg         =  0.0111946148057244
# Data StdDev      =  1.00009746380946 
# Profile Bins     =  512
# Profile Avg      =  157.607359291169 
# Profile StdDev   =  118.670740768831 
# Reduced chi-sqr  =  1.771
# Prob(Noise)      <  2.28e-24   (~10.1 sigma)
# P_topo (ms)      =  714.477237499055  +/- 0.000161
# P'_topo (s/s)    =  -0                +/- 8.67e-11
# P''_topo (s/s^2) =  0                 +/- 3.9e-14
# P_bary (ms)      =  N/A
# P'_bary (s/s)    =  N/A
# P''_bary (s/s^2) =  N/A
# P_orb (s)        =  N/A
# asin(i)/c (s)    =  N/A
# eccentricity     =  N/A
# w (rad)          =  N/A
# T_peri           =  N/A
######################################################
   0  0.7126415
   1  80.36892
   2  85.50198
   3  194.1006
   4  271.9621
   5  249.302
   6  186.2332
   7  22.39996
   8  154.505
   9  142.7526
  10  158.6181
  11  112.1833
  12  195.4291
  13  142.4814
  14  163.8289
  15  165.9749
  16  127.4642
  17  88.1788
  18  172.3076
  19  206.8345
  20  52.84527
  21  149.9424
  22  272.2698
  23  156.6703
  24  95.3596
  25  85.83773
  26  92.62408
  27  57.36051
  28  34.63662
  29  209.4308
  30  151.7529
  31  106.8856
  32  161.2133
  33  107.6311
  34  139.0648
  35  22.22333
  36  99.59007
  37  16.89023
  38  101.2189
  39  257.5265
  40  223.6041
  41  185.2935
  42  134.9149
  43  50.24397
  44  16.88225
  45  101.5396
  46  173.3651
  47  25.97476
  48  -22.31919
  49  -2.379705
  50  120.6498
  51  199.6471
  52  210.1969
  53  144.6731
  54  79.45905
  55  1.496862
  56  91.65923
  57  85.09984
  58  25.69923
  59  277.2739
  60  268.2574
  61  238.8792
  62  71.22979
  63  54.9215
  64  100.2152
  65  147.5594
  66  273.3604
  67  57.05539
  68  142.6481
  69  104.7064
  70  133.1004
  71  187.852
  72  125.0974
  73  121.1389
  74  165.0423
  75  193.2767
  76  162.9369
  77  78.60822
  78  98.01437
  79  58.03095
  80  261.3879
  81  220.0901
  82  161.8015
  83  298.4767
  84  161.2942
  85  117.2807
  86  191.1613
  87  190.8947
  88  290.605
  89  211.1039
  90  296.4815
  91  219.5408
  92  54.55845
  93  -12.16346
  94  30.67404
  95  44.81785
  96  58.9896
  97  32.88683
  98  10.56056
  99  -5.184979
 100  38.42635
 101  129.058
 102  148.309
 103  228.8011
 104  132.4378
 105  82.62396
 106  200.8796
 107  149.5775
 108  16.09414
 109  186.0758
 110  163.2559
 111  211.618
 112  206.0728
 113  125.4824
 114  46.37749
 115  102.9422
 116  103.1489
 117  79.30144
 118  25.99972
 119  157.5572
 120  162.3148
 121  118.4481
 122  92.795
 123  103.1494
 124  68.40065
 125  50.98716
 126  87.77758
 127  265.7424
 128  246.0407
 129  172.0411
 130  175.4763
 131  211.3073
 132  195.2975
 133  197.881
 134  159.8804
 135  204.6269
 136  148.6015
 137  225.7682
 138  123.0851
 139  44.31852
 140  52.60868
 141  196.1641
 142  181.7513
 143  239.6703
 144  361.6064
 145  254.628
 146  58.63329
 147  173.2325
 148  128.1533
 149  104.4789
 150  114.7409
 151  297.6659
 152  194.6866
 153  27.11392
 154  124.6133
 155  226.5977
 156  125.4444
 157  146.881
 158  87.70815
 159  190.8078
 160  81.81065
 161  90.15395
 162  215.3701
 163  235.6545
 164  126.0503
 165  178.4622
 166  72.82752
 167  104.543
 168  102.9837
 169  235.1833
 170  170.6513
 171  64.72119
 172  149.5926
 173  135.6683
 174  87.60897
 175  60.78759
 176  91.07832
 177  77.04427
 178  139.7334
 179  94.30476
 180  205.7889
 181  191.0914
 182  138.298
 183  60.33889
 184  11.94038
 185  79.17679
 186  308.1959
 187  291.8601
 188  161.6933
 189  95.59507
 190  71.02161
 191  94.71709
 192  -68.89362
 193  1.539567
 194  222.2065
 195  115.9552
 196  145.5243
 197  43.70574
 198  32.34158
 199  -85.1739
 200  53.32749
 201  95.14575
 202  83.41228
 203  173.9164
 204  207.3686
 205  220.0176
 206  77.5728
 207  39.82802
 208  9.137049
 209  76.60617
 210  164.8825
 211  179.0491
 212  276.1405
 213  223.6916
 214  163.7068
 215  231.2665
 216  195.4985
 217  231.8385
 218  321.1045
 219  299.3497
 220  120.0958
 221  169.4491
 222  79.34139
 223  23.80883
 224  76.13503
 225  161.4093
 226  120.5961
 227  97.15144
 228  170.6093
 229  196.0053
 230  74.42912
 231  -71.05585
 232  -5.670548
 233  95.18974
 234  114.8818
 235  248.8479
 236  184.6309
 237  167.5525
 238  274.7634
 239  175.5125
 240  152.1553
 241  53.29869
 242  138.0482
 243  165.8982
 244  208.391
 245  127.0343
 246  183.4323
 247  176.0858
 248  236.5118
 249  220.7057
 250  208.4205
 251  206.0546
 252  192.8738
 253  69.08558
 254  195.6329
 255  238.1797
 256  256.5681
 257  244.9956
 258  225.3624
 259  217.6272
 260  192.3866
 261  180.2284
 262  99.70136
 263  35.55724
 264  124.5399
 265  191.0049
 266  168.7158
 267  245.96
 268  270.2816
 269  253.8983
 270  261.9079
 271  185.4082
 272  2.442095
 273  -35.15707
 274  12.13548
 275  163.2277
 276  248.7539
 277  316.2026
 278  217.5608
 279  61.8179
 280  16.34005
 281  10.59484
 282  211.1645
 283  199.3617
 284  165.0491
 285  214.535
 286  257.2801
 287  219.2978
 288  141.2641
 289  80.65805
 290  96.16988
 291  116.5865
 292  206.3389
 293  112.0065
 294  84.14021
 295  -6.457725
 296  13.56945
 297  48.71609
 298  134.0968
 299  94.78067
 300  218.7888
 301  162.0745
 302  81.43504
 303  27.85538
 304  8.058455
 305  107.1582
 306  182.6216
 307  169.3088
 308  223.4792
 309  230.3404
 310  126.5495
 311  -60.00488
 312  -39.18842
 313  109.624
 314  230.5293
 315  179.7013
 316  139.1412
 317  34.58567
 318  -1.467137
 319  133.618
 320  215.167
 321  226.0223
 322  357.7371
 323  308.6805
 324  131.6954
 325  100.5853
 326  82.9001
 327  144.2677
 328  180.0505
 329  187.2168
 330  84.1554
 331  113.602
 332  161.2269
 333  122.8376
 334  98.98727
 335  73.31612
 336  96.38189
 337  127.7816
 338  132.1503
 339  193.3371
 340  91.31642
 341  -46.3041
 342  -38.51601
 343  14.3821
 344  184.6181
 345  54.85473
 346  3.757424
 347  164.9748
 348  94.90845
 349  102.0258
 350  131.6307
 351  315.5935
 352  283.8856
 353  245.0156
 354  127.3005
 355  106.9381
 356  131.1384
 357  -61.69162
 358  96.21883
 359  202.5213
 360  121.2494
 361  70.46265
 362  81.10058
 363  79.9534
 364  194.9776
 365  223.2515
 366  194.8562
 367  196.6748
 368  255.7227
 369  64.75269
 370  22.47161
 371  163.3722
 372  233.2305
 373  46.38005
 374  39.72019
 375  135.8902
 376  108.6788
 377  211.1271
 378  40.65026
 379  73.22189
 380  70.02959
 381  30.8654
 382  146.1259
 383  117.2052
 384  98.34041
 385  80.5087
 386  189.9034
 387  136.1598
 388  121.7632
 389  159.5364
 390  260.3972
 391  189.9209
 392  167.9295
 393  99.72097
 394  154.4677
 395  115.3515
 396  85.76149
 397  78.43953
 398  228.5275
 399  263.1204
 400  257.5027
 401  244.7409
 402  292.9946
 403  246.8445
 404  223.5927
 405  105.1446
 406  246.8992
 407  304.4186
 408  300.7113
 409  316.5995
 410  161.514
 411  218.1497
 412  150.721
 413  215.3293
 414  293.5757
 415  247.3642
 416  166.7502
 417  201.7106
 418  154.006
 419  150.3918
 420  268.6115
 421  273.6259
 422  335.3546
 423  371.5905
 424  508.8448
 425  680.3435
 426  898.5544
 427  1096.935
 428  984.4646
 429  831.46
 430  416.0192
 431  259.2737
 432  268.7552
 433  151.5469
 434  178.1962
 435  147.5951
 436  290.0236
 437  244.86
 438  215.3849
 439  258.1033
 440  290.4143
 441  272.9179
 442  186.8854
 443  179.6717
 444  255.0156
 445  217.9362
 446  193.4162
 447  301.3497
 448  111.767
 449  109.8381
 450  143.1928
 451  140.2346
 452  131.8369
 453  182.0861
 454  168.869
 455  56.32319
 456  132.4258
 457  133.0161
 458  214.229
 459  198.3749
 460  219.3929
 461  191.9087
 462  206.3516
 463  83.22044
 464  127.5974
 465  194.9995
 466  286.0488
 467  279.0192
 468  217.5143
 469  223.5432
 470  254.5862
 471  289.2108
 472  282.9825
 473  231.7341
 474  186.1265
 475  218.0231
 476  264.1703
 477  196.0789
 478  149.6234
 479  166.6958
 480  60.84861
 481  174.512
 482  170.3506
 483  210.7819
 484  314.9861
 485  275.011
 486  258.1014
 487  256.5167
 488  289.8088
 489  337.9183
 490  285.0343
 491  216.0753
 492  195.9726
 493  47.13452
 494  148.6315
 495  165.3739
 496  73.71484
 497  207.6469
 498  122.2979
 499  154.3821
 500  260.8806
 501  208.6277
 502  32.45471
 503  -83.95493
 504  -7.192243
 505  71.10418
 506  127.1987
 507  148.917
 508  127.8436
 509  61.09898
 510  65.5117
 511  27.98603
