# Input file       =  1191969090.136214_cleaned.dat
# Candidate        =  PSR_0332+5434
# Telescope        =  AR
# Epoch_topo       =  58039.938763150625
# Epoch_bary       =  N/A
# T_sample         =  0.002
# Data Folded      =  7340032
# Data Avg         =  0.0257831084080473
# Data StdDev      =  2.23396815268192 
# Profile Bins     =  512
# Profile Avg      =  369.782073929457 
# Profile StdDev   =  267.479790089602 
# Reduced chi-sqr  =  2.126
# Prob(Noise)      <  1.3e-43   (~13.8 sigma)
# P_topo (ms)      =  714.480773797543  +/- 0.000194
# P'_topo (s/s)    =  -0                +/- 1.03e-10
# P''_topo (s/s^2) =  0                 +/- 4.53e-14
# P_bary (ms)      =  N/A
# P'_bary (s/s)    =  N/A
# P''_bary (s/s^2) =  N/A
# P_orb (s)        =  N/A
# asin(i)/c (s)    =  N/A
# eccentricity     =  N/A
# w (rad)          =  N/A
# T_peri           =  N/A
######################################################
   0  260.1148
   1  522.3603
   2  470.6234
   3  627.0388
   4  303.2672
   5  -134.6875
   6  146.1003
   7  -11.44228
   8  113.0095
   9  334.3214
  10  228.6955
  11  424.5415
  12  250.3804
  13  309.6346
  14  380.4534
  15  389.0044
  16  506.3293
  17  417.0437
  18  434.1347
  19  382.7551
  20  349.7709
  21  176.7346
  22  608.9902
  23  238.9103
  24  179.4382
  25  69.29826
  26  220.6697
  27  -79.41898
  28  -80.32159
  29  192.1144
  30  306.7204
  31  61.66955
  32  352.91
  33  532.1736
  34  386.3994
  35  161.5655
  36  286.3434
  37  436.8787
  38  448.0336
  39  144.6741
  40  277.3786
  41  464.7074
  42  319.6384
  43  245.2599
  44  446.0071
  45  272.4168
  46  184.15
  47  306.6439
  48  395.4261
  49  345.4214
  50  596.2
  51  332.3488
  52  92.3913
  53  17.5654
  54  14.92296
  55  65.28779
  56  -25.34692
  57  51.94522
  58  220.7142
  59  -46.66349
  60  -103.2352
  61  121.8299
  62  -27.03421
  63  232.0511
  64  410.4853
  65  332.3653
  66  518.5295
  67  325.7126
  68  280.448
  69  152.7275
  70  40.52901
  71  178.5334
  72  66.26062
  73  177.5565
  74  68.02643
  75  205.3952
  76  395.6655
  77  260.9142
  78  159.6709
  79  127.2652
  80  247.3759
  81  442.3835
  82  611.1849
  83  527.7509
  84  363.6739
  85  101.8678
  86  245.7412
  87  291.3559
  88  115.2114
  89  164.407
  90  159.7067
  91  149.4109
  92  346.1053
  93  184.0474
  94  210.4186
  95  301.9431
  96  85.82941
  97  198.9666
  98  345.3702
  99  600.2062
 100  615.4633
 101  216.5661
 102  200.0466
 103  280.0639
 104  287.493
 105  425.2639
 106  370.0445
 107  348.2116
 108  220.8666
 109  -3.12165
 110  18.47108
 111  134.5168
 112  413.4928
 113  287.3521
 114  259.5321
 115  453.5164
 116  517.7411
 117  228.8375
 118  337.734
 119  346.2658
 120  394.985
 121  500.4775
 122  524.3751
 123  623.2504
 124  688.8304
 125  247.7068
 126  49.03761
 127  41.11385
 128  108.7367
 129  209.3577
 130  295.7857
 131  516.3967
 132  629.2962
 133  357.1974
 134  103.1633
 135  288.989
 136  156.9265
 137  204.526
 138  503.981
 139  150.0149
 140  156.0972
 141  268.8326
 142  578.0977
 143  303.4953
 144  -18.90626
 145  196.114
 146  342.0335
 147  629.9708
 148  377.1518
 149  495.816
 150  484.504
 151  388.5782
 152  354.2845
 153  213.9108
 154  349.2289
 155  185.4036
 156  35.93452
 157  397.8843
 158  433.2061
 159  444.6325
 160  177.3799
 161  172.2833
 162  17.96379
 163  92.05419
 164  129.1517
 165  232.6537
 166  515.4398
 167  411.5808
 168  602.1274
 169  525.2051
 170  298.2343
 171  62.08213
 172  404.3657
 173  868.2235
 174  955.9097
 175  670.45
 176  76.46537
 177  21.45831
 178  583.3397
 179  410.6793
 180  380.6257
 181  366.5984
 182  391.7685
 183  344.335
 184  327.2736
 185  72.02827
 186  174.4615
 187  300.4594
 188  370.8569
 189  301.8442
 190  250.4165
 191  700.334
 192  602.007
 193  366.4541
 194  209.7243
 195  380.8773
 196  359.2867
 197  -167.3067
 198  249.1859
 199  540.0577
 200  385.5698
 201  231.2738
 202  333.3074
 203  353.9435
 204  17.09291
 205  201.5732
 206  510.9748
 207  209.1645
 208  418.7662
 209  714.0829
 210  612.6412
 211  422.3046
 212  378.955
 213  591.0881
 214  497.9266
 215  373.2381
 216  348.9232
 217  349.355
 218  437.274
 219  208.7151
 220  137.1573
 221  273.6221
 222  452.0913
 223  262.3353
 224  96.8834
 225  271.7798
 226  325.0844
 227  203.1142
 228  107.4549
 229  135.8519
 230  311.1724
 231  442.9392
 232  385.2679
 233  687.1006
 234  654.726
 235  598.4969
 236  389.5808
 237  451.5211
 238  654.8981
 239  494.9996
 240  299.7836
 241  -113.675
 242  276.926
 243  796.4048
 244  759.475
 245  199.527
 246  333.8677
 247  695.0486
 248  452.6205
 249  218.3118
 250  -98.13481
 251  517.97
 252  614.0895
 253  424.2347
 254  359.4012
 255  355.014
 256  403.125
 257  545.5842
 258  438.4671
 259  165.4681
 260  37.27479
 261  97.94595
 262  -139.9292
 263  -1.395952
 264  364.8398
 265  438.0706
 266  366.5544
 267  351.6271
 268  536.5315
 269  502.3061
 270  315.1418
 271  322.9914
 272  352.3218
 273  222.9356
 274  174.1567
 275  310.1206
 276  386.334
 277  405.4947
 278  619.5026
 279  479.8366
 280  409.7991
 281  394.8493
 282  448.804
 283  214.7326
 284  90.6742
 285  451.9619
 286  757.1886
 287  534.6613
 288  398.9615
 289  331.3723
 290  542.9019
 291  645.5112
 292  477.2458
 293  726.3073
 294  596.1511
 295  181.5668
 296  646.9927
 297  771.036
 298  667.9147
 299  831.9893
 300  703.762
 301  544.7125
 302  632.0379
 303  679.0368
 304  587.8277
 305  605.7471
 306  328.7159
 307  639.5915
 308  407.4868
 309  318.908
 310  126.786
 311  118.856
 312  342.5987
 313  410.2245
 314  729.0919
 315  660.5212
 316  332.8448
 317  44.06942
 318  494.6901
 319  167.6875
 320  252.5932
 321  459.8207
 322  309.4792
 323  137.8736
 324  68.56532
 325  264.5417
 326  221.9895
 327  486.2989
 328  575.631
 329  317.0395
 330  213.6182
 331  131.3834
 332  -5.353703
 333  30.66157
 334  26.68738
 335  244.4313
 336  484.3284
 337  592.5233
 338  557.0778
 339  409.3625
 340  164.1393
 341  365.4764
 342  496.2135
 343  485.3289
 344  720.8926
 345  433.6346
 346  440.5151
 347  397.0889
 348  228.291
 349  31.32029
 350  365.5854
 351  431.1577
 352  519.4681
 353  612.1662
 354  386.4672
 355  346.9516
 356  -103.0737
 357  220.2954
 358  247.6775
 359  532.0922
 360  597.0334
 361  446.7497
 362  380.5281
 363  713.6741
 364  763.9771
 365  364.8346
 366  393.5475
 367  574.8112
 368  374.4015
 369  397.5392
 370  511.7532
 371  505.58
 372  493.9398
 373  599.0687
 374  427.4299
 375  462.7655
 376  800.6245
 377  1436.86
 378  1969.833
 379  2728.892
 380  2723.081
 381  2339.521
 382  1811.818
 383  1172.212
 384  743.2941
 385  408.9432
 386  186.5652
 387  114.5177
 388  312.4011
 389  512.7958
 390  374.7206
 391  459.925
 392  395.4863
 393  541.0391
 394  571.9273
 395  479.2665
 396  378.9105
 397  554.5128
 398  465.3241
 399  256.6567
 400  310.2799
 401  541.0804
 402  508.4073
 403  305.1186
 404  257.3244
 405  214.2843
 406  245.8142
 407  509.4536
 408  689.0402
 409  764.8807
 410  315.8468
 411  438.7676
 412  473.8343
 413  193.722
 414  325.3946
 415  396.623
 416  537.4349
 417  3.873821
 418  -77.38427
 419  154.5583
 420  184.4182
 421  55.1571
 422  89.8337
 423  205.3197
 424  349.0106
 425  476.0867
 426  616.0168
 427  511.0047
 428  304.4055
 429  192.2573
 430  335.1636
 431  426.5864
 432  566.3774
 433  342.1306
 434  572.8351
 435  686.9595
 436  513.7561
 437  562.6191
 438  453.3812
 439  372.6069
 440  314.6366
 441  230.4224
 442  312.7816
 443  274.0842
 444  312.3335
 445  459.1692
 446  494.2397
 447  344.971
 448  284.7301
 449  209.4523
 450  332.1638
 451  422.6426
 452  339.6006
 453  378.7372
 454  179.4431
 455  32.33401
 456  198.8962
 457  282.6142
 458  397.0712
 459  368.5809
 460  378.8812
 461  405.3011
 462  392.3779
 463  448.9664
 464  -117.7135
 465  -21.72439
 466  454.8568
 467  517.4434
 468  221.528
 469  172.1716
 470  139.8951
 471  438.4693
 472  342.9972
 473  364.7057
 474  388.731
 475  465.0884
 476  520.472
 477  556.6462
 478  476.195
 479  598.7101
 480  515.1719
 481  365.2443
 482  483.8544
 483  428.2613
 484  513.6183
 485  410.5388
 486  483.789
 487  856.3831
 488  558.9832
 489  249.3872
 490  227.0038
 491  512.4872
 492  569.7433
 493  426.9055
 494  263.058
 495  245.0138
 496  325.6804
 497  128.9333
 498  295.3921
 499  311.9644
 500  367.5433
 501  85.97283
 502  -51.9614
 503  148.5441
 504  393.3858
 505  513.9211
 506  260.1572
 507  209.3278
 508  306.2271
 509  299.7636
 510  706.9149
 511  661.3789
