# Input file       =  1191208577.114983-PSRB0329-2ms-sampling-dd.dat
# Candidate        =  PSR_0332+5434
# Telescope        =  AR
# Epoch_topo       =  58031.136529108604
# Epoch_bary       =  N/A
# T_sample         =  0.002
# Data Folded      =  7340032
# Data Avg         =  -8.86367564352877e-10
# Data StdDev      =  4.97266276364559 
# Profile Bins     =  512
# Profile Avg      =  0.117157956546927
# Profile StdDev   =  595.392011568968 
# Reduced chi-sqr  =  0.667
# Prob(Noise)      <  1   (~0.0 sigma)
# P_topo (ms)      =  714.475313097546  +/- 0.000659
# P'_topo (s/s)    =  -0                +/- 3.48e-10
# P''_topo (s/s^2) =  0                 +/- 1.54e-13
# P_bary (ms)      =  N/A
# P'_bary (s/s)    =  N/A
# P''_bary (s/s^2) =  N/A
# P_orb (s)        =  N/A
# asin(i)/c (s)    =  N/A
# eccentricity     =  N/A
# w (rad)          =  N/A
# T_peri           =  N/A
######################################################
   0  -136.4618
   1  -355.823
   2  -143.6565
   3  -273.6836
   4  -496.0083
   5  -769.9717
   6  -540.5331
   7  -426.4401
   8  -200.9461
   9  -157.1901
  10  25.20224
  11  -320.3907
  12  -892.5425
  13  -876.0732
  14  -522.4427
  15  -125.0083
  16  -75.20172
  17  -278.1735
  18  -368.9533
  19  -386.2944
  20  -441.1705
  21  -642.1528
  22  -251.0148
  23  -307.8321
  24  -127.241
  25  -180.3854
  26  -284.8969
  27  -498.6906
  28  -775.3869
  29  -213.8589
  30  -151.0027
  31  -199.9483
  32  127.8369
  33  -127.8901
  34  -369.6091
  35  -609.5752
  36  -500.4268
  37  -487.0587
  38  -856.4828
  39  -505.8558
  40  -424.637
  41  -426.4679
  42  -68.78712
  43  -247.3703
  44  -376.735
  45  -303.979
  46  -208.1606
  47  174.3625
  48  124.5291
  49  310.3215
  50  161.8246
  51  209.2554
  52  -160.7335
  53  -440.6663
  54  -248.4887
  55  -409.4881
  56  -163.0131
  57  165.8895
  58  203.7
  59  27.62973
  60  -221.7646
  61  654.07
  62  347.2918
  63  -162.2032
  64  -54.39612
  65  -159.8828
  66  -84.80676
  67  -33.61735
  68  8.984888
  69  -312.1852
  70  -669.0951
  71  -148.6375
  72  -440.6349
  73  -533.1724
  74  35.09346
  75  -174.3668
  76  -98.21909
  77  -376.2365
  78  -267.4092
  79  -291.6414
  80  -83.93938
  81  -243.5421
  82  -454.6516
  83  -35.10055
  84  9.759949
  85  331.7212
  86  662.1288
  87  238.3491
  88  -223.6852
  89  -338.5427
  90  -84.36281
  91  74.56461
  92  -102.7087
  93  -139.7707
  94  89.96931
  95  -476.1879
  96  -434.1616
  97  -303.0015
  98  -308.8857
  99  -355.65
 100  -133.4813
 101  -46.54269
 102  43.0076
 103  -164.1704
 104  73.90409
 105  -58.37113
 106  -51.00804
 107  393.666
 108  67.15987
 109  -85.67776
 110  -72.10418
 111  43.34555
 112  -197.6089
 113  -197.281
 114  -262.9193
 115  -146.4362
 116  405.6579
 117  406.0787
 118  306.0982
 119  322.4815
 120  -26.80547
 121  131.5627
 122  -9.336078
 123  111.7543
 124  157.0708
 125  151.3131
 126  326.9989
 127  278.5379
 128  371.0952
 129  327.9725
 130  503.7584
 131  353.5069
 132  259.3052
 133  -23.62363
 134  403.537
 135  593.8744
 136  70.10564
 137  -74.14354
 138  188.7385
 139  363.0335
 140  259.878
 141  115.6249
 142  355.8602
 143  539.8647
 144  946.7033
 145  1407.432
 146  1526.866
 147  1441.523
 148  1504.134
 149  1390.177
 150  1055.665
 151  315.3438
 152  176.3968
 153  -14.13682
 154  -506.1369
 155  -348.5256
 156  -45.77391
 157  421.1687
 158  79.81847
 159  60.57858
 160  -139.6413
 161  161.2191
 162  354.1679
 163  -91.48151
 164  -262.2384
 165  -152.3165
 166  -151.3322
 167  -275.7015
 168  81.73473
 169  173.9103
 170  284.4334
 171  51.23336
 172  436.7642
 173  370.4659
 174  279.4759
 175  -37.77946
 176  48.96581
 177  -132.3813
 178  318.1666
 179  696.9877
 180  975.3409
 181  994.5119
 182  665.7358
 183  519.5012
 184  388.6491
 185  370.9665
 186  693.6866
 187  390.5468
 188  476.9994
 189  518.4878
 190  632.2999
 191  14.89244
 192  253.8773
 193  222.4212
 194  288.706
 195  124.6671
 196  -32.74003
 197  22.55754
 198  -272.82
 199  -29.34482
 200  -239.6982
 201  -236.0119
 202  83.55236
 203  317.164
 204  786.0883
 205  827.1042
 206  513.7029
 207  -155.965
 208  254.3949
 209  -5.380642
 210  77.08852
 211  400.2768
 212  405.766
 213  120.8795
 214  128.1737
 215  126.2492
 216  265.6594
 217  355.2838
 218  340.1459
 219  168.8203
 220  181.0345
 221  310.3172
 222  259.5456
 223  349.4399
 224  -25.25298
 225  22.32891
 226  -18.68142
 227  290.498
 228  57.87965
 229  -264.6769
 230  -142.1281
 231  111.007
 232  108.559
 233  -24.55708
 234  151.3437
 235  431.3524
 236  160.1964
 237  333.2515
 238  435.5274
 239  522.1152
 240  419.069
 241  605.4652
 242  528.9234
 243  419.8596
 244  19.58311
 245  96.77473
 246  698.0972
 247  309.5972
 248  444.9306
 249  411.0364
 250  208.2213
 251  -41.73048
 252  317.7532
 253  195.5344
 254  445.291
 255  364.1361
 256  167.5205
 257  -2.224717
 258  -121.078
 259  -75.79437
 260  -493.9121
 261  -395.1023
 262  -160.155
 263  -272.0219
 264  -265.2744
 265  -109.5936
 266  420.0602
 267  226.236
 268  335.7431
 269  424.9682
 270  70.63955
 271  191.1702
 272  377.3372
 273  480.4803
 274  345.6153
 275  557.7488
 276  622.8924
 277  416.2429
 278  362.6264
 279  252.8887
 280  182.9738
 281  220.464
 282  424.6888
 283  54.43393
 284  318.651
 285  541.4808
 286  303.0077
 287  29.06629
 288  -82.13274
 289  219.4542
 290  438.6098
 291  -55.23578
 292  -291.4454
 293  63.30285
 294  205.541
 295  -180.9183
 296  -399.8028
 297  -214.2438
 298  -37.23846
 299  -292.4441
 300  -261.5073
 301  -284.0968
 302  -559.9595
 303  -547.6437
 304  -165.3908
 305  173.9341
 306  123.6746
 307  -200.5464
 308  -286.8839
 309  181.7206
 310  54.91885
 311  81.43726
 312  -145.9972
 313  133.5855
 314  -0.2047861
 315  -116.652
 316  -261.5169
 317  -269.3741
 318  -494.0997
 319  -298.9215
 320  -414.0394
 321  50.59793
 322  243.1323
 323  206.0462
 324  28.99919
 325  -187.5361
 326  -330.8565
 327  -525.5212
 328  -782.0897
 329  -465.7373
 330  -229.976
 331  -26.27
 332  -164.185
 333  65.4264
 334  -143.1635
 335  -163.224
 336  -256.1846
 337  -8.172588
 338  395.1691
 339  337.0677
 340  430.5596
 341  63.61383
 342  -135.9172
 343  -499.7921
 344  -225.6385
 345  61.38376
 346  120.9588
 347  308.9818
 348  452.5916
 349  228.6164
 350  -10.91997
 351  -318.9845
 352  -211.3273
 353  -500.1673
 354  -20.85442
 355  27.22514
 356  -128.1104
 357  -205.6787
 358  -121.3029
 359  29.19863
 360  -21.29433
 361  -43.76343
 362  32.94987
 363  122.8975
 364  78.61166
 365  -116.7839
 366  -377.5553
 367  -282.5243
 368  -375.3792
 369  -806.7635
 370  -533.0502
 371  -214.0479
 372  -151.7971
 373  -379.715
 374  144.3086
 375  142.829
 376  426.7523
 377  386.6876
 378  184.1341
 379  20.58178
 380  236.073
 381  34.20208
 382  58.72523
 383  -399.2558
 384  -531.9913
 385  -59.444
 386  -389.5293
 387  22.33735
 388  -155.2282
 389  -435.6878
 390  -186.987
 391  57.95519
 392  192.5734
 393  45.90573
 394  338.5062
 395  268.0385
 396  152.6189
 397  -305.1842
 398  -37.88222
 399  37.28547
 400  -55.92938
 401  -183.5981
 402  -502.5101
 403  -449.0808
 404  -121.1408
 405  52.63627
 406  -25.06636
 407  -168.9786
 408  203.5952
 409  2.931569
 410  -389.6284
 411  -53.87993
 412  261.5239
 413  101.1786
 414  -96.63947
 415  -114.983
 416  -85.32228
 417  -146.4639
 418  -188.063
 419  59.307
 420  133.5576
 421  222.6206
 422  206.8509
 423  -273.1805
 424  -6.893716
 425  -19.89752
 426  165.752
 427  267.9287
 428  146.4413
 429  294.9766
 430  -176.1973
 431  -327.793
 432  -172.6516
 433  -182.5788
 434  -201.2612
 435  -9.614915
 436  533.048
 437  221.1429
 438  386.1251
 439  244.2903
 440  223.8928
 441  -152.7998
 442  -235.8227
 443  -313.353
 444  -52.42353
 445  156.323
 446  -78.24524
 447  -292.7635
 448  -322.4865
 449  178.3082
 450  135.7544
 451  -98.34151
 452  42.0053
 453  -134.1076
 454  197.6082
 455  141.6234
 456  89.69234
 457  -217.3181
 458  -41.79373
 459  174.0816
 460  -94.1881
 461  94.60146
 462  -157.4472
 463  -227.7682
 464  -428.1969
 465  -588.0684
 466  -263.1418
 467  -500.8218
 468  -470.2244
 469  10.51549
 470  423.128
 471  182.5264
 472  -140.6284
 473  -259.0781
 474  -86.02375
 475  -628.8401
 476  -160.901
 477  389.2847
 478  540.2289
 479  83.37904
 480  174.2865
 481  -92.3637
 482  -320.843
 483  -217.0939
 484  -515.209
 485  -398.1931
 486  -473.9336
 487  -105.948
 488  163.2719
 489  -157.3576
 490  -265.115
 491  22.66887
 492  10.79045
 493  -541.8727
 494  -675.5747
 495  -257.7285
 496  -60.7976
 497  -386.1308
 498  -597.1956
 499  -778.5336
 500  -788.1601
 501  -648.8213
 502  -354.061
 503  -189.4269
 504  -276.6371
 505  -189.9679
 506  -505.0929
 507  -255.0302
 508  -52.45525
 509  133.4481
 510  -175.0585
 511  87.3934
