# Input file       =  1191294783.105678_cleaned.dat
# Candidate        =  PSR_0332+5434
# Telescope        =  AR
# Epoch_topo       =  58032.134283630534
# Epoch_bary       =  N/A
# T_sample         =  0.002
# Data Folded      =  7340032
# Data Avg         =  0.0139307479994849
# Data StdDev      =  1.00001205718372 
# Profile Bins     =  512
# Profile Avg      =  199.598711033272 
# Profile StdDev   =  119.734480019983 
# Reduced chi-sqr  =  1.243
# Prob(Noise)      <  0.000146   (~3.6 sigma)
# P_topo (ms)      =  714.475919581349  +/- 0.000267
# P'_topo (s/s)    =  -0                +/- 1.41e-10
# P''_topo (s/s^2) =  0                 +/- 6.22e-14
# P_bary (ms)      =  N/A
# P'_bary (s/s)    =  N/A
# P''_bary (s/s^2) =  N/A
# P_orb (s)        =  N/A
# asin(i)/c (s)    =  N/A
# eccentricity     =  N/A
# w (rad)          =  N/A
# T_peri           =  N/A
######################################################
   0  210.1352
   1  133.5465
   2  331.0298
   3  325.2509
   4  222.167
   5  48.72789
   6  67.44759
   7  75.2316
   8  133.3053
   9  232.037
  10  263.3883
  11  261.3655
  12  237.6163
  13  152.8715
  14  214.9992
  15  225.1904
  16  102.9141
  17  136.958
  18  233.6273
  19  205.0573
  20  115.8642
  21  171.5159
  22  107.8739
  23  39.16089
  24  76.58743
  25  140.1637
  26  304.2754
  27  199.367
  28  121.639
  29  241.1627
  30  204.4284
  31  213.4656
  32  182.8199
  33  267.0643
  34  146.4545
  35  248.8855
  36  210.4066
  37  170.5022
  38  143.147
  39  238.9814
  40  291.8782
  41  293.0034
  42  146.8399
  43  227.7668
  44  338.0809
  45  142.1547
  46  48.87674
  47  105.1428
  48  167.8703
  49  157.0597
  50  93.68277
  51  92.94949
  52  256.6062
  53  163.002
  54  323.6519
  55  289.3454
  56  191.9968
  57  92.54159
  58  260.7458
  59  156.0686
  60  162.1259
  61  180.811
  62  140.2621
  63  291.2992
  64  232.6116
  65  133.3737
  66  171.8938
  67  245.6282
  68  234.0487
  69  194.6137
  70  132.4477
  71  265.7613
  72  155.5508
  73  203.4651
  74  249.3119
  75  156.2989
  76  147.8243
  77  129.5418
  78  154.296
  79  155.6406
  80  97.53945
  81  164.1098
  82  253.6998
  83  128.1424
  84  89.6346
  85  130.5766
  86  299.4047
  87  239.8203
  88  138.5648
  89  199.5241
  90  174.9783
  91  125.5789
  92  159.4277
  93  177.3915
  94  195.9014
  95  165.7529
  96  147.1569
  97  132.1286
  98  132.0716
  99  239.5196
 100  268.2905
 101  242.0264
 102  250.8657
 103  135.8821
 104  103.9796
 105  173.3221
 106  117.0409
 107  114.3016
 108  222.6567
 109  130.3746
 110  211.1712
 111  102.6023
 112  172.5862
 113  212.9207
 114  171.5369
 115  158.5288
 116  247.2735
 117  272.3388
 118  316.3187
 119  221.5087
 120  146.7706
 121  36.2943
 122  13.50968
 123  35.12718
 124  68.81583
 125  277.1612
 126  261.556
 127  330.1008
 128  220.0131
 129  236.7543
 130  120.898
 131  177.087
 132  226.1122
 133  165.9129
 134  26.30885
 135  60.10982
 136  50.4321
 137  79.57497
 138  198.0151
 139  160.8532
 140  238.7771
 141  213.6921
 142  246.0075
 143  166.9574
 144  208.1241
 145  223.2507
 146  245.5488
 147  336.2632
 148  247.8833
 149  317.1086
 150  241.84
 151  258.1513
 152  125.1056
 153  157.246
 154  247.3162
 155  196.404
 156  215.1461
 157  108.6097
 158  27.97565
 159  70.42619
 160  147.8412
 161  218.4656
 162  297.93
 163  262.4245
 164  265.8498
 165  295.6792
 166  228.0948
 167  277.5202
 168  284.5152
 169  245.4561
 170  264.9927
 171  243.4598
 172  238.5843
 173  252.6542
 174  232.0831
 175  204.5427
 176  319.2901
 177  403.488
 178  268.7932
 179  196.6338
 180  141.1181
 181  -18.18066
 182  230.1721
 183  309.3671
 184  397.2434
 185  288.9041
 186  186.8921
 187  206.0822
 188  117.135
 189  70.87404
 190  237.7643
 191  295.0804
 192  328.8896
 193  183.7144
 194  128.3336
 195  118.6275
 196  208.3326
 197  228.3832
 198  190.8558
 199  267.6577
 200  220.8544
 201  182.9572
 202  79.16448
 203  87.02156
 204  336.4578
 205  292.7253
 206  202.1323
 207  229.9971
 208  137.7761
 209  173.8478
 210  206.681
 211  168.6266
 212  202.1867
 213  232.2114
 214  186.204
 215  159.5602
 216  214.6464
 217  175.4874
 218  196.0178
 219  192.2098
 220  168.0397
 221  219.8158
 222  152.2099
 223  198.7845
 224  173.312
 225  126.0448
 226  307.2935
 227  334.1391
 228  250.1942
 229  252.3268
 230  301.2766
 231  350.873
 232  343.5684
 233  379.1259
 234  225.6674
 235  213.2982
 236  230.8632
 237  233.536
 238  258.429
 239  303.4303
 240  361.5722
 241  174.4102
 242  190.1452
 243  263.1618
 244  269.4854
 245  190.6661
 246  82.43436
 247  127.6148
 248  123.5711
 249  224.8637
 250  175.469
 251  99.22844
 252  213.3835
 253  278.2885
 254  236.2042
 255  62.35477
 256  283.0526
 257  260.6766
 258  171.5983
 259  238.0922
 260  360.6723
 261  330.7436
 262  200.8274
 263  218.8864
 264  241.6206
 265  173.0167
 266  137.5705
 267  205.1985
 268  286.4879
 269  218.351
 270  177.108
 271  179.8598
 272  216.3603
 273  227.922
 274  209.9008
 275  262.5377
 276  338.1632
 277  193.442
 278  105.6085
 279  104.5532
 280  234.4246
 281  209.6278
 282  71.71555
 283  67.95096
 284  297.7571
 285  127.3435
 286  -30.55369
 287  43.13557
 288  123.1399
 289  257.1094
 290  255.6814
 291  202.1948
 292  147.2939
 293  215.3175
 294  292.4428
 295  226.7395
 296  89.00365
 297  37.64428
 298  189.0443
 299  221.9575
 300  116.2208
 301  199.4678
 302  325.1323
 303  245.5674
 304  105.0096
 305  256.9975
 306  144.7945
 307  100.3179
 308  292.823
 309  215.9496
 310  99.06439
 311  150.5388
 312  225.4432
 313  193.2458
 314  283.1856
 315  277.5764
 316  316.9792
 317  221.3818
 318  55.04797
 319  64.02473
 320  101.987
 321  282.0399
 322  228.7975
 323  103.7939
 324  131.7515
 325  135.5441
 326  228.6946
 327  129.8813
 328  66.48859
 329  211.6137
 330  226.0624
 331  191.0536
 332  307.31
 333  246.9293
 334  223.6988
 335  178.9752
 336  206.6979
 337  267.0847
 338  265.4905
 339  233.1704
 340  186.4871
 341  135.4034
 342  69.86394
 343  74.71843
 344  96.87158
 345  287.3889
 346  316.9942
 347  236.2397
 348  129.7612
 349  175.2036
 350  207.9314
 351  106.8631
 352  110.3291
 353  241.3831
 354  250.5066
 355  235.4584
 356  319.876
 357  156.5679
 358  80.76038
 359  100.9103
 360  134.5603
 361  117.581
 362  140.8673
 363  224.6932
 364  191.7364
 365  261.7383
 366  147.0354
 367  167.3572
 368  185.9522
 369  178.9248
 370  112.607
 371  215.3909
 372  177.0544
 373  105.5815
 374  69.36958
 375  164.4854
 376  206.8433
 377  264.2377
 378  155.2808
 379  83.72212
 380  170.6137
 381  115.6431
 382  97.79694
 383  239.2008
 384  251.8997
 385  241.4067
 386  244.9498
 387  151.0459
 388  103.4593
 389  172.3239
 390  180.8295
 391  187.7532
 392  94.01022
 393  84.21937
 394  171.558
 395  126.4144
 396  203.9422
 397  179.254
 398  158.7449
 399  269.3893
 400  256.9082
 401  219.3703
 402  204.7036
 403  52.56113
 404  182.7247
 405  164.1735
 406  197.5064
 407  248.4791
 408  263.5413
 409  245.8216
 410  214.2292
 411  218.5454
 412  144.5111
 413  145.9326
 414  189.3251
 415  252.3454
 416  141.2025
 417  165.5588
 418  177.0658
 419  272.0777
 420  319.8382
 421  295.6223
 422  177.9126
 423  130.3006
 424  96.90575
 425  175.0461
 426  265.4686
 427  136.9159
 428  20.24153
 429  77.87407
 430  154.2224
 431  156.4827
 432  138.0159
 433  105.9554
 434  109.1577
 435  109.2503
 436  96.88684
 437  114.9979
 438  125.936
 439  70.1878
 440  152.4099
 441  34.61217
 442  12.37834
 443  133.2829
 444  200.6279
 445  126.5739
 446  81.89403
 447  130.4671
 448  57.93368
 449  251.7051
 450  214.5921
 451  176.2588
 452  103.3465
 453  174.1075
 454  154.6628
 455  229.8574
 456  162.4274
 457  192.4146
 458  184.4677
 459  151.7988
 460  166.9423
 461  147.0435
 462  161.222
 463  159.2537
 464  98.60506
 465  222.626
 466  259.3179
 467  235.5334
 468  197.4619
 469  127.6671
 470  115.2578
 471  245.1147
 472  319.4318
 473  336.397
 474  285.5006
 475  72.65848
 476  115.3464
 477  190.1597
 478  212.1696
 479  265.0075
 480  267.6148
 481  312.2252
 482  195.1131
 483  103.9905
 484  214.1074
 485  339.2261
 486  258.1902
 487  227.4381
 488  236.44
 489  210.6058
 490  234.7792
 491  276.7197
 492  268.1084
 493  404.8925
 494  436.2319
 495  451.5359
 496  592.9136
 497  787.5238
 498  825.2648
 499  845.7405
 500  743.5943
 501  534.1941
 502  369.9846
 503  322.1584
 504  301.8702
 505  210.73
 506  239.856
 507  238.1323
 508  257.0424
 509  336.7459
 510  154.4937
 511  168.9093
