# Input file       =  1191969090.136214_cleaned.dat
# Candidate        =  PSR_0332+5434
# Telescope        =  AR
# Epoch_topo       =  58039.938763150625
# Epoch_bary       =  N/A
# T_sample         =  0.002
# Data Folded      =  7340032
# Data Avg         =  0.0109255747405509
# Data StdDev      =  1.00004001285366 
# Profile Bins     =  512
# Profile Avg      =  156.708170858057 
# Profile StdDev   =  119.737827237229 
# Reduced chi-sqr  =  2.225
# Prob(Noise)      <  1.33e-49   (~14.8 sigma)
# P_topo (ms)      =  714.480772561678  +/- 0.000184
# P'_topo (s/s)    =  -0                +/- 9.69e-11
# P''_topo (s/s^2) =  0                 +/- 4.28e-14
# P_bary (ms)      =  N/A
# P'_bary (s/s)    =  N/A
# P''_bary (s/s^2) =  N/A
# P_orb (s)        =  N/A
# asin(i)/c (s)    =  N/A
# eccentricity     =  N/A
# w (rad)          =  N/A
# T_peri           =  N/A
######################################################
   0  1176.322
   1  987.5618
   2  689.6599
   3  443.0848
   4  283.2943
   5  148.6607
   6  53.00457
   7  105.1557
   8  166.0572
   9  192.3984
  10  137.9486
  11  208.7785
  12  198.6463
  13  277.9155
  14  238.2086
  15  170.6545
  16  156.7541
  17  252.7181
  18  155.3764
  19  119.5653
  20  169.7434
  21  275.8371
  22  180.2568
  23  97.60193
  24  86.72685
  25  26.3244
  26  144.5513
  27  207.6032
  28  347.4161
  29  238.7777
  30  133.3336
  31  268.3167
  32  153.2611
  33  121.4896
  34  118.3874
  35  215.817
  36  186.3049
  37  -74.33554
  38  24.93906
  39  77.56513
  40  56.50092
  41  -5.89203
  42  80.72267
  43  112.4113
  44  177.0113
  45  251.3326
  46  255.9421
  47  195.073
  48  82.65559
  49  105.2494
  50  152.2314
  51  226.1949
  52  197.0992
  53  176.787
  54  320.8669
  55  269.4126
  56  207.4001
  57  224.3776
  58  163.4904
  59  159.7439
  60  121.4519
  61  116.2865
  62  135.3937
  63  111.0343
  64  140.7564
  65  226.2728
  66  161.2238
  67  151.6712
  68  106.7319
  69  128.8295
  70  149.4595
  71  143.5054
  72  131.016
  73  151.63
  74  32.03701
  75  20.3357
  76  105.4827
  77  123.1561
  78  203.821
  79  151.8707
  80  199.0863
  81  153.8856
  82  236.0818
  83  123.9469
  84  -85.05427
  85  85.63452
  86  211.5586
  87  185.8271
  88  76.24093
  89  46.84805
  90  93.56059
  91  208.7791
  92  175.2391
  93  141.0891
  94  185.1717
  95  181.8447
  96  231.3933
  97  188.079
  98  207.4545
  99  260.9241
 100  179.326
 101  177.2845
 102  195.7563
 103  181.4176
 104  217.6631
 105  137.5346
 106  262.7318
 107  377.3043
 108  181.08
 109  109.42
 110  112.7506
 111  255.168
 112  215.7887
 113  135.9381
 114  92.92642
 115  124.1983
 116  115.444
 117  76.53618
 118  143.5864
 119  135.4497
 120  141.3155
 121  -12.58501
 122  -23.50946
 123  82.21329
 124  194.2532
 125  200.1138
 126  81.56408
 127  78.92847
 128  120.249
 129  169.8665
 130  362.0278
 131  185.1783
 132  151.718
 133  195.6524
 134  237.2967
 135  231.7311
 136  67.11583
 137  -50.74134
 138  71.70689
 139  -47.1975
 140  107.4242
 141  123.4093
 142  134.9462
 143  186.4984
 144  98.69666
 145  148.0064
 146  158.9888
 147  164.4761
 148  212.662
 149  144.0856
 150  200.9326
 151  162.5698
 152  104.9502
 153  143.2739
 154  240.5795
 155  75.79981
 156  71.40997
 157  31.88266
 158  49.8327
 159  -52.39631
 160  23.53635
 161  148.9345
 162  68.15668
 163  76.52615
 164  189.4966
 165  254.6888
 166  97.59905
 167  69.99892
 168  142.0753
 169  230.1821
 170  152.4263
 171  27.93796
 172  138.5371
 173  166.503
 174  110.6756
 175  113.0415
 176  193.9771
 177  78.75035
 178  107.8868
 179  143.0359
 180  170.2687
 181  184.1888
 182  243.8806
 183  101.9782
 184  14.6942
 185  5.450609
 186  -11.5907
 187  9.109275
 188  -34.88814
 189  68.50021
 190  71.46178
 191  -72.2776
 192  7.844997
 193  15.69882
 194  -1.010139
 195  147.974
 196  139.2968
 197  171.1525
 198  209.1002
 199  115.5238
 200  98.56549
 201  21.70642
 202  33.24054
 203  69.69212
 204  3.767013
 205  73.72857
 206  17.6492
 207  116.7962
 208  109.873
 209  85.59571
 210  49.39327
 211  65.70387
 212  132.2921
 213  222.3846
 214  266.4197
 215  199.9041
 216  90.07101
 217  71.38313
 218  95.91178
 219  96.14691
 220  -1.791742
 221  57.4571
 222  32.25388
 223  97.33291
 224  163.587
 225  48.76043
 226  143.6886
 227  65.51125
 228  50.62458
 229  110.918
 230  183.6869
 231  335.5177
 232  217.5498
 233  100.915
 234  97.42525
 235  110.365
 236  95.20767
 237  186.5918
 238  133.7369
 239  157.9558
 240  11.65486
 241  12.00877
 242  26.95892
 243  124.2393
 244  180.2058
 245  105.1109
 246  100.2907
 247  210.2596
 248  155.3492
 249  85.37153
 250  164.3056
 251  129.9212
 252  178.6307
 253  223.4755
 254  235.1283
 255  300.8737
 256  271.6166
 257  62.84075
 258  27.01306
 259  -6.991719
 260  62.22847
 261  63.52744
 262  157.2658
 263  223.4264
 264  244.6521
 265  53.84027
 266  92.91283
 267  88.56264
 268  35.35815
 269  156.0226
 270  163.6626
 271  43.37941
 272  67.13526
 273  168.2147
 274  246.328
 275  24.4703
 276  41.55574
 277  95.74841
 278  213.4313
 279  271.4207
 280  141.0235
 281  232.1441
 282  122.5014
 283  150.5822
 284  107.6457
 285  131.1001
 286  177.6811
 287  15.22589
 288  57.16016
 289  182.0339
 290  186.031
 291  138.8697
 292  67.15691
 293  32.18192
 294  -2.544919
 295  34.61613
 296  47.40283
 297  126.1774
 298  194.2432
 299  161.94
 300  261.0418
 301  131.7456
 302  68.19629
 303  17.70018
 304  271.5682
 305  414.8415
 306  393.2617
 307  173.407
 308  -28.87017
 309  78.34986
 310  292.9428
 311  124.4519
 312  197.7518
 313  103.2063
 314  174.137
 315  124.6473
 316  102.1813
 317  -14.55559
 318  102.4817
 319  121.5839
 320  181.9508
 321  84.91709
 322  184.036
 323  329.5778
 324  222.2187
 325  125.3198
 326  107.9472
 327  190.2875
 328  79.67657
 329  -75.43291
 330  194.4003
 331  194.3862
 332  135.5527
 333  64.70148
 334  194.6772
 335  97.93846
 336  10.65156
 337  155.1807
 338  143.9515
 339  71.50269
 340  237.5807
 341  341.0443
 342  236.9212
 343  178.8373
 344  166.8709
 345  249.1891
 346  182.6329
 347  157.3533
 348  120.9064
 349  160.9301
 350  160.3196
 351  47.15602
 352  59.10504
 353  133.3218
 354  204.198
 355  44.94144
 356  42.53427
 357  107.0699
 358  123.6913
 359  49.11205
 360  25.16723
 361  89.60935
 362  179.7543
 363  176.2899
 364  195.3501
 365  298.5901
 366  259.0234
 367  205.4277
 368  146.599
 369  246.2947
 370  254.4942
 371  213.1021
 372  59.38577
 373  -41.65847
 374  229.0229
 375  361.022
 376  237.0545
 377  47.92377
 378  231.3675
 379  272.6565
 380  155.6042
 381  -23.29611
 382  25.31331
 383  269.6356
 384  250.0012
 385  193.4762
 386  191.3351
 387  172.2718
 388  186.7753
 389  225.8633
 390  124.2342
 391  18.36312
 392  11.49331
 393  16.6011
 394  -107.3335
 395  58.95417
 396  171.6086
 397  194.0546
 398  134.8141
 399  177.968
 400  204.8596
 401  187.1008
 402  131.9202
 403  161.7854
 404  99.23256
 405  92.56297
 406  67.58602
 407  164.8369
 408  143.5587
 409  221.5668
 410  271.453
 411  185.8412
 412  226.8468
 413  172.2396
 414  199.3491
 415  41.0431
 416  85.36516
 417  249.2282
 418  289.2429
 419  212.8121
 420  168.6702
 421  159.3018
 422  264.1969
 423  232.1297
 424  248.3967
 425  319.5338
 426  169.1927
 427  107.0258
 428  361.5693
 429  279.3144
 430  333.4306
 431  321.6764
 432  287.9684
 433  224.5768
 434  314.5685
 435  247.9553
 436  279.2206
 437  187.5514
 438  182.3274
 439  235.5671
 440  158.6733
 441  90.58405
 442  24.26491
 443  101.1559
 444  183.4978
 445  266.8418
 446  324.5867
 447  274.858
 448  30.20927
 449  106.2259
 450  184.7562
 451  21.1989
 452  159.1871
 453  194.1964
 454  114.4498
 455  45.48591
 456  52.05064
 457  115.528
 458  93.42078
 459  255.0737
 460  203.2918
 461  117.8012
 462  67.80168
 463  45.03347
 464  -42.977
 465  46.23353
 466  15.49796
 467  169.0885
 468  180.1346
 469  236.2649
 470  215.7648
 471  146.0573
 472  54.40812
 473  199.2801
 474  160.4942
 475  249.9745
 476  260.6016
 477  171.2889
 478  173.5738
 479  131.6833
 480  34.4453
 481  61.61741
 482  181.8747
 483  189.2837
 484  273.8653
 485  220.0182
 486  153.197
 487  84.38577
 488  -49.92774
 489  139.5419
 490  95.30441
 491  299.4752
 492  221.6394
 493  205.6053
 494  186.8584
 495  390.8082
 496  270.7356
 497  159.0238
 498  238.3044
 499  240.7601
 500  145.7924
 501  208.2536
 502  222.586
 503  225.8742
 504  223.1613
 505  278.1887
 506  166.8059
 507  250.0747
 508  473.042
 509  718.3331
 510  1072.769
 511  1306.797
