# Input file       =  1191695979.111746_cleaned.dat
# Candidate        =  PSR_0332+5434
# Telescope        =  AR
# Epoch_topo       =  58036.777755922987
# Epoch_bary       =  N/A
# T_sample         =  0.002
# Data Folded      =  7208960
# Data Avg         =  0.141006043559702
# Data StdDev      =  3.61874392889164 
# Profile Bins     =  256
# Profile Avg      =  3970.71872877081 
# Profile StdDev   =  607.259304301372 
# Reduced chi-sqr  =  0.826
# Prob(Noise)      <  0.981   (~0.0 sigma)
# P_topo (ms)      =  714.478556810264  +/- 9.55e-05
# P'_topo (s/s)    =  -0                +/- 5.13e-11
# P''_topo (s/s^2) =  0                 +/- 2.31e-14
# P_bary (ms)      =  N/A
# P'_bary (s/s)    =  N/A
# P''_bary (s/s^2) =  N/A
# P_orb (s)        =  N/A
# asin(i)/c (s)    =  N/A
# eccentricity     =  N/A
# w (rad)          =  N/A
# T_peri           =  N/A
######################################################
   0  4554.613
   1  4367.144
   2  4292.545
   3  3598.617
   4  3712.964
   5  4506.407
   6  4016.507
   7  4344.962
   8  3984.343
   9  4313.519
  10  4521.107
  11  4735.318
  12  4401.863
  13  3998.097
  14  4409.605
  15  3353.258
  16  3467.017
  17  4437.189
  18  4193.345
  19  4060.139
  20  3754.081
  21  4534.237
  22  4600.89
  23  4255.79
  24  4027.928
  25  4074.04
  26  5002.154
  27  3925.753
  28  3536.538
  29  4840.568
  30  3937.768
  31  3957.936
  32  4160.572
  33  4544.036
  34  4529.128
  35  3969.406
  36  3651.931
  37  3773.52
  38  4202.103
  39  3967.309
  40  3358.602
  41  3422.293
  42  4290.664
  43  4665.865
  44  4000.507
  45  4176.991
  46  4085.293
  47  4083.678
  48  4019.093
  49  4185.578
  50  4075.105
  51  4013.716
  52  4371.312
  53  4430.902
  54  3577.055
  55  4057.714
  56  3695.504
  57  2997.849
  58  3143.132
  59  3843.655
  60  3657.266
  61  3466.325
  62  3516.306
  63  4236.356
  64  3557.772
  65  3556.458
  66  3498.927
  67  3191.689
  68  3487.409
  69  3751.725
  70  4391.856
  71  3845.864
  72  3446.251
  73  3822.399
  74  3948.531
  75  4432.899
  76  4439.053
  77  4390.291
  78  4020.476
  79  3708.27
  80  3886.695
  81  3651.206
  82  3892.012
  83  4048.446
  84  4103.022
  85  4223.093
  86  4032.632
  87  4049.299
  88  3729.956
  89  3325.069
  90  3452.899
  91  3660.233
  92  3635.813
  93  3850.072
  94  4259.154
  95  3742.837
  96  3292.947
  97  3732.054
  98  3503.811
  99  3542.071
 100  4160.501
 101  4245.769
 102  3419.106
 103  3413.331
 104  3310.342
 105  3856.788
 106  3418.456
 107  3591.121
 108  4228.43
 109  3780.216
 110  4383.84
 111  3594.414
 112  3825.988
 113  3107.379
 114  4241.417
 115  3807.209
 116  4159.703
 117  4279.128
 118  3863.709
 119  3386.345
 120  4040.228
 121  4254.257
 122  3704.434
 123  3844.901
 124  4292.401
 125  3687.718
 126  3869.135
 127  3583.454
 128  3870.225
 129  4385.932
 130  3786.73
 131  3956.115
 132  3593.803
 133  3720.187
 134  4195.66
 135  3783.668
 136  3913.765
 137  4180.871
 138  3995.378
 139  3394.043
 140  4319.589
 141  4610.029
 142  4111.58
 143  4346.201
 144  3756.577
 145  4449.822
 146  4008.334
 147  3038.489
 148  3649.536
 149  4165.576
 150  3840.49
 151  3325.828
 152  3422.062
 153  3974.507
 154  3975.777
 155  4312.736
 156  4555.622
 157  4392.42
 158  5460.684
 159  7144.907
 160  6556.292
 161  5041.479
 162  4155.246
 163  3880.947
 164  2898.203
 165  4249.405
 166  4565.419
 167  3819.125
 168  3525.404
 169  3706.491
 170  3808.054
 171  4179.359
 172  3281.562
 173  3235.699
 174  3960.281
 175  4354.528
 176  3463.072
 177  3453.243
 178  4347.19
 179  4319.308
 180  2991.369
 181  3270.355
 182  3526.298
 183  4286.457
 184  3487.643
 185  4256.894
 186  4120.77
 187  3833.883
 188  4317.951
 189  3548.108
 190  4086.411
 191  4340.68
 192  3487.197
 193  3825.888
 194  3834.458
 195  3884.721
 196  4161.817
 197  3695.706
 198  4205.587
 199  3916.204
 200  3900.86
 201  3930.037
 202  3878.131
 203  4356.032
 204  4111.367
 205  3155.382
 206  3684.814
 207  3632.194
 208  4222.809
 209  3856.644
 210  3507.081
 211  4315.527
 212  4570.601
 213  4191.648
 214  3813.179
 215  3896.353
 216  4399.025
 217  3672.035
 218  3481.943
 219  4133.111
 220  3882.783
 221  3864.721
 222  3246.119
 223  3850.955
 224  4315.497
 225  4145.056
 226  3508.333
 227  3918.018
 228  4195.671
 229  3941.672
 230  4176.337
 231  4294.574
 232  4045.323
 233  4274.85
 234  4381.313
 235  3986.942
 236  4516.453
 237  4093.128
 238  3533.663
 239  3616.99
 240  4656.523
 241  3875.374
 242  3585.148
 243  3475.934
 244  3855.848
 245  4398.054
 246  3860.934
 247  3647.164
 248  3947.858
 249  4774.441
 250  4083.269
 251  3703.106
 252  4360.162
 253  4455.827
 254  3889.954
 255  3583.461
