# Input file       =  1191882929.123109_cleaned.dat
# Candidate        =  PSR_0332+5434
# Telescope        =  AR
# Epoch_topo       =  58038.941529202653
# Epoch_bary       =  N/A
# T_sample         =  0.002
# Data Folded      =  7340032
# Data Avg         =  0.028864027198454
# Data StdDev      =  2.2889367668349  
# Profile Bins     =  512
# Profile Avg      =  413.293681593466 
# Profile StdDev   =  274.061349167561 
# Reduced chi-sqr  =  1.797
# Prob(Noise)      <  1.17e-25   (~10.4 sigma)
# P_topo (ms)      =  714.480063778411  +/- 0.000229
# P'_topo (s/s)    =  -0                +/- 1.21e-10
# P''_topo (s/s^2) =  0                 +/- 5.34e-14
# P_bary (ms)      =  N/A
# P'_bary (s/s)    =  N/A
# P''_bary (s/s^2) =  N/A
# P_orb (s)        =  N/A
# asin(i)/c (s)    =  N/A
# eccentricity     =  N/A
# w (rad)          =  N/A
# T_peri           =  N/A
######################################################
   0  597.1254
   1  589.9825
   2  476.5162
   3  525.7374
   4  406.8402
   5  42.08157
   6  -8.347729
   7  466.4799
   8  331.256
   9  236.9019
  10  648.7963
  11  616.3414
  12  379.8235
  13  312.8741
  14  441.0079
  15  145.9818
  16  367.0182
  17  522.3921
  18  367.1858
  19  341.0872
  20  246.3912
  21  70.58377
  22  308.6082
  23  334.9085
  24  6.763373
  25  153.4773
  26  96.29012
  27  305.6909
  28  263.0388
  29  454.4617
  30  363.0256
  31  107.1558
  32  373.1998
  33  299.0433
  34  185.4601
  35  578.0219
  36  394.2899
  37  295.9782
  38  409.4357
  39  483.1293
  40  424.3371
  41  495.3738
  42  524.6917
  43  304.1793
  44  134.7203
  45  471.6334
  46  513.2324
  47  471.3267
  48  403.7747
  49  388.8505
  50  323.1735
  51  200.7688
  52  758.4498
  53  809.1981
  54  691.1795
  55  551.1978
  56  783.7925
  57  513.6873
  58  375.9905
  59  192.8123
  60  737.2205
  61  679.1893
  62  583.7662
  63  418.1573
  64  353.8531
  65  578.2893
  66  594.285
  67  238.8105
  68  571.3276
  69  754.8293
  70  672.6191
  71  452.6414
  72  486.5284
  73  511.832
  74  340.0988
  75  315.7327
  76  592.6705
  77  339.683
  78  277.9831
  79  167.6162
  80  554.7239
  81  397.1933
  82  316.7289
  83  561.0315
  84  458.5401
  85  446.5746
  86  281.5028
  87  486.5729
  88  572.2789
  89  463.5277
  90  577.2556
  91  287.842
  92  309.6547
  93  370.6921
  94  467.5194
  95  297.4078
  96  392.6671
  97  497.8796
  98  386.0614
  99  290.5655
 100  319.1639
 101  345.937
 102  221.1026
 103  786.3413
 104  903.7726
 105  529.1814
 106  414.9659
 107  154.8964
 108  340.2159
 109  485.9123
 110  678.9295
 111  431.5679
 112  263.4084
 113  454.5556
 114  462.7689
 115  627.446
 116  660.7943
 117  780.1672
 118  1056.406
 119  1639.618
 120  1992.031
 121  2370.721
 122  2522.507
 123  2456.809
 124  1651.996
 125  974.0203
 126  521.3066
 127  508.7309
 128  330.3558
 129  270.9915
 130  615.5541
 131  672.928
 132  712.6506
 133  390.4017
 134  170.3451
 135  273.1882
 136  431.5937
 137  540.1655
 138  852.6487
 139  1032.547
 140  578.1793
 141  37.75414
 142  380.6436
 143  324.8582
 144  281.5467
 145  160.212
 146  353.692
 147  37.87554
 148  56.57344
 149  160.1631
 150  247.4897
 151  222.8805
 152  486.5909
 153  456.4412
 154  140.2057
 155  443.9422
 156  336.9417
 157  306.0891
 158  103.9094
 159  311.2893
 160  377.9026
 161  210.9473
 162  219.2818
 163  376.2503
 164  277.3025
 165  730.6066
 166  865.0186
 167  671.754
 168  513.4073
 169  307.0045
 170  319.0305
 171  366.7244
 172  607.7924
 173  319.9601
 174  233.2718
 175  334.5099
 176  362.9566
 177  308.9905
 178  347.5102
 179  243.4113
 180  278.1744
 181  433.7289
 182  322.6082
 183  568.8367
 184  418.2416
 185  374.3963
 186  445.1912
 187  213.9838
 188  157.9621
 189  596.277
 190  595.1652
 191  722.2636
 192  236.6853
 193  46.67623
 194  354.3695
 195  380.7999
 196  611.2244
 197  452.1943
 198  371.2689
 199  522.0662
 200  309.8757
 201  306.07
 202  386.2334
 203  323.916
 204  236.4323
 205  395.7037
 206  381.5787
 207  585.2845
 208  517.8246
 209  780.4141
 210  589.9836
 211  349.4624
 212  579.9417
 213  503.4114
 214  434.3455
 215  419.6029
 216  337.4533
 217  242.6676
 218  525.662
 219  384.4823
 220  706.2394
 221  592.601
 222  579.1664
 223  617.9518
 224  495.9377
 225  702.8377
 226  375.3147
 227  667.4297
 228  487.253
 229  426.4258
 230  455.4661
 231  715.77
 232  784.2425
 233  437.2373
 234  612.207
 235  308.1407
 236  158.7864
 237  374.8261
 238  660.5933
 239  708.8496
 240  586.3254
 241  407.8968
 242  273.9948
 243  194.5128
 244  297.2934
 245  594.0179
 246  669.5322
 247  311.487
 248  113.3427
 249  201.1696
 250  444.9509
 251  505.5542
 252  521.3873
 253  274.855
 254  484.2666
 255  587.4853
 256  603.4714
 257  323.8452
 258  435.4644
 259  551.3649
 260  489.503
 261  350.0248
 262  292.4045
 263  777.1553
 264  544.1209
 265  524.077
 266  317.1944
 267  151.262
 268  135.5155
 269  40.72757
 270  479.7106
 271  387.6959
 272  63.09569
 273  219.197
 274  284.6595
 275  198.7389
 276  416.8823
 277  338.5953
 278  327.5066
 279  387.4533
 280  420.4332
 281  547.8186
 282  635.1496
 283  600.3264
 284  529.3098
 285  256.2921
 286  265.526
 287  404.2202
 288  604.9965
 289  628.4109
 290  488.3366
 291  374.2673
 292  141.5386
 293  315.1826
 294  492.1078
 295  384.8896
 296  664.4473
 297  757.7878
 298  533.571
 299  492.6358
 300  349.4554
 301  441.6711
 302  418.5697
 303  510.1139
 304  506.7066
 305  221.5568
 306  303.7343
 307  284.4846
 308  181.2112
 309  -8.228366
 310  296.4433
 311  545.3827
 312  531.5507
 313  695.6625
 314  423.1462
 315  560.5392
 316  298.0938
 317  189.7396
 318  399.8414
 319  625.8832
 320  639.8033
 321  565.6201
 322  471.5626
 323  630.1315
 324  708.0354
 325  707.2036
 326  275.2682
 327  458.9959
 328  572.5995
 329  481.2692
 330  126.7589
 331  268.9615
 332  353.4333
 333  337.9895
 334  260.5487
 335  145.2839
 336  108.7734
 337  57.76325
 338  132.6261
 339  110.5696
 340  224.9071
 341  275.6751
 342  228.7007
 343  196.8589
 344  502.999
 345  665.7226
 346  342.0097
 347  310.7612
 348  372.1002
 349  325.0814
 350  242.8229
 351  421.7215
 352  736.3718
 353  591.2971
 354  261.916
 355  219.2066
 356  525.4024
 357  694.6721
 358  163.2587
 359  191.322
 360  374.0522
 361  692.8162
 362  286.1003
 363  85.9455
 364  297.8291
 365  431.2966
 366  435.7677
 367  464.9456
 368  414.0015
 369  517.3528
 370  233.2446
 371  339.3636
 372  433.1066
 373  365.5745
 374  234.6143
 375  257.4236
 376  283.5124
 377  471.2757
 378  462.1228
 379  180.6689
 380  -41.91039
 381  -88.26768
 382  291.2047
 383  419.3822
 384  417.1732
 385  160.9846
 386  185.7144
 387  246.4228
 388  341.0347
 389  418.3181
 390  446.765
 391  574.6183
 392  521.9636
 393  444.471
 394  322.4726
 395  359.5578
 396  468.845
 397  454.4754
 398  553.3033
 399  480.6786
 400  129.9804
 401  274.2664
 402  277.0987
 403  167.5773
 404  -127.8024
 405  -55.675
 406  94.11362
 407  134.7851
 408  211.1009
 409  -69.53191
 410  179.5616
 411  387.5702
 412  397.9205
 413  330.8101
 414  209.4006
 415  98.29396
 416  407.2286
 417  369.0836
 418  269.7542
 419  311.0719
 420  355.8757
 421  341.416
 422  444.4697
 423  202.8111
 424  205.2082
 425  334.6176
 426  473.1499
 427  90.34369
 428  93.58371
 429  471.3017
 430  300.4944
 431  409.2822
 432  300.2079
 433  21.53887
 434  277.0775
 435  238.2594
 436  501.4714
 437  537.7741
 438  264.2662
 439  228.4796
 440  493.567
 441  305.0506
 442  477.2202
 443  511.6111
 444  232.3231
 445  43.55961
 446  329.1337
 447  337.3029
 448  231.8515
 449  78.41805
 450  166.0312
 451  186.3024
 452  139.7602
 453  248.1784
 454  195.1857
 455  261.7061
 456  386.825
 457  179.1339
 458  351.5295
 459  338.4929
 460  79.61632
 461  232.1278
 462  447.8325
 463  383.551
 464  491.4075
 465  317.1689
 466  496.1128
 467  711.7175
 468  460.0976
 469  419.1484
 470  472.8383
 471  405.2114
 472  99.12891
 473  -122.4052
 474  -27.02288
 475  405.2223
 476  352.9639
 477  366.2997
 478  291.8761
 479  394.8676
 480  619.1322
 481  665.5582
 482  341.7215
 483  459.3636
 484  494.4939
 485  285.9771
 486  284.2952
 487  430.9328
 488  445.0725
 489  293.1078
 490  283.1614
 491  266.3737
 492  320.5109
 493  551.186
 494  622.4687
 495  231.4427
 496  39.47254
 497  197.4882
 498  565.0683
 499  899.556
 500  870.8612
 501  803.2188
 502  624.0458
 503  349.9098
 504  401.9131
 505  605.3898
 506  456.8897
 507  502.3415
 508  489.7681
 509  558.3638
 510  502.0969
 511  540.1844
