# Input file       =  1191983994.125854_cleaned.dat
# Candidate        =  PSR_0332+5434
# Telescope        =  AR
# Epoch_topo       =  58040.111263030718
# Epoch_bary       =  N/A
# T_sample         =  0.002
# Data Folded      =  7340032
# Data Avg         =  0.0398030026273253
# Data StdDev      =  2.53709348142423 
# Profile Bins     =  256
# Profile Avg      =  1141.02093236053 
# Profile StdDev   =  429.601177905381 
# Reduced chi-sqr  =  2.094
# Prob(Noise)      <  6.99e-22   (~9.5 sigma)
# P_topo (ms)      =  714.48123267776   +/- 0.000242
# P'_topo (s/s)    =  -0                +/- 1.28e-10
# P''_topo (s/s^2) =  0                 +/- 5.65e-14
# P_bary (ms)      =  N/A
# P'_bary (s/s)    =  N/A
# P''_bary (s/s^2) =  N/A
# P_orb (s)        =  N/A
# asin(i)/c (s)    =  N/A
# eccentricity     =  N/A
# w (rad)          =  N/A
# T_peri           =  N/A
######################################################
   0  845.0671
   1  1492.466
   2  1261.582
   3  949.7429
   4  914.5034
   5  821.0214
   6  1523.676
   7  1276.018
   8  844.0647
   9  136.7233
  10  471.8275
  11  419.5782
  12  438.0833
  13  1574.223
  14  673.2098
  15  787.2921
  16  687.1772
  17  963.0006
  18  1357.245
  19  467.0999
  20  1748.694
  21  1206.233
  22  1141.236
  23  932.173
  24  1430.279
  25  1023.677
  26  1017.634
  27  1441.697
  28  1006.516
  29  549.4792
  30  648.7137
  31  805.3597
  32  776.2385
  33  1086.517
  34  651.9767
  35  725.8004
  36  743.7919
  37  421.7038
  38  1285.71
  39  1504.408
  40  910.636
  41  665.3612
  42  1192.844
  43  447.9291
  44  966.0846
  45  1057.817
  46  867.1147
  47  314.3676
  48  799.8232
  49  940.2243
  50  1040.451
  51  1359.446
  52  974.9143
  53  1240.012
  54  999.4385
  55  870.158
  56  253.0242
  57  386.83
  58  1373.902
  59  1060.417
  60  949.0447
  61  854.7682
  62  946.965
  63  941.4025
  64  868.2802
  65  1119.166
  66  1127.769
  67  1163.538
  68  1247.594
  69  1270.804
  70  1476.025
  71  1477.926
  72  1102.842
  73  798.8056
  74  1174.534
  75  607.3369
  76  494.744
  77  613.1294
  78  1332.199
  79  1382.844
  80  1418.983
  81  1724.539
  82  1378.955
  83  1307.111
  84  1308.568
  85  905.3806
  86  505.3363
  87  909.8813
  88  1351.394
  89  1191.744
  90  1158.535
  91  605.1635
  92  722.8867
  93  560.5956
  94  796.971
  95  1092.279
  96  1433.262
  97  840.1362
  98  995.9216
  99  1388.555
 100  1152.941
 101  1094.93
 102  1533.545
 103  1787.759
 104  608.3823
 105  946.5783
 106  1087.557
 107  1476.148
 108  1038.641
 109  338.566
 110  1358.997
 111  923.8636
 112  950.6985
 113  1472.68
 114  1246.798
 115  1147.108
 116  1756.116
 117  1145.145
 118  1492.022
 119  1620.337
 120  1226.075
 121  1387.616
 122  1547.676
 123  962.0384
 124  992.8608
 125  865.2017
 126  1273.287
 127  1486.245
 128  1128.939
 129  2029.711
 130  1337.639
 131  832.1031
 132  901.813
 133  1197.875
 134  1533.168
 135  1285.547
 136  1569.633
 137  601.2772
 138  1002.076
 139  1195.243
 140  1392.172
 141  1438.487
 142  1495.836
 143  1180.737
 144  1678.72
 145  1072.677
 146  1663.942
 147  813.243
 148  1199.384
 149  1727.91
 150  1387.592
 151  428.1107
 152  1038.939
 153  1431.902
 154  2109.638
 155  1006.638
 156  2005.282
 157  2655.819
 158  4578.738
 159  4816.491
 160  4345.164
 161  2767.712
 162  1780.61
 163  1886.687
 164  1667.987
 165  1557.652
 166  1740.26
 167  1412.731
 168  1279.02
 169  1254.849
 170  1352.419
 171  1398.03
 172  1716.078
 173  1565.775
 174  1514.822
 175  823.0212
 176  765.7651
 177  803.5576
 178  700.1417
 179  1472.644
 180  1273.212
 181  1241.373
 182  695.4496
 183  1250.539
 184  1496.334
 185  957.3365
 186  970.1191
 187  1011.49
 188  816.4946
 189  907.7189
 190  1496.058
 191  1266.245
 192  1051.329
 193  584.8843
 194  1323.957
 195  243.9388
 196  424.3498
 197  1692.043
 198  1306.339
 199  848.5776
 200  1059.555
 201  1040.425
 202  505.3315
 203  1298.181
 204  1309.604
 205  1357.719
 206  940.0458
 207  1454.395
 208  1206.428
 209  1082.822
 210  1166.178
 211  1597.557
 212  1383.367
 213  639.0468
 214  1098.24
 215  885.9859
 216  1003.993
 217  1280.429
 218  950.3618
 219  1337.282
 220  812.9802
 221  905.5737
 222  1222.025
 223  1246.822
 224  800.9286
 225  642.1816
 226  800.7954
 227  1025.357
 228  521.6113
 229  1058.383
 230  1092.809
 231  1481.084
 232  1194.609
 233  1314.003
 234  1246.441
 235  1335.754
 236  723.0861
 237  1197.08
 238  1086.321
 239  974.4801
 240  914.2977
 241  1076.581
 242  1517.946
 243  899.3234
 244  685.8339
 245  821.3032
 246  416.3219
 247  708.689
 248  1021.372
 249  969.1906
 250  920.2419
 251  842.9524
 252  698.72
 253  951.173
 254  981.6831
 255  758.4969
