# Input file       =  1191193657.11263_cleaned.dat
# Candidate        =  PSR_0332+5434
# Telescope        =  AR
# Epoch_topo       =  58030.963843896177
# Epoch_bary       =  N/A
# T_sample         =  0.002
# Data Folded      =  7340032
# Data Avg         =  0.0332857082342213
# Data StdDev      =  2.3463827647069  
# Profile Bins     =  256
# Profile Avg      =  954.500176766088 
# Profile StdDev   =  397.308497662889 
# Reduced chi-sqr  =  1.887
# Prob(Noise)      <  4.46e-16   (~8.0 sigma)
# P_topo (ms)      =  714.474874193134  +/- 0.000325
# P'_topo (s/s)    =  -0                +/- 1.72e-10
# P''_topo (s/s^2) =  0                 +/- 7.58e-14
# P_bary (ms)      =  N/A
# P'_bary (s/s)    =  N/A
# P''_bary (s/s^2) =  N/A
# P_orb (s)        =  N/A
# asin(i)/c (s)    =  N/A
# eccentricity     =  N/A
# w (rad)          =  N/A
# T_peri           =  N/A
######################################################
   0  295.968
   1  965.8065
   2  991.947
   3  570.007
   4  24.64062
   5  697.886
   6  830.271
   7  533.0332
   8  748.2484
   9  928.7817
  10  1126.06
  11  990.1298
  12  1114.349
  13  855.0505
  14  1104.558
  15  688.0037
  16  975.1924
  17  630.2211
  18  1238.368
  19  1017.663
  20  1213.622
  21  1549.011
  22  1111.119
  23  895.1806
  24  1179.346
  25  849.8351
  26  671.0292
  27  923.8167
  28  952.62
  29  668.841
  30  1433.394
  31  1059.217
  32  1107.272
  33  1345.883
  34  1101.01
  35  814.2214
  36  693.5943
  37  811.3682
  38  946.1351
  39  829.7675
  40  955.7202
  41  1144.219
  42  890.6626
  43  836.3877
  44  1274.33
  45  438.2331
  46  782.3325
  47  1223.904
  48  663.3835
  49  877.3375
  50  1195.078
  51  948.3978
  52  709.9908
  53  1258.74
  54  549.1982
  55  190.6521
  56  778.9697
  57  1138.085
  58  884.0865
  59  886.9106
  60  697.589
  61  1154.148
  62  1102.609
  63  1012.297
  64  1704.781
  65  961.3942
  66  325.3961
  67  930.1901
  68  382.4756
  69  383.8428
  70  825.3764
  71  1056.991
  72  707.7234
  73  924.3561
  74  626.3816
  75  1082.845
  76  1279.283
  77  1082.613
  78  776.1385
  79  912.8673
  80  1349.193
  81  1283.582
  82  1113.403
  83  422.9328
  84  1674.949
  85  1159.259
  86  1149.743
  87  945.0577
  88  862.9727
  89  1172.162
  90  999.6889
  91  1270.484
  92  863.9046
  93  854.192
  94  603.0074
  95  491.6787
  96  368.4606
  97  1125.392
  98  1102.974
  99  303.2597
 100  -13.39723
 101  720.9155
 102  780.665
 103  995.6462
 104  818.3995
 105  473.9062
 106  278.3654
 107  930.0748
 108  574.1642
 109  997.9428
 110  1172.785
 111  672.2845
 112  1027.166
 113  1303.537
 114  1228.135
 115  1413.127
 116  1018.651
 117  1176.161
 118  1405.898
 119  1163.681
 120  760.4895
 121  1230.174
 122  1105.79
 123  1086.851
 124  1064.365
 125  1122.764
 126  907.1899
 127  1340.965
 128  944.7513
 129  1338.199
 130  1142.598
 131  1177.953
 132  1153.595
 133  1203.412
 134  967.0464
 135  1146.802
 136  825.5566
 137  1296.419
 138  737.7059
 139  719.9985
 140  954.1353
 141  1005.254
 142  957.3133
 143  964.7464
 144  920.1911
 145  1071.09
 146  204.0971
 147  644.2088
 148  743.8663
 149  1099.489
 150  1090.134
 151  1062.833
 152  847.6236
 153  242.6266
 154  571.0743
 155  1173.496
 156  1666.26
 157  1527.712
 158  3129.552
 159  3887.372
 160  4508.8
 161  2462.399
 162  1940.087
 163  1080.29
 164  1105.073
 165  1569.977
 166  1630.63
 167  2126.723
 168  1519.447
 169  752.4066
 170  910.3745
 171  1153.414
 172  840.655
 173  897.0607
 174  1062.2
 175  837.0765
 176  1193.928
 177  1347.819
 178  548.2711
 179  1161.155
 180  175.88
 181  594.5006
 182  714.1711
 183  913.1333
 184  1095.456
 185  1042.801
 186  1146.548
 187  829.6221
 188  735.5289
 189  1101.959
 190  427.583
 191  457.3391
 192  40.9318
 193  588.0228
 194  1011.974
 195  999.4101
 196  757.1798
 197  849.2818
 198  918.644
 199  1178.718
 200  530.6868
 201  374.5027
 202  869.4531
 203  1069.567
 204  518.2931
 205  -42.54221
 206  649.4567
 207  1267.269
 208  1361.98
 209  820.9291
 210  1074.221
 211  1218.247
 212  1114.99
 213  987.3231
 214  817.766
 215  892.1277
 216  815.53
 217  654.7742
 218  1431.011
 219  1215.083
 220  1079.414
 221  454.1964
 222  902.8595
 223  773.7325
 224  674.5638
 225  646.1309
 226  1090.477
 227  854.9037
 228  1075.299
 229  1124.113
 230  741.1224
 231  657.9764
 232  482.4624
 233  1192.989
 234  777.7717
 235  342.5605
 236  1022.206
 237  210.5558
 238  397.7458
 239  333.4972
 240  864.7426
 241  976.4926
 242  818.6958
 243  614.3681
 244  1009.245
 245  1254.385
 246  347.0427
 247  150.8297
 248  1049.674
 249  931.2054
 250  804.5527
 251  855.2491
 252  760.5785
 253  1324.472
 254  806.2515
 255  754.0597
