# Input file       =  1191796778.119522_cleaned.dat
# Candidate        =  PSR_0332+5434
# Telescope        =  AR
# Epoch_topo       =  58037.944411105578
# Epoch_bary       =  N/A
# T_sample         =  0.002
# Data Folded      =  7340032
# Data Avg         =  0.012563817175909
# Data StdDev      =  1.00003648808958 
# Profile Bins     =  512
# Profile Avg      =  180.205887643868 
# Profile StdDev   =  119.737405206523 
# Reduced chi-sqr  =  1.735
# Prob(Noise)      <  1.32e-22   (~9.7 sigma)
# P_topo (ms)      =  714.479366731914  +/- 0.000269
# P'_topo (s/s)    =  -0                +/- 1.42e-10
# P''_topo (s/s^2) =  0                 +/- 6.27e-14
# P_bary (ms)      =  N/A
# P'_bary (s/s)    =  N/A
# P''_bary (s/s^2) =  N/A
# P_orb (s)        =  N/A
# asin(i)/c (s)    =  N/A
# eccentricity     =  N/A
# w (rad)          =  N/A
# T_peri           =  N/A
######################################################
   0  952.847
   1  979.3476
   2  802.741
   3  431.5725
   4  325.4822
   5  231.8095
   6  198.7628
   7  178.8452
   8  254.5524
   9  302.3322
  10  196.6236
  11  248.8463
  12  323.3495
  13  344.9413
  14  248.1323
  15  234.6948
  16  136.0147
  17  85.36285
  18  135.7552
  19  72.34309
  20  127.2285
  21  286.3578
  22  205.5588
  23  373.3033
  24  247.6846
  25  335.8738
  26  216.039
  27  84.70763
  28  159.8179
  29  212.5192
  30  134.5832
  31  125.1938
  32  148.7767
  33  215.834
  34  229.5154
  35  239.4769
  36  229.6741
  37  335.7078
  38  109.7086
  39  13.73567
  40  120.0465
  41  144.3762
  42  242.5593
  43  180.5719
  44  130.9997
  45  207.698
  46  181.5379
  47  137.4364
  48  105.93
  49  137.8237
  50  175.6621
  51  190.9695
  52  257.6613
  53  165.3427
  54  133.3128
  55  224.467
  56  163.6567
  57  193.3576
  58  152.8301
  59  90.6772
  60  198.2946
  61  287.2582
  62  163.1619
  63  56.98185
  64  99.27101
  65  192.4751
  66  155.1499
  67  90.98232
  68  176.2352
  69  30.49773
  70  65.43925
  71  131.585
  72  195.8075
  73  121.7998
  74  136.5378
  75  197.9373
  76  128.298
  77  83.6251
  78  128.2055
  79  166.9725
  80  187.4573
  81  69.71903
  82  86.15306
  83  49.06684
  84  71.61081
  85  141.3547
  86  114.9472
  87  137.6894
  88  222.4977
  89  219.4305
  90  110.7424
  91  131.7421
  92  37.61254
  93  -17.99923
  94  158.9856
  95  257.9302
  96  244.9439
  97  380.1554
  98  265.6622
  99  156.6708
 100  79.62259
 101  129.2439
 102  122.0318
 103  224.842
 104  114.5794
 105  127.7183
 106  163.2533
 107  358.0533
 108  302.7698
 109  243.5714
 110  157.0021
 111  279.8107
 112  208.3071
 113  189.3773
 114  197.5795
 115  165.7279
 116  278.0125
 117  391.9164
 118  216.4064
 119  138.5775
 120  142.7687
 121  180.8523
 122  117.4158
 123  110.3414
 124  192.7391
 125  149.7802
 126  112.4257
 127  271.0238
 128  189.4162
 129  193.8453
 130  297.5973
 131  240.4468
 132  201.6036
 133  143.5852
 134  244.5975
 135  309.3441
 136  243.7857
 137  97.61263
 138  53.20566
 139  173.3994
 140  254.8379
 141  163.6905
 142  249.1466
 143  318.7996
 144  176.5945
 145  103.6181
 146  103.0393
 147  293.3765
 148  427.0089
 149  299.79
 150  200.4489
 151  177.8974
 152  158.9066
 153  120.3546
 154  53.67557
 155  202.7776
 156  381.8922
 157  278.1449
 158  348.6779
 159  233.2768
 160  251.9468
 161  241.5352
 162  138.9441
 163  151.571
 164  122.2089
 165  72.55872
 166  40.64533
 167  192.1016
 168  203.6857
 169  157.0673
 170  291.6352
 171  108.6823
 172  179.054
 173  118.925
 174  116.7277
 175  147.7728
 176  213.9944
 177  171.4414
 178  61.31482
 179  66.01942
 180  216.558
 181  236.0602
 182  153.6605
 183  150.9197
 184  185.7
 185  262.0553
 186  232.5619
 187  175.3022
 188  156.4728
 189  112.882
 190  10.15376
 191  -74.51392
 192  97.04302
 193  175.2764
 194  220.0728
 195  180.4072
 196  179.126
 197  246.8056
 198  132.8048
 199  41.97686
 200  208.7019
 201  204.1429
 202  356.8672
 203  275.8435
 204  180.8229
 205  139.4621
 206  30.97093
 207  86.98837
 208  227.4995
 209  266.9211
 210  242.1942
 211  201.1133
 212  205.7155
 213  117.8213
 214  216.6328
 215  188.5114
 216  274.523
 217  218.1514
 218  197.5802
 219  122.1257
 220  230.0184
 221  204.4858
 222  96.27779
 223  92.31375
 224  225.6198
 225  241.7162
 226  166.7051
 227  99.11274
 228  129.6861
 229  167.9982
 230  77.55693
 231  -25.74617
 232  215.3838
 233  129.0138
 234  39.73392
 235  225.3835
 236  185.9979
 237  178.3257
 238  188.7826
 239  213.9291
 240  266.7251
 241  202.11
 242  296.264
 243  317.6992
 244  330.7545
 245  311.5041
 246  254.6117
 247  202.6206
 248  191.766
 249  190.9112
 250  115.2928
 251  206.9693
 252  96.63482
 253  292.2013
 254  128.3221
 255  59.50938
 256  121.4298
 257  188.978
 258  123.9868
 259  141.0649
 260  185.252
 261  145.5417
 262  128.4264
 263  159.3825
 264  49.57555
 265  86.02611
 266  0.2467412
 267  43.19838
 268  33.51508
 269  227.4354
 270  242.2867
 271  286.1638
 272  280.7871
 273  219.7782
 274  73.63895
 275  151.7967
 276  269.8335
 277  285.7038
 278  55.17132
 279  117.2343
 280  265.4309
 281  198.6951
 282  152.603
 283  250.8177
 284  181.273
 285  81.22094
 286  210.5479
 287  228.8388
 288  34.37851
 289  -110.8824
 290  175.7604
 291  235.9497
 292  208.4212
 293  173.2296
 294  82.88453
 295  53.28853
 296  88.38905
 297  180.2316
 298  140.7212
 299  151.0259
 300  147.7225
 301  155.7553
 302  293.2361
 303  187.7941
 304  137.9235
 305  224.4842
 306  119.3027
 307  87.55091
 308  181.8688
 309  82.64454
 310  268.8202
 311  255.8586
 312  249.9844
 313  236.3434
 314  229.1614
 315  107.4563
 316  79.49688
 317  194.7041
 318  239.7786
 319  248.4291
 320  199.8185
 321  232.2107
 322  123.8611
 323  206.5717
 324  212.534
 325  134.2996
 326  225.1558
 327  96.29604
 328  150.3
 329  275.9158
 330  187.9801
 331  69.86444
 332  136.9026
 333  156.6654
 334  242.6753
 335  251.3672
 336  249.4168
 337  149.7159
 338  153.9608
 339  153.5302
 340  68.58032
 341  217.4706
 342  258.173
 343  218.1641
 344  89.88141
 345  127.7482
 346  69.50326
 347  -2.461917
 348  87.30388
 349  171.1102
 350  201.4101
 351  216.1264
 352  76.26801
 353  52.42921
 354  60.80781
 355  112.1126
 356  57.92666
 357  127.1873
 358  85.478
 359  32.69705
 360  -51.64987
 361  54.12152
 362  159.2719
 363  94.49234
 364  -33.5703
 365  90.67523
 366  28.88227
 367  76.73837
 368  71.97944
 369  250.6312
 370  307.443
 371  243.0985
 372  241.2561
 373  113.7604
 374  239.0248
 375  276.3509
 376  218.7106
 377  195.9153
 378  203.7894
 379  213.0073
 380  185.4169
 381  177.0983
 382  98.60992
 383  5.340295
 384  221.5379
 385  108.408
 386  119.3025
 387  233.4332
 388  128.1613
 389  93.96591
 390  118.2299
 391  182.2311
 392  269.3374
 393  96.26003
 394  145.5789
 395  80.25986
 396  96.73693
 397  142.8808
 398  204.2578
 399  229.2229
 400  281.9069
 401  138.6176
 402  218.3287
 403  237.8328
 404  95.36858
 405  109.8912
 406  246.0385
 407  164.7535
 408  83.40047
 409  145.8985
 410  173.9951
 411  165.1156
 412  138.757
 413  67.22209
 414  59.94048
 415  70.78806
 416  184.9694
 417  246.3961
 418  292.3812
 419  247.8582
 420  195.7062
 421  244.3533
 422  137.407
 423  129.6302
 424  193.7541
 425  188.7043
 426  75.91377
 427  278.3499
 428  266.9991
 429  125.0821
 430  61.47816
 431  69.41459
 432  128.0431
 433  136.1514
 434  140.4009
 435  142.0383
 436  87.00189
 437  163.8407
 438  246.5089
 439  267.7289
 440  43.47493
 441  218.0989
 442  295.2327
 443  201.6261
 444  107.331
 445  122.1221
 446  34.75732
 447  136.1827
 448  233.7072
 449  186.1233
 450  81.83669
 451  190.3843
 452  154.6941
 453  12.39054
 454  66.8596
 455  127.1829
 456  138.8193
 457  245.8033
 458  44.23355
 459  87.66453
 460  214.3134
 461  115.1401
 462  187.978
 463  294.6552
 464  165.4536
 465  146.6946
 466  158.4098
 467  176.7148
 468  144.4145
 469  176.7081
 470  238.1053
 471  136.4934
 472  44.16204
 473  191.3003
 474  186.5945
 475  67.09126
 476  117.7285
 477  149.2151
 478  170.3344
 479  130.8329
 480  27.68748
 481  114.0177
 482  143.1085
 483  51.5623
 484  159.1978
 485  293.1986
 486  210.6562
 487  227.4511
 488  258.472
 489  199.199
 490  240.9932
 491  38.18936
 492  122.9585
 493  102.7396
 494  192.2416
 495  204.7641
 496  234.9393
 497  201.1545
 498  137.853
 499  256.1645
 500  256.8813
 501  60.67744
 502  85.39648
 503  176.5454
 504  269.1287
 505  288.9764
 506  391.5108
 507  475.0699
 508  636.2245
 509  755.4011
 510  901.5239
 511  934.4078
