# Input file       =  1191782146.121926_cleaned.dat
# Candidate        =  PSR_0332+5434
# Telescope        =  AR
# Epoch_topo       =  58037.775059281550
# Epoch_bary       =  N/A
# T_sample         =  0.002
# Data Folded      =  7208960
# Data Avg         =  0.200304355680815
# Data StdDev      =  4.42723536497778 
# Profile Bins     =  512
# Profile Avg      =  2820.25073353281 
# Profile StdDev   =  525.332099452234 
# Reduced chi-sqr  =  0.485
# Prob(Noise)      <  1   (~0.0 sigma)
# P_topo (ms)      =  714.47923672733   +/- 0.000111
# P'_topo (s/s)    =  -0                +/- 5.96e-11
# P''_topo (s/s^2) =  0                 +/- 2.68e-14
# P_bary (ms)      =  N/A
# P'_bary (s/s)    =  N/A
# P''_bary (s/s^2) =  N/A
# P_orb (s)        =  N/A
# asin(i)/c (s)    =  N/A
# eccentricity     =  N/A
# w (rad)          =  N/A
# T_peri           =  N/A
######################################################
   0  2827.631
   1  2915.131
   2  2861.057
   3  2666.931
   4  2765.066
   5  3182.342
   6  3026.604
   7  2554.537
   8  2667.528
   9  2761.314
  10  2497.145
  11  2630.45
  12  2754.375
  13  2776.984
  14  2590.608
  15  2682.032
  16  2582.021
  17  2719.757
  18  2823.09
  19  2648.896
  20  2621.199
  21  2850.336
  22  2536.134
  23  2559.739
  24  2784.447
  25  2813.43
  26  3114.946
  27  2889.945
  28  2404.236
  29  2612.463
  30  3098.469
  31  3067.852
  32  3008.491
  33  2584.609
  34  2572.108
  35  2305.767
  36  2439.478
  37  2821.987
  38  2931.791
  39  2970.615
  40  2826.677
  41  2766.168
  42  2660.773
  43  2724.925
  44  2621.827
  45  2848.958
  46  2766.75
  47  2813.542
  48  3057.535
  49  2676.098
  50  2815.308
  51  2786.791
  52  2619.246
  53  2502.116
  54  2627.933
  55  2845.78
  56  2725.694
  57  2801.532
  58  2911.615
  59  2522.827
  60  2903.554
  61  3198.699
  62  3245.826
  63  2722.064
  64  2674.848
  65  3087.258
  66  3058.177
  67  2829.847
  68  2745.781
  69  2849.137
  70  2668.652
  71  2709.086
  72  2699.335
  73  2766.15
  74  2717.894
  75  2824.441
  76  2815.375
  77  2502.555
  78  2792.029
  79  3153.261
  80  3097.076
  81  2986.598
  82  2812.941
  83  2473.746
  84  2333.663
  85  2440.974
  86  2586.423
  87  2584.659
  88  2821.17
  89  2957.621
  90  3025.503
  91  2937.538
  92  2797.388
  93  2978.48
  94  2840.077
  95  2622.054
  96  2755.171
  97  2570.733
  98  2610.983
  99  2910.113
 100  3006.999
 101  3070.116
 102  3022.422
 103  2625.028
 104  2643.98
 105  2722.751
 106  2543.143
 107  2507.575
 108  2911.406
 109  3047.85
 110  2631.157
 111  2695.619
 112  2984.14
 113  3010.235
 114  2831.39
 115  2548.437
 116  2254.07
 117  2831.161
 118  2949.246
 119  2857.052
 120  3093.995
 121  2818.399
 122  2923.527
 123  2561.908
 124  2627.266
 125  3186.925
 126  2913.596
 127  3026.342
 128  2917.21
 129  2864.746
 130  2838.817
 131  3181.818
 132  2996.336
 133  2348.632
 134  2259.948
 135  2513.511
 136  3017.438
 137  2882.023
 138  3038.505
 139  2791.602
 140  2428.517
 141  2876.338
 142  2924.044
 143  2800.195
 144  3029.181
 145  2836.875
 146  2667.133
 147  2763.755
 148  2857.275
 149  2705.479
 150  2697.6
 151  2871.105
 152  2935.184
 153  2973.613
 154  3123.389
 155  3186.949
 156  3008.379
 157  3191.039
 158  2956.49
 159  2617.593
 160  2962.76
 161  3027.453
 162  2975.481
 163  2675.562
 164  2747.253
 165  2577.918
 166  2437.473
 167  2409.406
 168  2769.315
 169  2732.068
 170  2494.3
 171  2938.738
 172  3189.735
 173  2875.233
 174  2843.268
 175  3091.181
 176  2693.233
 177  2492.56
 178  2375.385
 179  2720.495
 180  2731.08
 181  2628.764
 182  2904.073
 183  2882.455
 184  2481.101
 185  2340.79
 186  2807.376
 187  3025.231
 188  2709.177
 189  2757.573
 190  2723.37
 191  2373.963
 192  2539.611
 193  2753.172
 194  2834.572
 195  2896.738
 196  2911.167
 197  2849.655
 198  2787.658
 199  2739.717
 200  2537.034
 201  2733.448
 202  3032.725
 203  3025.533
 204  3054.444
 205  2879.352
 206  2906.999
 207  2797.027
 208  2878.264
 209  2738.807
 210  2545.535
 211  2889.609
 212  2883.089
 213  2718.967
 214  2882.779
 215  2692.791
 216  2613.948
 217  2566.523
 218  2470.943
 219  2781.649
 220  2876.984
 221  2687.455
 222  2693.863
 223  2438.017
 224  2255.965
 225  2483.333
 226  2722.655
 227  2948.896
 228  2771.544
 229  2546.033
 230  2709.152
 231  2795.433
 232  2881.204
 233  2135.01
 234  2464.912
 235  2929.347
 236  2541.625
 237  2695.062
 238  3266.498
 239  3051.2
 240  3015.736
 241  3034.858
 242  2838.326
 243  2564.325
 244  2571.755
 245  2734.746
 246  2989.384
 247  3176.598
 248  3180.817
 249  2812.124
 250  2534.633
 251  2591.665
 252  2772.211
 253  3022.635
 254  2574.092
 255  2606.391
 256  3145.503
 257  3059.561
 258  2677.841
 259  2950.599
 260  2765.116
 261  2575.619
 262  2964.187
 263  2580.727
 264  2963.842
 265  2897.907
 266  2715.368
 267  2788.082
 268  2817.833
 269  2964.572
 270  3263.681
 271  3220.706
 272  2711.088
 273  2613.25
 274  2714.669
 275  2534.09
 276  3057.948
 277  2833.063
 278  2871.056
 279  2699.364
 280  2481.504
 281  2754.219
 282  2751.766
 283  2909.639
 284  2767.1
 285  2757.59
 286  2989.154
 287  2881.818
 288  2482.351
 289  2772.234
 290  2589.135
 291  2281.961
 292  2345.722
 293  2456.557
 294  2958.156
 295  3090.732
 296  2564.776
 297  2767.39
 298  2559.504
 299  2588.132
 300  2751.617
 301  2974.511
 302  3082.81
 303  3082.47
 304  2946.534
 305  3058.716
 306  2789.299
 307  2433.931
 308  2570.383
 309  2898.834
 310  2938.669
 311  3345.237
 312  3290.685
 313  2849.462
 314  2784.775
 315  3121.323
 316  3583.148
 317  3771.723
 318  4421.474
 319  4660.111
 320  4331.954
 321  4293.055
 322  3639.294
 323  3133.615
 324  2909.175
 325  2884.599
 326  2896.736
 327  3039.226
 328  3074.47
 329  3381.611
 330  3377.886
 331  3236.108
 332  2954.311
 333  2868.211
 334  2900.448
 335  2923.061
 336  3302.257
 337  3510.877
 338  3128.807
 339  2921.802
 340  2883.316
 341  2669.314
 342  2515.376
 343  2665.482
 344  2370.661
 345  2669.656
 346  2858.074
 347  2916.711
 348  2940.431
 349  3375.881
 350  3062.707
 351  2927.641
 352  3319.132
 353  3232.708
 354  2720.922
 355  2869.623
 356  2709.322
 357  2515.006
 358  2696.53
 359  3092.191
 360  2697.748
 361  2719.727
 362  3091.055
 363  3005.27
 364  2426.093
 365  2427.335
 366  2657.355
 367  2963.979
 368  2942.74
 369  2772.243
 370  3026.076
 371  2868.046
 372  2674.571
 373  2645.607
 374  2729.495
 375  2690.499
 376  3001.095
 377  3246.606
 378  3247.726
 379  3131.995
 380  3117.514
 381  2843.154
 382  2486.271
 383  2812.113
 384  2820.712
 385  2740.227
 386  3047.597
 387  2810.977
 388  2673.786
 389  2430.269
 390  2764.363
 391  3065.204
 392  2912.745
 393  2875.835
 394  3122.441
 395  2980.054
 396  2632.414
 397  2773.133
 398  2759.192
 399  2776.035
 400  2750.667
 401  2873.624
 402  3083.729
 403  2792.629
 404  2572.597
 405  2553.532
 406  2778.965
 407  2668.433
 408  2665.293
 409  3028.143
 410  3201.597
 411  2806.993
 412  3043.569
 413  2950.26
 414  2671.823
 415  2945.747
 416  2879.575
 417  2783.789
 418  2826.037
 419  2852.45
 420  2907.254
 421  2683.938
 422  2872.26
 423  2761.127
 424  2768.872
 425  2889.917
 426  2856.165
 427  2558.099
 428  2809.909
 429  2780.042
 430  3142.49
 431  2888.911
 432  2582.552
 433  2790.204
 434  3114.263
 435  2966.754
 436  3174.021
 437  3038.881
 438  2789.635
 439  2672.294
 440  2981.5
 441  2804.676
 442  3148.985
 443  3106.969
 444  2872.36
 445  2604.601
 446  2318.766
 447  2438.895
 448  2639.562
 449  2651.018
 450  2675.855
 451  2788.493
 452  2858.228
 453  2938.229
 454  3029.295
 455  2804.102
 456  2756.166
 457  2752.297
 458  3099.833
 459  2924.06
 460  2552.37
 461  2825.528
 462  2750.27
 463  2739.277
 464  2706.467
 465  2618.764
 466  2651.307
 467  2591.857
 468  2712.017
 469  2720.826
 470  2542.556
 471  2630.874
 472  2805.578
 473  2775.134
 474  2753.557
 475  2838.6
 476  2794.502
 477  2857.391
 478  3002.946
 479  2796.993
 480  2700.415
 481  2736.885
 482  2730.857
 483  2582.663
 484  2693.967
 485  2618.908
 486  2729.615
 487  2907.674
 488  2930.814
 489  2576.598
 490  2820.129
 491  2899.668
 492  2691.051
 493  3016.272
 494  2833.009
 495  2739.417
 496  2924.424
 497  2868.83
 498  2550.369
 499  2674.808
 500  2934.009
 501  2635.588
 502  2785.504
 503  2630.181
 504  2627.632
 505  2672.116
 506  2533.282
 507  2648.87
 508  2606.309
 509  3051.972
 510  2652.813
 511  2560.692
