# Input file       =  1191279866.119208_cleaned.dat
# Candidate        =  PSR_0332+5434
# Telescope        =  AR
# Epoch_topo       =  58031.961633324165
# Epoch_bary       =  N/A
# T_sample         =  0.002
# Data Folded      =  7340032
# Data Avg         =  0.0252966697215535
# Data StdDev      =  2.30598880803083 
# Profile Bins     =  512
# Profile Avg      =  362.003346958832 
# Profile StdDev   =  276.103041836371 
# Reduced chi-sqr  =  1.326
# Prob(Noise)      <  1e-06   (~4.8 sigma)
# P_topo (ms)      =  714.475477767585  +/- 0.000259
# P'_topo (s/s)    =  -0                +/- 1.37e-10
# P''_topo (s/s^2) =  0                 +/- 6.03e-14
# P_bary (ms)      =  N/A
# P'_bary (s/s)    =  N/A
# P''_bary (s/s^2) =  N/A
# P_orb (s)        =  N/A
# asin(i)/c (s)    =  N/A
# eccentricity     =  N/A
# w (rad)          =  N/A
# T_peri           =  N/A
######################################################
   0  255.628
   1  387.5658
   2  527.9391
   3  174.5678
   4  328.1593
   5  349.6556
   6  396.2093
   7  607.5301
   8  420.9406
   9  563.8747
  10  703.9722
  11  532.4374
  12  673.2025
  13  538.9397
  14  461.0749
  15  384.8359
  16  492.6145
  17  402.6115
  18  236.4394
  19  113.7297
  20  14.02208
  21  154.9774
  22  426.2595
  23  363.4938
  24  344.4463
  25  237.9859
  26  173.6147
  27  242.9673
  28  382.4549
  29  405.3358
  30  145.9508
  31  294.1681
  32  716.5558
  33  621.9934
  34  548.4341
  35  284.7668
  36  161.6557
  37  441.1175
  38  503.4566
  39  288.0598
  40  53.51186
  41  554.1633
  42  487.5394
  43  365.8859
  44  513.4445
  45  94.01454
  46  54.26015
  47  328.5408
  48  511.6441
  49  497.3852
  50  79.96001
  51  298.3343
  52  349.4756
  53  67.53024
  54  260.2791
  55  485.5231
  56  493.0206
  57  605.1608
  58  138.8981
  59  275.7877
  60  522.5723
  61  476.0862
  62  348.3353
  63  431.5392
  64  157.9803
  65  271.1614
  66  52.65775
  67  303.4572
  68  532.6163
  69  488.6104
  70  362.2981
  71  25.64995
  72  417.6959
  73  498.0536
  74  297.9585
  75  389.4325
  76  569.7629
  77  511.7529
  78  470.1042
  79  382.5759
  80  151.8365
  81  161.7076
  82  330.3007
  83  432.8692
  84  553.1934
  85  371.2346
  86  668.0818
  87  592.6398
  88  510.4809
  89  411.4566
  90  423.6627
  91  224.7162
  92  127.6107
  93  421.9683
  94  441.6018
  95  534.537
  96  540.3668
  97  831.7388
  98  681.6153
  99  766.4525
 100  1251.447
 101  1673.007
 102  1655.091
 103  1772.597
 104  1853.175
 105  1643.265
 106  976.8146
 107  666.4711
 108  412.3689
 109  73.75158
 110  173.4483
 111  116.066
 112  340.2254
 113  472.7803
 114  397.2426
 115  626.4014
 116  759.2587
 117  764.7461
 118  772.8847
 119  470.5644
 120  524.6173
 121  305.0087
 122  336.4171
 123  435.7671
 124  420.3089
 125  385.0794
 126  277.8909
 127  355.4599
 128  169.9812
 129  224.0252
 130  129.0252
 131  9.265211
 132  322.3946
 133  -104.5996
 134  -119.476
 135  400.5353
 136  564.3775
 137  386.8177
 138  513.2363
 139  275.4437
 140  114.4424
 141  601.1091
 142  606.6132
 143  328.9702
 144  492.9207
 145  814.0258
 146  633.7785
 147  168.915
 148  225.1109
 149  454.3478
 150  660.9885
 151  696.5598
 152  341.7321
 153  395.6558
 154  291.6111
 155  216.2395
 156  318.5461
 157  554.6841
 158  382.2975
 159  507.5603
 160  433.3953
 161  94.89532
 162  269.4672
 163  468.8575
 164  389.8429
 165  161.703
 166  504.6632
 167  495.275
 168  299.5711
 169  457.9161
 170  591.5466
 171  648.4321
 172  565.2809
 173  308.33
 174  140.8611
 175  439.2928
 176  714.9969
 177  314.0076
 178  377.9933
 179  603.4348
 180  484.4779
 181  454.0641
 182  496.9392
 183  648.3507
 184  543.7218
 185  528.6353
 186  199.0176
 187  106.0461
 188  519.4515
 189  519.9087
 190  386.2612
 191  6.052557
 192  1.858967
 193  38.491
 194  -120.0565
 195  316.9785
 196  634.6555
 197  527.6545
 198  251.4909
 199  196.7364
 200  317.6292
 201  269.1269
 202  250.8418
 203  183.1292
 204  351.8476
 205  457.0312
 206  505.998
 207  411.2407
 208  274.1523
 209  366.3849
 210  413.7958
 211  228.9254
 212  363.0106
 213  583.6799
 214  481.4059
 215  331.6934
 216  643.4742
 217  661.0143
 218  328.5594
 219  293.6062
 220  487.2908
 221  268.4478
 222  237.9878
 223  764.1542
 224  777.0256
 225  148.4506
 226  278.3534
 227  260.9417
 228  458.3805
 229  270.2383
 230  290.1065
 231  616.5555
 232  688.5828
 233  549.5549
 234  483.605
 235  341.6489
 236  327.2558
 237  325.8245
 238  264.8185
 239  650.2793
 240  389.5063
 241  291.3375
 242  355.5774
 243  301.3866
 244  16.61508
 245  149.1237
 246  294.2164
 247  413.8019
 248  470.5827
 249  80.69386
 250  253.3248
 251  435.1205
 252  480.2892
 253  430.0237
 254  473.2628
 255  437.2304
 256  425.7167
 257  390.0156
 258  273.2235
 259  623.0127
 260  402.9187
 261  501.378
 262  436.552
 263  397.3258
 264  716.8102
 265  404.0092
 266  58.8372
 267  25.62802
 268  54.11152
 269  392.2991
 270  349.8708
 271  153.1771
 272  171.4469
 273  594.3364
 274  560.7788
 275  722.3851
 276  439.1376
 277  165.2779
 278  277.9556
 279  466.27
 280  650.2211
 281  114.4913
 282  98.66633
 283  -28.8532
 284  292.9877
 285  539.2281
 286  665.7414
 287  135.4109
 288  300.5933
 289  629.8648
 290  496.0712
 291  590.0526
 292  486.815
 293  220.4862
 294  115.9052
 295  -16.82914
 296  211.0105
 297  357.2005
 298  410.2731
 299  532.7722
 300  429.6113
 301  422.2841
 302  476.347
 303  322.0636
 304  285.934
 305  129.1688
 306  619.2277
 307  530.6833
 308  449.0836
 309  110.8008
 310  79.80018
 311  86.91174
 312  581.0043
 313  400.7381
 314  408.1263
 315  503.3353
 316  286.6414
 317  80.76424
 318  180.2642
 319  352.618
 320  97.33324
 321  197.9287
 322  527.0568
 323  571.2172
 324  356.5771
 325  -165.3188
 326  -0.3491336
 327  274.0088
 328  447.3442
 329  179.8547
 330  108.786
 331  214.9396
 332  58.18793
 333  12.37048
 334  313.2491
 335  542.228
 336  429.2355
 337  306.7916
 338  130.6909
 339  366.9829
 340  313.0646
 341  274.8614
 342  13.55844
 343  310.2621
 344  349.2916
 345  327.9691
 346  312.0672
 347  363.1048
 348  446.7632
 349  510.3369
 350  290.3624
 351  178.5392
 352  252.8815
 353  472.1936
 354  215.9894
 355  129.9727
 356  109.9776
 357  345.7721
 358  683.5386
 359  476.1359
 360  305.8474
 361  46.45285
 362  217.266
 363  474.6767
 364  640.3942
 365  404.5797
 366  134.4995
 367  526.5874
 368  501.4461
 369  306.4802
 370  329.7808
 371  599.4011
 372  372.0315
 373  204.2097
 374  215.974
 375  337.1472
 376  318.54
 377  39.98878
 378  288.4172
 379  353.2028
 380  421.6954
 381  394.3936
 382  404.212
 383  493.8904
 384  117.6255
 385  383.6945
 386  484.9835
 387  204.5196
 388  445.0757
 389  183.1931
 390  261.0372
 391  348.1714
 392  307.3611
 393  -40.76376
 394  19.05554
 395  416.4117
 396  270.442
 397  152.1139
 398  124.7958
 399  277.3996
 400  436.7834
 401  729.9474
 402  581.1129
 403  332.0202
 404  519.9901
 405  183.1617
 406  127.0968
 407  309.9926
 408  252.6348
 409  406.5024
 410  391.0218
 411  257.9016
 412  36.86658
 413  340.7191
 414  222.8481
 415  212.6286
 416  242.1984
 417  178.1133
 418  257.9418
 419  211.9321
 420  288.9888
 421  175.189
 422  338.1564
 423  484.2881
 424  41.21964
 425  204.173
 426  193.2735
 427  336.7435
 428  298.572
 429  535.0248
 430  472.7149
 431  350.8504
 432  356.4496
 433  353.7834
 434  263.3217
 435  241.551
 436  391.375
 437  377.6068
 438  296.2899
 439  277.4897
 440  194.4379
 441  367.2833
 442  250.5637
 443  321.6164
 444  301.5237
 445  135.0614
 446  1.699341
 447  189.8012
 448  43.24198
 449  163.5439
 450  417.7406
 451  335.3882
 452  202.2012
 453  459.5594
 454  509.813
 455  626.4545
 456  586.9807
 457  384.1021
 458  326.7519
 459  167.811
 460  41.99596
 461  130.5627
 462  222.3219
 463  465.5522
 464  618.6424
 465  377.7016
 466  339.2614
 467  320.2151
 468  279.0315
 469  257.6707
 470  42.35822
 471  194.9992
 472  191.0975
 473  210.009
 474  326.1449
 475  386.977
 476  321.6591
 477  212.4606
 478  309.9602
 479  322.4974
 480  405.8202
 481  269.4015
 482  339.1603
 483  191.6252
 484  83.33071
 485  121.1859
 486  205.9118
 487  236.5788
 488  -34.16812
 489  302.5546
 490  338.0387
 491  69.17227
 492  65.73695
 493  326.0694
 494  480.1795
 495  447.6967
 496  29.64155
 497  301.8754
 498  316.2525
 499  386.5714
 500  550.1684
 501  371.0497
 502  405.8601
 503  658.2778
 504  198.8888
 505  54.26408
 506  382.114
 507  290.8252
 508  309.1778
 509  279.1078
 510  146.6421
 511  85.24727
