# Input file       =  1191954469.124143-PSRB0329-2ms-sampling-dd.dat
# Candidate        =  PSR_0332+5434
# Telescope        =  AR
# Epoch_topo       =  58039.769538473876
# Epoch_bary       =  N/A
# T_sample         =  0.002
# Data Folded      =  7208960
# Data Avg         =  -6.12170562227701e-10
# Data StdDev      =  4.74796216802008 
# Profile Bins     =  512
# Profile Avg      =  -0.251897204002288
# Profile StdDev   =  563.389277556127 
# Reduced chi-sqr  =  1.136
# Prob(Noise)      <  0.018   (~2.1 sigma)
# P_topo (ms)      =  714.480638536522  +/- 0.000152
# P'_topo (s/s)    =  -0                +/- 8.16e-11
# P''_topo (s/s^2) =  0                 +/- 3.67e-14
# P_bary (ms)      =  N/A
# P'_bary (s/s)    =  N/A
# P''_bary (s/s^2) =  N/A
# P_orb (s)        =  N/A
# asin(i)/c (s)    =  N/A
# eccentricity     =  N/A
# w (rad)          =  N/A
# T_peri           =  N/A
######################################################
   0  -203.6545
   1  -465.2809
   2  -144.5913
   3  -101.203
   4  -179.4302
   5  -119.2634
   6  -43.16941
   7  -275.3114
   8  -636.908
   9  -812.2986
  10  -429.0635
  11  44.12402
  12  486.9492
  13  485.9655
  14  299.9844
  15  31.78571
  16  -401.5416
  17  -499.7943
  18  429.3444
  19  344.2469
  20  318.2877
  21  604.7727
  22  25.91796
  23  -354.1437
  24  -572.3656
  25  -610.1785
  26  -580.9886
  27  -228.8164
  28  -280.7258
  29  -396.8661
  30  -338.8363
  31  -155.074
  32  -76.44742
  33  -107.5014
  34  312.3856
  35  -181.5033
  36  -239.8571
  37  -227.2464
  38  -294.4828
  39  -575.5867
  40  -653.8178
  41  -766.7296
  42  -441.4307
  43  -430.7613
  44  -402.3068
  45  -35.9986
  46  -225.3759
  47  125.1391
  48  264.7006
  49  -56.84879
  50  -392.6606
  51  -177.4246
  52  -321.2026
  53  -639.0103
  54  -429.2642
  55  -419.926
  56  -239.2359
  57  -183.9053
  58  -274.9052
  59  -491.8415
  60  -725.5953
  61  -438.0699
  62  -487.975
  63  -339.0644
  64  -230.276
  65  -159.3071
  66  -251.396
  67  -124.89
  68  -266.3493
  69  -82.64855
  70  45.68577
  71  214.6745
  72  276.4238
  73  125.7871
  74  -310.4579
  75  -570.951
  76  -410.2462
  77  -183.4502
  78  5.074568
  79  128.2707
  80  -112.3021
  81  -150.4839
  82  -151.7774
  83  -311.3013
  84  -428.1032
  85  -137.8874
  86  16.34358
  87  -150.9095
  88  104.71
  89  76.62165
  90  -24.3187
  91  -272.0853
  92  -384.3708
  93  -259.2062
  94  -149.9954
  95  -272.9781
  96  -112.2899
  97  -144.4561
  98  3.125887
  99  -219.5665
 100  266.8039
 101  364.2437
 102  467.3415
 103  541.7386
 104  285.2005
 105  155.9761
 106  -19.53586
 107  -242.2809
 108  -543.9915
 109  -125.0226
 110  197.4023
 111  -172.5627
 112  42.78467
 113  -151.284
 114  -179.9957
 115  -494.868
 116  -499.272
 117  -349.619
 118  -80.34835
 119  -150.2773
 120  -122.3713
 121  -261.6107
 122  -476.9187
 123  -557.8705
 124  -612.5106
 125  -339.7273
 126  -336.3273
 127  -242.4372
 128  53.42799
 129  -301.046
 130  -328.547
 131  -222.6634
 132  -138.3145
 133  88.62315
 134  220.1633
 135  311.6881
 136  27.20651
 137  -291.8289
 138  -161.5429
 139  260.7578
 140  -249.5861
 141  -349.2888
 142  -391.0351
 143  -155.9835
 144  -116.3337
 145  144.0703
 146  -196.8897
 147  -183.3954
 148  -119.8648
 149  83.16473
 150  -235.2579
 151  -118.3766
 152  323.8438
 153  79.86073
 154  -48.97569
 155  -55.67698
 156  -394.7628
 157  -330.5289
 158  -50.32837
 159  -89.95805
 160  260.6484
 161  -41.94222
 162  -269.0831
 163  -305.8494
 164  -392.5594
 165  -438.1217
 166  -376.9651
 167  -231.438
 168  131.4243
 169  349.5057
 170  -148.4246
 171  -357.1509
 172  -472.8377
 173  -383.2982
 174  -224.3809
 175  -209.349
 176  29.91134
 177  -340.1479
 178  -617.7292
 179  -8.529902
 180  -356.459
 181  -473.5116
 182  -428.8712
 183  -491.5163
 184  -605.8275
 185  -342.6695
 186  -86.38279
 187  -72.54762
 188  -123.9248
 189  -352.2222
 190  -393.4781
 191  -720.7396
 192  -350.2942
 193  -163.3951
 194  -55.49869
 195  -67.31889
 196  -100.7452
 197  -115.4149
 198  -291.4503
 199  -413.8629
 200  -503.3615
 201  -212.4647
 202  -74.78298
 203  41.98178
 204  -79.1845
 205  -155.3224
 206  -49.76352
 207  -31.24297
 208  -186.1238
 209  -429.0164
 210  125.6551
 211  239.1935
 212  742.1714
 213  821.5286
 214  76.53742
 215  76.1356
 216  -292.5138
 217  445.7746
 218  875.2488
 219  1119.439
 220  1181.344
 221  1004.308
 222  199.4142
 223  -432.5279
 224  -301.584
 225  403.4167
 226  537.6613
 227  823.6127
 228  701.6357
 229  175.2999
 230  88.46786
 231  62.09817
 232  533.4883
 233  491.8415
 234  754.6555
 235  578.6365
 236  385.0316
 237  238.079
 238  284.1613
 239  418.2097
 240  347.8406
 241  616.9119
 242  375.3723
 243  180.1933
 244  204.3778
 245  179.0837
 246  472.3111
 247  366.7208
 248  966.0979
 249  1302.954
 250  704.3503
 251  565.3564
 252  298.0179
 253  812.5834
 254  882.0554
 255  963.186
 256  517.6849
 257  185.6357
 258  -59.00642
 259  -123.7464
 260  65.07425
 261  289.2391
 262  726.7954
 263  491.8311
 264  333.0856
 265  227.4082
 266  147.3394
 267  390.1168
 268  298.9543
 269  308.3399
 270  413.1404
 271  219.842
 272  194.198
 273  356.2189
 274  423.1102
 275  577.3128
 276  454.1673
 277  391.9607
 278  683.5388
 279  357.5418
 280  518.9238
 281  443.0184
 282  420.2053
 283  644.2021
 284  248.8818
 285  459.8162
 286  665.8835
 287  857.9542
 288  671.405
 289  844.4173
 290  1151.167
 291  1428.312
 292  2204.421
 293  2343.037
 294  2895.72
 295  2439.217
 296  1861.108
 297  1378.241
 298  647.1469
 299  433.8451
 300  379.8371
 301  335.9301
 302  299.2393
 303  480.773
 304  348.7972
 305  194.2958
 306  -46.11665
 307  95.75105
 308  553.4084
 309  433.8609
 310  466.6762
 311  214.0587
 312  24.63288
 313  -135.1679
 314  -219.4158
 315  -96.89353
 316  -16.87714
 317  66.88683
 318  -238.0993
 319  -201.4872
 320  -388.7533
 321  -83.80567
 322  -53.49197
 323  -39.08785
 324  -592.4765
 325  -442.1353
 326  -199.9386
 327  146.6059
 328  67.52435
 329  4.46527
 330  206.586
 331  -204.8978
 332  -453.3574
 333  -459.1112
 334  -454.061
 335  -218.247
 336  -134.8506
 337  -268.1585
 338  -150.3673
 339  -383.2792
 340  -563.2448
 341  -633.7237
 342  -44.6539
 343  -44.04058
 344  -31.30443
 345  228.4896
 346  303.0986
 347  299.36
 348  302.5247
 349  223.2501
 350  118.2636
 351  -294.4379
 352  -148.6891
 353  58.83283
 354  -88.56155
 355  -194.8803
 356  111.8033
 357  -88.58638
 358  -255.3299
 359  -165.5769
 360  -160.6336
 361  -239.5551
 362  -269.3549
 363  -165.7545
 364  -239.8051
 365  189.5032
 366  218.6674
 367  126.7164
 368  295.5491
 369  324.0588
 370  116.1951
 371  -225.8616
 372  -605.0916
 373  -415.1853
 374  -54.9334
 375  546.5264
 376  220.4377
 377  155.9462
 378  -299.3943
 379  -438.3432
 380  -455.9702
 381  -673.6526
 382  -394.9303
 383  -218.1185
 384  -165.7531
 385  -256.9464
 386  -275.0581
 387  -106.7951
 388  -179.7924
 389  -59.42472
 390  -526.4943
 391  -457.828
 392  -529.3912
 393  -364.701
 394  -228.4586
 395  -220.703
 396  169.2193
 397  53.7081
 398  -132.6038
 399  -591.9409
 400  -922.0643
 401  -241.0751
 402  -244.5401
 403  -5.187413
 404  -244.0777
 405  -401.6517
 406  -588.163
 407  -459.6358
 408  -329.686
 409  -73.03326
 410  82.70662
 411  208.309
 412  708.8519
 413  205.1034
 414  -36.37313
 415  -93.53498
 416  88.06226
 417  163.7133
 418  359.5641
 419  189.3183
 420  260.7904
 421  353.7086
 422  -36.5029
 423  -0.7555434
 424  -252.6848
 425  -115.4602
 426  -23.40746
 427  -54.61186
 428  471.2085
 429  386.542
 430  393.7936
 431  228.096
 432  344.4338
 433  226.0846
 434  84.5424
 435  -34.47872
 436  -211.871
 437  90.31184
 438  -150.5187
 439  -29.77104
 440  -348.9833
 441  -221.5503
 442  -57.17612
 443  -17.46819
 444  168.9502
 445  90.27274
 446  274.0555
 447  2.408343
 448  -203.3439
 449  -100.1409
 450  376.3153
 451  568.294
 452  641.9363
 453  380.7033
 454  -327.9596
 455  -120.9822
 456  -48.10298
 457  81.88207
 458  338.7555
 459  135.8901
 460  164.6432
 461  -328.035
 462  -309.595
 463  -22.33553
 464  10.38559
 465  216.7713
 466  307.8579
 467  120.2382
 468  42.5703
 469  -166.9551
 470  -67.8338
 471  -57.75822
 472  -268.5004
 473  -203.3742
 474  -8.300965
 475  -410.3812
 476  -287.8056
 477  -145.5881
 478  -300.9918
 479  -133.3179
 480  -290.0196
 481  -265.7825
 482  -536.9213
 483  -422.9478
 484  -1.823108
 485  144.2283
 486  -185.4551
 487  -244.7544
 488  -521.8496
 489  -445.096
 490  -204.9212
 491  -33.41026
 492  136.7561
 493  112.5796
 494  -171.0241
 495  -361.373
 496  -427.0965
 497  -63.19031
 498  -149.0868
 499  -278.2684
 500  -68.9408
 501  -115.8641
 502  -308.4195
 503  95.54903
 504  51.39989
 505  -328.9011
 506  -345.7686
 507  -340.9952
 508  -468.1425
 509  -117.8597
 510  152.0165
 511  -87.91994
