# Input file       =  1191782146.121926_cleaned.dat
# Candidate        =  PSR_0332+5434
# Telescope        =  AR
# Epoch_topo       =  58037.775059281550
# Epoch_bary       =  N/A
# T_sample         =  0.002
# Data Folded      =  7208960
# Data Avg         =  0.0321388338878564
# Data StdDev      =  0.999925034954752
# Profile Bins     =  512
# Profile Avg      =  452.499421093896 
# Profile StdDev   =  118.650280503048 
# Reduced chi-sqr  =  1.356
# Prob(Noise)      <  1.32e-07   (~5.1 sigma)
# P_topo (ms)      =  714.479235482068  +/- 0.000209
# P'_topo (s/s)    =  -0                +/- 1.12e-10
# P''_topo (s/s^2) =  0                 +/- 5.04e-14
# P_bary (ms)      =  N/A
# P'_bary (s/s)    =  N/A
# P''_bary (s/s^2) =  N/A
# P_orb (s)        =  N/A
# asin(i)/c (s)    =  N/A
# eccentricity     =  N/A
# w (rad)          =  N/A
# T_peri           =  N/A
######################################################
   0  1219.48
   1  1035.339
   2  880.2911
   3  647.7375
   4  457.1842
   5  508.9466
   6  525.7538
   7  464.6607
   8  545.5671
   9  577.6326
  10  582.1265
  11  537.4178
  12  536.5911
  13  521.6735
  14  538.1354
  15  508.2471
  16  491.6548
  17  638.9043
  18  675.2056
  19  525.8713
  20  473.431
  21  434.3429
  22  387.2085
  23  411.0635
  24  351.4212
  25  355.3838
  26  449.4207
  27  446.7687
  28  457.4733
  29  547.1942
  30  639.1265
  31  478.5495
  32  530.7182
  33  616.8525
  34  534.2293
  35  442.7817
  36  435.5683
  37  362.8225
  38  360.5831
  39  458.0609
  40  456.4312
  41  384.6879
  42  502.8109
  43  658.5437
  44  571.283
  45  409.1621
  46  471.2221
  47  488.5331
  48  554.8423
  49  430.2934
  50  414.4792
  51  468.6949
  52  435.2869
  53  356.1538
  54  424.23
  55  495.2792
  56  480.0052
  57  554.4303
  58  578.4756
  59  582.3646
  60  560.7897
  61  519.7073
  62  425.7885
  63  419.403
  64  462.4546
  65  497.6898
  66  390.2196
  67  489.8856
  68  490.2389
  69  369.9933
  70  339.2951
  71  432.2259
  72  567.5865
  73  443.9333
  74  462.1533
  75  528.137
  76  459.721
  77  331.9885
  78  387.5
  79  429.4873
  80  457.9951
  81  460.7404
  82  509.6293
  83  565.9615
  84  377.3889
  85  294.1952
  86  377.5683
  87  456.1034
  88  444.956
  89  469.0359
  90  511.912
  91  500.8258
  92  424.5153
  93  532.1606
  94  404.971
  95  397.3967
  96  508.9042
  97  493.0861
  98  488.8746
  99  441.0494
 100  527.7889
 101  412.83
 102  377.4612
 103  425.8132
 104  366.9472
 105  462.2407
 106  456.6384
 107  347.1042
 108  322.8595
 109  434.4677
 110  489.9309
 111  565.3898
 112  424.0186
 113  367.5016
 114  470.331
 115  564.0183
 116  565.6269
 117  531.9987
 118  498.6262
 119  378.644
 120  429.8981
 121  519.723
 122  537.3058
 123  573.9034
 124  569.6351
 125  461.3871
 126  353.3184
 127  332.0465
 128  424.1701
 129  479.2559
 130  424.8107
 131  435.1882
 132  458.6559
 133  465.1276
 134  553.8655
 135  423.7165
 136  460.6422
 137  468.2432
 138  438.2288
 139  502.7746
 140  440.0081
 141  362.8934
 142  447.372
 143  459.0829
 144  477.4564
 145  463.6
 146  442.7553
 147  389.4073
 148  356.3782
 149  445.4545
 150  433.2971
 151  389.7096
 152  493.2018
 153  501.7293
 154  422.1534
 155  398.3278
 156  428.5981
 157  435.979
 158  499.7435
 159  475.7942
 160  358.1494
 161  352.0654
 162  368.7401
 163  456.8758
 164  403.9875
 165  404.0047
 166  312.4509
 167  468.1948
 168  413.9096
 169  428.8407
 170  441.5538
 171  527.5253
 172  497.992
 173  461.2027
 174  517.4784
 175  436.1588
 176  476.6849
 177  511.361
 178  436.6465
 179  331.2596
 180  446.8686
 181  439.4305
 182  433.4542
 183  415.9964
 184  347.3547
 185  340.8071
 186  378.8483
 187  332.0703
 188  304.1791
 189  341.3582
 190  481.1958
 191  328.9843
 192  375.4151
 193  495.2523
 194  471.1259
 195  374.2114
 196  358.9656
 197  502.4548
 198  489.9709
 199  466.1046
 200  395.5143
 201  443.8155
 202  445.9018
 203  401.7201
 204  457.3562
 205  439.8057
 206  337.3002
 207  338.3546
 208  373.2404
 209  407.6823
 210  415.9277
 211  449.1482
 212  394.1786
 213  376.5317
 214  486.8972
 215  325.5648
 216  427.8081
 217  432.4288
 218  448.3966
 219  537.6321
 220  425.3492
 221  303.4928
 222  406.406
 223  476.79
 224  464.7992
 225  494.2578
 226  388.8458
 227  357.0805
 228  287.3261
 229  363.9776
 230  437.9246
 231  462.4354
 232  528.5158
 233  481.8925
 234  447.4824
 235  411.4183
 236  364.6653
 237  374.0411
 238  363.0397
 239  380.1619
 240  443.7807
 241  483.2079
 242  414.6802
 243  475.7219
 244  483.788
 245  391.7262
 246  259.0625
 247  412.4139
 248  414.3393
 249  364.7784
 250  386.7838
 251  373.2268
 252  366.4506
 253  537.3901
 254  612.9637
 255  546.662
 256  365.6154
 257  386.2065
 258  592.2076
 259  502.539
 260  413.7397
 261  434.5346
 262  472.2938
 263  392.3937
 264  423.1174
 265  400.4123
 266  464.6917
 267  380.2401
 268  445.5213
 269  393.0853
 270  332.0171
 271  468
 272  516.2812
 273  547.9719
 274  552.9039
 275  528.6032
 276  377.1204
 277  341.9444
 278  368.1361
 279  371.0209
 280  276.8166
 281  332.1964
 282  451.1043
 283  523.5045
 284  523.439
 285  469.8283
 286  567.5853
 287  454.8793
 288  461.3168
 289  419.3618
 290  332.5467
 291  373.3768
 292  473.9156
 293  581.43
 294  516.2367
 295  487.9082
 296  371.7036
 297  456.3957
 298  489.1102
 299  431.1185
 300  381.6487
 301  561.2902
 302  512.8961
 303  376.3776
 304  449.0946
 305  444.4852
 306  462.6321
 307  389.9484
 308  300.2871
 309  312.6325
 310  418.3096
 311  483.354
 312  520.3505
 313  483.4004
 314  434.3244
 315  531.3858
 316  344.1609
 317  409.8744
 318  554.5506
 319  555.1075
 320  545.4153
 321  411.9958
 322  385.4827
 323  404.9053
 324  560.1136
 325  419.6254
 326  263.4322
 327  274.0159
 328  327.0874
 329  524.7204
 330  549.4832
 331  568.3754
 332  354.585
 333  373.0999
 334  455.5623
 335  463.5316
 336  493.6285
 337  442.5096
 338  419.5299
 339  397.047
 340  453.5576
 341  500.1247
 342  381.9097
 343  401.8139
 344  451.7734
 345  463.5729
 346  428.796
 347  522.628
 348  532.2523
 349  509.0981
 350  588.3093
 351  439.5968
 352  388.7544
 353  473.2993
 354  477.9928
 355  463.7452
 356  427.3284
 357  464.531
 358  313.7786
 359  312.559
 360  422.1863
 361  468.3867
 362  451.7357
 363  289.2703
 364  497.2986
 365  521.904
 366  452.6863
 367  510.4801
 368  586.0853
 369  425.4564
 370  284.9066
 371  295.9771
 372  355.0473
 373  353.3683
 374  379.828
 375  471.1994
 376  484.2355
 377  347.4284
 378  414.6566
 379  499.6332
 380  455.3578
 381  402.7765
 382  383.0555
 383  376.2589
 384  381.8463
 385  434.6277
 386  469.3846
 387  464.6535
 388  438.4418
 389  488.4693
 390  470.939
 391  473.3128
 392  417.2375
 393  354.3773
 394  508.9832
 395  522.4993
 396  494.5061
 397  524.8459
 398  478.6704
 399  458.3604
 400  464.1208
 401  484.5828
 402  426.8499
 403  342.3529
 404  493.224
 405  438.2823
 406  430.9094
 407  453.2881
 408  467.5691
 409  403.9164
 410  365.1011
 411  355.1244
 412  412.7854
 413  435.4348
 414  381.8627
 415  426.0979
 416  297.8301
 417  324.5082
 418  359.73
 419  465.2763
 420  448.6198
 421  338.7483
 422  366.3571
 423  422.0587
 424  490.7922
 425  428.6971
 426  246.8391
 427  450.4351
 428  511.4246
 429  367.7465
 430  458.5242
 431  586.1534
 432  485.8685
 433  551.626
 434  530.3152
 435  453.9839
 436  435.5448
 437  379.1312
 438  464.5413
 439  479.2988
 440  554.9089
 441  576.7236
 442  374.9794
 443  382.2899
 444  471.0536
 445  565.6747
 446  531.1791
 447  381.3304
 448  452.2481
 449  566.4205
 450  485.8372
 451  418.9765
 452  512.6205
 453  383.161
 454  406.4892
 455  461.6738
 456  340.8274
 457  396.5098
 458  438.9369
 459  426.8227
 460  394.2312
 461  453.384
 462  460.6559
 463  585.0919
 464  573.2079
 465  357.1637
 466  333.4249
 467  370.5617
 468  425.357
 469  608.3785
 470  475.01
 471  432.8716
 472  320.461
 473  377.6555
 474  412.1682
 475  479.794
 476  492.1905
 477  476.6381
 478  401.817
 479  438.4729
 480  464.0504
 481  344.4668
 482  353.4586
 483  363.7426
 484  279.8473
 485  280.6519
 486  413.4248
 487  499.3737
 488  468.2943
 489  316.5178
 490  427.6634
 491  388.2249
 492  406.6391
 493  463.762
 494  567.1312
 495  570.9092
 496  445.5942
 497  433.5182
 498  447.9484
 499  453.7593
 500  385.3279
 501  526.7961
 502  599.3914
 503  537.4592
 504  579.7411
 505  526.0449
 506  411.7419
 507  471.6258
 508  697.247
 509  829.0235
 510  1065.117
 511  1257.648
