# Input file       =  1191092853.127013-PSRB0329-2ms-sampling-dd.dat
# Candidate        =  PSR_0332+5434
# Telescope        =  AR
# Epoch_topo       =  58029.797131099687
# Epoch_bary       =  N/A
# T_sample         =  0.002
# Data Folded      =  7208960
# Data Avg         =  -7.74381030444807e-10
# Data StdDev      =  4.87899026930577 
# Profile Bins     =  512
# Profile Avg      =  -0.222785340551614
# Profile StdDev   =  578.936964060478 
# Reduced chi-sqr  =  0.609
# Prob(Noise)      <  1   (~0.0 sigma)
# P_topo (ms)      =  714.474170718871  +/- 0.000142
# P'_topo (s/s)    =  -0                +/- 7.61e-11
# P''_topo (s/s^2) =  0                 +/- 3.42e-14
# P_bary (ms)      =  N/A
# P'_bary (s/s)    =  N/A
# P''_bary (s/s^2) =  N/A
# P_orb (s)        =  N/A
# asin(i)/c (s)    =  N/A
# eccentricity     =  N/A
# w (rad)          =  N/A
# T_peri           =  N/A
######################################################
   0  -39.54903
   1  -200.463
   2  13.30237
   3  80.84337
   4  127.8929
   5  44.44257
   6  -217.8171
   7  -117.1812
   8  -37.1218
   9  71.02975
  10  330.4821
  11  -364.2278
  12  -54.04116
  13  -2.318525
  14  -114.1707
  15  195.7734
  16  97.34214
  17  -143.4233
  18  -13.49226
  19  73.9882
  20  -159.201
  21  -195.9612
  22  253.3149
  23  135.9786
  24  -292.8804
  25  -87.76454
  26  -406.7148
  27  -260.6617
  28  -13.6303
  29  -8.792938
  30  -51.82867
  31  -69.7631
  32  -224.8072
  33  -150.5936
  34  287.167
  35  437.6381
  36  611.5219
  37  885.3148
  38  583.9564
  39  340.5363
  40  152.754
  41  72.13042
  42  133.2349
  43  376.554
  44  393.739
  45  357.7374
  46  98.52274
  47  131.3389
  48  -61.02577
  49  -38.82771
  50  -86.86937
  51  33.18792
  52  129.2627
  53  -45.69776
  54  226.2381
  55  298.242
  56  132.5674
  57  -9.724625
  58  143.717
  59  -45.70066
  60  -42.66005
  61  260.6051
  62  -18.38865
  63  406.2669
  64  262.0859
  65  58.24127
  66  56.51839
  67  -63.75738
  68  90.22292
  69  -29.96253
  70  100.488
  71  -207.1172
  72  -114.53
  73  267.165
  74  -171.3894
  75  -307.9096
  76  -286.5777
  77  -176.8996
  78  -411.5528
  79  -154.645
  80  -164.4562
  81  -313.8576
  82  -150.2973
  83  -199.8024
  84  -275.3889
  85  152.4129
  86  -36.37048
  87  225.5499
  88  192.2567
  89  99.79805
  90  28.13041
  91  -80.46991
  92  -171.782
  93  181.7895
  94  154.8089
  95  -10.03439
  96  154.339
  97  102.4308
  98  169.7965
  99  100.7003
 100  -176.2043
 101  281.9668
 102  288.4403
 103  5.692719
 104  69.303
 105  -132.7386
 106  180.53
 107  156.0064
 108  472.7952
 109  750.942
 110  592.6215
 111  487.703
 112  456.7026
 113  -41.04004
 114  -282.1577
 115  -14.22794
 116  448.7611
 117  200.4903
 118  422.37
 119  497.1581
 120  161.2697
 121  1.023033
 122  -27.21846
 123  -305.4847
 124  -212.8515
 125  328.0558
 126  -14.21834
 127  110.5954
 128  68.70798
 129  -163.2534
 130  -381.6647
 131  -755.6913
 132  -587.8173
 133  -552.7742
 134  -263.6208
 135  24.87882
 136  263.5418
 137  249.6364
 138  137.39
 139  202.0516
 140  -2.854513
 141  -172.8908
 142  -202.4344
 143  49.24043
 144  525.3586
 145  546.7803
 146  626.7617
 147  439.351
 148  -168.0829
 149  -81.99407
 150  -6.08824
 151  47.69572
 152  377.5642
 153  -85.67618
 154  82.54294
 155  -20.93879
 156  -39.03025
 157  -135.114
 158  -403.8467
 159  -330.3528
 160  -203.6186
 161  21.83646
 162  -339.5893
 163  -16.1701
 164  36.7231
 165  -287.2574
 166  -422.0001
 167  -387.0008
 168  -200.4239
 169  117.0354
 170  337.7169
 171  480.6858
 172  37.07267
 173  -179.001
 174  -310.5491
 175  -673.634
 176  -317.1751
 177  -71.56332
 178  106.3837
 179  73.87055
 180  8.771166
 181  -303.905
 182  -305.155
 183  -147.2142
 184  219.73
 185  249.9035
 186  476.3909
 187  489.5733
 188  136.3559
 189  -334.2457
 190  -40.38213
 191  96.3372
 192  -16.39328
 193  13.24375
 194  257.2531
 195  228.3399
 196  -137.8059
 197  -360.7021
 198  -585.3703
 199  -241.5629
 200  238.04
 201  456.4699
 202  489.5672
 203  389.0532
 204  -209.8087
 205  -209.0819
 206  -37.25681
 207  16.96194
 208  126.217
 209  -126.0424
 210  39.78135
 211  -4.652403
 212  107.508
 213  126.3945
 214  434.2543
 215  298.3867
 216  -38.91611
 217  8.009172
 218  -31.16705
 219  -133.476
 220  454.3094
 221  676.989
 222  278.262
 223  270.0354
 224  119.6683
 225  -2.536881
 226  -115.0624
 227  -202.3797
 228  250.6265
 229  108.1433
 230  56.74075
 231  47.61612
 232  -580.6362
 233  -293.6759
 234  -219.8212
 235  149.3286
 236  229.0299
 237  64.75185
 238  -202.1247
 239  -216.0909
 240  -156.6679
 241  -302.209
 242  126.2304
 243  247.9541
 244  212.0614
 245  341.2875
 246  326.0404
 247  243.7453
 248  -251.7538
 249  -27.36516
 250  258.1481
 251  183.2612
 252  469.1968
 253  311.9333
 254  -117.8155
 255  -154.8304
 256  -151.6409
 257  -338.493
 258  -104.1042
 259  -51.32827
 260  -136.2541
 261  -107.9415
 262  118.6568
 263  -267.4906
 264  -251.7989
 265  31.67413
 266  -93.61623
 267  95.2648
 268  40.65059
 269  -7.724406
 270  -162.4378
 271  -419.2505
 272  -140.0182
 273  -112.494
 274  -145.0028
 275  -273.1736
 276  -428.6755
 277  -157.7414
 278  -391.3315
 279  4.295166
 280  -71.81121
 281  15.60998
 282  -23.86572
 283  -536.2324
 284  -454.8598
 285  -726.7748
 286  -395.016
 287  -415.0435
 288  -271.4506
 289  -227.4091
 290  -804.4346
 291  -686.6037
 292  -379.6752
 293  -384.54
 294  -446.1115
 295  -114.4488
 296  -56.79715
 297  -344.9155
 298  -534.8179
 299  -135.2803
 300  -147.0799
 301  -389.9984
 302  -137.8675
 303  66.74596
 304  -129.7471
 305  -456.7842
 306  -519.5498
 307  -310.1578
 308  -366.8007
 309  -667.6233
 310  -288.5737
 311  -334.0162
 312  -308.6601
 313  -418.9032
 314  -448.2592
 315  -246.7458
 316  -341.2282
 317  -299.9807
 318  -296.3456
 319  220.659
 320  411.4774
 321  471.0932
 322  449.9271
 323  320.5367
 324  -126.0504
 325  -494.8388
 326  -536.6122
 327  -106.5147
 328  -117.9434
 329  -20.90787
 330  -171.9995
 331  -318.4306
 332  -73.02985
 333  -394.9946
 334  -601.3455
 335  -657.949
 336  -180.5358
 337  -157.6052
 338  -296.6201
 339  -40.84086
 340  -453.4568
 341  -293.4712
 342  -41.53823
 343  -49.57774
 344  66.0583
 345  43.5074
 346  56.09967
 347  110.8205
 348  -11.20337
 349  8.243434
 350  217.8927
 351  121.3425
 352  -451.5782
 353  148.2811
 354  67.10197
 355  212.7097
 356  137.616
 357  495.1448
 358  336.4717
 359  -272.9807
 360  208.4094
 361  -57.79355
 362  -13.20591
 363  -99.47841
 364  -62.49753
 365  470.3679
 366  -88.51867
 367  -37.69946
 368  -100.5922
 369  96.91746
 370  50.21513
 371  251.1511
 372  -122.5664
 373  -44.16829
 374  74.75796
 375  210.657
 376  417.4866
 377  -63.53115
 378  -410.8091
 379  -13.24734
 380  -137.0295
 381  199.0923
 382  -51.89673
 383  248.4003
 384  211.0845
 385  536.8643
 386  484.4351
 387  329.1949
 388  65.66409
 389  -59.86939
 390  -187.6774
 391  -420.525
 392  -329.8227
 393  -421.3056
 394  73.25156
 395  -195.8366
 396  -378.0438
 397  138.8158
 398  302.5449
 399  128.7014
 400  -471.888
 401  -165.6657
 402  -238.0573
 403  -95.41917
 404  -83.05669
 405  204.6781
 406  209.9267
 407  99.99992
 408  -184.9888
 409  -206.4084
 410  -88.48302
 411  21.59283
 412  217.5752
 413  341.9166
 414  203.1735
 415  74.73061
 416  -152.5198
 417  372.9685
 418  -107.926
 419  -147.6709
 420  298.7015
 421  777.8514
 422  854.0607
 423  450.9807
 424  320.363
 425  321.5793
 426  37.86168
 427  203.9568
 428  56.24627
 429  -23.55707
 430  33.50542
 431  158.338
 432  19.57006
 433  -191.6076
 434  55.997
 435  17.50695
 436  16.0766
 437  -201.8431
 438  -101.4378
 439  132.0759
 440  -103.8592
 441  -46.31509
 442  -100.5673
 443  37.82737
 444  -193.4561
 445  -95.61944
 446  330.2846
 447  270.7022
 448  328.9388
 449  6.404861
 450  104.6421
 451  -84.65163
 452  -114.2143
 453  -27.97221
 454  135.8602
 455  -61.40145
 456  100.4366
 457  401.3626
 458  24.95123
 459  194.5689
 460  11.21179
 461  11.70334
 462  -249.71
 463  -233.4278
 464  139.5668
 465  -2.353182
 466  51.95161
 467  -316.6503
 468  -253.4978
 469  -239.5735
 470  -382.5573
 471  -309.7348
 472  -357.8159
 473  -304.8821
 474  -185.1053
 475  -82.59486
 476  104.1437
 477  -314.3356
 478  -408.7303
 479  -490.7758
 480  -120.1104
 481  -501.9326
 482  -476.2195
 483  37.93633
 484  10.39041
 485  -491.1534
 486  -450.5876
 487  148.7244
 488  9.021906
 489  -27.99841
 490  -441.7269
 491  -489.9744
 492  -451.9655
 493  -141.116
 494  10.20157
 495  -110.3936
 496  -34.47189
 497  261.9174
 498  77.95856
 499  304.6559
 500  3.015331
 501  75.79417
 502  -108.5564
 503  -17.80503
 504  562.7297
 505  1085.999
 506  1889.59
 507  2120.095
 508  2159.425
 509  1527.875
 510  821.2375
 511  133.0361
