# Input file       =  1191351389.132284_cleaned.dat
# Candidate        =  PSR_0332+5434
# Telescope        =  AR
# Epoch_topo       =  58032.789445975512
# Epoch_bary       =  N/A
# T_sample         =  0.002
# Data Folded      =  7208960
# Data Avg         =  0.02168759545523 
# Data StdDev      =  3.16999604470468 
# Profile Bins     =  512
# Profile Avg      =  305.408538667665 
# Profile StdDev   =  376.14911793341  
# Reduced chi-sqr  =  0.908
# Prob(Noise)      <  0.933   (~0.0 sigma)
# P_topo (ms)      =  714.475971755863  +/- 4.04e-05
# P'_topo (s/s)    =  -0                +/- 2.17e-11
# P''_topo (s/s^2) =  0                 +/- 9.76e-15
# P_bary (ms)      =  N/A
# P'_bary (s/s)    =  N/A
# P''_bary (s/s^2) =  N/A
# P_orb (s)        =  N/A
# asin(i)/c (s)    =  N/A
# eccentricity     =  N/A
# w (rad)          =  N/A
# T_peri           =  N/A
######################################################
   0  400.229
   1  248.9447
   2  323.8891
   3  359.4084
   4  57.03044
   5  66.57951
   6  612.9954
   7  212.7387
   8  258.7245
   9  288.5053
  10  200.8008
  11  175.8117
  12  523.0176
  13  782.1879
  14  943.6003
  15  641.5311
  16  359.4615
  17  -9.823489
  18  -220.7108
  19  141.8969
  20  449.665
  21  645.6631
  22  792.2488
  23  612.29
  24  440.6382
  25  425.78
  26  158.2931
  27  39.03431
  28  167.134
  29  12.11945
  30  212.2313
  31  695.3445
  32  421.4568
  33  99.64628
  34  -198.3056
  35  -177.8965
  36  178.4008
  37  522.54
  38  650.4005
  39  196.1379
  40  180.265
  41  -167.5641
  42  -166.1943
  43  180.7693
  44  219.8451
  45  184.8799
  46  310.6015
  47  345.3175
  48  434.6059
  49  390.5025
  50  525.9662
  51  273.0546
  52  387.757
  53  292.4663
  54  377.369
  55  466.2598
  56  413.6475
  57  487.3675
  58  269.4915
  59  105.5338
  60  228.6639
  61  286.5525
  62  392.6376
  63  757.2329
  64  345.6186
  65  509.573
  66  353.6603
  67  476.1516
  68  -25.08378
  69  -45.25043
  70  139.507
  71  581.2808
  72  524.7742
  73  258.8205
  74  60.81575
  75  59.54047
  76  127.7628
  77  119.8341
  78  406.3602
  79  741.575
  80  622.2456
  81  451.6367
  82  214.8166
  83  380.1342
  84  607.8253
  85  157.8218
  86  323.4176
  87  559.8397
  88  799.5266
  89  349.4818
  90  378.7523
  91  548.2699
  92  154.5153
  93  323.949
  94  507.5335
  95  839.0713
  96  659.0891
  97  456.0596
  98  464.6056
  99  91.58141
 100  362.6241
 101  381.8438
 102  289.1037
 103  301.9431
 104  388.4529
 105  658.775
 106  455.0522
 107  226.055
 108  141.175
 109  42.41906
 110  -165.5291
 111  174.0519
 112  -54.09487
 113  491.7613
 114  569.392
 115  466.1308
 116  26.6007
 117  66.03825
 118  92.82785
 119  463.7606
 120  521.4262
 121  480.472
 122  359.9955
 123  129.9597
 124  52.20931
 125  26.01772
 126  229.7836
 127  219.4196
 128  339.808
 129  360.7307
 130  318.0865
 131  174.7177
 132  282.6398
 133  85.66758
 134  113.5065
 135  300.8558
 136  393.1445
 137  391.412
 138  522.1676
 139  452.1468
 140  380.3734
 141  383.4598
 142  347.4004
 143  260.8425
 144  428.7268
 145  466.1051
 146  461.6544
 147  177.2652
 148  -103.0126
 149  159.7132
 150  210.2117
 151  201.1122
 152  10.98298
 153  525.8079
 154  773.3
 155  548.7058
 156  315.2056
 157  367.2686
 158  195.3381
 159  118.194
 160  413.4731
 161  455.714
 162  485.7725
 163  339.9221
 164  261.1443
 165  413.0338
 166  78.69846
 167  35.44699
 168  272.3962
 169  168.6216
 170  179.4259
 171  296.1621
 172  555.0513
 173  381.3983
 174  -6.709603
 175  -236.7577
 176  96.73536
 177  596.795
 178  444.0844
 179  405.066
 180  475.8418
 181  326.476
 182  297.7549
 183  260.1447
 184  413.5124
 185  392.9637
 186  491.8964
 187  432.3011
 188  499.5008
 189  484.0083
 190  -182.424
 191  9.230301
 192  83.2729
 193  137.5073
 194  176.8551
 195  309.9156
 196  340.8036
 197  332.8568
 198  38.12333
 199  144.492
 200  -13.55581
 201  135.8663
 202  255.9154
 203  289.5549
 204  214.414
 205  132.6928
 206  371.5312
 207  115.8586
 208  69.94621
 209  118.7864
 210  382.301
 211  364.1889
 212  323.2123
 213  519.8217
 214  286.7893
 215  -71.9605
 216  189.3167
 217  105.63
 218  476.7051
 219  236.5136
 220  487.6205
 221  482.4217
 222  254.0766
 223  314.1829
 224  111.2135
 225  558.2493
 226  353.0486
 227  214.3315
 228  46.54804
 229  329.1168
 230  510.9267
 231  226.2537
 232  -143.5815
 233  -235.474
 234  -138.064
 235  91.90036
 236  462.2425
 237  651.0953
 238  596.3749
 239  115.0182
 240  -4.141142
 241  -52.09576
 242  -137.9123
 243  37.27752
 244  298.2687
 245  615.7877
 246  379.9821
 247  830.336
 248  660.3726
 249  251.2401
 250  129.9325
 251  367.4016
 252  541.7499
 253  68.69189
 254  278.2536
 255  178.9157
 256  446.1238
 257  377.2181
 258  333.4598
 259  347.7312
 260  400.3554
 261  294.3533
 262  234.7516
 263  335.0388
 264  328.6687
 265  129.1593
 266  32.73132
 267  7.826797
 268  266.182
 269  737.9107
 270  817.05
 271  320.4162
 272  72.20512
 273  21.56326
 274  51.52428
 275  208.8472
 276  189.3528
 277  375.8602
 278  211.485
 279  213.5622
 280  400.2512
 281  325.9939
 282  63.17183
 283  179.8689
 284  304.3894
 285  524.5267
 286  419.352
 287  429.0782
 288  -76.77917
 289  -167.2585
 290  167.281
 291  86.40771
 292  -170.6528
 293  72.52018
 294  275.1816
 295  575.2548
 296  477.9418
 297  144.2766
 298  -37.20956
 299  -278.273
 300  39.30185
 301  254.6749
 302  300.2859
 303  399.3562
 304  468.0752
 305  205.0804
 306  50.67968
 307  137.8252
 308  206.34
 309  57.99315
 310  240.54
 311  156.9501
 312  459.5093
 313  124.4246
 314  76.7943
 315  25.16484
 316  -424.5407
 317  -221.9225
 318  51.16768
 319  738.939
 320  564.1912
 321  512.0809
 322  507.2911
 323  220.8589
 324  -64.05444
 325  112.6031
 326  244.5103
 327  352.7957
 328  514.2495
 329  432.562
 330  262.5938
 331  515.2242
 332  90.9986
 333  199.5963
 334  420.0757
 335  456.8741
 336  868.442
 337  645.2842
 338  711.8324
 339  1026.246
 340  1162.657
 341  1701.905
 342  1836.789
 343  1370.005
 344  800.0162
 345  772.2068
 346  677.2122
 347  213.5284
 348  222.7485
 349  450.5031
 350  522.295
 351  642.7215
 352  817.5623
 353  841.7672
 354  673.5923
 355  459.922
 356  137.2248
 357  27.6014
 358  147.5357
 359  249.3202
 360  643.1534
 361  646.2434
 362  706.3014
 363  573.8569
 364  18.95184
 365  120.799
 366  126.1172
 367  278.8799
 368  353.3453
 369  707.9703
 370  643.5507
 371  517.6046
 372  373.802
 373  -387.4137
 374  95.07784
 375  434.5872
 376  372.3646
 377  334.7221
 378  467.798
 379  409.685
 380  321.584
 381  -25.45971
 382  -57.44484
 383  88.71015
 384  436.2338
 385  364.2833
 386  362.0367
 387  99.46951
 388  94.0281
 389  273.1371
 390  78.58713
 391  193.42
 392  153.4948
 393  74.39104
 394  258.9415
 395  606.3295
 396  335.7656
 397  133.8464
 398  124.542
 399  275.044
 400  145.9087
 401  101.7127
 402  648.65
 403  712.124
 404  258.3694
 405  120.8469
 406  -149.3562
 407  18.52876
 408  362.8999
 409  860.7584
 410  812.0592
 411  548.0693
 412  582.5518
 413  149.2683
 414  -130.7507
 415  277.5338
 416  487.8219
 417  385.8072
 418  480.6424
 419  704.9156
 420  394.0244
 421  -92.9031
 422  -99.29362
 423  88.79584
 424  38.02361
 425  382.7162
 426  572.8583
 427  454.0597
 428  381.2225
 429  101.3117
 430  211.3913
 431  137.5135
 432  405.1676
 433  322.6464
 434  628.3088
 435  448.6079
 436  402.5139
 437  311.6769
 438  234.0748
 439  65.73421
 440  -167.9177
 441  -8.548852
 442  169.1201
 443  464.9886
 444  701.3351
 445  309.3628
 446  290.6138
 447  -107.6747
 448  -109.5044
 449  440.6782
 450  543.7463
 451  759.3234
 452  349.2048
 453  293.7664
 454  296.2551
 455  151.3864
 456  158.1905
 457  294.1495
 458  304.8254
 459  451.8716
 460  313.5996
 461  507.9362
 462  133.6708
 463  -19.90149
 464  11.34928
 465  -93.5583
 466  -69.77644
 467  81.67736
 468  484.5154
 469  222.7642
 470  48.99191
 471  390.3022
 472  217.8825
 473  41.2015
 474  214.852
 475  315.183
 476  334.6907
 477  312.5872
 478  328.1176
 479  509.6082
 480  623.9659
 481  267.2592
 482  -197.989
 483  -231.8114
 484  299.7071
 485  493.2554
 486  289.5562
 487  241.5809
 488  343.3314
 489  171.9093
 490  250.8187
 491  121.6701
 492  268.9221
 493  557.5052
 494  480.4993
 495  427.182
 496  285.1437
 497  133.4286
 498  -165.237
 499  223.1755
 500  432.8811
 501  742.3062
 502  619.9545
 503  452.1319
 504  420.8311
 505  254.9956
 506  276.4717
 507  51.8819
 508  197.7232
 509  471.7585
 510  601.3483
 511  451.7075
