# Input file       =  1191021321.110226_cleaned.dat
# Candidate        =  PSR_0332+5434
# Telescope        =  AR
# Epoch_topo       =  58028.969214238728
# Epoch_bary       =  N/A
# T_sample         =  0.002
# Data Folded      =  7340032
# Data Avg         =  0.0106921501270553
# Data StdDev      =  1.00005898322481 
# Profile Bins     =  512
# Profile Avg      =  154.132994568155 
# Profile StdDev   =  119.740098617368 
# Reduced chi-sqr  =  1.394
# Prob(Noise)      <  8.78e-09   (~5.6 sigma)
# P_topo (ms)      =  714.473707848654  +/- 0.000231
# P'_topo (s/s)    =  -0                +/- 1.22e-10
# P''_topo (s/s^2) =  0                 +/- 5.38e-14
# P_bary (ms)      =  N/A
# P'_bary (s/s)    =  N/A
# P''_bary (s/s^2) =  N/A
# P_orb (s)        =  N/A
# asin(i)/c (s)    =  N/A
# eccentricity     =  N/A
# w (rad)          =  N/A
# T_peri           =  N/A
######################################################
   0  159.6941
   1  186.1921
   2  257.6812
   3  177.7848
   4  218.313
   5  158.3417
   6  164.5275
   7  125.2843
   8  108.4696
   9  259.6582
  10  205.6388
  11  105.059
  12  168.7626
  13  66.65436
  14  197.3141
  15  293.3316
  16  232.4653
  17  133.2721
  18  53.25893
  19  126.4075
  20  117.4356
  21  102.2235
  22  316.9552
  23  363.2463
  24  255.1012
  25  175.3777
  26  112.5201
  27  248.4952
  28  159.93
  29  165.014
  30  149.6195
  31  151.0293
  32  291.7307
  33  207.6216
  34  202.8231
  35  93.65788
  36  99.28173
  37  79.45841
  38  168.2444
  39  143.2362
  40  214.9299
  41  239.8775
  42  156.4937
  43  114.3903
  44  150.0936
  45  220.5546
  46  116.0633
  47  135.7852
  48  343.9196
  49  222.6249
  50  216.6597
  51  241.9189
  52  248.3016
  53  186.9041
  54  236.946
  55  146.9401
  56  105.5117
  57  121.896
  58  188.5271
  59  226.8933
  60  257.8356
  61  235.5637
  62  168.2612
  63  317.3222
  64  251.1301
  65  154.3861
  66  243.5393
  67  302.5318
  68  259.6235
  69  167.9766
  70  271.4855
  71  308.5463
  72  279.0999
  73  378.3972
  74  209.355
  75  63.59578
  76  262.5328
  77  257.8509
  78  265.0402
  79  39.61063
  80  137.6876
  81  149.9964
  82  166.5959
  83  166.3951
  84  221.3721
  85  213.6172
  86  83.9372
  87  133.6817
  88  88.50167
  89  154.506
  90  111.2304
  91  89.32225
  92  100.4838
  93  151.042
  94  233.718
  95  209.6751
  96  76.88065
  97  156.5779
  98  210.1211
  99  162.8144
 100  240.1898
 101  339.6663
 102  258.9227
 103  72.56419
 104  8.910311
 105  161.9851
 106  180.8799
 107  109.0265
 108  86.41167
 109  161.2913
 110  198.0661
 111  42.80927
 112  36.16049
 113  121.9852
 114  -16.98437
 115  53.16856
 116  74.48846
 117  38.9548
 118  77.51006
 119  93.19763
 120  215.2341
 121  120.8365
 122  -18.06079
 123  70.37692
 124  108.4017
 125  30.80729
 126  16.48514
 127  126.1001
 128  182.2584
 129  87.82838
 130  51.9227
 131  144.2732
 132  229.5869
 133  180.0015
 134  238.9426
 135  241.2593
 136  237.0094
 137  207.0396
 138  131.9226
 139  186.0624
 140  107.6295
 141  195.3713
 142  230.6469
 143  206.03
 144  240.6091
 145  213.0066
 146  155.1153
 147  83.78703
 148  130.5057
 149  279.2752
 150  185.1914
 151  88.03712
 152  125.6447
 153  180.2918
 154  238.9835
 155  208.1317
 156  100.7951
 157  82.58447
 158  148.9695
 159  221.355
 160  295.4358
 161  167.7118
 162  157.1122
 163  170.6788
 164  208.3982
 165  87.68774
 166  14.25214
 167  20.13221
 168  64.48076
 169  74.8231
 170  117.9683
 171  163.6226
 172  7.483136
 173  209.2028
 174  106.7744
 175  159.2978
 176  169.6108
 177  197.6551
 178  222.5029
 179  79.11386
 180  136.0276
 181  268.0336
 182  226.1285
 183  270.2781
 184  201.5523
 185  143.9297
 186  238.7599
 187  342.4909
 188  261.7059
 189  329.7279
 190  345.2379
 191  548.5795
 192  610.4109
 193  695.2621
 194  764.338
 195  618.1072
 196  637.3959
 197  450.6073
 198  188.4866
 199  170.9367
 200  248.958
 201  212.6958
 202  184.0482
 203  186.2317
 204  141.0175
 205  158.8586
 206  241.6905
 207  311.0076
 208  169.0991
 209  196.3105
 210  225.5563
 211  320.4887
 212  199.4322
 213  201.9308
 214  155.5149
 215  166.7507
 216  4.321028
 217  -23.62591
 218  143.1937
 219  209.4877
 220  17.73558
 221  0.2390335
 222  159.0061
 223  282.7618
 224  250.5592
 225  85.75382
 226  79.2634
 227  27.61801
 228  173.3527
 229  135.5062
 230  47.78599
 231  51.69313
 232  12.56409
 233  70.75549
 234  129.1096
 235  117.3583
 236  275.3843
 237  271.4975
 238  203.9565
 239  194.3215
 240  183.781
 241  235.3852
 242  152.1086
 243  -27.11969
 244  -24.79144
 245  92.62145
 246  233.9466
 247  249.031
 248  171.0015
 249  205.3879
 250  161.1322
 251  146.473
 252  58.04182
 253  37.94094
 254  159.7911
 255  130.0158
 256  32.37604
 257  14.38805
 258  105.8501
 259  174.8135
 260  146.9172
 261  264.7751
 262  208.8231
 263  58.98722
 264  108.8836
 265  7.615326
 266  174.8846
 267  249.6705
 268  206.5939
 269  96.68241
 270  206.576
 271  175.2227
 272  68.6683
 273  176.2583
 274  77.61985
 275  107.3246
 276  94.16789
 277  213.5253
 278  247.9394
 279  27.53913
 280  72.19859
 281  124.7913
 282  41.41331
 283  -74.06268
 284  -97.87656
 285  106.9731
 286  86.06986
 287  65.19884
 288  139.0761
 289  174.7009
 290  40.44701
 291  1.433159
 292  324.3822
 293  172.6569
 294  68.42361
 295  222.2146
 296  99.1859
 297  142.8326
 298  268.464
 299  311.9803
 300  239.818
 301  44.82545
 302  47.32115
 303  60.87964
 304  83.12026
 305  74.26997
 306  161.8995
 307  79.34885
 308  96.9845
 309  126.0858
 310  200.2602
 311  188.0782
 312  95.74889
 313  -6.396427
 314  72.53041
 315  35.3741
 316  21.6468
 317  217.9867
 318  99.35672
 319  60.99649
 320  124.2057
 321  141.922
 322  12.35438
 323  58.06244
 324  129.5703
 325  219.4849
 326  125.6565
 327  94.26734
 328  178.9241
 329  107.8574
 330  98.71753
 331  121.6499
 332  126.2228
 333  45.95087
 334  85.6581
 335  236.5244
 336  164.2706
 337  93.74612
 338  144.7466
 339  222.7239
 340  263.4805
 341  161.8119
 342  217.8038
 343  90.53977
 344  60.02651
 345  82.29198
 346  122.2822
 347  197.8592
 348  270.9762
 349  88.53458
 350  139.5372
 351  221.1926
 352  46.68256
 353  6.270347
 354  67.02273
 355  201.6856
 356  232.2173
 357  74.79459
 358  45.91741
 359  206.2612
 360  161.6393
 361  255.1903
 362  134.1878
 363  60.27474
 364  116.575
 365  149.5226
 366  292.3222
 367  256.2823
 368  337.3613
 369  226.2679
 370  66.18549
 371  83.54089
 372  237.9303
 373  199.6652
 374  87.95822
 375  -55.16174
 376  -124.9891
 377  4.905926
 378  213.5202
 379  253.0734
 380  213.4923
 381  261.2494
 382  162.2889
 383  130.9202
 384  251.1454
 385  78.16891
 386  -28.10972
 387  112.9677
 388  85.18274
 389  215.1896
 390  139.8422
 391  74.19353
 392  -9.049447
 393  24.4665
 394  110.0633
 395  41.16563
 396  139.6713
 397  140.5737
 398  146.2987
 399  224.8885
 400  162.0918
 401  243.4071
 402  159.4547
 403  96.94138
 404  292.7096
 405  187.3531
 406  106.9985
 407  57.6441
 408  83.98936
 409  137.3382
 410  112.42
 411  113.0118
 412  37.06284
 413  86.63589
 414  162.8994
 415  140.8622
 416  67.39232
 417  14.33735
 418  -67.41819
 419  -110.5433
 420  159.964
 421  148.9861
 422  172.9734
 423  42.87362
 424  -37.38633
 425  137.1303
 426  220.8034
 427  49.03129
 428  114.407
 429  128.8464
 430  -8.230279
 431  74.0513
 432  114.5915
 433  171.8317
 434  254.542
 435  152.8629
 436  177.254
 437  265.5767
 438  183.9528
 439  54.71405
 440  65.78918
 441  186.1233
 442  90.76864
 443  38.36646
 444  181.8889
 445  305.2778
 446  282.0146
 447  -23.15062
 448  29.24901
 449  151.6222
 450  175.382
 451  149.7553
 452  75.41245
 453  45.6144
 454  83.98804
 455  168.3176
 456  217.874
 457  265.7447
 458  277.557
 459  246.9758
 460  205.2737
 461  336.9955
 462  353.4745
 463  214.1801
 464  170.4831
 465  88.62038
 466  140.4793
 467  136.2064
 468  90.28065
 469  23.20779
 470  131.9613
 471  130.053
 472  175.0756
 473  59.64489
 474  -46.90545
 475  7.380792
 476  177.66
 477  122.4732
 478  198.4224
 479  131.6743
 480  113.5781
 481  239.4001
 482  254.4146
 483  125.9119
 484  90.53574
 485  240.1535
 486  161.6291
 487  152.7297
 488  94.2898
 489  -35.02391
 490  -11.74361
 491  21.79442
 492  96.82493
 493  92.35052
 494  56.98874
 495  88.90266
 496  21.00365
 497  58.62275
 498  115.7072
 499  104.9892
 500  194.8331
 501  272.475
 502  264.2565
 503  235.9968
 504  255.9686
 505  96.80684
 506  141.2972
 507  142.0751
 508  177.4322
 509  214.4612
 510  105.0817
 511  226.9525
