# Input file       =  1191208577.114983_cleaned.dat
# Candidate        =  PSR_0332+5434
# Telescope        =  AR
# Epoch_topo       =  58031.136529108604
# Epoch_bary       =  N/A
# T_sample         =  0.002
# Data Folded      =  7340032
# Data Avg         =  0.0146195677533087
# Data StdDev      =  1.00003274943044 
# Profile Bins     =  512
# Profile Avg      =  209.606569989647 
# Profile StdDev   =  119.736957565512 
# Reduced chi-sqr  =  1.419
# Prob(Noise)      <  1.29e-09   (~6.0 sigma)
# P_topo (ms)      =  714.475311860122  +/- 0.000122
# P'_topo (s/s)    =  -0                +/- 6.44e-11
# P''_topo (s/s^2) =  0                 +/- 2.84e-14
# P_bary (ms)      =  N/A
# P'_bary (s/s)    =  N/A
# P''_bary (s/s^2) =  N/A
# P_orb (s)        =  N/A
# asin(i)/c (s)    =  N/A
# eccentricity     =  N/A
# w (rad)          =  N/A
# T_peri           =  N/A
######################################################
   0  786.9734
   1  723.6013
   2  550.9955
   3  312.6201
   4  237.4928
   5  170.0407
   6  15.69067
   7  149.2073
   8  225.6689
   9  331.1924
  10  141.5956
  11  109.3628
  12  158.598
  13  254.1304
  14  450.6498
  15  299.5267
  16  231.7869
  17  160.3088
  18  157.0991
  19  108.6944
  20  304.2983
  21  324.2715
  22  312.5315
  23  162.9892
  24  223.8184
  25  230.7678
  26  189.456
  27  155.8233
  28  133.4554
  29  129.3192
  30  237.1563
  31  276.4602
  32  454.8537
  33  434.0101
  34  302.9608
  35  267.0469
  36  304.4864
  37  286.6889
  38  338.1209
  39  239.2042
  40  266.7927
  41  340.2932
  42  325.015
  43  157.7123
  44  197.481
  45  184.765
  46  203.8571
  47  156.8076
  48  138.5016
  49  182.6291
  50  80.3353
  51  179.3152
  52  154.0317
  53  40.26041
  54  155.4659
  55  236.9639
  56  292.3138
  57  350.8491
  58  315.511
  59  104.4476
  60  284.6891
  61  200.677
  62  149.626
  63  209.5561
  64  168.1737
  65  114.2371
  66  121.1836
  67  158.3817
  68  223.8572
  69  337.1687
  70  300.2664
  71  177.579
  72  105.7075
  73  243.194
  74  259.4612
  75  239.0087
  76  95.03294
  77  92.05962
  78  65.96279
  79  257.9916
  80  184.0495
  81  86.24588
  82  173.1459
  83  163.9607
  84  127.8273
  85  152.3102
  86  207.1835
  87  329.6594
  88  262.0115
  89  289.7352
  90  285.6033
  91  203.242
  92  199.0294
  93  257.676
  94  204.2379
  95  232.5037
  96  106.6716
  97  147.8762
  98  291.4359
  99  211.2181
 100  179.4708
 101  200.7005
 102  216.0786
 103  285.9244
 104  323.6846
 105  236.99
 106  302.6692
 107  301.5403
 108  153.7094
 109  36.65279
 110  127.5619
 111  177.3298
 112  82.16423
 113  111.6184
 114  255.4897
 115  199.4386
 116  139.8882
 117  125.0725
 118  327.3223
 119  299.193
 120  331.9689
 121  331.2388
 122  194.0811
 123  245.008
 124  265.3627
 125  275.9663
 126  266.829
 127  312.6435
 128  281.0955
 129  186.3625
 130  237.5001
 131  192.3032
 132  215.1922
 133  303.1645
 134  388.473
 135  200.3031
 136  263.0859
 137  378.1559
 138  211.8786
 139  105.8738
 140  91.55494
 141  199.2442
 142  363.9568
 143  215.8834
 144  137.9873
 145  194.4803
 146  280.9151
 147  214.6854
 148  154.7296
 149  148.251
 150  281.2534
 151  168.8934
 152  171.9002
 153  103.4641
 154  21.75082
 155  56.78772
 156  215.1229
 157  311.4577
 158  330.154
 159  211.2175
 160  3.186331
 161  156.0032
 162  206.5785
 163  163.0478
 164  109.2527
 165  230.9126
 166  234.5168
 167  154.803
 168  122.4229
 169  137.3691
 170  2.241819
 171  64.09723
 172  52.58799
 173  274.3239
 174  220.2497
 175  214.7584
 176  172.0345
 177  180.2338
 178  135.1691
 179  143.876
 180  48.43382
 181  86.99828
 182  99.06881
 183  166.1311
 184  123.9232
 185  223.412
 186  210.027
 187  209.9367
 188  284.856
 189  337.1859
 190  334.2712
 191  295.5342
 192  302.9576
 193  153.4579
 194  205.7274
 195  115.6359
 196  186.9164
 197  254.9578
 198  188.5622
 199  234.1761
 200  240.9337
 201  204.2081
 202  215.3722
 203  122.5981
 204  174.4844
 205  18.10201
 206  143.3169
 207  161.3055
 208  134.2395
 209  179.8465
 210  278.946
 211  263.9445
 212  218.8492
 213  229.2642
 214  246.8759
 215  293.6768
 216  301.1399
 217  229.4098
 218  125.2696
 219  112.856
 220  102.7942
 221  53.94711
 222  156.1037
 223  267.5302
 224  183.9062
 225  69.77001
 226  215.5388
 227  207.2258
 228  315.3715
 229  435.7379
 230  347.8267
 231  246.4793
 232  320.1461
 233  274.7644
 234  246.7861
 235  107.1482
 236  46.68591
 237  165.5127
 238  213.9928
 239  205.9932
 240  250.9294
 241  160.0212
 242  185.7398
 243  281.469
 244  269.66
 245  222.4244
 246  311.5199
 247  435.0533
 248  315.0487
 249  155.5194
 250  222.4061
 251  280.5471
 252  168.1756
 253  136.3282
 254  100.6195
 255  108.6796
 256  93.66752
 257  150.8674
 258  126.5178
 259  81.51273
 260  229.2361
 261  215.7701
 262  103.5763
 263  106.4068
 264  249.238
 265  245.2399
 266  116.1865
 267  93.95609
 268  207.0458
 269  191.8436
 270  177.3637
 271  277.379
 272  230.4292
 273  202.783
 274  147.1479
 275  127.2515
 276  194.1264
 277  167.6494
 278  192.1709
 279  330.6906
 280  321.3781
 281  233.9754
 282  312.6281
 283  224.1326
 284  226.3606
 285  319.8131
 286  219.293
 287  250.648
 288  349.4739
 289  238.9397
 290  239.7069
 291  219.9767
 292  212.9504
 293  93.35609
 294  88.76444
 295  60.86766
 296  150.3359
 297  183.1451
 298  78.13283
 299  -48.78664
 300  47.06763
 301  212.8334
 302  303.1867
 303  237.0544
 304  303.8577
 305  228.8515
 306  306.6081
 307  262.3733
 308  255.4712
 309  293.6393
 310  235.3779
 311  334.3498
 312  282.8515
 313  215.322
 314  153.3732
 315  143.9725
 316  165.2814
 317  165.6769
 318  255.1376
 319  142.7313
 320  52.24505
 321  185.406
 322  256.7169
 323  327.2941
 324  345.3587
 325  218.0272
 326  186.2456
 327  71.67218
 328  96.54511
 329  241.2987
 330  322.5255
 331  165.5939
 332  233.4299
 333  117.169
 334  74.5041
 335  197.0659
 336  148.6789
 337  130.9795
 338  181.6504
 339  257.5102
 340  255.3631
 341  79.65526
 342  147.6753
 343  313.9994
 344  331.6895
 345  197.8537
 346  103.6657
 347  169.5836
 348  172.7024
 349  161.8648
 350  140.6177
 351  109.6443
 352  175.1128
 353  198.8163
 354  204.9744
 355  112.4696
 356  37.6985
 357  155.8339
 358  94.26576
 359  124.2893
 360  215.4416
 361  313.4919
 362  78.8943
 363  96.17848
 364  196.0511
 365  174.1085
 366  245.9821
 367  326.0285
 368  260.0442
 369  154.6193
 370  161.5747
 371  166.2069
 372  197.1082
 373  138.6504
 374  311.4631
 375  255.4528
 376  8.37511
 377  43.96273
 378  140.2501
 379  274.968
 380  222.3477
 381  141.3052
 382  135.1653
 383  175.4207
 384  167.2173
 385  146.2639
 386  277.4897
 387  242.4875
 388  172.996
 389  87.31503
 390  97.21069
 391  114.6225
 392  73.12401
 393  293.1245
 394  418.5401
 395  286.8753
 396  235.7343
 397  186.7583
 398  200.9865
 399  196.6147
 400  133.9466
 401  144.052
 402  55.26991
 403  124.651
 404  54.69043
 405  97.8779
 406  270.3247
 407  227.2312
 408  171.6052
 409  192.2729
 410  272.8117
 411  373.8294
 412  282.406
 413  253.9938
 414  283.0564
 415  274.0928
 416  242.2339
 417  274.3934
 418  305.3357
 419  260.7008
 420  219.9202
 421  296.0043
 422  266.8006
 423  213.8449
 424  216.2358
 425  434.7605
 426  402.0592
 427  224.0472
 428  191.1776
 429  160.6251
 430  128.2937
 431  135.5113
 432  216.8809
 433  152.9885
 434  108.9301
 435  259.6881
 436  170.9109
 437  119.0178
 438  186.7389
 439  149.6638
 440  151.935
 441  173.7529
 442  176.9212
 443  203.778
 444  265.1518
 445  193.5978
 446  3.398948
 447  111.4196
 448  197.2444
 449  267.8241
 450  449.8991
 451  265.9778
 452  154.9892
 453  144.4177
 454  226.3224
 455  215.0936
 456  118.8638
 457  188.4908
 458  273.8647
 459  94.17041
 460  52.26962
 461  173.8935
 462  94.78989
 463  52.12303
 464  228.7225
 465  261.2834
 466  323.363
 467  139.7688
 468  130.0821
 469  44.82382
 470  46.5851
 471  265.9933
 472  178.2376
 473  134.6795
 474  153.54
 475  238.9001
 476  179.0518
 477  156.511
 478  93.60191
 479  134.6689
 480  317.8365
 481  319.4203
 482  278.1523
 483  296.6102
 484  173.0402
 485  142.2142
 486  132.3193
 487  145.6505
 488  123.2881
 489  105.7958
 490  266.5465
 491  256.6808
 492  190.1461
 493  216.8037
 494  378
 495  344.2086
 496  204.7439
 497  149.4539
 498  339.6986
 499  429.4806
 500  202.7539
 501  113.5435
 502  209.162
 503  285.2184
 504  277.2481
 505  276.7221
 506  307.5539
 507  310.1625
 508  500.7874
 509  674.1074
 510  787.5015
 511  818.2352
