# Input file       =  1191639351.117412_cleaned.dat
# Candidate        =  PSR_0332+5434
# Telescope        =  AR
# Epoch_topo       =  58036.122339321897
# Epoch_bary       =  N/A
# T_sample         =  0.002
# Data Folded      =  7340032
# Data Avg         =  0.0469039186947547
# Data StdDev      =  2.70868182711814 
# Profile Bins     =  256
# Profile Avg      =  1344.74697761601 
# Profile StdDev   =  458.655903702698 
# Reduced chi-sqr  =  1.794
# Prob(Noise)      <  1.09e-13   (~7.3 sigma)
# P_topo (ms)      =  714.478466307463  +/- 0.000276
# P'_topo (s/s)    =  -0                +/- 1.46e-10
# P''_topo (s/s^2) =  0                 +/- 6.44e-14
# P_bary (ms)      =  N/A
# P'_bary (s/s)    =  N/A
# P''_bary (s/s^2) =  N/A
# P_orb (s)        =  N/A
# asin(i)/c (s)    =  N/A
# eccentricity     =  N/A
# w (rad)          =  N/A
# T_peri           =  N/A
######################################################
   0  933.7435
   1  1718.71
   2  1693.434
   3  1440.561
   4  1592.344
   5  1720.861
   6  1175.685
   7  1149.868
   8  1032.023
   9  1632.031
  10  2243.177
  11  1328.642
  12  1659.681
  13  1323.494
  14  1585.06
  15  749.511
  16  1661.93
  17  1762.361
  18  1376.449
  19  1071.42
  20  1011.843
  21  1824.722
  22  1545.51
  23  1955.1
  24  1883.89
  25  1409.659
  26  969.7875
  27  1282.179
  28  1025.859
  29  1064.527
  30  1121.209
  31  1218.669
  32  533.9661
  33  908.3482
  34  1074.642
  35  750.9544
  36  1319.882
  37  1636.086
  38  853.2897
  39  1202.453
  40  1030.004
  41  1520.371
  42  1631.909
  43  1295.302
  44  839.0258
  45  1229.26
  46  133.1136
  47  872.7747
  48  1197.126
  49  1463.318
  50  1637.437
  51  1174.777
  52  1556.353
  53  958.5171
  54  1645.821
  55  1662.202
  56  782.2954
  57  1657.749
  58  755.8271
  59  1608.589
  60  477.3489
  61  793.3609
  62  906.5244
  63  1561.532
  64  909.1967
  65  716.9566
  66  677.718
  67  1274.861
  68  1859.188
  69  1384.812
  70  1380.529
  71  1567.457
  72  451.6614
  73  1720.421
  74  942.9463
  75  1398.905
  76  554.2809
  77  463.6967
  78  1539.86
  79  936.3702
  80  1721.622
  81  1491.895
  82  1061.465
  83  1042.803
  84  1174.427
  85  1265.29
  86  851.4519
  87  1323.706
  88  1018.223
  89  1284.55
  90  668.3718
  91  1096.93
  92  1052.868
  93  1577.04
  94  1505.087
  95  1695.391
  96  638.4164
  97  1407.643
  98  1662.199
  99  1007.013
 100  1581.263
 101  1493.323
 102  2080.262
 103  874.5927
 104  817.0219
 105  1060.296
 106  1239.991
 107  628.3137
 108  1868.503
 109  2068.342
 110  756.0295
 111  1173.741
 112  1322.186
 113  1572.145
 114  1361.151
 115  1227.15
 116  1234.479
 117  1104.77
 118  1487.493
 119  1672.981
 120  1856.292
 121  1565.208
 122  1391.445
 123  2193.473
 124  1828.971
 125  1045.587
 126  1094.984
 127  1589.543
 128  878.595
 129  406.9524
 130  776.1609
 131  1670.454
 132  1372.5
 133  1495.635
 134  1573.67
 135  1850.832
 136  1694.288
 137  1914.319
 138  1263.757
 139  1368.185
 140  1907.885
 141  1044.125
 142  1543.024
 143  1638.88
 144  1348.072
 145  1046.433
 146  1993.588
 147  1469.179
 148  1844.732
 149  2353.462
 150  1819.932
 151  1669.68
 152  2078.638
 153  924.968
 154  1321.819
 155  1931.022
 156  1227.805
 157  2297.949
 158  3627.197
 159  4564.19
 160  4894.623
 161  2449.881
 162  1552.515
 163  915.9941
 164  1634.287
 165  1639.829
 166  1096.033
 167  1738.83
 168  1586.792
 169  989.999
 170  1282.202
 171  1089.496
 172  1292.106
 173  1592.602
 174  1502.901
 175  1868.314
 176  1746.579
 177  2146.73
 178  1367.33
 179  1482.245
 180  1398.188
 181  1259.528
 182  1656.338
 183  683.5872
 184  604.7006
 185  756.5801
 186  330.88
 187  1278.948
 188  1391.738
 189  978.4118
 190  1411.951
 191  1591.186
 192  1421.146
 193  1330.005
 194  1052.912
 195  1001.044
 196  974.3423
 197  1322.367
 198  1304.14
 199  1361.912
 200  1179.484
 201  1052.719
 202  1545.99
 203  1103.107
 204  805.198
 205  619.6471
 206  555.7875
 207  1168.605
 208  127.1309
 209  1225.255
 210  796.4749
 211  1398.554
 212  987.0686
 213  1196.296
 214  613.3915
 215  934.2341
 216  1379.466
 217  1634.725
 218  1902.475
 219  1382.088
 220  1736.012
 221  1289.361
 222  554.1562
 223  1717.648
 224  1047.9
 225  1219.556
 226  1050.813
 227  588.4058
 228  1262.358
 229  898.6906
 230  1045.21
 231  888.2578
 232  1049.376
 233  2141.752
 234  1713.621
 235  1829.437
 236  1846.13
 237  1478.79
 238  1325.712
 239  1107.619
 240  1637.43
 241  940.3606
 242  1363.57
 243  980.4463
 244  1345.505
 245  1272.889
 246  1689.748
 247  1295.813
 248  1077.682
 249  1451.138
 250  1441.974
 251  1299.076
 252  1595.189
 253  2130.021
 254  1574.326
 255  1515.557
