# Input file       =  1191021321.110226_cleaned.dat
# Candidate        =  PSR_0332+5434
# Telescope        =  AR
# Epoch_topo       =  58028.969214238728
# Epoch_bary       =  N/A
# T_sample         =  0.002
# Data Folded      =  7340032
# Data Avg         =  0.0106921501270553
# Data StdDev      =  1.00005898322481 
# Profile Bins     =  512
# Profile Avg      =  154.132955483804 
# Profile StdDev   =  119.740098617368 
# Reduced chi-sqr  =  1.393
# Prob(Noise)      <  9.08e-09   (~5.6 sigma)
# P_topo (ms)      =  714.473706752463  +/- 0.00023
# P'_topo (s/s)    =  -0                +/- 1.21e-10
# P''_topo (s/s^2) =  0                 +/- 5.35e-14
# P_bary (ms)      =  N/A
# P'_bary (s/s)    =  N/A
# P''_bary (s/s^2) =  N/A
# P_orb (s)        =  N/A
# asin(i)/c (s)    =  N/A
# eccentricity     =  N/A
# w (rad)          =  N/A
# T_peri           =  N/A
######################################################
   0  772.3426
   1  622.5143
   2  637.0391
   3  473.6461
   4  205.6898
   5  161.2098
   6  254.7206
   7  209.1127
   8  189.9727
   9  181.5855
  10  144.6954
  11  152.5514
  12  228.4369
  13  320.1073
  14  173.2261
  15  200.8441
  16  209.6909
  17  324.8666
  18  208.827
  19  199.8803
  20  158.269
  21  168.6591
  22  20.87722
  23  -31.25543
  24  128.5343
  25  220.4959
  26  26.5586
  27  -4.146815
  28  146.5665
  29  273.6602
  30  266.354
  31  86.62074
  32  90.66109
  33  15.21859
  34  167.8475
  35  143.9714
  36  54.83092
  37  43.4608
  38  21.46449
  39  60.63903
  40  131.5372
  41  108.08
  42  265.7271
  43  277.2824
  44  209.0274
  45  191.3183
  46  187.6655
  47  229.8325
  48  166.1234
  49  -19.51392
  50  -31.66568
  51  84.53217
  52  221.3849
  53  261.1414
  54  166.9711
  55  205.9779
  56  162.2622
  57  150.7818
  58  68.38636
  59  26.43566
  60  154.47
  61  134.0776
  62  44.44316
  63  4.994114
  64  102.3303
  65  172.1872
  66  145.5112
  67  258.7202
  68  228.1603
  69  56.02197
  70  109.5086
  71  10.84815
  72  153.0718
  73  256.5183
  74  210.0054
  75  103.561
  76  194.661
  77  189.5978
  78  60.89359
  79  180.731
  80  82.77995
  81  104.416
  82  93.70564
  83  201.1618
  84  252.4174
  85  44.25926
  86  56.50854
  87  129.1848
  88  51.31899
  89  -62.26307
  90  -111.1166
  91  94.20049
  92  94.53993
  93  62.01125
  94  134.9205
  95  174.4298
  96  57.10463
  97  -15.34583
  98  313.5872
  99  187.8615
 100  66.17011
 101  212.9366
 102  112.2202
 103  130.6129
 104  266.0573
 105  308.263
 106  256.6619
 107  51.94567
 108  47.82259
 109  53.53266
 110  87.3517
 111  69.10905
 112  159.5459
 113  87.88229
 114  85.88735
 115  129.5993
 116  191.2681
 117  197.7738
 118  99.28173
 119  -1.317349
 120  63.17496
 121  50.45077
 122  6.14431
 123  215.1321
 124  111.6915
 125  57.66331
 126  110.9833
 127  152.555
 128  13.40517
 129  57.37199
 130  116.0293
 131  227.6265
 132  132.6644
 133  92.16444
 134  172.6752
 135  117.9532
 136  93.42981
 137  121.7962
 138  124.7082
 139  54.58644
 140  74.96973
 141  228.7747
 142  176.3722
 143  92.58508
 144  138.2108
 145  218.0364
 146  265.033
 147  163.6496
 148  216.8601
 149  101.8554
 150  58.80943
 151  77.37708
 152  122.7564
 153  185.2799
 154  280.8615
 155  99.38108
 156  124.1684
 157  224.8017
 158  60.22225
 159  -1.606015
 160  70.23047
 161  187.1315
 162  241.8152
 163  87.06788
 164  38.11287
 165  196.0507
 166  163.5737
 167  251.627
 168  150.1905
 169  52.13799
 170  117.1069
 171  144.3136
 172  285.4218
 173  260.675
 174  324.4957
 175  252.2953
 176  64.87696
 177  78.1541
 178  227.466
 179  211.6699
 180  93.98618
 181  -46.06509
 182  -123.3298
 183  -9.412568
 184  198.5494
 185  261.3348
 186  209.5732
 187  261.9146
 188  168.5753
 189  126.9719
 190  249.2114
 191  99.38271
 192  -35.59798
 193  107.6981
 194  87.79064
 195  206.7017
 196  152.4749
 197  67.72955
 198  -2.417846
 199  19.6457
 200  111.2398
 201  44.98875
 202  127.9254
 203  144.65
 204  139.8795
 205  227.959
 206  163.6754
 207  233.77
 208  171.5353
 209  92.15085
 210  281.6347
 211  201.355
 212  108.0106
 213  65.99828
 214  77.69317
 215  137.8141
 216  107.3724
 217  123.412
 218  36.53227
 219  82.05016
 220  157.0615
 221  144.5273
 222  78.6321
 223  12.27132
 224  -57.32495
 225  -122.6397
 226  147.5276
 227  148.375
 228  178.2352
 229  50.45515
 230  -29.5294
 231  113.6558
 232  230.9662
 233  54.00993
 234  105.8355
 235  134.85
 236  -0.5738773
 237  63.4745
 238  114.1374
 239  161.1468
 240  256.4725
 241  160.3652
 242  171.2036
 243  257.4731
 244  201.7267
 245  56.50288
 246  60.66992
 247  177.8092
 248  109.7496
 249  25.95633
 250  176.1588
 251  295.6634
 252  298.2321
 253  -3.395363
 254  7.854399
 255  151.5249
 256  170.9618
 257  158.5159
 258  75.53941
 259  49.47692
 260  75.57
 261  168.2857
 262  213.5674
 263  259.6873
 264  276.2106
 265  258.7247
 266  197.7202
 267  328.4002
 268  358.0469
 269  223.1734
 270  170.8422
 271  95.21232
 272  134.3467
 273  138.0355
 274  103.4287
 275  17.81115
 276  127.6067
 277  128.0572
 278  170.8526
 279  76.12379
 280  -42.03511
 281  -8.662172
 282  176.3497
 283  120.9176
 284  193.4454
 285  140.3024
 286  107.4504
 287  232.6824
 288  260.3556
 289  137.463
 290  81.09122
 291  234.5063
 292  170.5046
 293  153.181
 294  102.6334
 295  -28.7355
 296  -15.52572
 297  17.69693
 298  90.1899
 299  95.95124
 300  59.1471
 301  85.93976
 302  25.29213
 303  49.99657
 304  119.2383
 305  102.6706
 306  186.6812
 307  269.2849
 308  271.6872
 309  229.2404
 310  261.8163
 311  103.947
 312  138.9422
 313  140.7971
 314  172.4311
 315  214.174
 316  113.0311
 317  219.8619
 318  166.4174
 319  172.0633
 320  265.4727
 321  181.6059
 322  209.0914
 323  165.3662
 324  162.1894
 325  135.8374
 326  104.7266
 327  248.4209
 328  217.5965
 329  102.2825
 330  170.9202
 331  68.6203
 332  183.2235
 333  291.6025
 334  244.3824
 335  133.4058
 336  58.17542
 337  118.7643
 338  127.2952
 339  89.19032
 340  306.6132
 341  366.831
 342  260.5652
 343  182.069
 344  105.0763
 345  250.3413
 346  170.9151
 347  153.9772
 348  161.9923
 349  136.5831
 350  292.0046
 351  210.9989
 352  206.2821
 353  95.1674
 354  103.6058
 355  75.54013
 356  168.0873
 357  140.5633
 358  212.8784
 359  241.3566
 360  161.4296
 361  112.3046
 362  146.2918
 363  217.7229
 364  129.7078
 365  118.6862
 366  336.792
 367  235.2138
 368  210.9793
 369  247.9329
 370  248.5285
 371  190.1845
 372  229.5652
 373  154.8097
 374  109.9387
 375  119.8201
 376  183.1458
 377  220.7514
 378  259.8948
 379  238.5287
 380  167.3723
 381  303.5007
 382  270.4208
 383  148.0389
 384  237.7752
 385  301.3321
 386  270.7963
 387  166.0511
 388  261.9398
 389  312.2554
 390  273.2834
 391  378.8909
 392  228.6207
 393  61.90459
 394  244.6101
 395  261.3284
 396  277.2439
 397  45.83831
 398  128.5775
 399  152.2474
 400  162.111
 401  169.7548
 402  215.5499
 403  218.7326
 404  86.5446
 405  129.3352
 406  97.23003
 407  149.7886
 408  117.2267
 409  88.27099
 410  96.71181
 411  142.7752
 412  229.7268
 413  218.2845
 414  87.48094
 415  138.386
 416  217.3806
 417  156.3014
 418  233.7036
 419  335.6213
 420  275.6476
 421  84.76279
 422  6.686898
 423  149.1456
 424  185.95
 425  115.6528
 426  83.05143
 427  154.3608
 428  197.8954
 429  59.76376
 430  22.47714
 431  129.6414
 432  -8.253473
 433  41.02686
 434  80.41674
 435  31.06955
 436  84.30386
 437  79.11565
 438  219.0869
 439  128.0421
 440  -7.138006
 441  56.89613
 442  117.2356
 443  28.31161
 444  16.66987
 445  113.5034
 446  188.3692
 447  93.81299
 448  51.85226
 449  127.1905
 450  234.9226
 451  175.7019
 452  241.9622
 453  240.6047
 454  233.42
 455  211.6787
 456  133.9181
 457  187.5546
 458  111.1106
 459  185.6527
 460  233.9882
 461  202.7844
 462  242.7162
 463  210.5871
 464  160.6299
 465  90.71888
 466  120.3308
 467  274.1924
 468  197.8453
 469  91.387
 470  114.0134
 471  186.3728
 472  226.0747
 473  221.0746
 474  101.4811
 475  79.76307
 476  148.8578
 477  213.3692
 478  298.9808
 479  174.7203
 480  154.5492
 481  168.058
 482  208.2956
 483  98.18974
 484  16.68403
 485  15.24174
 486  64.66977
 487  75.2087
 488  112.7393
 489  175.5979
 490  -1.071749
 491  201.7188
 492  112.4307
 493  154.1456
 494  170.1434
 495  193.3115
 496  227.7736
 497  90.21541
 498  124.7338
 499  263.2964
 500  225.0548
 501  270.2922
 502  210.8661
 503  144.4298
 504  222.4427
 505  343.9256
 506  264.8881
 507  325.5246
 508  337.4396
 509  538.0059
 510  604.7699
 511  685.5555
