# Input file       =  1191882929.123109_cleaned.dat
# Candidate        =  PSR_0332+5434
# Telescope        =  AR
# Epoch_topo       =  58038.941529202653
# Epoch_bary       =  N/A
# T_sample         =  0.002
# Data Folded      =  7340032
# Data Avg         =  0.028864027198454
# Data StdDev      =  2.2889367668349  
# Profile Bins     =  512
# Profile Avg      =  413.293681548769 
# Profile StdDev   =  274.061349167561 
# Reduced chi-sqr  =  1.798
# Prob(Noise)      <  1.14e-25   (~10.4 sigma)
# P_topo (ms)      =  714.480063721347  +/- 0.000229
# P'_topo (s/s)    =  -0                +/- 1.21e-10
# P''_topo (s/s^2) =  0                 +/- 5.34e-14
# P_bary (ms)      =  N/A
# P'_bary (s/s)    =  N/A
# P''_bary (s/s^2) =  N/A
# P_orb (s)        =  N/A
# asin(i)/c (s)    =  N/A
# eccentricity     =  N/A
# w (rad)          =  N/A
# T_peri           =  N/A
######################################################
   0  561.967
   1  300.0823
   2  194.3874
   3  389.9398
   4  627.3307
   5  639.9676
   6  568.9329
   7  469.0624
   8  629.3208
   9  705.0054
  10  712.1609
  11  278.0083
  12  452.4194
  13  574.6933
  14  484.7467
  15  131.622
  16  265.4009
  17  350.6646
  18  342.8151
  19  259.9951
  20  148.1167
  21  109.654
  22  56.83234
  23  134.22
  24  107.7816
  25  223.0299
  26  274.0027
  27  234.7231
  28  189.706
  29  499.1386
  30  667.3533
  31  347.9635
  32  305.7392
  33  373.8329
  34  325.3109
  35  247.6245
  36  411.7207
  37  736.6959
  38  595.2881
  39  266.3627
  40  217.946
  41  514.5029
  42  703.8707
  43  165.997
  44  190.6423
  45  365.9927
  46  695.2148
  47  295.7755
  48  83.02428
  49  293.2213
  50  430.2478
  51  435.3321
  52  467.1261
  53  413.7187
  54  516.9534
  55  238.4366
  56  332.9932
  57  435.3923
  58  368.2349
  59  232.6467
  60  259.5181
  61  278.5255
  62  469.9719
  63  467.349
  64  185.5695
  65  -40.01125
  66  -91.63137
  67  286.202
  68  417.2286
  69  420.3989
  70  162.4725
  71  182.9956
  72  247.4226
  73  340.9315
  74  415.9012
  75  443.7764
  76  573.9148
  77  523.7866
  78  447.3878
  79  324.4857
  80  356.9967
  81  464.7411
  82  457.5987
  83  549.5237
  84  487.9063
  85  132.4293
  86  269.9928
  87  279.3863
  88  171.105
  89  -124.7592
  90  -57.90831
  91  90.63337
  92  135.1676
  93  208.6283
  94  -60.66808
  95  172.4893
  96  385.9256
  97  398.6667
  98  332.2336
  99  211.6153
 100  98.32474
 101  398.3749
 102  372.7574
 103  269.9861
 104  312.3838
 105  353.2831
 106  343.3696
 107  444.7604
 108  208.3619
 109  201.8123
 110  330.7605
 111  476.3765
 112  92.07934
 113  89.49629
 114  469.6244
 115  302.6101
 116  408.013
 117  305.8152
 118  19.84857
 119  273.0095
 120  240.4147
 121  494.3928
 122  542.3807
 123  270.2412
 124  222.5633
 125  492.4284
 126  308.5575
 127  470.8611
 128  517.0383
 129  240.1129
 130  41.16882
 131  324.5345
 132  340.1826
 133  233.7132
 134  79.24102
 135  161.2569
 136  189.5163
 137  135.2311
 138  250.9427
 139  191.9177
 140  263.3422
 141  386.5203
 142  182.398
 143  346.4298
 144  344.14
 145  79.82365
 146  226.0086
 147  447.8303
 148  383.5764
 149  490.782
 150  320.5539
 151  488.7609
 152  711.0862
 153  464.9419
 154  419.0899
 155  472.2661
 156  408.9146
 157  102.8938
 158  -119.259
 159  -32.98966
 160  400.4985
 161  354.4359
 162  365.0888
 163  296.4199
 164  386.7886
 165  619.4143
 166  667.9404
 167  345.4313
 168  455.8125
 169  493.3005
 170  293.6508
 171  274.7526
 172  434.6717
 173  446.3098
 174  296.736
 175  282.2901
 176  266.5026
 177  318.4799
 178  543.8879
 179  628.648
 180  235.2804
 181  41.75203
 182  192.7254
 183  557.686
 184  895.446
 185  873.1442
 186  801.5267
 187  629.8507
 188  355.7967
 189  395.9165
 190  608.8802
 191  454.0426
 192  505.9537
 193  487.6233
 194  557.6852
 195  501.2692
 196  540.3625
 197  596.1817
 198  591.3426
 199  481.1637
 200  521.1385
 201  412.0464
 202  48.25899
 203  -15.54361
 204  463.206
 205  339.239
 206  229.8264
 207  644.6857
 208  619.0483
 209  382.0606
 210  313.6123
 211  443.0106
 212  149.5502
 213  357.8239
 214  527.3242
 215  366.5424
 216  341.8893
 217  251.1995
 218  68.79266
 219  302.6438
 220  341.4216
 221  6.819672
 222  152.363
 223  94.05918
 224  304.0091
 225  262.9885
 226  452.5225
 227  369.8798
 228  105.3835
 229  366.4944
 230  307.053
 231  179.7897
 232  575.2853
 233  399.0899
 234  294.1924
 235  407.0029
 236  484.5814
 237  424.1084
 238  494.3773
 239  523.685
 240  313.509
 241  129.1871
 242  470.244
 243  509.902
 244  475.1563
 245  403.4062
 246  389.3831
 247  326.7774
 248  196.0997
 249  749.1743
 250  811.2476
 251  698.1857
 252  546.5011
 253  783.408
 254  518.9897
 255  379.6461
 256  192.0901
 257  726.8112
 258  684.0138
 259  584.7798
 260  422.6454
 261  349.0383
 262  575.8667
 263  600.2282
 264  239.187
 265  564.5956
 266  756.9558
 267  670.7755
 268  458.3546
 269  482.6758
 270  515.2353
 271  344.5226
 272  307.9024
 273  593.7562
 274  344.136
 275  278.5559
 276  166.503
 277  549.9771
 278  404.2231
 279  311.5603
 280  560.3697
 281  460.1301
 282  450.5025
 283  281.185
 284  480.8574
 285  574.2397
 286  458.2159
 287  581.5798
 288  292.1451
 289  307.5315
 290  369.4541
 291  467.7598
 292  300.7196
 293  387.6266
 294  498.1106
 295  390.7538
 296  291.7845
 297  315.9925
 298  347.9497
 299  217.4541
 300  775.1722
 301  910.8113
 302  533.2827
 303  419.4073
 304  151.9622
 305  341.8247
 306  476.3409
 307  684.8472
 308  435.4004
 309  261.5099
 310  450.8138
 311  465.1744
 312  622.5876
 313  663.2477
 314  774.1712
 315  1048.617
 316  1631.734
 317  1984.203
 318  2364.771
 319  2521.486
 320  2465.269
 321  1668.379
 322  985.5228
 323  526.629
 324  503.5532
 325  339.3437
 326  264.816
 327  612.8381
 328  669.03
 329  717.3852
 330  396.3333
 331  172.0657
 332  265.9506
 333  431.3311
 334  537.2885
 335  846.8938
 336  1034.547
 337  591.0233
 338  38.27366
 339  376.6155
 340  326.515
 341  283.901
 342  159.0679
 343  352.0839
 344  44.94842
 345  53.4985
 346  156.1045
 347  250.6778
 348  219.5642
 349  481.5623
 350  461.4307
 351  143.3352
 352  436.9667
 353  343.8142
 354  304.4039
 355  108.5317
 356  301.8376
 357  382.9859
 358  214.1421
 359  215.3755
 360  375.3518
 361  275.9125
 362  721.3021
 363  869.2512
 364  673.9799
 365  516.7492
 366  309.2797
 367  317.8264
 368  363.7413
 369  608.2822
 370  324.7864
 371  232.1236
 372  330.9165
 373  363.6714
 374  309.6309
 375  350.3814
 376  242.7413
 377  276.157
 378  431.0117
 379  324.1081
 380  561.6275
 381  428.5825
 382  370.2896
 383  448.1862
 384  218.1488
 385  152.5497
 386  592.5439
 387  591.9525
 388  726.2953
 389  244.496
 390  46.53456
 391  347.5218
 392  382.8953
 393  603.8871
 394  460.5766
 395  367.0687
 396  523.738
 397  313.4172
 398  303.5848
 399  387.7349
 400  323.4111
 401  236.1747
 402  396.1619
 403  380.2913
 404  583.9969
 405  513.4828
 406  779.9567
 407  594.1561
 408  349.5516
 409  579.5562
 410  503.3797
 411  438.2945
 412  417.986
 413  341.4168
 414  241.246
 415  523.1426
 416  381.77
 417  701.8743
 418  599.4243
 419  573.464
 420  622.4171
 421  492.2184
 422  706.304
 423  376.5061
 424  663.1275
 425  492.5415
 426  426.1766
 427  455.7271
 428  705.5063
 429  791.5556
 430  436.208
 431  613.2894
 432  314.705
 433  157.5848
 434  371.8962
 435  655.3237
 436  708.7908
 437  589.8718
 438  410.5265
 439  276.5406
 440  196.5694
 441  292.1625
 442  587.5519
 443  674.6854
 444  316.3539
 445  115.6503
 446  195.7786
 447  444.45
 448  502.1829
 449  525.388
 450  274.4694
 451  482.5937
 452  583.6353
 453  610.0724
 454  323.8803
 455  433.7636
 456  546.6835
 457  495.7968
 458  350.2299
 459  287.7903
 460  771.0053
 461  553.3285
 462  522.0771
 463  325.2912
 464  149.2903
 465  136.6322
 466  37.10274
 467  474.6091
 468  397.6922
 469  60.1222
 470  216.9429
 471  286.6182
 472  197.4252
 473  414.0634
 474  340.9558
 475  327.004
 476  386.2418
 477  420.9538
 478  542.2284
 479  637.3134
 480  598.3869
 481  534.0861
 482  259.7583
 483  267.5076
 484  396.1556
 485  605.2842
 486  624.507
 487  494.2912
 488  375.3389
 489  146.9559
 490  306.1817
 491  494.9729
 492  383.6007
 493  657.0832
 494  764.6325
 495  534.8441
 496  495.3079
 497  347.444
 498  439.9291
 499  419.2188
 500  506.9748
 501  513.9484
 502  221.1373
 503  302.2655
 504  285.0464
 505  183.5436
 506  -4.959599
 507  284.9859
 508  547.9656
 509  525.6841
 510  701.9362
 511  420.8135
