# Input file       =  1191897833.137104-PSRB0329-2ms-sampling-dd.dat
# Candidate        =  PSR_0332+5434
# Telescope        =  AR
# Epoch_topo       =  58039.114029364631
# Epoch_bary       =  N/A
# T_sample         =  0.002
# Data Folded      =  7340032
# Data Avg         =  3.23795317978573e-10
# Data StdDev      =  6.74614722046046 
# Profile Bins     =  512
# Profile Avg      =  -2.90798979719405
# Profile StdDev   =  807.736690550412 
# Reduced chi-sqr  =  0.625
# Prob(Noise)      <  1   (~0.0 sigma)
# P_topo (ms)      =  714.480520167145  +/- 7.92e-05
# P'_topo (s/s)    =  -0                +/- 4.18e-11
# P''_topo (s/s^2) =  0                 +/- 1.85e-14
# P_bary (ms)      =  N/A
# P'_bary (s/s)    =  N/A
# P''_bary (s/s^2) =  N/A
# P_orb (s)        =  N/A
# asin(i)/c (s)    =  N/A
# eccentricity     =  N/A
# w (rad)          =  N/A
# T_peri           =  N/A
######################################################
   0  173.796
   1  -460.0965
   2  -566.2078
   3  -472.3695
   4  459.3303
   5  732.244
   6  -235.7372
   7  -43.36424
   8  -270.8393
   9  -100.703
  10  -676.7968
  11  -325.512
  12  386.1695
  13  -300.5534
  14  -320.1743
  15  -130.4561
  16  65.81698
  17  -322.743
  18  -727.3855
  19  160.0663
  20  215.0948
  21  423.1703
  22  -157.4456
  23  -532.1246
  24  -7.364883
  25  151.1181
  26  149.1225
  27  175.7325
  28  276.6534
  29  -69.64958
  30  12.99264
  31  -301.0379
  32  -271.5614
  33  -276.8857
  34  -91.79491
  35  -516.5798
  36  -1321.981
  37  -747.1031
  38  -796.8586
  39  -373.1108
  40  -52.15358
  41  -266.567
  42  -976.3143
  43  -859.9466
  44  -727.8703
  45  -495.3726
  46  55.13777
  47  361.7991
  48  263.0239
  49  -167.9511
  50  -551.5656
  51  -763.1352
  52  -947.4162
  53  -356.4259
  54  102.6089
  55  -323.0756
  56  -92.214
  57  -334.7989
  58  -563.6492
  59  -326.9459
  60  31.21254
  61  10.12758
  62  -286.9738
  63  -216.621
  64  -403.8807
  65  -302.8904
  66  102.3955
  67  236.0182
  68  -19.75006
  69  -218.1225
  70  168.6217
  71  -53.72311
  72  -89.31697
  73  453.1674
  74  314.2489
  75  220.5936
  76  269.6119
  77  284.1403
  78  -177.3724
  79  -219.3789
  80  -73.632
  81  118.7719
  82  45.40458
  83  399.2848
  84  -334.643
  85  -882.6125
  86  88.69975
  87  160.2227
  88  596.1
  89  445.5196
  90  884.292
  91  723.5417
  92  -294.8731
  93  -543.0011
  94  -562.0699
  95  -130.3187
  96  84.11829
  97  605.2365
  98  63.08167
  99  -533.443
 100  -905.4938
 101  -524.6494
 102  -432.3829
 103  -299.3471
 104  375.033
 105  747.202
 106  132.0622
 107  231.3253
 108  8.800323
 109  -330.3547
 110  12.92737
 111  176.8867
 112  -3.180386
 113  -345.0531
 114  -318.0534
 115  -453.0943
 116  -36.03571
 117  202.7811
 118  2.818337
 119  63.30553
 120  -60.26959
 121  -535.2882
 122  -983.6413
 123  -315.9025
 124  117.488
 125  399.7877
 126  12.96705
 127  -184.1184
 128  -713.4081
 129  -1260.885
 130  -744.2231
 131  -291.8122
 132  598.4163
 133  952.6488
 134  603.4244
 135  -511.5933
 136  -647.2834
 137  -413.8444
 138  -19.80244
 139  270.3914
 140  440.1521
 141  618.7237
 142  493.6899
 143  337.8012
 144  300.2603
 145  278.2417
 146  711.9056
 147  1050.932
 148  1250.274
 149  1116.192
 150  1103.132
 151  1264.017
 152  1642.314
 153  2109.587
 154  2615.84
 155  2432.058
 156  1431.795
 157  792.9636
 158  281.8525
 159  -75.26116
 160  189.7771
 161  212.7201
 162  549.9169
 163  137.823
 164  399.3331
 165  244.6719
 166  72.18726
 167  18.34532
 168  203.6026
 169  625.2393
 170  245.6805
 171  -25.47516
 172  -235.1659
 173  204.7847
 174  511.2726
 175  432.0624
 176  422.5405
 177  83.60262
 178  -630.7778
 179  -463.0645
 180  5.521195
 181  391.8027
 182  371.5089
 183  530.22
 184  149.7991
 185  -283.4073
 186  -589.5408
 187  -335.4222
 188  80.806
 189  596.9304
 190  738.7173
 191  371.1027
 192  194.7213
 193  -572.5678
 194  -613.1001
 195  -278.532
 196  28.84811
 197  825.4924
 198  651.1862
 199  496.8161
 200  -148.3404
 201  -305.6031
 202  -446.5395
 203  -10.99324
 204  238.8336
 205  477.339
 206  858.1136
 207  -95.51126
 208  -177.6682
 209  -198.9601
 210  3.308822
 211  -205.4011
 212  -341.5313
 213  -493.5717
 214  -636.147
 215  -174.8377
 216  -203.7002
 217  279.6253
 218  -24.38195
 219  334.7758
 220  6.434177
 221  -473.1054
 222  -731.691
 223  -1009.241
 224  -312.9154
 225  461.8828
 226  544.6002
 227  -54.64067
 228  -726.0559
 229  -766.0245
 230  -716.7595
 231  -199.406
 232  265.0485
 233  324.73
 234  96.22527
 235  -260.7076
 236  -202.7129
 237  -30.16208
 238  235.4222
 239  379.2619
 240  188.8873
 241  263.954
 242  -102.8821
 243  -268.1178
 244  -463.6429
 245  -507.5026
 246  -581.2002
 247  -473.7417
 248  -268.0713
 249  -632.7546
 250  -689.8509
 251  -859.4479
 252  -577.3109
 253  -568.5126
 254  -680.1653
 255  -475.7319
 256  -463.126
 257  -615.9539
 258  -729.8378
 259  -528.4048
 260  -379.8433
 261  -309.0506
 262  -23.56006
 263  -75.3467
 264  -42.58978
 265  -468.1337
 266  -63.12131
 267  -172.1802
 268  -189.6902
 269  453.6475
 270  440.4344
 271  309.0211
 272  -75.76049
 273  387.528
 274  -68.80887
 275  -63.32707
 276  321.1613
 277  -365.8507
 278  -326.4237
 279  -325.2056
 280  195.579
 281  719.5456
 282  681.267
 283  296.2517
 284  50.5662
 285  12.68944
 286  -163.7637
 287  -63.63749
 288  165.2973
 289  330.305
 290  28.06349
 291  -8.058951
 292  -589.9409
 293  -947.1085
 294  -841.7328
 295  -392.7226
 296  121.2378
 297  -125.2139
 298  390.5385
 299  239.3967
 300  164.6788
 301  -172.1645
 302  -343.0394
 303  -261.5325
 304  -243.4348
 305  72.61823
 306  302.8757
 307  -65.57098
 308  -54.7937
 309  -277.3204
 310  -378.3921
 311  -585.7166
 312  -398.4785
 313  -9.880145
 314  -128.9239
 315  -352.3336
 316  -349.2548
 317  -78.86602
 318  660.0446
 319  597.7061
 320  377.097
 321  8.060848
 322  -239.196
 323  -443.8293
 324  -117.4782
 325  669.7241
 326  372.6515
 327  157.3422
 328  29.22569
 329  -314.3039
 330  -839.9136
 331  -54.16788
 332  497.8859
 333  146.6835
 334  183.6679
 335  -124.2569
 336  324.5403
 337  39.25306
 338  403.1507
 339  -232.0881
 340  -517.9094
 341  -309.1254
 342  112.7637
 343  475.0053
 344  -144.5785
 345  249.9771
 346  -68.33101
 347  91.17819
 348  -153.8915
 349  167.4962
 350  486.5879
 351  646.9192
 352  669.8649
 353  201.4702
 354  503.8495
 355  377.9904
 356  119.5929
 357  77.05132
 358  159.9928
 359  77.61989
 360  -244.7456
 361  280.3232
 362  282.3531
 363  -70.44652
 364  170.0364
 365  -58.04862
 366  144.1032
 367  239.908
 368  229.3995
 369  423.7058
 370  351.2373
 371  409.066
 372  938.2831
 373  591.7827
 374  568.6327
 375  393.4193
 376  155.4356
 377  324.9771
 378  273.2136
 379  426.7419
 380  190.3361
 381  -168.0859
 382  -314.2284
 383  -377.3485
 384  -25.22581
 385  379.8111
 386  -209.2394
 387  -92.49459
 388  -784.049
 389  -423.6762
 390  -136.9657
 391  97.71171
 392  281.3374
 393  577.0144
 394  467.2218
 395  135.4172
 396  -118.3027
 397  -62.09124
 398  434.8359
 399  152.2821
 400  76.90914
 401  560.765
 402  118.7329
 403  39.70939
 404  -76.85978
 405  211.9866
 406  45.78621
 407  -48.65625
 408  -170.9805
 409  -307.6113
 410  -172.4161
 411  -321.7175
 412  -325.0909
 413  134.2319
 414  -207.0438
 415  -390.3554
 416  -295.9752
 417  -116.713
 418  40.14104
 419  -77.43358
 420  -143.1535
 421  -694.29
 422  -441.8513
 423  -615.0303
 424  -68.38805
 425  616.7964
 426  165.0983
 427  -114.1705
 428  -326.4868
 429  -134.8284
 430  387.0766
 431  -87.3405
 432  215.7292
 433  146.9964
 434  8.091326
 435  659.2324
 436  274.4511
 437  -139.8544
 438  -322.0838
 439  -567.3248
 440  -378.1604
 441  -145.6031
 442  428.7726
 443  339.6097
 444  72.45534
 445  622.5382
 446  -52.57112
 447  -277.616
 448  -734.2302
 449  -292.3954
 450  556.0479
 451  386.4392
 452  753.2983
 453  -24.37965
 454  -100.5208
 455  -618.5831
 456  -636.8409
 457  -369.1382
 458  -127.4116
 459  121.8535
 460  194.6051
 461  -204.4887
 462  -616.8896
 463  -299.2722
 464  -250.5123
 465  -112.4168
 466  384.2651
 467  -123.1723
 468  186.6427
 469  40.64907
 470  155.5134
 471  -52.9337
 472  40.07899
 473  233.947
 474  11.09973
 475  73.91316
 476  -417.0162
 477  -331.0309
 478  36.63993
 479  407.9848
 480  463.1016
 481  -171.681
 482  -281.4814
 483  -339.2316
 484  -49.17731
 485  -36.09941
 486  -4.586359
 487  108.3715
 488  -77.65806
 489  -686.6112
 490  -468.7429
 491  -218.9506
 492  196.8574
 493  639.1221
 494  438.4042
 495  107.8493
 496  254.7746
 497  245.2592
 498  -760.2484
 499  -203.8503
 500  422.3777
 501  339.2257
 502  153.7533
 503  -211.6831
 504  -453.1877
 505  -696.9703
 506  -579.1871
 507  136.7576
 508  544.8726
 509  885.4622
 510  769.7147
 511  402.0091
