# Input file       =  1191107527.118443-PSRB0329-2ms-sampling-dd.dat
# Candidate        =  PSR_0332+5434
# Telescope        =  AR
# Epoch_topo       =  58029.966968963461
# Epoch_bary       =  N/A
# T_sample         =  0.002
# Data Folded      =  7340032
# Data Avg         =  -5.98020173017285e-10
# Data StdDev      =  3.32062485734109 
# Profile Bins     =  512
# Profile Avg      =  -1.40945460248046
# Profile StdDev   =  397.588496837614 
# Reduced chi-sqr  =  1.091
# Prob(Noise)      <  0.0755   (~1.4 sigma)
# P_topo (ms)      =  714.474285258358  +/- 0.000304
# P'_topo (s/s)    =  -0                +/- 1.6e-10
# P''_topo (s/s^2) =  0                 +/- 7.08e-14
# P_bary (ms)      =  N/A
# P'_bary (s/s)    =  N/A
# P''_bary (s/s^2) =  N/A
# P_orb (s)        =  N/A
# asin(i)/c (s)    =  N/A
# eccentricity     =  N/A
# w (rad)          =  N/A
# T_peri           =  N/A
######################################################
   0  743.1702
   1  56.22121
   2  165.4752
   3  122.747
   4  72.35527
   5  21.33626
   6  60.07831
   7  -139.8714
   8  -228.4998
   9  -50.57496
  10  22.35513
  11  -66.24086
  12  -104.0272
  13  -43.13327
  14  -290.8051
  15  -46.52302
  16  2.402973
  17  -12.75241
  18  -69.70018
  19  -16.54978
  20  -375.1715
  21  -166.458
  22  -400.3926
  23  -297.5284
  24  -411.7128
  25  -319.4702
  26  -160.2235
  27  -363.2856
  28  -376.8841
  29  -179.5123
  30  -30.58904
  31  -675.2361
  32  -339.2956
  33  -15.9174
  34  -76.53051
  35  -68.99664
  36  78.98541
  37  291.7521
  38  181.0967
  39  -499.4795
  40  -301.9094
  41  -257.3139
  42  -405.9497
  43  -110.9814
  44  33.04007
  45  -163.1284
  46  28.71683
  47  156.0614
  48  -189.9019
  49  -124.5893
  50  195.5728
  51  -6.711635
  52  -311.8529
  53  57.46819
  54  420.5762
  55  -2.549993
  56  -264.3015
  57  -153.9216
  58  -123.8228
  59  306.5681
  60  137.9276
  61  -65.82905
  62  299.2979
  63  176.8798
  64  377.3098
  65  78.08565
  66  -115.51
  67  36.68046
  68  -135.4122
  69  -117.0313
  70  -230.5692
  71  -28.93745
  72  99.95193
  73  170.6098
  74  59.81712
  75  138.2688
  76  76.31335
  77  166.5271
  78  -13.13275
  79  -215.0352
  80  -334.5249
  81  -208.8646
  82  74.38842
  83  -119.8995
  84  77.94289
  85  -27.11792
  86  88.20113
  87  106.5871
  88  -255.5136
  89  -287.9421
  90  -122.6591
  91  22.17497
  92  136.5838
  93  -146.8288
  94  44.53248
  95  -84.48869
  96  272.2475
  97  93.57494
  98  160.712
  99  658.9849
 100  278.1511
 101  190.8743
 102  195.2155
 103  138.9068
 104  298.1233
 105  112.2206
 106  252.8215
 107  150.4861
 108  -246.1248
 109  -258.4045
 110  -154.96
 111  136.8396
 112  248.6586
 113  106.8431
 114  139.3966
 115  169.5149
 116  114.947
 117  86.01497
 118  323.1926
 119  396.2385
 120  215.6293
 121  152.838
 122  -215.5104
 123  -248.7003
 124  -375.2596
 125  -227.1385
 126  -258.1195
 127  -355.1668
 128  -23.9505
 129  -8.833447
 130  -2.627684
 131  314.0841
 132  210.7529
 133  344.784
 134  -149.2758
 135  -317.1594
 136  -180.3887
 137  134.6273
 138  311.2607
 139  161.4039
 140  -31.19091
 141  485.4604
 142  596.6213
 143  304.9257
 144  90.00983
 145  -128.2915
 146  105.9015
 147  221.978
 148  -452.3738
 149  -335.0393
 150  17.47979
 151  -149.7367
 152  165.0047
 153  1.787487
 154  -228.8808
 155  -66.75087
 156  118.4247
 157  122.4968
 158  -55.11847
 159  -29.01694
 160  -374.8955
 161  -155.3328
 162  72.30213
 163  -6.179665
 164  -221.0811
 165  -98.79639
 166  -346.9903
 167  -248.6653
 168  -242.6272
 169  -132.9781
 170  -47.17694
 171  -201.6775
 172  25.36806
 173  201.8405
 174  -102.6907
 175  -226.555
 176  -376.2293
 177  -0.4476452
 178  244.2819
 179  -151.3066
 180  -336.0178
 181  -344.5119
 182  -128.8224
 183  -113.5837
 184  -261.7667
 185  -205.8916
 186  -209.3291
 187  -73.1535
 188  -80.43569
 189  53.61903
 190  -268.4601
 191  -346.8911
 192  -161.5003
 193  56.53276
 194  265.932
 195  195.5177
 196  -7.567629
 197  -215.2283
 198  -55.45478
 199  -186.0823
 200  -64.24135
 201  59.39981
 202  149.9883
 203  137.7646
 204  -33.17329
 205  212.9192
 206  130.4593
 207  83.31612
 208  -70.35568
 209  -211.4322
 210  -392.2718
 211  -275.311
 212  -26.94732
 213  -141.5044
 214  171.7732
 215  -151.5858
 216  -392.44
 217  -198.6527
 218  -20.59846
 219  -92.40876
 220  -83.44699
 221  -187.0339
 222  -526.478
 223  -41.8759
 224  361.2669
 225  272.4261
 226  307.2236
 227  -107.7061
 228  39.65766
 229  36.92198
 230  -279.6728
 231  20.66241
 232  -6.429624
 233  32.39163
 234  -72.9511
 235  61.68806
 236  210.2209
 237  -438.0759
 238  -739.8316
 239  113.8666
 240  169.4818
 241  -144.1794
 242  -161.9406
 243  100.6902
 244  278.5063
 245  -234.8849
 246  92.381
 247  316.4988
 248  -47.94517
 249  -361.2038
 250  -291.4912
 251  -293.0752
 252  -164.8762
 253  -194.5474
 254  -270.2268
 255  -385.4083
 256  -583.3297
 257  -289.4061
 258  -504.3892
 259  -324.2076
 260  -476.4556
 261  -358.4068
 262  -422.6578
 263  -326.6966
 264  -61.48526
 265  -233.246
 266  -139.8425
 267  -54.81818
 268  321.3243
 269  -75.21381
 270  265.8534
 271  -52.35751
 272  -340.5253
 273  -525.5473
 274  -131.5083
 275  34.44828
 276  -84.77699
 277  137.4239
 278  79.26154
 279  -3.493557
 280  227.0449
 281  30.0297
 282  -328.9913
 283  -579.6091
 284  -438.243
 285  -546.4261
 286  -131.9453
 287  -157.9759
 288  -268.5378
 289  -343.0177
 290  -460.6097
 291  -210.3205
 292  -365.8733
 293  -258.5933
 294  18.17784
 295  406.6189
 296  302.3193
 297  -144.3622
 298  -91.28485
 299  -89.19578
 300  -72.01151
 301  46.14781
 302  49.71086
 303  -132.5761
 304  -429.9714
 305  -458.7949
 306  -68.36682
 307  -60.14995
 308  -283.9698
 309  -167.0267
 310  -36.5183
 311  -113.7912
 312  48.28949
 313  -431.5606
 314  6.603293
 315  -121.7777
 316  -414.1082
 317  -118.023
 318  236.6977
 319  360.471
 320  354.582
 321  -78.95234
 322  -199.5477
 323  42.70011
 324  586.837
 325  157.1873
 326  245.1732
 327  334.5866
 328  595.0359
 329  377.354
 330  199.7171
 331  641.6635
 332  363.3738
 333  52.17335
 334  249.5011
 335  471.2597
 336  169.9611
 337  -40.31824
 338  165.3614
 339  74.03684
 340  -144.784
 341  35.82
 342  26.50775
 343  -131.8135
 344  -252.532
 345  -155.6192
 346  -353.2027
 347  -488.5825
 348  -335.0047
 349  -33.71724
 350  -159.144
 351  -34.5986
 352  -41.08181
 353  -61.37943
 354  -190.2289
 355  -351.1358
 356  -192.6497
 357  -209.7287
 358  -11.5138
 359  42.18605
 360  84.74965
 361  -75.98042
 362  -162.2679
 363  -129.6601
 364  249.4608
 365  59.58838
 366  -401.5804
 367  -173.9581
 368  243.0667
 369  9.276741
 370  18.4009
 371  -145.4086
 372  173.6225
 373  58.37997
 374  12.00606
 375  -411.3581
 376  -279.2199
 377  -193.2258
 378  7.65353
 379  286.4372
 380  152.7714
 381  63.20576
 382  -34.88631
 383  -101.7768
 384  21.28175
 385  91.84704
 386  -74.29358
 387  23.6536
 388  -95.74794
 389  -46.2524
 390  -222.0071
 391  150.1311
 392  147.4585
 393  -0.1370126
 394  247.9802
 395  135.1913
 396  273.5291
 397  348.2475
 398  -251.092
 399  -227.9443
 400  241.8483
 401  83.8671
 402  167.1108
 403  361.7204
 404  78.78091
 405  -254.8596
 406  -276.2263
 407  -67.25169
 408  350.2654
 409  253.7711
 410  150.6421
 411  -34.37029
 412  -50.75008
 413  129.3381
 414  367.778
 415  365.1252
 416  608.9526
 417  690.7394
 418  1270.539
 419  1665.31
 420  1677.351
 421  1628.887
 422  1620.468
 423  974.2982
 424  513.2225
 425  90.74237
 426  230.3042
 427  34.73618
 428  -212.8149
 429  -325.3579
 430  -202.0854
 431  10.66068
 432  -31.4609
 433  9.613603
 434  74.65578
 435  250.6941
 436  320.2771
 437  136.6412
 438  19.11463
 439  -75.17265
 440  -145.1117
 441  -37.52666
 442  316.9037
 443  341.1904
 444  -40.3124
 445  3.71705
 446  178.9192
 447  -216.3611
 448  -354.4502
 449  -46.05338
 450  60.75609
 451  27.31145
 452  -70.85223
 453  -199.1025
 454  -415.9088
 455  -354.6758
 456  122.6978
 457  62.38234
 458  8.895877
 459  259.7431
 460  148.8645
 461  -164.5891
 462  -79.46999
 463  76.37975
 464  127.1
 465  -141.5761
 466  -377.5558
 467  -426.8463
 468  -108.6505
 469  73.16407
 470  8.237385
 471  91.18998
 472  19.78644
 473  -157.4645
 474  34.00373
 475  103.6438
 476  -87.43298
 477  -80.24026
 478  204.9479
 479  215.0739
 480  -128.5473
 481  -278.2929
 482  -285.4692
 483  -152.3523
 484  17.14166
 485  354.6607
 486  276.1854
 487  251.5079
 488  -217.4754
 489  -160.5356
 490  -89.0974
 491  -344.6616
 492  144.0063
 493  317.3088
 494  103.8649
 495  -119.6228
 496  -10.76188
 497  -216.4782
 498  -37.02827
 499  29.33422
 500  -227.7447
 501  102.4509
 502  470.4185
 503  287.0901
 504  83.46737
 505  647.1392
 506  613.785
 507  285.8062
 508  127.3824
 509  1369.341
 510  1138.424
 511  1113.976
