# Input file       =  1191265216.114095_cleaned.dat
# Candidate        =  PSR_0332+5434
# Telescope        =  AR
# Epoch_topo       =  58031.792073079800
# Epoch_bary       =  N/A
# T_sample         =  0.002
# Data Folded      =  7208960
# Data Avg         =  -0.00312221979256718
# Data StdDev      =  3.21471908674943 
# Profile Bins     =  512
# Profile Avg      =  -44.0410058989573
# Profile StdDev   =  381.455917241419 
# Reduced chi-sqr  =  0.773
# Prob(Noise)      <  1   (~0.0 sigma)
# P_topo (ms)      =  714.475358367298  +/- 0.000107
# P'_topo (s/s)    =  -0                +/- 5.74e-11
# P''_topo (s/s^2) =  0                 +/- 2.58e-14
# P_bary (ms)      =  N/A
# P'_bary (s/s)    =  N/A
# P''_bary (s/s^2) =  N/A
# P_orb (s)        =  N/A
# asin(i)/c (s)    =  N/A
# eccentricity     =  N/A
# w (rad)          =  N/A
# T_peri           =  N/A
######################################################
   0  -355.6175
   1  -78.14117
   2  -183.2291
   3  -211.975
   4  -319.5232
   5  -186.9389
   6  -1.951941
   7  -143.2497
   8  -257.6107
   9  -93.05553
  10  -474.4009
  11  -165.9887
  12  445.3621
  13  501.9661
  14  385.794
  15  346.5171
  16  -281.765
  17  -600.0693
  18  -512.0746
  19  -233.1407
  20  -163.4135
  21  -140.7702
  22  68.25649
  23  10.50069
  24  32.18657
  25  -134.2715
  26  -226.4115
  27  -196.0513
  28  -45.92474
  29  102.6144
  30  89.65451
  31  141.0688
  32  -43.96602
  33  76.15543
  34  204.1824
  35  101.3997
  36  46.46056
  37  -103.4421
  38  -107.0532
  39  -132.7559
  40  -274.6281
  41  -288.7688
  42  -158.5421
  43  -13.64668
  44  63.01996
  45  145.9336
  46  85.13428
  47  -179.4135
  48  -282.7512
  49  81.86343
  50  144.1954
  51  -31.48776
  52  -206.9669
  53  -270.6715
  54  -121.6967
  55  167.6671
  56  191.0197
  57  -321.7485
  58  -428.2741
  59  -59.85094
  60  71.36741
  61  102.8197
  62  139.7091
  63  -96.10308
  64  -264.3426
  65  -418.2082
  66  -122.745
  67  -4.984837
  68  -117.2553
  69  36.80973
  70  39.49073
  71  266.371
  72  -60.11855
  73  -189.8376
  74  -47.01114
  75  168.0925
  76  2.587497
  77  -103.6587
  78  200.8853
  79  316.091
  80  92.59435
  81  196.0521
  82  47.11308
  83  -203.5987
  84  -184.3752
  85  -106.26
  86  -228.5027
  87  -123.1074
  88  -101.7172
  89  -158.4716
  90  -256.1383
  91  -172.6445
  92  -462.1245
  93  -291.4318
  94  -47.89722
  95  -39.91009
  96  -310.0566
  97  -86.60136
  98  95.30753
  99  -65.59208
 100  30.29971
 101  30.01585
 102  -50.96829
 103  127.9226
 104  217.8199
 105  45.42148
 106  -262.483
 107  -419.9556
 108  -261.8147
 109  -347.0381
 110  -359.814
 111  94.72426
 112  57.56052
 113  -164.2977
 114  0.8043246
 115  -208.7182
 116  -325.7802
 117  -214.1999
 118  -204.6895
 119  -344.3447
 120  -47.63399
 121  -79.67033
 122  -131.3089
 123  -330.5716
 124  -5.66872
 125  -116.4699
 126  -439.7578
 127  -288.9233
 128  237.5475
 129  295.9605
 130  -35.72935
 131  -211.3072
 132  -82.59602
 133  -150.503
 134  -322.9611
 135  -326.0224
 136  -276.3037
 137  -168.2576
 138  -63.78328
 139  -307.2718
 140  -472.2045
 141  -337.4701
 142  62.85263
 143  53.47858
 144  -113.1827
 145  33.47311
 146  14.14591
 147  -151.0314
 148  -122.3814
 149  -247.5197
 150  -248.3619
 151  283.5217
 152  -65.97669
 153  -392.8331
 154  -54.19323
 155  156.7896
 156  -120.5972
 157  -306.6293
 158  168.4718
 159  50.26871
 160  -382.4269
 161  -423.8091
 162  36.41298
 163  -47.38245
 164  -65.50282
 165  -287.5115
 166  -248.5636
 167  -158.9714
 168  -514.4442
 169  -347.4806
 170  -64.28013
 171  -509.0952
 172  -384.9214
 173  -182.4504
 174  -160.7031
 175  216.7603
 176  208.6511
 177  174.5445
 178  143.2194
 179  49.42265
 180  172.3348
 181  -24.5547
 182  242.9273
 183  249.7721
 184  -168.4904
 185  162.058
 186  -15.97806
 187  -272.097
 188  45.30534
 189  85.42665
 190  -312.1002
 191  -325.6938
 192  -407.211
 193  -7.464064
 194  -160.6136
 195  -131.8451
 196  67.98111
 197  -218.801
 198  -385.8042
 199  -341.7112
 200  2.988142
 201  1.026283
 202  -140.3247
 203  -331.2702
 204  -215.9915
 205  184.3789
 206  6.410689
 207  -415.5779
 208  -491.3626
 209  -205.72
 210  57.26556
 211  300.1418
 212  29.04237
 213  0.5942777
 214  -67.22724
 215  -196.1794
 216  -451.8828
 217  -302.5985
 218  -349.356
 219  -461.8815
 220  -8.637198
 221  -36.8083
 222  -292.5932
 223  -90.40834
 224  -256.8898
 225  -109.2236
 226  -98.00577
 227  -200.5459
 228  168.5267
 229  39.98232
 230  72.31136
 231  -327.8207
 232  -528.0938
 233  -624.1757
 234  -281.5325
 235  1.754031
 236  205.6873
 237  -91.41281
 238  -43.13831
 239  69.3746
 240  -117.2631
 241  -181.4227
 242  -125.2917
 243  -327.2964
 244  -59.05125
 245  0.1876103
 246  -74.75282
 247  148.5471
 248  4.145039
 249  -384.228
 250  -124.4942
 251  -108.1988
 252  3.04722
 253  311.1748
 254  95.04925
 255  12.15195
 256  -419.523
 257  -269.5176
 258  196.5782
 259  205.9635
 260  -121.6233
 261  -148.0236
 262  -51.59528
 263  -13.17171
 264  -48.94002
 265  -182.8077
 266  34.0284
 267  0.4638508
 268  -283.6991
 269  -1.758311
 270  174.8326
 271  84.68412
 272  203.8764
 273  26.48454
 274  -245.0781
 275  -45.56945
 276  197.0453
 277  228.2739
 278  -106.5383
 279  -177.7098
 280  -115.9427
 281  -274.6051
 282  78.37666
 283  15.83715
 284  -140.5082
 285  89.05258
 286  -5.831346
 287  326.9669
 288  -5.634376
 289  -274.8832
 290  -315.4622
 291  -161.0195
 292  -192.9281
 293  -268.5557
 294  -155.9334
 295  61.20803
 296  79.23914
 297  -95.94576
 298  142.4829
 299  -264.2545
 300  154.9511
 301  253.0947
 302  494.9782
 303  678.1619
 304  166.2918
 305  -325.4046
 306  -248.2529
 307  -185.4043
 308  -30.03348
 309  8.807517
 310  175.1148
 311  148.3673
 312  2.533365
 313  78.08293
 314  240.1993
 315  305.881
 316  427.5777
 317  -52.6134
 318  209.8315
 319  63.97293
 320  11.6947
 321  -110.568
 322  -8.658522
 323  -243.2674
 324  -93.18676
 325  66.13931
 326  -124.957
 327  -352.3768
 328  -737.6136
 329  -547.9345
 330  -104.7797
 331  89.22037
 332  42.67086
 333  -350.8221
 334  -157.887
 335  -26.62131
 336  4.011942
 337  54.18716
 338  53.44707
 339  140.894
 340  -137.0619
 341  -48.07259
 342  -241.1157
 343  -71.23157
 344  -123.0393
 345  56.06273
 346  76.27016
 347  -86.42525
 348  -160.359
 349  -329.1917
 350  75.74347
 351  -136.184
 352  -280.1897
 353  -66.9827
 354  -47.01276
 355  100.952
 356  115.6802
 357  125.2538
 358  -18.34653
 359  -118.4077
 360  248.2768
 361  230.2318
 362  -20.65921
 363  -148.721
 364  -454.6639
 365  -261.2802
 366  -157.9399
 367  -95.99761
 368  -65.42771
 369  -55.52091
 370  250.0955
 371  85.65585
 372  -108.94
 373  131.067
 374  146.011
 375  -54.24552
 376  42.74421
 377  -109.0819
 378  -189.306
 379  -256.7771
 380  97.14257
 381  89.02844
 382  -43.24825
 383  201.7913
 384  257.3117
 385  206.6333
 386  410.7028
 387  355.4954
 388  437.5552
 389  608.8605
 390  1230.726
 391  1457.378
 392  1268.013
 393  1114.056
 394  755.4545
 395  135.7699
 396  -257.1536
 397  61.3763
 398  54.36911
 399  69.49436
 400  -249.8567
 401  -149.1289
 402  17.01599
 403  301.3694
 404  338.7486
 405  285.5289
 406  256.9997
 407  -87.99005
 408  246.9734
 409  285.4695
 410  190.3755
 411  -246.2023
 412  -300.5601
 413  -106.2299
 414  258.4489
 415  118.1353
 416  -53.20009
 417  -165.5655
 418  68.40529
 419  190.9531
 420  175.4928
 421  228.2538
 422  -179.2046
 423  -67.12212
 424  -200.1684
 425  -83.14632
 426  -150.5778
 427  106.4962
 428  -33.32156
 429  -102.0625
 430  -356.7681
 431  -368.1749
 432  -377.0302
 433  -362.8519
 434  23.04415
 435  -99.47197
 436  -278.6281
 437  -258.7802
 438  -246.8508
 439  -283.9023
 440  -203.4355
 441  65.1557
 442  211.8249
 443  194.485
 444  153.5805
 445  -58.64587
 446  -185.5906
 447  72.51037
 448  52.72824
 449  174.5184
 450  257.4836
 451  336.153
 452  322.5634
 453  181.6453
 454  133.4882
 455  75.7721
 456  -207.0545
 457  -66.62692
 458  51.65179
 459  183.7819
 460  169.605
 461  188.3369
 462  -75.26404
 463  61.78907
 464  19.89794
 465  -170.9945
 466  -116.1243
 467  -113.3055
 468  182.9854
 469  -108.2565
 470  -380.2382
 471  -82.68584
 472  -347.788
 473  -215.5848
 474  -338.8136
 475  -284.4061
 476  -90.099
 477  -180.4417
 478  26.69695
 479  10.29345
 480  -239.8651
 481  -250.0327
 482  -109.5878
 483  78.11903
 484  364.929
 485  326.9613
 486  95.52227
 487  -249.0193
 488  -178.8093
 489  -350.4951
 490  -134.8785
 491  -132.0141
 492  341.8608
 493  -134.188
 494  -183.4315
 495  41.76649
 496  43.41388
 497  220.4439
 498  96.06489
 499  121.3946
 500  144.649
 501  20.39561
 502  -125.4382
 503  78.45524
 504  116.054
 505  293.7681
 506  394.8428
 507  102.481
 508  153.0972
 509  -103.1347
 510  -83.73994
 511  -365.9759
