# Input file       =  1191036238.128165-PSRB0329-2ms-sampling-dd.dat
# Candidate        =  PSR_0332+5434
# Telescope        =  AR
# Epoch_topo       =  58029.141864909318
# Epoch_bary       =  N/A
# T_sample         =  0.002
# Data Folded      =  7340032
# Data Avg         =  -3.74830576163214e-10
# Data StdDev      =  6.75112107293444 
# Profile Bins     =  512
# Profile Avg      =  0.214517381872704
# Profile StdDev   =  808.332225009612 
# Reduced chi-sqr  =  0.712
# Prob(Noise)      <  1   (~0.0 sigma)
# P_topo (ms)      =  714.474142086926  +/- 0.000661
# P'_topo (s/s)    =  -0                +/- 3.49e-10
# P''_topo (s/s^2) =  0                 +/- 1.54e-13
# P_bary (ms)      =  N/A
# P'_bary (s/s)    =  N/A
# P''_bary (s/s^2) =  N/A
# P_orb (s)        =  N/A
# asin(i)/c (s)    =  N/A
# eccentricity     =  N/A
# w (rad)          =  N/A
# T_peri           =  N/A
######################################################
   0  -48.76609
   1  154.5771
   2  57.09127
   3  -55.96793
   4  -229.5563
   5  -180.4307
   6  -19.5619
   7  -150.1795
   8  14.42328
   9  635.3131
  10  155.3251
  11  109.0503
  12  126.0289
  13  -493.5493
  14  -641.8692
  15  -412.9742
  16  382.2457
  17  439.63
  18  311.4749
  19  -65.62535
  20  -430.1356
  21  -404.9865
  22  -337.2323
  23  302.1832
  24  751.9464
  25  1263.877
  26  1215.876
  27  1395.172
  28  1222.041
  29  894.3448
  30  705.3984
  31  926.4392
  32  697.3533
  33  158.3419
  34  220.0548
  35  40.17606
  36  206.4009
  37  890.5832
  38  927.774
  39  575.821
  40  60.31974
  41  505.0584
  42  290.1059
  43  330.5752
  44  935.7348
  45  860.3995
  46  491.8024
  47  328.3821
  48  564.7493
  49  690.1124
  50  425.3322
  51  637.1016
  52  669.2883
  53  154.8351
  54  370.0459
  55  828.5211
  56  651.4078
  57  -40.98261
  58  -165.4718
  59  368.8482
  60  113.3475
  61  -151.8415
  62  126.3438
  63  -95.68754
  64  604.0978
  65  177.1709
  66  -42.24958
  67  -173.9384
  68  47.64161
  69  272.8817
  70  -191.6897
  71  26.42077
  72  681.7961
  73  779.0182
  74  608.7164
  75  291.5232
  76  560.9633
  77  323.8328
  78  215.7726
  79  239.3401
  80  744.0316
  81  848.5284
  82  455.9918
  83  471.2396
  84  1031.424
  85  945.6652
  86  64.47502
  87  685.6693
  88  1215.694
  89  259.9519
  90  212.1608
  91  53.97353
  92  75.56519
  93  -179.6974
  94  307.1004
  95  339.5053
  96  -189.0517
  97  -196.6859
  98  74.29581
  99  -121.8298
 100  -344.3994
 101  -34.43122
 102  61.2128
 103  -367.6556
 104  -387.8228
 105  197.2798
 106  51.69912
 107  -348.8999
 108  -214.7764
 109  18.84909
 110  -216.8747
 111  -183.3003
 112  195.0874
 113  443.6119
 114  195.7879
 115  -104.5679
 116  -132.3578
 117  -197.5846
 118  -510.7913
 119  155.2039
 120  473.774
 121  116.899
 122  82.03357
 123  -31.79367
 124  1022.19
 125  594.9553
 126  387.2916
 127  227.6158
 128  283.5359
 129  622.23
 130  429.1118
 131  406.4691
 132  48.07475
 133  -282.0925
 134  -349.9011
 135  -599.8842
 136  -898.879
 137  -569.9167
 138  115.2033
 139  371.7614
 140  953.1573
 141  997.9816
 142  402.8342
 143  444.8323
 144  -103.8538
 145  -630.4053
 146  -617.0439
 147  500.0845
 148  1332.415
 149  932.6601
 150  1360.424
 151  1030.395
 152  260.0555
 153  191.5028
 154  1152.452
 155  1149.068
 156  801.6977
 157  1446.146
 158  855.6794
 159  572.5226
 160  853.2595
 161  922.37
 162  770.6694
 163  331.945
 164  778.4966
 165  659.4096
 166  1218.598
 167  1097.659
 168  675.2228
 169  439.8735
 170  556.3801
 171  -94.45338
 172  -433.4266
 173  493.9439
 174  322.036
 175  10.96157
 176  -115.4817
 177  -219.1713
 178  -350.3849
 179  -316.0115
 180  172.2919
 181  437.1141
 182  -407.4258
 183  -312.1009
 184  -399.7385
 185  84.6634
 186  -79.18546
 187  -395.9488
 188  -444.3971
 189  -951.6454
 190  -467.8199
 191  -33.24596
 192  294.8477
 193  544.0508
 194  220.3376
 195  142.0183
 196  -417.9343
 197  -206.4512
 198  -54.88077
 199  143.9797
 200  -41.24775
 201  -322.1042
 202  157.2098
 203  -40.89835
 204  -93.90258
 205  174.8941
 206  -32.73038
 207  -11.09997
 208  -769.5616
 209  -609.8098
 210  -169.5696
 211  -34.42733
 212  248.5701
 213  234.4705
 214  350.7543
 215  279.815
 216  -301.1231
 217  -171.9934
 218  -352.6578
 219  -621.1738
 220  319.3688
 221  363.5972
 222  -13.08646
 223  62.5757
 224  287.8572
 225  -69.54155
 226  -189.7744
 227  366.916
 228  178.8
 229  -269.0437
 230  -368.9053
 231  -278.3542
 232  -259.4616
 233  -127.6422
 234  67.209
 235  -384.2387
 236  -337.6574
 237  -259.1206
 238  -170.6875
 239  -262.7827
 240  12.99575
 241  407.7475
 242  402.7516
 243  -97.66299
 244  -135.7056
 245  -241.3487
 246  -1056.292
 247  -953.9611
 248  -484.4814
 249  -178.0089
 250  -151.3715
 251  -610.3561
 252  -720.9125
 253  -1011.776
 254  -981.7954
 255  -556.9589
 256  -408.6874
 257  -39.51687
 258  146.5411
 259  58.32795
 260  -119.8085
 261  -262.2444
 262  -489.0147
 263  107.5054
 264  252.6715
 265  106.5425
 266  -159.6634
 267  -176.1589
 268  -343.0502
 269  -492.4245
 270  -280.761
 271  224.2372
 272  139.004
 273  -114.7669
 274  -232.1436
 275  -492.126
 276  -900.8494
 277  -736.5784
 278  -474.7638
 279  25.39742
 280  859.8238
 281  797.0976
 282  -13.24217
 283  -771.8236
 284  -632.7
 285  -432.8295
 286  -393.8046
 287  -496.2309
 288  -755.8704
 289  -774.3416
 290  -993.6504
 291  -300.6086
 292  -67.51385
 293  -299.913
 294  133.3683
 295  -234.961
 296  -613.5682
 297  -631.7852
 298  -726.7836
 299  -377.0975
 300  -844.0198
 301  -753.763
 302  -922.1568
 303  -1001.761
 304  -861.9408
 305  -505.4662
 306  -338.2334
 307  -371.9775
 308  -606.9093
 309  -646.5989
 310  -314.5331
 311  -493.5053
 312  -729.569
 313  -533.8631
 314  -258.2069
 315  -598.0807
 316  -581.8591
 317  -226.8969
 318  -103.0376
 319  122.8636
 320  -107.1012
 321  86.01607
 322  -52.85552
 323  -640.603
 324  -507.1584
 325  -121.096
 326  -48.67499
 327  -276.9695
 328  -343.3646
 329  -271.7491
 330  -59.64332
 331  -254.7198
 332  -201.5862
 333  -233.7139
 334  4.142118
 335  31.57787
 336  -447.3426
 337  -341.0649
 338  -590.8515
 339  -10.87634
 340  5.983183
 341  -436.7577
 342  -338.5734
 343  -350.7542
 344  61.25829
 345  114.1573
 346  511.294
 347  91.87785
 348  -510.2056
 349  -876.4812
 350  -540.2612
 351  -80.90836
 352  -29.02176
 353  226.4787
 354  360.1758
 355  981.5075
 356  923.8914
 357  957.8162
 358  581.088
 359  -4.958241
 360  308.1998
 361  -65.81458
 362  653.042
 363  869.4545
 364  1347.337
 365  373.5399
 366  -599.8226
 367  -475.5206
 368  -336.8151
 369  -532.7838
 370  -121.9742
 371  260.0859
 372  194.1117
 373  14.89964
 374  20.68809
 375  -402.3392
 376  -633.2214
 377  -597.9561
 378  -551.1185
 379  -900.035
 380  -1020.452
 381  -622.9387
 382  -1081.333
 383  -1064.487
 384  -629.2755
 385  -187.7234
 386  -515.6641
 387  -769.0823
 388  -189.7578
 389  -253.464
 390  -491.942
 391  -516.6509
 392  0.7439231
 393  -253.0078
 394  -415.4785
 395  -341.3144
 396  -76.0739
 397  -139.3126
 398  -45.37674
 399  -77.09766
 400  -229.3824
 401  -72.46214
 402  -677.5634
 403  -343.269
 404  -558.0281
 405  -678.181
 406  20.29537
 407  -42.05067
 408  -22.12029
 409  5.4544
 410  -318.1057
 411  -416.4011
 412  -202.4411
 413  177.3259
 414  472.0573
 415  218.9757
 416  -326.5167
 417  -689.5726
 418  -981.124
 419  -514.9667
 420  118.2582
 421  371.4992
 422  180.1158
 423  -441.803
 424  -378.6789
 425  -222.0777
 426  -260.2606
 427  -173.4338
 428  229.1616
 429  -221.9893
 430  -74.52849
 431  -369.1289
 432  -532.7694
 433  -51.13483
 434  37.8764
 435  199.607
 436  -238.1891
 437  -408.7365
 438  -140.7103
 439  33.73999
 440  348.7906
 441  423.1283
 442  602.9482
 443  580.3535
 444  -53.68967
 445  442.1503
 446  449.0362
 447  -232.6542
 448  -427.4479
 449  -314.7473
 450  -401.2787
 451  -925.6621
 452  -1186.142
 453  -652.6522
 454  -708.1346
 455  -452.5079
 456  -243.2929
 457  -478.2821
 458  -861.3109
 459  -995.9583
 460  -322.0112
 461  179.938
 462  -310.6984
 463  -62.29237
 464  162.8554
 465  93.9301
 466  -37.0438
 467  269.2602
 468  365.6483
 469  64.0004
 470  328.7583
 471  299.7466
 472  437.8845
 473  175.2546
 474  -288.8248
 475  163.8929
 476  -294.7355
 477  293.1543
 478  304.9495
 479  293.7139
 480  477.4048
 481  1168.92
 482  707.4008
 483  -468.7066
 484  -402.7203
 485  20.47537
 486  -259.6219
 487  301.8144
 488  391.3971
 489  147.0997
 490  -241.7779
 491  -275.3351
 492  132.2847
 493  2.369336
 494  -328.5357
 495  -560.3097
 496  -48.46465
 497  729.7482
 498  255.6984
 499  -84.05754
 500  245.4336
 501  383.2128
 502  -18.79653
 503  -498.5952
 504  -266.7165
 505  -220.5
 506  488.1456
 507  347.5547
 508  310.5762
 509  482.6851
 510  503.5701
 511  568.4272
