# Input file       =  1191538293.107866-PSRB0329-2ms-sampling-dd.dat
# Candidate        =  PSR_0332+5434
# Telescope        =  AR
# Epoch_topo       =  58034.952686433637
# Epoch_bary       =  N/A
# T_sample         =  0.002
# Data Folded      =  7340032
# Data Avg         =  -2.96438283764457e-11
# Data StdDev      =  3.18035139312757 
# Profile Bins     =  512
# Profile Avg      =  0.382998131843028
# Profile StdDev   =  380.793129044242 
# Reduced chi-sqr  =  1.019
# Prob(Noise)      <  0.372   (~0.3 sigma)
# P_topo (ms)      =  714.477362265194  +/- 0.000391
# P'_topo (s/s)    =  -0                +/- 2.06e-10
# P''_topo (s/s^2) =  0                 +/- 9.12e-14
# P_bary (ms)      =  N/A
# P'_bary (s/s)    =  N/A
# P''_bary (s/s^2) =  N/A
# P_orb (s)        =  N/A
# asin(i)/c (s)    =  N/A
# eccentricity     =  N/A
# w (rad)          =  N/A
# T_peri           =  N/A
######################################################
   0  67.88663
   1  256.2412
   2  122.4811
   3  -115.4709
   4  -15.45662
   5  182.8773
   6  -33.16911
   7  -187.1671
   8  -262.6268
   9  -240.8163
  10  -72.85059
  11  131.7439
  12  28.19342
  13  -252.2854
  14  -151.8884
  15  -213.5875
  16  -25.08268
  17  -170.5059
  18  -241.0282
  19  34.6963
  20  -8.851544
  21  -269.309
  22  -393.369
  23  -53.0878
  24  96.50591
  25  -25.00745
  26  44.80343
  27  -103.8926
  28  166.5092
  29  328.6531
  30  -45.34689
  31  -70.92951
  32  3.614464
  33  -404.1268
  34  -483.1261
  35  -223.4952
  36  -176.5429
  37  -329.0558
  38  -402.0981
  39  88.56352
  40  -3.976288
  41  -203.7955
  42  102.6361
  43  375.7227
  44  -12.19214
  45  -409.5781
  46  -134.2147
  47  12.97045
  48  -105.2035
  49  30.48322
  50  238.7375
  51  254.318
  52  96.14722
  53  -148.9882
  54  -125.562
  55  -66.3684
  56  219.1447
  57  194.1654
  58  -76.96884
  59  -388.3243
  60  -321.2167
  61  -275.7655
  62  14.76173
  63  437.8096
  64  456.0436
  65  360.9149
  66  666.884
  67  1465.635
  68  1946.29
  69  2026.299
  70  2077.132
  71  1507.399
  72  697.7897
  73  584.8657
  74  241.534
  75  40.85948
  76  -181.679
  77  -81.79372
  78  53.72574
  79  110.1302
  80  44.53306
  81  56.85866
  82  -163.2605
  83  -139.1607
  84  -127.1754
  85  -72.89391
  86  229.7502
  87  124.8759
  88  -144.8692
  89  -181.5847
  90  -21.15486
  91  -422.0344
  92  -385.7846
  93  -376.1585
  94  -177.4905
  95  -185.7659
  96  -178.8986
  97  -107.3337
  98  -31.56647
  99  -173.2829
 100  147.8123
 101  140.3479
 102  -15.82715
 103  -185.5795
 104  18.52392
 105  -111.8906
 106  -449.6703
 107  -389.9189
 108  -130.5066
 109  -181.2465
 110  -230.4772
 111  -25.22662
 112  -31.87085
 113  -412.4728
 114  -288.9542
 115  -1.713484
 116  -50.11922
 117  -404.9804
 118  -283.6865
 119  256.0542
 120  170.9329
 121  -232.467
 122  -55.40111
 123  -75.14167
 124  -314.3322
 125  -183.3806
 126  -136.5081
 127  -50.43407
 128  -318.9921
 129  -75.57953
 130  78.76105
 131  -37.10836
 132  76.09882
 133  234.9859
 134  168.9744
 135  69.35995
 136  149.7725
 137  129.6833
 138  207.6667
 139  282.2973
 140  32.84019
 141  144.7912
 142  221.9438
 143  171.9568
 144  -59.85761
 145  74.82019
 146  -11.52874
 147  -156.6616
 148  -268.408
 149  -330.0976
 150  -106.7599
 151  192.482
 152  331.28
 153  477.0982
 154  -25.76912
 155  -275.1714
 156  -50.92863
 157  209.3185
 158  7.485796
 159  209.8038
 160  278.6786
 161  -199.9536
 162  -307.8658
 163  -53.25962
 164  22.4239
 165  -175.1357
 166  -161.4301
 167  -309.2634
 168  -46.69289
 169  19.62465
 170  -113.1518
 171  110.9336
 172  179.2093
 173  -78.09596
 174  -325.6717
 175  -341.395
 176  -246.3623
 177  -187.9009
 178  -234.3686
 179  -221.5955
 180  189.454
 181  391.5753
 182  340.9309
 183  178.0399
 184  -107.2442
 185  -131.6977
 186  92.10529
 187  242.8203
 188  166.3882
 189  27.00343
 190  116.1722
 191  -81.01864
 192  -340.4434
 193  -230.9786
 194  -57.4555
 195  266.6431
 196  319.3115
 197  -180.1387
 198  -326.1072
 199  -469.308
 200  -394.4259
 201  36.85421
 202  129.7174
 203  181.8346
 204  420.4957
 205  268.5121
 206  191.7
 207  244.5243
 208  164.1409
 209  125.5774
 210  238.0892
 211  183.7268
 212  334.4371
 213  296.3941
 214  265.2216
 215  196.4037
 216  426.4387
 217  578.555
 218  222.8442
 219  -128.0396
 220  -201.7681
 221  -165.8069
 222  110.982
 223  131.8633
 224  123.7085
 225  -38.08046
 226  -82.88731
 227  232.4246
 228  -32.05013
 229  -62.73637
 230  -140.501
 231  -149.1248
 232  127.9765
 233  210.4018
 234  -49.89675
 235  -43.92812
 236  -248.9053
 237  -119.7468
 238  -88.15496
 239  95.04456
 240  36.82545
 241  63.58768
 242  39.49065
 243  -120.3976
 244  114.4803
 245  268.5201
 246  -79.45387
 247  91.25169
 248  282.716
 249  311.9286
 250  227.8143
 251  91.45271
 252  116.0547
 253  -15.49788
 254  304.3794
 255  -6.259217
 256  -135.5515
 257  -65.60595
 258  -36.53926
 259  167.8137
 260  277.1334
 261  93.70802
 262  118.1611
 263  209.4254
 264  205.0727
 265  89.50027
 266  255.4924
 267  169.1544
 268  -147.5647
 269  32.56546
 270  134.7797
 271  197.9427
 272  24.11787
 273  -168.4041
 274  -19.40652
 275  216.1799
 276  -89.67075
 277  84.12123
 278  -179.5151
 279  -232.1884
 280  -212.7393
 281  80.02343
 282  200.3112
 283  196.7303
 284  144.0428
 285  -101.1953
 286  62.31843
 287  152.3325
 288  415.4786
 289  411.9999
 290  11.04935
 291  43.08667
 292  -209.3834
 293  51.61583
 294  209.784
 295  227.1562
 296  314.3431
 297  214.0918
 298  125.2406
 299  -57.09714
 300  -438.7703
 301  -490.9666
 302  -16.9789
 303  180.9231
 304  355.7438
 305  570.521
 306  95.77817
 307  -112.8143
 308  -90.64527
 309  -142.9232
 310  97.79842
 311  318.0018
 312  64.84251
 313  23.8612
 314  -76.83206
 315  -281.7509
 316  169.5266
 317  17.34263
 318  23.76414
 319  7.254915
 320  86.89812
 321  121.5602
 322  26.00848
 323  105.2349
 324  -111.5051
 325  -260.9935
 326  -253.3733
 327  -56.84782
 328  82.84853
 329  484.8077
 330  290.0998
 331  215.6448
 332  132.3862
 333  109.9594
 334  79.64945
 335  -134.1557
 336  -26.81829
 337  159.5337
 338  -148.8615
 339  -245.9321
 340  -30.48141
 341  -122.8207
 342  -213.1104
 343  -54.83321
 344  -1.841608
 345  237.3196
 346  170.2946
 347  619.3714
 348  106.8281
 349  -75.24409
 350  40.17678
 351  70.97671
 352  -10.24554
 353  102.0362
 354  174.5599
 355  185.9676
 356  293.8529
 357  142.1209
 358  -71.78311
 359  49.55291
 360  5.960142
 361  -273.2368
 362  14.75495
 363  -58.59214
 364  -285.0955
 365  -453.8402
 366  -265.9716
 367  -186.4073
 368  13.16453
 369  -171.6576
 370  -103.8551
 371  -140.1647
 372  -377.6943
 373  -292.4286
 374  191.2952
 375  209.0149
 376  199.6706
 377  354.2966
 378  -1.714244
 379  -268.4101
 380  -171.7402
 381  -314.9849
 382  -316.2924
 383  -177.1306
 384  -89.40742
 385  -185.6909
 386  -9.337233
 387  428.3705
 388  87.40829
 389  -266.5142
 390  -381.5916
 391  -219.164
 392  100.1814
 393  316.633
 394  68.34839
 395  -49.14529
 396  155.9642
 397  -193.4927
 398  -385.8968
 399  132.0563
 400  -107.7229
 401  -251.8388
 402  -226.0117
 403  -32.97747
 404  -210.8031
 405  -277.1541
 406  -130.129
 407  54.21708
 408  -188.8212
 409  -117.1626
 410  69.21209
 411  161.623
 412  143.0765
 413  17.28876
 414  -365.2024
 415  -430.4756
 416  -150.9216
 417  -331.3709
 418  -174.6457
 419  -325.8216
 420  -181.6947
 421  -7.972814
 422  -181.7137
 423  -594.6263
 424  -550.1295
 425  34.70882
 426  120.7334
 427  -166.4553
 428  -406.8991
 429  -278.9636
 430  -317.5063
 431  -21.55953
 432  69.50337
 433  -120.3739
 434  -54.05167
 435  -94.10695
 436  -136.904
 437  -132.4518
 438  106.5529
 439  -186.3149
 440  -102.2545
 441  -181.7705
 442  -159.9832
 443  33.75293
 444  138.0705
 445  -111.0999
 446  48.06124
 447  -125.3271
 448  -256.1327
 449  -282.3781
 450  5.012971
 451  178.1193
 452  104.0885
 453  -179.1797
 454  -324.1108
 455  -261.4466
 456  -378.3512
 457  -207.5782
 458  -444.897
 459  -246.7973
 460  145.0754
 461  70.07565
 462  92.08983
 463  -81.92865
 464  -174.9167
 465  -6.505998
 466  225.7431
 467  270.9324
 468  -182.3819
 469  9.445051
 470  67.69396
 471  154.977
 472  172.0011
 473  38.57517
 474  96.65347
 475  -14.30819
 476  67.35278
 477  -141.1808
 478  185.9068
 479  217.7119
 480  -110.668
 481  -113.5969
 482  18.93182
 483  -341.113
 484  -55.62753
 485  -77.89981
 486  -6.799697
 487  4.080704
 488  104.3701
 489  -55.12619
 490  -201.3028
 491  -144.3848
 492  -289.5777
 493  -295.6278
 494  70.62066
 495  -74.04037
 496  -350.8034
 497  -18.41144
 498  216.2228
 499  140.4324
 500  41.34096
 501  -196.8039
 502  -278.9404
 503  -193.4638
 504  -121.7621
 505  -72.92522
 506  -147.969
 507  277.4081
 508  402.8517
 509  15.12063
 510  -184.8251
 511  -313.5333
