# Input file       =  1191553201.113077-PSRB0329-2ms-sampling-dd.dat
# Candidate        =  PSR_0332+5434
# Telescope        =  AR
# Epoch_topo       =  58035.125232790240
# Epoch_bary       =  N/A
# T_sample         =  0.002
# Data Folded      =  7340032
# Data Avg         =  -8.85374824878643e-10
# Data StdDev      =  5.18440674940004 
# Profile Bins     =  512
# Profile Avg      =  -0.218874436158119
# Profile StdDev   =  620.744761917867 
# Reduced chi-sqr  =  0.740
# Prob(Noise)      <  1   (~0.0 sigma)
# P_topo (ms)      =  714.477809398649  +/- 0.0022
# P'_topo (s/s)    =  -0                +/- 1.16e-09
# P''_topo (s/s^2) =  0                 +/- 5.12e-13
# P_bary (ms)      =  N/A
# P'_bary (s/s)    =  N/A
# P''_bary (s/s^2) =  N/A
# P_orb (s)        =  N/A
# asin(i)/c (s)    =  N/A
# eccentricity     =  N/A
# w (rad)          =  N/A
# T_peri           =  N/A
######################################################
   0  -660.6227
   1  -816.494
   2  -404.0805
   3  -263.9102
   4  -297.8234
   5  -605.4482
   6  -323.5645
   7  -199.232
   8  -373.832
   9  -283.6694
  10  -687.8087
  11  -391.8524
  12  -275.1393
  13  124.0303
  14  189.433
  15  -285.6647
  16  -433.1098
  17  -821.7427
  18  -55.1876
  19  -356.0049
  20  -52.18143
  21  -98.16988
  22  282.0184
  23  152.8662
  24  -258.8942
  25  -156.9072
  26  -694.2127
  27  -491.4974
  28  125.9081
  29  479.197
  30  341.6429
  31  377.2909
  32  -294.5146
  33  -186.8151
  34  -30.83676
  35  278.257
  36  113.7735
  37  -5.124471
  38  362.4837
  39  681.8779
  40  1063.076
  41  351.8065
  42  296.3669
  43  601.5516
  44  298.2322
  45  255.1345
  46  311.4439
  47  438.9296
  48  124.0493
  49  -331.9113
  50  37.82234
  51  -46.87852
  52  -49.43967
  53  238.8429
  54  346.8413
  55  506.6538
  56  319.2829
  57  -144.2602
  58  -41.04915
  59  183.7553
  60  367.8632
  61  154.3687
  62  523.3429
  63  505.2392
  64  420.4527
  65  318.3367
  66  194.5457
  67  838.3481
  68  204.9224
  69  -181.8592
  70  -48.73833
  71  245.0179
  72  176.8742
  73  133.4764
  74  491.6801
  75  579.168
  76  469.8965
  77  747.9714
  78  416.6558
  79  -71.70919
  80  69.009
  81  -55.95256
  82  -73.82873
  83  -182.6809
  84  118.473
  85  332.7568
  86  -130.5113
  87  -221.969
  88  192.8176
  89  310.6276
  90  5.820282
  91  103.6461
  92  551.8045
  93  281.8021
  94  440.7994
  95  139.4805
  96  -268.3473
  97  -315.6165
  98  -112.0016
  99  61.94889
 100  275.3754
 101  506.9439
 102  616.704
 103  406.1639
 104  342.0131
 105  328.2681
 106  260.1319
 107  189.6763
 108  -90.13622
 109  399.7336
 110  154.4595
 111  21.02903
 112  159.604
 113  145.5255
 114  344.7901
 115  62.37657
 116  -74.21713
 117  -6.696733
 118  163.8865
 119  191.0244
 120  -281.1178
 121  -543.4168
 122  -94.17957
 123  -57.85494
 124  -118.3057
 125  -171.7745
 126  -229.0914
 127  -102.941
 128  -338.5685
 129  139.1848
 130  376.1061
 131  94.18173
 132  -400.9104
 133  -466.5326
 134  -182.4835
 135  -151.274
 136  -113.5377
 137  75.90627
 138  25.78656
 139  201.1864
 140  168.7565
 141  307.2796
 142  456.8283
 143  268.4291
 144  202.6992
 145  -88.79754
 146  -174.1203
 147  -69.84786
 148  -163.4274
 149  123.1712
 150  -5.380736
 151  -295.188
 152  -262.0627
 153  -305.4399
 154  -446.9679
 155  -580.5317
 156  -433.5551
 157  -170.1334
 158  -434.5255
 159  -395.8586
 160  -268.6005
 161  -289.3611
 162  -75.42614
 163  21.03246
 164  154.7928
 165  -62.71147
 166  424.5876
 167  216.8664
 168  -129.7933
 169  -469.7867
 170  -2.49347
 171  420.4516
 172  522.2934
 173  305.2697
 174  32.99755
 175  -209.6772
 176  -154.4983
 177  313.6809
 178  525.7275
 179  -26.63898
 180  -551.1063
 181  -238.2607
 182  -232.3105
 183  151.2845
 184  402.0541
 185  885.9731
 186  358.5949
 187  -392.644
 188  -297.9874
 189  -135.4135
 190  -183.1545
 191  -93.51524
 192  140.362
 193  164.7046
 194  -230.9587
 195  -42.12712
 196  -359.797
 197  -524.8356
 198  32.65347
 199  153.4262
 200  296.0759
 201  -121.3938
 202  -291.5212
 203  50.22586
 204  309.2483
 205  437.628
 206  111.2747
 207  216.6924
 208  213.5157
 209  8.750698
 210  451.8548
 211  131.2858
 212  -35.85465
 213  -81.77586
 214  365.4096
 215  300.2834
 216  234.6351
 217  272.6818
 218  650.9182
 219  457.6785
 220  -55.40763
 221  186.13
 222  572.1201
 223  738.2245
 224  113.9449
 225  578.4576
 226  602.0113
 227  709.5119
 228  282.325
 229  486.5074
 230  154.0503
 231  -187.8648
 232  -55.82553
 233  -50.65998
 234  65.08828
 235  -146.097
 236  -620.4851
 237  -436.2454
 238  -259.2781
 239  -268.4247
 240  -138.5801
 241  -184.0321
 242  92.26934
 243  36.78103
 244  -42.71645
 245  -80.73272
 246  -77.91307
 247  503.2073
 248  722.769
 249  812.1273
 250  1106.782
 251  760.9363
 252  205.8741
 253  256.4822
 254  303.4252
 255  216.274
 256  375.7266
 257  829.1215
 258  837.2769
 259  790.5692
 260  339.6212
 261  29.28523
 262  -107.2385
 263  -303.6175
 264  98.28316
 265  552.5967
 266  297.9702
 267  197.3813
 268  216.9568
 269  589.7236
 270  964.1743
 271  1233.059
 272  2049.986
 273  1649.259
 274  1265.962
 275  603.0989
 276  -270.4283
 277  -117.0915
 278  -60.03818
 279  -205.9701
 280  -199.1029
 281  240.2972
 282  453.348
 283  287.1369
 284  571.6935
 285  379.3708
 286  572.2197
 287  517.9545
 288  581.2084
 289  1149.062
 290  649.0588
 291  741.5886
 292  807.6197
 293  593.9214
 294  76.59924
 295  129.9549
 296  462.9502
 297  97.98253
 298  -244.6008
 299  72.49003
 300  240.0514
 301  98.12714
 302  70.67042
 303  45.09992
 304  -360.3481
 305  -609.7122
 306  126.1889
 307  255.4878
 308  0.6729969
 309  17.39325
 310  -34.26239
 311  -31.88672
 312  -493.3763
 313  -133.9133
 314  66.69101
 315  -169.3141
 316  119.1656
 317  -2.742072
 318  -332.2431
 319  -349.3365
 320  214.9025
 321  -123.3926
 322  -95.6116
 323  67.32026
 324  78.25831
 325  364.1445
 326  77.17224
 327  -219.7807
 328  -304.5081
 329  184.9359
 330  284.0675
 331  559.1897
 332  184.2673
 333  73.67643
 334  34.6489
 335  -264.8981
 336  -223.0148
 337  -152.3696
 338  -343.1828
 339  120.8732
 340  -194.5921
 341  -432.9595
 342  -236.6949
 343  -298.3404
 344  102.5984
 345  45.26578
 346  -360.0883
 347  -248.5823
 348  -54.26817
 349  263.9311
 350  121.292
 351  659.1786
 352  173.757
 353  -162.5722
 354  14.62609
 355  -216.0235
 356  -187.6321
 357  193.4021
 358  18.53438
 359  -355.6044
 360  -322.6857
 361  -110.6618
 362  29.07066
 363  490.5455
 364  357.7252
 365  362.8654
 366  -92.43509
 367  -290.196
 368  -472.7938
 369  -8.838289
 370  -25.9741
 371  -84.49507
 372  207.4397
 373  305.2236
 374  182.7215
 375  -59.2893
 376  -341.7314
 377  -206.8766
 378  -262.2763
 379  -612.2707
 380  -214.3315
 381  -20.94721
 382  -224.7826
 383  -21.40205
 384  349.6729
 385  161.2979
 386  201.6862
 387  -48.92021
 388  -424.1318
 389  -113.4661
 390  175.999
 391  387.4269
 392  291.3708
 393  -57.46671
 394  -235.2638
 395  -323.7711
 396  -371.4681
 397  -455.5712
 398  46.29345
 399  -107.759
 400  -313.2811
 401  -394.9264
 402  -593.4315
 403  -1056.2
 404  -575.623
 405  -73.95207
 406  -397.7984
 407  -504.2756
 408  -372.9968
 409  -405.647
 410  -477.2234
 411  -612.609
 412  -595.2255
 413  -430.5377
 414  -62.84843
 415  22.33309
 416  374.1254
 417  280.5332
 418  -133.0018
 419  -294.3258
 420  -140.0104
 421  -0.1966619
 422  213.3819
 423  306.4124
 424  -16.02343
 425  -376.3318
 426  -318.4775
 427  -314.9388
 428  -250.4237
 429  -333.7523
 430  -372.1856
 431  -214.36
 432  -266.6973
 433  -503.5509
 434  -358.3825
 435  -450.8851
 436  -603.9799
 437  -686.2988
 438  -461.918
 439  -371.2677
 440  -509.7672
 441  -460.8212
 442  -362.2289
 443  -210.499
 444  -128.8983
 445  -394.2921
 446  -362.3778
 447  43.88159
 448  -368.3694
 449  -245.0278
 450  -535.9113
 451  -315.8786
 452  -242.2639
 453  70.13649
 454  172.8222
 455  -488.6742
 456  -164.9102
 457  -589.4492
 458  -503.8842
 459  -222.2016
 460  -254.5889
 461  -67.55895
 462  -219.0862
 463  51.7903
 464  -132.3986
 465  460.0724
 466  441.1741
 467  290.0397
 468  -76.63995
 469  -593.63
 470  -647.5511
 471  -536.06
 472  45.55649
 473  392.0849
 474  315.8179
 475  156.1687
 476  145.4661
 477  -488.5913
 478  -683.5211
 479  -284.7194
 480  -172.3428
 481  -70.76099
 482  -91.07116
 483  -517.485
 484  -511.9099
 485  -677.3823
 486  -519.9391
 487  -508.2007
 488  36.31583
 489  -238.0475
 490  -208.4601
 491  -204.86
 492  -69.20219
 493  -203.7893
 494  -498.7786
 495  -764.3188
 496  -617.6977
 497  -795.5336
 498  -746.0025
 499  -531.2915
 500  -201.3005
 501  -501.1671
 502  -563.6282
 503  -668.3072
 504  -713.0323
 505  -587.3889
 506  -300.5203
 507  -265.8129
 508  -258.5605
 509  -394.9175
 510  -300.6908
 511  -615.9565
