# Input file       =  1191954469.124143_cleaned.dat
# Candidate        =  PSR_0332+5434
# Telescope        =  AR
# Epoch_topo       =  58039.769538473876
# Epoch_bary       =  N/A
# T_sample         =  0.002
# Data Folded      =  7208960
# Data Avg         =  0.0169293766164885
# Data StdDev      =  1.00003345408402 
# Profile Bins     =  512
# Profile Avg      =  238.319869228411 
# Profile StdDev   =  118.663145427568 
# Reduced chi-sqr  =  2.091
# Prob(Noise)      <  1.4e-41   (~13.5 sigma)
# P_topo (ms)      =  714.480638536522  +/- 0.000159
# P'_topo (s/s)    =  -0                +/- 8.55e-11
# P''_topo (s/s^2) =  0                 +/- 3.84e-14
# P_bary (ms)      =  N/A
# P'_bary (s/s)    =  N/A
# P''_bary (s/s^2) =  N/A
# P_orb (s)        =  N/A
# asin(i)/c (s)    =  N/A
# eccentricity     =  N/A
# w (rad)          =  N/A
# T_peri           =  N/A
######################################################
   0  263.8743
   1  151.1841
   2  263.4923
   3  299.6573
   4  215.6626
   5  213.3631
   6  327.3471
   7  214.6462
   8  116.9082
   9  118.8999
  10  257.0186
  11  371.267
  12  401.5949
  13  360.2999
  14  275.9703
  15  149.0368
  16  234.0718
  17  235.8965
  18  272.6909
  19  127.3327
  20  80.29532
  21  170.6319
  22  258.3167
  23  219.9478
  24  268.7451
  25  179.7283
  26  144.2886
  27  274.972
  28  332.5799
  29  275.1404
  30  270.8091
  31  357.1513
  32  281.7097
  33  235.7869
  34  400.6427
  35  229.243
  36  91.81908
  37  217.9177
  38  171.2791
  39  111.854
  40  120.6326
  41  151.2999
  42  150.8489
  43  116.2962
  44  156.1558
  45  237.6769
  46  150.7414
  47  262.1183
  48  333.9175
  49  239.1419
  50  120.4798
  51  195.6181
  52  147.2975
  53  90.60043
  54  182.7952
  55  178.6968
  56  235.3337
  57  263.7369
  58  220.9017
  59  147.8172
  60  45.80384
  61  181.0583
  62  128.041
  63  89.79623
  64  142.9528
  65  210.848
  66  266.6466
  67  283.1661
  68  207.5272
  69  192.0986
  70  238.4948
  71  244.328
  72  224.1445
  73  260.9202
  74  198.1468
  75  90.5457
  76  142.6334
  77  224.9974
  78  258.2869
  79  263.0305
  80  82.82185
  81  196.528
  82  291.5193
  83  243.917
  84  183.4591
  85  208.369
  86  190.6634
  87  148.025
  88  140.6713
  89  183.7457
  90  281.0977
  91  243.8915
  92  201.5815
  93  125.3586
  94  63.63633
  95  57.74765
  96  184.0896
  97  214.1416
  98  267.6334
  99  206.4438
 100  356.4344
 101  313.3003
 102  295.1918
 103  335.0085
 104  309.2536
 105  239.4066
 106  245.5121
 107  182.7726
 108  170.418
 109  245.2034
 110  294.3072
 111  154.4586
 112  231.6781
 113  180.2171
 114  187.3833
 115  153.7957
 116  118.9344
 117  114.827
 118  169.0491
 119  150.179
 120  233.0997
 121  132.3235
 122  126.2745
 123  139.8347
 124  233.387
 125  268.3167
 126  209.2774
 127  197.3631
 128  316.9205
 129  225.5569
 130  192.2519
 131  263.596
 132  227.2277
 133  310.67
 134  349.2802
 135  360.2415
 136  267.1437
 137  157.5372
 138  188.1273
 139  376.9592
 140  254.3934
 141  178.7318
 142  96.34912
 143  276.9253
 144  306.8453
 145  363.9709
 146  245.6371
 147  246.5656
 148  316.6228
 149  370.9042
 150  213.2431
 151  177.7041
 152  324.711
 153  237.8389
 154  212.8665
 155  236.3776
 156  152.5558
 157  264.6757
 158  380.6061
 159  310.221
 160  316.9066
 161  201.3997
 162  175.3193
 163  189.6156
 164  261.5563
 165  173.1547
 166  134.8643
 167  152.9136
 168  218.0637
 169  348.1927
 170  252.3789
 171  220.4594
 172  132.1644
 173  159.419
 174  233.0092
 175  238.4483
 176  352.5369
 177  255.3744
 178  159.3663
 179  216.6308
 180  156.3624
 181  73.00224
 182  184.7436
 183  263.3914
 184  217.5457
 185  183.6387
 186  265.354
 187  289.6682
 188  248.3524
 189  208.7296
 190  216.1368
 191  129.0004
 192  188.8243
 193  171.8523
 194  111.9413
 195  138.6021
 196  224.0351
 197  132.1053
 198  119.7494
 199  125.5752
 200  120.2252
 201  215.9221
 202  272.574
 203  303.6857
 204  269.1532
 205  255.5883
 206  310.0632
 207  331.416
 208  222.133
 209  125.5463
 210  198.0278
 211  238.173
 212  363.2852
 213  404.8282
 214  188.9093
 215  237.871
 216  109.497
 217  188.2265
 218  168.7665
 219  206.588
 220  374.0544
 221  358.3898
 222  217.2124
 223  -7.147777
 224  -21.4461
 225  118.3773
 226  86.85332
 227  176.5774
 228  231.7444
 229  130.9739
 230  251.8568
 231  198.0534
 232  147.5921
 233  133.063
 234  191.5991
 235  96.59792
 236  226.2311
 237  238.0796
 238  229.0575
 239  242.0308
 240  187.2161
 241  287.0818
 242  203.4286
 243  144.9705
 244  217.27
 245  262.0764
 246  252.9905
 247  117.6848
 248  260.6603
 249  396.7967
 250  266.7706
 251  201.543
 252  128.4069
 253  272.8695
 254  335.1916
 255  399.3762
 256  304.7461
 257  198.2799
 258  218.5162
 259  168.7606
 260  229.4044
 261  297.614
 262  387.1883
 263  316.8675
 264  184.3503
 265  271.0907
 266  257.2617
 267  271.3384
 268  214.9295
 269  222.5671
 270  317.5157
 271  247.1802
 272  193.6155
 273  234.4409
 274  243.3704
 275  269.9154
 276  248.5438
 277  254.797
 278  331.2123
 279  264.8572
 280  263.4404
 281  167.6632
 282  168.9873
 283  284.0274
 284  187.7482
 285  298.968
 286  461.1211
 287  440.9521
 288  340.4932
 289  424.5031
 290  570.0707
 291  696.5945
 292  1014.134
 293  1193.632
 294  1386.437
 295  1177.515
 296  943.5317
 297  686.8467
 298  402.7549
 299  350.583
 300  373.4403
 301  256.4626
 302  234.1917
 303  340.2238
 304  383.1653
 305  334.4767
 306  335.0888
 307  375.6695
 308  450.4785
 309  360.6497
 310  410.0517
 311  413.2029
 312  324.6168
 313  256.7525
 314  269.8965
 315  167.9671
 316  236.1385
 317  277.5382
 318  222.5337
 319  198.8679
 320  105.8332
 321  251.5952
 322  301.2281
 323  242.2361
 324  77.33518
 325  205.1765
 326  256.9873
 327  350.9183
 328  279.6725
 329  183.9846
 330  271.9858
 331  145.0477
 332  149.2954
 333  112.9617
 334  120.7699
 335  288.7355
 336  210.406
 337  147.6035
 338  131.2558
 339  153.869
 340  103.7371
 341  70.67511
 342  247.6769
 343  211.2954
 344  172.8972
 345  193.568
 346  269.3347
 347  262.6176
 348  269.3603
 349  257.6373
 350  222.6359
 351  144.4368
 352  229.7517
 353  244.674
 354  202.8038
 355  180.3066
 356  232.021
 357  145.4778
 358  148.5277
 359  139.7814
 360  218.0232
 361  195.3073
 362  200.9595
 363  270.3755
 364  221.5744
 365  384.557
 366  335.2084
 367  182.1202
 368  309.3721
 369  293.4998
 370  216.5693
 371  191.5251
 372  93.87486
 373  186.9531
 374  296.5537
 375  388.3174
 376  163.4981
 377  171.0932
 378  38.87075
 379  97.00408
 380  112.1148
 381  66.56181
 382  107.6673
 383  199.8814
 384  239.0166
 385  252.9415
 386  153.906
 387  263.4971
 388  185.0289
 389  226.1027
 390  124.9062
 391  221.9215
 392  232.5126
 393  166.9324
 394  201.0431
 395  202.6376
 396  271.7338
 397  349.4152
 398  346.8917
 399  179.7851
 400  46.0969
 401  281.9116
 402  284.1875
 403  238.4726
 404  204.0521
 405  232.5544
 406  234.7231
 407  283.5411
 408  260.1536
 409  204.8965
 410  252.7914
 411  187.6413
 412  311.11
 413  174.4726
 414  266.8389
 415  359.2214
 416  353.7393
 417  268.5507
 418  262.7578
 419  139.8403
 420  237.8138
 421  310.2398
 422  226.5285
 423  137.8967
 424  115.4818
 425  283.9688
 426  303.9824
 427  198.9669
 428  332.8454
 429  244.9274
 430  168.67
 431  233.0078
 432  345.8069
 433  257.286
 434  288.6714
 435  312.7266
 436  148.1237
 437  196.2077
 438  196.509
 439  203.4868
 440  162.5876
 441  222.7861
 442  288.8382
 443  279.0446
 444  319.9719
 445  287.8785
 446  351.3842
 447  204.8955
 448  147.0746
 449  164.2988
 450  279.5915
 451  324.7969
 452  349.9485
 453  326.4965
 454  168.8505
 455  224.6414
 456  274.743
 457  227.7575
 458  281.1368
 459  203.2751
 460  195.3524
 461  55.71889
 462  81.50794
 463  254.2394
 464  265.2406
 465  196.1335
 466  248.928
 467  219.348
 468  222.2885
 469  149.3169
 470  181.6088
 471  231.9716
 472  165.429
 473  191.0566
 474  283.6475
 475  239.0284
 476  224.3788
 477  231.4145
 478  160.5007
 479  269.5079
 480  254.7262
 481  321.8903
 482  243.5279
 483  223.2157
 484  281.6475
 485  334.8042
 486  191.2009
 487  203.6328
 488  167.2201
 489  182.5697
 490  243.5781
 491  368.8405
 492  340.8484
 493  297.4287
 494  211.468
 495  104.0857
 496  96.34064
 497  275.7005
 498  266.3625
 499  154.0405
 500  226.6971
 501  254.2097
 502  242.3591
 503  359.0074
 504  338.2474
 505  231.2957
 506  196.5121
 507  167.8697
 508  94.3811
 509  185.2235
 510  236.4336
 511  182.042
