# Input file       =  1191036238.128165_cleaned.dat
# Candidate        =  PSR_0332+5434
# Telescope        =  AR
# Epoch_topo       =  58029.141864909318
# Epoch_bary       =  N/A
# T_sample         =  0.002
# Data Folded      =  7340032
# Data Avg         =  0.00901559637998265
# Data StdDev      =  1.00007359588621 
# Profile Bins     =  512
# Profile Avg      =  129.310873953248 
# Profile StdDev   =  119.741848235687 
# Reduced chi-sqr  =  1.296
# Prob(Noise)      <  6.89e-06   (~4.3 sigma)
# P_topo (ms)      =  714.474142086926  +/- 0.000173
# P'_topo (s/s)    =  -0                +/- 9.15e-11
# P''_topo (s/s^2) =  0                 +/- 4.04e-14
# P_bary (ms)      =  N/A
# P'_bary (s/s)    =  N/A
# P''_bary (s/s^2) =  N/A
# P_orb (s)        =  N/A
# asin(i)/c (s)    =  N/A
# eccentricity     =  N/A
# w (rad)          =  N/A
# T_peri           =  N/A
######################################################
   0  114.5022
   1  85.35075
   2  70.70531
   3  70.18452
   4  13.97019
   5  -1.861749
   6  158.1145
   7  165.1232
   8  146.9309
   9  114.0213
  10  75.41653
  11  59.20464
  12  64.08481
  13  32.5577
  14  36.69272
  15  6.324818
  16  71.91034
  17  195.393
  18  138.5635
  19  53.55901
  20  94.91724
  21  183.3549
  22  174.9489
  23  235.4863
  24  386.8869
  25  421.5737
  26  469.6752
  27  661.2399
  28  689.6886
  29  562.5934
  30  428.462
  31  406.6948
  32  279.3279
  33  177.8401
  34  176.2358
  35  140.5764
  36  203.3738
  37  394.3401
  38  394.6046
  39  232.1142
  40  139.0484
  41  141.0875
  42  116.3576
  43  110.47
  44  239.5394
  45  236.3763
  46  128.9381
  47  124.2863
  48  183.5249
  49  237.0872
  50  122.9072
  51  145.1485
  52  65.3437
  53  19.9671
  54  79.08108
  55  118.6838
  56  146.725
  57  15.65919
  58  -36.5526
  59  134.2301
  60  119.8196
  61  53.19723
  62  131.5152
  63  113.9071
  64  318.5415
  65  153.4365
  66  27.48481
  67  15.0644
  68  104.415
  69  257.4344
  70  151.3506
  71  151.2688
  72  267.3671
  73  211.7261
  74  103.9466
  75  108.2457
  76  164.5487
  77  122.4235
  78  123.0986
  79  76.88289
  80  143.2928
  81  165.5717
  82  119.9928
  83  59.13667
  84  192.6066
  85  199.0113
  86  8.40164
  87  119.63
  88  242.4804
  89  191.591
  90  198.8419
  91  84.85758
  92  -31.04906
  93  -23.79491
  94  84.53709
  95  95.38564
  96  66.78766
  97  182.7994
  98  115.7708
  99  12.73808
 100  50.75168
 101  126.5359
 102  122.2715
 103  109.5051
 104  141.0711
 105  218.9939
 106  12.21629
 107  -62.27899
 108  1.613158
 109  26.24768
 110  20.36296
 111  42.75526
 112  48.61387
 113  7.424442
 114  -73.05692
 115  -32.72335
 116  21.20799
 117  41.21463
 118  60.16719
 119  266.2087
 120  286.0466
 121  144.883
 122  133.1259
 123  0.4468697
 124  148.6789
 125  157.6749
 126  119.1553
 127  20.42367
 128  140.6378
 129  120.8035
 130  101.8559
 131  117.7742
 132  56.0527
 133  -35.53334
 134  -4.10726
 135  53.17552
 136  44.88306
 137  133.7823
 138  228.2536
 139  248.3333
 140  205.1943
 141  72.5797
 142  72.5553
 143  83.32049
 144  -22.56004
 145  7.791846
 146  -81.14704
 147  95.40554
 148  118.9444
 149  120.0963
 150  172.8758
 151  254.4573
 152  247.7089
 153  191.1369
 154  62.45704
 155  230.0346
 156  152.4427
 157  98.56335
 158  116.7075
 159  156.0228
 160  228.4905
 161  64.75165
 162  73.74815
 163  -14.68313
 164  110.2889
 165  67.80512
 166  274.0379
 167  300.8881
 168  253.5045
 169  198.8903
 170  161.3604
 171  -17.59149
 172  -50.99857
 173  211.7603
 174  198.1998
 175  201.79
 176  124.0062
 177  106.2491
 178  74.46709
 179  139.7482
 180  229.4607
 181  212.6422
 182  17.91178
 183  3.042368
 184  50.68291
 185  61.40835
 186  104.6368
 187  122.9145
 188  11.80156
 189  -60.07668
 190  55.49684
 191  96.76666
 192  112.7643
 193  213.6845
 194  173.3834
 195  130.4431
 196  78.69765
 197  161.097
 198  190.0068
 199  175.6511
 200  116.4878
 201  145.3365
 202  191.4721
 203  145.803
 204  141.3383
 205  203.4644
 206  140.7548
 207  190.3595
 208  86.34957
 209  32.40649
 210  93.61414
 211  42.88769
 212  25.28359
 213  81.85436
 214  242.2808
 215  198.228
 216  176.7865
 217  151.336
 218  14.26787
 219  -71.3658
 220  157.6543
 221  202.4078
 222  62.14643
 223  52.8307
 224  90.79667
 225  16.1491
 226  -13.78701
 227  150.8051
 228  198.6786
 229  196.5617
 230  96.80276
 231  85.80352
 232  126.3583
 233  85.50919
 234  104.4309
 235  8.690278
 236  3.268515
 237  73.02419
 238  130.783
 239  137.7601
 240  165.7035
 241  141.5344
 242  115.139
 243  43.44094
 244  273.1422
 245  328.6944
 246  98.13357
 247  18.68749
 248  24.95554
 249  29.12703
 250  161.1385
 251  110.988
 252  156.067
 253  167.2547
 254  113.0918
 255  32.24952
 256  5.715729
 257  112.4989
 258  235.7399
 259  276.5268
 260  254.733
 261  182.1697
 262  57.50151
 263  209.8447
 264  193.2346
 265  163.3821
 266  198.6641
 267  215.137
 268  238.318
 269  200.3068
 270  80.58944
 271  137.8581
 272  59.05197
 273  85.00535
 274  -6.301832
 275  19.56969
 276  6.819875
 277  80.84015
 278  65.61132
 279  159.6843
 280  340.8071
 281  305.2474
 282  152.249
 283  95.16068
 284  31.92241
 285  6.300898
 286  73.37862
 287  57.79397
 288  9.358027
 289  -48.70181
 290  49.93815
 291  139.3433
 292  77.03964
 293  34.70391
 294  149.4117
 295  214.0275
 296  182.2672
 297  240.9976
 298  198.976
 299  241.0292
 300  119.6807
 301  159.1071
 302  74.73395
 303  38.85492
 304  154.3346
 305  189.7644
 306  152.1034
 307  168.3326
 308  157.912
 309  90.23933
 310  179.2166
 311  166.0601
 312  39.86045
 313  143.6619
 314  142.2198
 315  110.199
 316  87.57164
 317  132.4913
 318  215.1044
 319  214.693
 320  196.8084
 321  251.8341
 322  184.4935
 323  28.40578
 324  4.595886
 325  97.8541
 326  127.3737
 327  85.09254
 328  98.80864
 329  214.5969
 330  165.4258
 331  97.08259
 332  218.6553
 333  227.2243
 334  312.1697
 335  295.6736
 336  178.8003
 337  153.6598
 338  19.08648
 339  111.4187
 340  267.3989
 341  76.17353
 342  83.94544
 343  56.69311
 344  142.7955
 345  282.3723
 346  349.5682
 347  234.3686
 348  37.45575
 349  17.31689
 350  109.4314
 351  196.631
 352  196.2366
 353  290.4702
 354  326.1976
 355  324.0591
 356  179.3533
 357  230.4022
 358  198.0703
 359  162.1067
 360  244.6944
 361  91.33905
 362  150.6857
 363  180.7254
 364  290.5641
 365  264.1992
 366  124.322
 367  111.7841
 368  206.6558
 369  152.2136
 370  221.5178
 371  193.0699
 372  206.4134
 373  181.9691
 374  246.5586
 375  211.74
 376  153.0686
 377  171.3267
 378  89.577
 379  7.738454
 380  -10.64397
 381  70.30661
 382  24.98579
 383  58.83269
 384  140.4769
 385  165.2256
 386  101.3976
 387  86.66302
 388  101.4628
 389  74.65441
 390  94.69738
 391  47.64297
 392  56.5494
 393  -8.019877
 394  23.79548
 395  151.6882
 396  230.6996
 397  271.3114
 398  228.2183
 399  137.2693
 400  101.1728
 401  186.2815
 402  48.26758
 403  172.3834
 404  164.9891
 405  37.65575
 406  103.1545
 407  134.759
 408  97.2713
 409  147.4642
 410  151.4317
 411  83.97578
 412  82.35758
 413  92.12438
 414  174.0296
 415  172.3351
 416  66.7478
 417  -27.49716
 418  -84.3652
 419  57.33121
 420  76.56265
 421  56.51172
 422  21.60739
 423  -25.49143
 424  43.26515
 425  102.3857
 426  24.61673
 427  -58.8614
 428  -17.81775
 429  -1.969115
 430  97.91163
 431  37.81388
 432  63.94192
 433  169.8708
 434  -13.56086
 435  -27.81627
 436  19.2108
 437  -12.41322
 438  -28.73434
 439  93.77872
 440  198.1103
 441  152.9131
 442  132.5584
 443  122.7751
 444  23.49256
 445  215.2589
 446  280.7807
 447  124.6444
 448  114.7957
 449  109.0214
 450  49.62797
 451  56.64502
 452  -12.90548
 453  105.4798
 454  90.19591
 455  122.9145
 456  99.44502
 457  44.50486
 458  45.6207
 459  12.86281
 460  158.2016
 461  241.4898
 462  98.59403
 463  42.95934
 464  61.74913
 465  159.6481
 466  183.244
 467  209.1685
 468  241.5612
 469  235.8433
 470  224.755
 471  84.89943
 472  103.2732
 473  118.2616
 474  99.00343
 475  231.8243
 476  129.3463
 477  162.525
 478  78.51466
 479  34.6534
 480  76.20634
 481  390.1701
 482  384.7471
 483  175.6499
 484  153.3095
 485  226.4548
 486  67.72556
 487  149.1405
 488  211.796
 489  182.6447
 490  179.7525
 491  132.9903
 492  241.2202
 493  144.1964
 494  138.6903
 495  -25.52872
 496  112.0954
 497  289.6076
 498  168.3875
 499  61.7627
 500  156.3902
 501  215.3789
 502  77.21217
 503  -35.32296
 504  125.727
 505  126.9134
 506  208.1899
 507  89.99152
 508  124.3322
 509  144.0802
 510  103.8234
 511  220.1292
