# Input file       =  1191179035.128983-PSRB0329-2ms-sampling-dd.dat
# Candidate        =  PSR_0332+5434
# Telescope        =  AR
# Epoch_topo       =  58030.794607974341
# Epoch_bary       =  N/A
# T_sample         =  0.002
# Data Folded      =  7208960
# Data Avg         =  -9.18610171694728e-11
# Data StdDev      =  4.50236478200578 
# Profile Bins     =  512
# Profile Avg      =  -0.135462269158732
# Profile StdDev   =  534.246894154625 
# Reduced chi-sqr  =  1.034
# Prob(Noise)      <  0.29   (~0.6 sigma)
# P_topo (ms)      =  714.474757816247  +/- 0.000242
# P'_topo (s/s)    =  -0                +/- 1.3e-10
# P''_topo (s/s^2) =  0                 +/- 5.83e-14
# P_bary (ms)      =  N/A
# P'_bary (s/s)    =  N/A
# P''_bary (s/s^2) =  N/A
# P_orb (s)        =  N/A
# asin(i)/c (s)    =  N/A
# eccentricity     =  N/A
# w (rad)          =  N/A
# T_peri           =  N/A
######################################################
   0  -439.8079
   1  -191.0894
   2  125.3425
   3  359.1648
   4  461.6172
   5  368.2352
   6  41.17213
   7  -293.4693
   8  -280.7791
   9  -58.34543
  10  -171.1559
  11  -71.1499
  12  -26.27673
  13  -91.27624
  14  -41.49643
  15  42.4703
  16  310.2321
  17  -89.45855
  18  -189.9348
  19  -258.9059
  20  -214.3911
  21  -283.8364
  22  55.34413
  23  -33.82354
  24  -369.9657
  25  -724.4506
  26  -400.9543
  27  -564.4681
  28  -311.8322
  29  -116.3143
  30  -206.4844
  31  65.63293
  32  398.4946
  33  375.6475
  34  -132.5834
  35  -377.1583
  36  -354.4373
  37  39.92744
  38  26.06515
  39  310.6742
  40  170.2896
  41  49.50172
  42  -332.9148
  43  -43.97165
  44  402.3471
  45  332.2825
  46  515.7452
  47  570.2525
  48  163.5704
  49  373.0147
  50  343.39
  51  601.1952
  52  700.0756
  53  543.9926
  54  738.2154
  55  537.1689
  56  1067.636
  57  1329.515
  58  1920.205
  59  2252.816
  60  2213.553
  61  2053.138
  62  1060.095
  63  791.2565
  64  374.961
  65  172.676
  66  345.7536
  67  132.925
  68  258.611
  69  509.7909
  70  648.6737
  71  476.3632
  72  552.0925
  73  796.7744
  74  540.1282
  75  441.6476
  76  613.5533
  77  472.252
  78  269.5429
  79  25.07105
  80  276.2521
  81  309.5356
  82  176.4937
  83  -53.61449
  84  -347.291
  85  24.06393
  86  197.4993
  87  86.82413
  88  258.2781
  89  420.8427
  90  455.6704
  91  35.34859
  92  321.3844
  93  304.7481
  94  460.71
  95  574.3471
  96  411.6517
  97  292.0591
  98  52.12135
  99  -67.64526
 100  -62.22124
 101  92.16077
 102  531.8099
 103  559.5051
 104  652.7391
 105  323.9942
 106  325.9642
 107  360.5096
 108  366.2438
 109  222.5803
 110  551.667
 111  718.665
 112  433.845
 113  217.5216
 114  283.2509
 115  400.2296
 116  492.4655
 117  578.0095
 118  366.2215
 119  148.3257
 120  136.9968
 121  -148.8703
 122  296.7625
 123  453.0759
 124  435.8897
 125  250.6691
 126  -54.96137
 127  146.1144
 128  27.05352
 129  -37.64264
 130  244.5284
 131  201.1951
 132  220.9826
 133  296.8781
 134  289.8318
 135  510.8243
 136  792.9553
 137  544.549
 138  350.7382
 139  628.2
 140  635.8943
 141  594.4376
 142  654.9087
 143  1112.44
 144  971.7491
 145  636.2092
 146  351.9102
 147  500.5216
 148  331.3768
 149  140.4684
 150  266.4331
 151  229.7981
 152  605.6909
 153  390.5019
 154  73.6433
 155  8.492159
 156  -222.07
 157  -206.7547
 158  -461.7738
 159  -362.1509
 160  -241.291
 161  -423.4995
 162  -569.9508
 163  -532.7131
 164  -70.74463
 165  2.289479
 166  -222.3519
 167  -339.0141
 168  -64.61329
 169  221.1908
 170  420.5553
 171  149.7781
 172  281.111
 173  410.8569
 174  399.467
 175  -103.0604
 176  -107.8824
 177  78.85129
 178  35.74797
 179  -335.9843
 180  -200.1721
 181  -35.5075
 182  -393.8928
 183  -363.5375
 184  91.9394
 185  43.10381
 186  -240.604
 187  -695.9116
 188  -724.7844
 189  -500.9958
 190  -537.1859
 191  -235.6313
 192  -70.59779
 193  19.63484
 194  145.2594
 195  -334.6235
 196  -629.7308
 197  -189.0393
 198  192.3497
 199  231.6782
 200  342.8787
 201  288.3713
 202  -62.17462
 203  -147.2535
 204  -285.3505
 205  166.4148
 206  548.1481
 207  448.2899
 208  329.3772
 209  238.9028
 210  64.57333
 211  -193.773
 212  -207.9585
 213  -394.0614
 214  -578.407
 215  -247.6589
 216  69.91376
 217  415.336
 218  77.87476
 219  -231.3232
 220  -393.08
 221  -561.6782
 222  -303.2222
 223  -91.73207
 224  106.9988
 225  -73.79245
 226  7.722909
 227  233.475
 228  -268.1734
 229  -628.5715
 230  -287.5647
 231  55.90288
 232  329.4258
 233  328.4523
 234  51.80333
 235  -146.6363
 236  -411.0829
 237  -31.96914
 238  143.4764
 239  299.4056
 240  389.5764
 241  391.8259
 242  243.5983
 243  -28.98291
 244  29.3073
 245  25.21934
 246  -59.18877
 247  -234.6983
 248  90.50607
 249  35.78045
 250  19.08467
 251  493.9571
 252  408.4621
 253  131.0508
 254  -328.2748
 255  49.36843
 256  119.5733
 257  -32.84364
 258  -66.01938
 259  -54.87143
 260  -487.4753
 261  -902.8973
 262  -625.825
 263  -47.90305
 264  -369.8354
 265  -194.1848
 266  163.6971
 267  100.4817
 268  -138.7597
 269  -246.0231
 270  -230.7054
 271  -358.3241
 272  -292.7604
 273  -176.6718
 274  -260.0146
 275  -213.9656
 276  -224.6169
 277  -371.6978
 278  -276.8093
 279  -360.9093
 280  -554.3398
 281  -411.4874
 282  -6.904908
 283  -28.11603
 284  -103.9353
 285  -374.2878
 286  -445.9856
 287  -696.3014
 288  -825.6984
 289  -698.1498
 290  -590.7566
 291  -467.4189
 292  -371.1264
 293  -301.8001
 294  -545.9373
 295  -752.9263
 296  -758.7017
 297  -441.3827
 298  -445.6904
 299  -163.9369
 300  -460.4973
 301  -122.6825
 302  -72.06099
 303  -494.524
 304  -257.5326
 305  -231.8588
 306  -459.222
 307  -504.9565
 308  -79.02892
 309  -152.1718
 310  -350.1779
 311  -532.512
 312  -583.4156
 313  -317.1275
 314  -183.58
 315  -273.8542
 316  -119.9853
 317  -37.14889
 318  11.81218
 319  -166.3509
 320  -500.1474
 321  -559.9113
 322  -495.0833
 323  -324.0912
 324  6.749582
 325  96.79128
 326  -126.5503
 327  -431.434
 328  -509.1581
 329  -170.9627
 330  -377.5758
 331  -217.5274
 332  -204.5912
 333  -13.31187
 334  -40.86095
 335  283.4883
 336  -40.01824
 337  -19.03102
 338  138.9004
 339  -51.33402
 340  -322.7137
 341  -316.3477
 342  -144.0789
 343  -553.4263
 344  -442.9721
 345  -177.0509
 346  87.99698
 347  -299.0619
 348  -211.6284
 349  -149.9306
 350  69.0455
 351  55.64399
 352  -138.8183
 353  -350.1652
 354  -404.3335
 355  -548.485
 356  -238.736
 357  90.42076
 358  450.9333
 359  160.1161
 360  -130.3446
 361  -204.4111
 362  -67.37576
 363  -171.1475
 364  159.3459
 365  127.8935
 366  272.7394
 367  98.38694
 368  114.3493
 369  108.3718
 370  -63.24482
 371  -249.3638
 372  -232.3281
 373  -86.45078
 374  -8.535546
 375  -39.92934
 376  287.7006
 377  21.131
 378  76.13824
 379  81.11943
 380  -238.7343
 381  -278.1992
 382  -286.9936
 383  -114.9473
 384  -192.2617
 385  -204.5562
 386  129.8401
 387  -133.1241
 388  -280.1454
 389  -354.8313
 390  -157.8804
 391  -117.3747
 392  -64.48053
 393  -154.1193
 394  -153.7303
 395  -214.2869
 396  -133.4104
 397  94.07417
 398  91.06791
 399  356.3726
 400  458.2055
 401  448.191
 402  386.2423
 403  112.0494
 404  148.6723
 405  93.03767
 406  66.57381
 407  210.3255
 408  79.28075
 409  -207.9475
 410  -287.1253
 411  -192.7838
 412  -9.964892
 413  267.8365
 414  148.4253
 415  -116.5924
 416  6.545302
 417  202.0848
 418  -48.89595
 419  -127.7345
 420  16.3125
 421  -61.9087
 422  -210.3886
 423  -251.7451
 424  66.99883
 425  72.97765
 426  -86.63898
 427  -54.81431
 428  193.9642
 429  173.6676
 430  5.079908
 431  199.0129
 432  333.8108
 433  285.8722
 434  352.2322
 435  222.2245
 436  116.7626
 437  33.0955
 438  82.74681
 439  -30.13399
 440  267.1162
 441  533.6115
 442  555.0455
 443  445.7829
 444  -120.9619
 445  111.801
 446  177.9619
 447  -61.92781
 448  -223.4763
 449  57.6307
 450  319.6258
 451  -143.57
 452  -451.6968
 453  -215.8413
 454  -380.5513
 455  -442.2221
 456  -756.5755
 457  -570.4943
 458  -240.2274
 459  -243.7761
 460  -423.7907
 461  -502.594
 462  -453.9968
 463  -816.9504
 464  -267.537
 465  -193.7079
 466  -181.9499
 467  -252.4769
 468  -170.0306
 469  -256.3791
 470  -891.7186
 471  -582.4892
 472  -344.5042
 473  -339.8867
 474  -264.5446
 475  -304.5052
 476  -528.701
 477  -476.2528
 478  -442.1367
 479  -173.547
 480  -98.94611
 481  -303.1625
 482  -271.821
 483  -335.463
 484  -297.1339
 485  -31.03023
 486  9.522929
 487  0.664242
 488  -326.0289
 489  -411.1817
 490  -376.235
 491  -170.5027
 492  -53.54187
 493  -110.5617
 494  -193.5623
 495  -131.7099
 496  -348.2
 497  -378.6498
 498  -517.3501
 499  -212.2939
 500  42.34752
 501  -90.25871
 502  -353.1867
 503  -275.827
 504  -413.3268
 505  -420.2761
 506  -29.71981
 507  169.6241
 508  287.2362
 509  208.0998
 510  208.1277
 511  5.93933
