# Input file       =  1191279866.119208_cleaned.dat
# Candidate        =  PSR_0332+5434
# Telescope        =  AR
# Epoch_topo       =  58031.961633324165
# Epoch_bary       =  N/A
# T_sample         =  0.002
# Data Folded      =  7340032
# Data Avg         =  0.0101596840918479
# Data StdDev      =  1.00004670904607 
# Profile Bins     =  512
# Profile Avg      =  145.359751281639 
# Profile StdDev   =  119.738628992678 
# Reduced chi-sqr  =  1.418
# Prob(Noise)      <  1.38e-09   (~5.9 sigma)
# P_topo (ms)      =  714.475477767585  +/- 0.000239
# P'_topo (s/s)    =  -0                +/- 1.26e-10
# P''_topo (s/s^2) =  0                 +/- 5.58e-14
# P_bary (ms)      =  N/A
# P'_bary (s/s)    =  N/A
# P''_bary (s/s^2) =  N/A
# P_orb (s)        =  N/A
# asin(i)/c (s)    =  N/A
# eccentricity     =  N/A
# w (rad)          =  N/A
# T_peri           =  N/A
######################################################
   0  107.2171
   1  147.3528
   2  210.6674
   3  64.51305
   4  122.8619
   5  123.4432
   6  134.1694
   7  227.4683
   8  141.9818
   9  228.4469
  10  319.6087
  11  239.2374
  12  296.4077
  13  212.0735
  14  172.7925
  15  132.1541
  16  181.7951
  17  140.0341
  18  66.56238
  19  42.08458
  20  19.86149
  21  43.04932
  22  152.309
  23  113.5225
  24  107.176
  25  71.66005
  26  58.67457
  27  88.20545
  28  141.0408
  29  164.9573
  30  46.50638
  31  96.41875
  32  303.4971
  33  260.6166
  34  229.4279
  35  106.8895
  36  60.56203
  37  168.1628
  38  186.0785
  39  114.8771
  40  -5.668957
  41  203.8871
  42  190.1946
  43  142.7309
  44  216.2595
  45  40.34628
  46  1.441411
  47  116.7649
  48  217.3989
  49  214.7787
  50  22.1955
  51  118.2568
  52  117.3836
  53  3.346386
  54  81.64017
  55  197.9868
  56  217.3266
  57  270.5147
  58  69.35416
  59  106.5131
  60  217.8358
  61  165.9336
  62  116.2587
  63  153.4253
  64  29.40857
  65  90.49755
  66  -3.533091
  67  113.0823
  68  211.1618
  69  198.4263
  70  135.682
  71  -20.18495
  72  158.2714
  73  199.7247
  74  103.6857
  75  137.46
  76  249.1162
  77  224.5937
  78  220.6569
  79  192.2362
  80  69.03699
  81  78.08463
  82  127.9795
  83  164.9699
  84  236.0782
  85  153.1976
  86  295.6901
  87  239.6586
  88  190.1071
  89  148.512
  90  158.9753
  91  93.84472
  92  35.97001
  93  162.2549
  94  182.3097
  95  240.1249
  96  218.7702
  97  353.9224
  98  317.4505
  99  355.2026
 100  560.3995
 101  756.8188
 102  729.6486
 103  783.5335
 104  816.6651
 105  716.3658
 106  465.2989
 107  292.1843
 108  139.7687
 109  -5.311866
 110  53.24635
 111  35.99805
 112  146.3113
 113  214.5008
 114  167.3728
 115  279.0972
 116  341.8722
 117  326.0076
 118  296.3563
 119  179.6309
 120  220.0224
 121  111.6572
 122  119.9247
 123  182.1565
 124  159.2265
 125  150.181
 126  98.36667
 127  133.965
 128  77.40148
 129  84.33434
 130  30.35798
 131  -27.35043
 132  122.3762
 133  -61.58405
 134  -75.86383
 135  154.578
 136  241.4721
 137  171.7089
 138  241.5064
 139  116.1682
 140  52.13531
 141  268.1621
 142  220.6926
 143  90.21733
 144  201.4141
 145  361.5737
 146  264.3688
 147  48.21009
 148  81.03545
 149  193.7067
 150  261.8384
 151  289.1218
 152  137.898
 153  146.9928
 154  94.19345
 155  62.70322
 156  103.0083
 157  211.9034
 158  122.5862
 159  208.8923
 160  196.3562
 161  40.45887
 162  104.3457
 163  180.8688
 164  153.3836
 165  46.39717
 166  223.3367
 167  251.209
 168  134.9204
 169  205.7618
 170  253.4003
 171  265.319
 172  215.4078
 173  123.4916
 174  49.76773
 175  178.3733
 176  298.8319
 177  120.0219
 178  158.8564
 179  240.8105
 180  194.0689
 181  184.1692
 182  213.6719
 183  267.6243
 184  222.7782
 185  240.9435
 186  75.6927
 187  31.94437
 188  214.48
 189  204.1641
 190  150.1418
 191  -8.652515
 192  -22.15435
 193  9.67411
 194  -66.76685
 195  103.2875
 196  256.7758
 197  205.9279
 198  100.9783
 199  86.9402
 200  122.6559
 201  98.38308
 202  112.9497
 203  87.91368
 204  138.6068
 205  169.6185
 206  198.376
 207  174.2467
 208  94.8385
 209  142.3078
 210  183.0571
 211  89.71444
 212  140.897
 213  222.125
 214  193.9686
 215  114.3687
 216  252.9976
 217  271.4691
 218  143.6295
 219  104.1901
 220  187.7926
 221  102.1956
 222  77.05695
 223  317.4055
 224  329.3135
 225  28.33779
 226  96.59981
 227  88.22255
 228  172.6948
 229  80.52254
 230  70.20689
 231  240.8613
 232  268.8437
 233  219.797
 234  197.779
 235  143.5977
 236  117.8001
 237  111.696
 238  97.275
 239  259.7879
 240  148.9582
 241  108.9654
 242  150.1475
 243  150.2917
 244  26.33355
 245  68.91325
 246  111.6276
 247  155.1553
 248  192.9384
 249  24.99958
 250  98.3679
 251  192.4713
 252  196.5895
 253  176.5123
 254  199.9622
 255  173.3721
 256  190.7589
 257  164.6981
 258  107.9169
 259  256.1588
 260  136.1348
 261  191.8757
 262  171.4566
 263  147.8876
 264  282.4111
 265  150.1254
 266  2.225341
 267  -13.40302
 268  -4.013134
 269  133.0246
 270  117.8462
 271  60.97604
 272  55.29512
 273  242.7383
 274  223.378
 275  320.1047
 276  177.4707
 277  48.30174
 278  124.631
 279  183.4257
 280  242.7817
 281  23.76503
 282  44.3224
 283  1.120845
 284  134.8459
 285  214.3218
 286  250.0975
 287  16.23944
 288  108.0693
 289  236.212
 290  182.1418
 291  228.8752
 292  181.5545
 293  69.18201
 294  36.32828
 295  -0.5405558
 296  84.15642
 297  143.8266
 298  174.5364
 299  226.8969
 300  167.2873
 301  153.1268
 302  203.4888
 303  145.9707
 304  118.6204
 305  51.74506
 306  246.4403
 307  215.2536
 308  172.7687
 309  8.838106
 310  0.1952855
 311  9.350339
 312  232.1317
 313  115.3281
 314  108.5289
 315  154.9643
 316  75.0461
 317  -3.296489
 318  50.80553
 319  164.3545
 320  32.18457
 321  37.83942
 322  203.1533
 323  249.0214
 324  137.7425
 325  -89.71831
 326  -16.82323
 327  97.14324
 328  170.7401
 329  69.41891
 330  54.60624
 331  94.71529
 332  25.78812
 333  10.96388
 334  147.0678
 335  234.5252
 336  167.9581
 337  116.2975
 338  60.75141
 339  136.6672
 340  78.66405
 341  81.27589
 342  -19.49212
 343  119.0191
 344  122.2065
 345  136.1649
 346  134.9647
 347  160.6022
 348  207.1376
 349  223.6844
 350  155.1748
 351  73.40922
 352  95.34339
 353  180.7124
 354  66.71154
 355  41.60313
 356  19.10843
 357  133.576
 358  316.6054
 359  219.2714
 360  124.3608
 361  -4.432668
 362  63.49491
 363  182.9924
 364  251.727
 365  192.4726
 366  58.28898
 367  198.4254
 368  185.7696
 369  134.6634
 370  131.1509
 371  237.815
 372  160.8203
 373  82.90369
 374  86.02198
 375  143.3318
 376  136.8115
 377  11.80292
 378  125.6944
 379  163.4422
 380  173.0018
 381  154.5546
 382  182.7766
 383  226.9988
 384  52.4415
 385  187.0161
 386  239.0797
 387  87.86523
 388  179.9774
 389  78.35338
 390  93.32867
 391  143.0796
 392  139.0253
 393  -29.36857
 394  -9.345163
 395  165.9801
 396  83.02286
 397  34.76974
 398  23.36931
 399  99.33942
 400  172.4332
 401  313.2082
 402  261.8607
 403  131.5428
 404  226.5953
 405  78.31675
 406  46.85106
 407  167.6689
 408  147.579
 409  188.2398
 410  166.2841
 411  114.0682
 412  13.35284
 413  145.7217
 414  111.7179
 415  81.12053
 416  117.811
 417  93.62302
 418  120.4787
 419  97.46935
 420  126.1209
 421  68.07066
 422  141.7495
 423  195.5154
 424  -8.489937
 425  87.13395
 426  87.83457
 427  161.1138
 428  144.5434
 429  236.485
 430  187.8839
 431  127.9351
 432  137.0968
 433  166.3135
 434  111.4559
 435  84.57272
 436  164.0192
 437  159.7496
 438  131.389
 439  110.6592
 440  87.774
 441  171.5799
 442  153.7151
 443  165.9806
 444  156.0381
 445  53.42131
 446  -7.957382
 447  89.76356
 448  39.0635
 449  81.41586
 450  172.4646
 451  163.1176
 452  102.2849
 453  203.8532
 454  219.6129
 455  250.0505
 456  228.3187
 457  157.7396
 458  125.3963
 459  58.46333
 460  19.65649
 461  48.09425
 462  83.0183
 463  220.8764
 464  274.9886
 465  139.7263
 466  115.1726
 467  149.3481
 468  111.319
 469  102.6446
 470  7.453313
 471  89.41805
 472  95.14175
 473  98.66346
 474  125.7441
 475  145.057
 476  120.759
 477  84.46243
 478  150.9881
 479  168.9231
 480  181.3445
 481  92.11352
 482  145.2184
 483  82.3392
 484  14.2109
 485  34.2015
 486  55.23209
 487  99.72375
 488  -13.97438
 489  131.5036
 490  133.3664
 491  10.03292
 492  18.73335
 493  138.6162
 494  205.5332
 495  210.0547
 496  18.41959
 497  110.6692
 498  122.1049
 499  147.7505
 500  221.7764
 501  146.1663
 502  155.4079
 503  280.6777
 504  88.07322
 505  12.63633
 506  162.7172
 507  112.0852
 508  126.7447
 509  132.3718
 510  54.11558
 511  17.23264
