# Input file       =  1191452153.131497-PSRB0329-2ms-sampling-dd.dat
# Candidate        =  PSR_0332+5434
# Telescope        =  AR
# Epoch_topo       =  58033.955695966397
# Epoch_bary       =  N/A
# T_sample         =  0.002
# Data Folded      =  7340032
# Data Avg         =  -2.8185198206927e-11
# Data StdDev      =  2.99118140062803 
# Profile Bins     =  512
# Profile Avg      =  0.0613430661621019
# Profile StdDev   =  358.143231450902 
# Reduced chi-sqr  =  1.060
# Prob(Noise)      <  0.168   (~1.0 sigma)
# P_topo (ms)      =  714.476720836795  +/- 0.000328
# P'_topo (s/s)    =  -0                +/- 1.73e-10
# P''_topo (s/s^2) =  0                 +/- 7.64e-14
# P_bary (ms)      =  N/A
# P'_bary (s/s)    =  N/A
# P''_bary (s/s^2) =  N/A
# P_orb (s)        =  N/A
# asin(i)/c (s)    =  N/A
# eccentricity     =  N/A
# w (rad)          =  N/A
# T_peri           =  N/A
######################################################
   0  -255.4702
   1  -437.895
   2  -316.1002
   3  -115.0213
   4  -111.3744
   5  87.01521
   6  141.215
   7  115.4286
   8  -238.9531
   9  -75.787
  10  319.3786
  11  62.708
  12  -17.65723
  13  52.81341
  14  -213.8094
  15  -121.4879
  16  -64.72074
  17  -224.8069
  18  -78.59932
  19  -126.8693
  20  -373.0531
  21  -398.0036
  22  -269.1154
  23  -305.0591
  24  -247.1003
  25  -279.6992
  26  -332.9908
  27  -567.1638
  28  -199.2964
  29  -8.458849
  30  21.40028
  31  -79.09331
  32  69.5188
  33  353.9171
  34  358.1565
  35  -22.12087
  36  -318.3923
  37  5.916837
  38  206.3954
  39  425.3246
  40  235.4117
  41  191.0842
  42  57.25893
  43  218.3257
  44  440.7811
  45  347.2415
  46  210.2992
  47  -83.98216
  48  242.0936
  49  228.2162
  50  145.452
  51  416.6654
  52  484.8717
  53  165.2532
  54  -41.33654
  55  -190.1682
  56  -98.51077
  57  20.96117
  58  166.7192
  59  122.9791
  60  54.5414
  61  205.3448
  62  67.37962
  63  89.22337
  64  -122.1377
  65  35.55653
  66  284.9948
  67  282.9331
  68  196.2478
  69  -34.92985
  70  -77.30045
  71  168.9426
  72  186.441
  73  -23.3342
  74  -38.81858
  75  147.0432
  76  121.8353
  77  42.65664
  78  11.29777
  79  155.5564
  80  143.304
  81  14.9382
  82  -77.80928
  83  -43.63107
  84  127.5339
  85  117.9452
  86  16.89598
  87  116.366
  88  -19.02503
  89  -74.48882
  90  -355.7071
  91  -238.1736
  92  -103.7238
  93  -167.1782
  94  39.42465
  95  65.35827
  96  169.3458
  97  115.268
  98  93.86783
  99  -100.1446
 100  -127.9918
 101  208.9927
 102  -20.9064
 103  -47.93019
 104  208.4411
 105  283.8764
 106  323.301
 107  75.04692
 108  -3.804845
 109  50.91776
 110  79.70097
 111  -62.41784
 112  4.834282
 113  76.73311
 114  216.3994
 115  -89.71102
 116  -41.04084
 117  157.5767
 118  139.2738
 119  -31.08314
 120  -96.56068
 121  -31.08977
 122  -56.21269
 123  216.0392
 124  73.26434
 125  -420.6195
 126  -696.8384
 127  -214.9437
 128  -206.9871
 129  -452.9853
 130  -69.73753
 131  221.3164
 132  -45.91597
 133  -214.0154
 134  -3.693187
 135  32.56859
 136  -116.0294
 137  -37.3816
 138  123.8606
 139  -6.14057
 140  43.72061
 141  294.4151
 142  108.0852
 143  66.4743
 144  -79.30334
 145  81.20551
 146  201.9308
 147  -37.22546
 148  4.963724
 149  -119.7257
 150  -203.953
 151  10.36154
 152  109.9176
 153  128.0483
 154  -9.13217
 155  -204.5413
 156  -37.62703
 157  308.278
 158  -167.6786
 159  -207.8584
 160  -184.8187
 161  24.75502
 162  -48.93675
 163  113.1126
 164  263.3632
 165  -17.42953
 166  21.02257
 167  -193.707
 168  -369.7738
 169  -357.3794
 170  -17.40505
 171  93.72562
 172  -232.5646
 173  -418.9633
 174  -110.5022
 175  174.1209
 176  -1.38379
 177  47.04982
 178  182.7323
 179  326.6518
 180  184.2597
 181  -102.9646
 182  156.7526
 183  29.08025
 184  -222.8473
 185  34.07973
 186  277.971
 187  238.2995
 188  126.3861
 189  179.777
 190  250.2447
 191  -58.58965
 192  -1.426469
 193  -109.805
 194  37.33289
 195  212.3457
 196  48.7054
 197  -17.25791
 198  -67.60311
 199  79.85049
 200  -64.10644
 201  48.74051
 202  -41.6623
 203  45.41837
 204  126.1356
 205  452.0238
 206  458.8195
 207  477.852
 208  244.4687
 209  185.0972
 210  -36.06383
 211  -270.575
 212  -68.64635
 213  -72.8382
 214  158.903
 215  205.0899
 216  -60.42714
 217  33.33094
 218  112.2693
 219  177.1126
 220  -33.41772
 221  -171.5044
 222  -286.9411
 223  -15.75443
 224  -39.41861
 225  -127.8088
 226  37.5606
 227  316.5598
 228  344.5616
 229  106.5145
 230  -176.0912
 231  -39.31264
 232  216.109
 233  124.2543
 234  -288.0195
 235  -210.8709
 236  119.8344
 237  36.44784
 238  263.7812
 239  221.7111
 240  99.65878
 241  -37.11781
 242  7.610092
 243  59.96385
 244  264.1999
 245  332.945
 246  322.9677
 247  304.1886
 248  154.3512
 249  -60.11199
 250  99.59102
 251  -7.283698
 252  -56.64899
 253  15.09953
 254  151.2829
 255  80.56317
 256  -79.39299
 257  -21.36516
 258  374.8081
 259  35.62057
 260  -258.3326
 261  -26.4441
 262  -21.06084
 263  -137.1063
 264  2.785249
 265  19.3959
 266  247.7709
 267  130.9408
 268  166.2795
 269  288.8468
 270  173.6447
 271  11.72778
 272  -107.5558
 273  -272.8892
 274  -23.38572
 275  -29.90613
 276  -146.4752
 277  -247.7483
 278  -255.1953
 279  -65.23236
 280  33.87827
 281  171.894
 282  280.6739
 283  91.03398
 284  1.063858
 285  -106.2324
 286  -165.8802
 287  -36.60659
 288  143.8104
 289  216.7104
 290  131.509
 291  -40.97109
 292  260.1179
 293  144.7887
 294  -570.0403
 295  -421.3664
 296  175.7785
 297  277.7758
 298  325.5775
 299  373.0576
 300  66.10363
 301  102.6045
 302  30.4614
 303  150.4237
 304  251.7038
 305  82.87244
 306  96.2524
 307  448.1339
 308  154.5809
 309  193.2469
 310  -8.047078
 311  -172.4244
 312  124.799
 313  26.40501
 314  -300.7394
 315  -115.0497
 316  -2.777853
 317  -102.2101
 318  2.073014
 319  284.9576
 320  350.0387
 321  -4.63906
 322  29.09322
 323  44.38997
 324  -462.6387
 325  -24.54277
 326  244.3432
 327  -197.983
 328  -418.3508
 329  -287.9066
 330  -253.9952
 331  -357.1394
 332  312.7188
 333  165.0161
 334  -319.9285
 335  -229.8401
 336  15.85271
 337  9.010582
 338  210.058
 339  126.8327
 340  109.606
 341  -129.1841
 342  -144.6542
 343  -82.67511
 344  -21.88178
 345  -129.4847
 346  -352.8372
 347  -130.0882
 348  154.3062
 349  -140.2011
 350  -193.1967
 351  -44.22599
 352  47.16045
 353  -110.6071
 354  -274.5432
 355  -222.4606
 356  6.582076
 357  -8.908066
 358  58.05965
 359  -189.7317
 360  -17.66795
 361  -36.20264
 362  -69.5048
 363  -83.66592
 364  12.26018
 365  99.09386
 366  376.1685
 367  518.3391
 368  348.1929
 369  86.82467
 370  -33.64004
 371  124.1675
 372  114.3683
 373  320.088
 374  413.9555
 375  9.404234
 376  -124.0443
 377  -126.8307
 378  66.54243
 379  114.5505
 380  347.7159
 381  205.4158
 382  123.6003
 383  126.0054
 384  564.2432
 385  690.9497
 386  1372.98
 387  1885.232
 388  1978.04
 389  1604.596
 390  1031.153
 391  339.2423
 392  -220.9069
 393  -315.1873
 394  -308.4914
 395  -171.2164
 396  -335.3507
 397  -325.1444
 398  -171.9298
 399  -111.8854
 400  75.95718
 401  262.4079
 402  113.6088
 403  233.5365
 404  241.4562
 405  73.12448
 406  62.18729
 407  148.3356
 408  53.25661
 409  -96.1642
 410  -293.5324
 411  -394.7892
 412  -555.0836
 413  -274.8821
 414  -259.9721
 415  -145.3439
 416  62.77884
 417  13.8902
 418  288.6481
 419  -176.5387
 420  -179.3732
 421  -339.438
 422  92.38256
 423  454.6183
 424  150.1631
 425  182.1423
 426  177.2246
 427  105.9795
 428  -12.11726
 429  -36.81064
 430  30.19874
 431  -32.18861
 432  -19.57158
 433  -300.0826
 434  -103.2119
 435  -15.26064
 436  -102.8231
 437  -248.4449
 438  -305.3653
 439  -255.4379
 440  -170.4746
 441  -150.7401
 442  72.65737
 443  -80.22137
 444  -395.3282
 445  73.24406
 446  -65.64174
 447  -299.5076
 448  98.23167
 449  -57.78927
 450  -370.6027
 451  -362.7032
 452  -245.9598
 453  -313.2722
 454  -401.0467
 455  -158.4625
 456  31.90943
 457  -440.5323
 458  -313.4348
 459  -329.9262
 460  -97.59393
 461  33.96008
 462  -50.73085
 463  -396.0284
 464  -404.9099
 465  -341.166
 466  -401.9534
 467  -641.9133
 468  -453.7984
 469  -263.9992
 470  -158.205
 471  -170.3577
 472  -140.231
 473  -283.2733
 474  -269.8802
 475  -151.1402
 476  178.9337
 477  20.71403
 478  -91.52363
 479  -288.2522
 480  13.07002
 481  142.8169
 482  268.9712
 483  83.94858
 484  -158.9348
 485  -208.9959
 486  -388.7041
 487  -570.2968
 488  -42.29378
 489  125.4896
 490  -247.2562
 491  -260.864
 492  36.14436
 493  -105.1667
 494  -325.2538
 495  -411.8677
 496  -178.0515
 497  -183.1436
 498  -511.808
 499  -213.2006
 500  -255.2043
 501  -369.5896
 502  -382.6668
 503  -177.4052
 504  -97.26297
 505  -426.6524
 506  -361.2706
 507  -368.1073
 508  -345.4465
 509  -51.30277
 510  -19.80471
 511  -127.2202
