# Input file       =  1192557560.121388_cleaned.dat
# Candidate        =  PSR_0332+5434
# Telescope        =  AR
# Epoch_topo       =  58046.749758349397
# Epoch_bary       =  N/A
# T_sample         =  0.002
# Data Folded      =  7143424
# Data Avg         =  0.193702881684774
# Data StdDev      =  3.78320039892607 
# Profile Bins     =  512
# Profile Avg      =  2702.35017089823 
# Profile StdDev   =  446.866275932383 
# Reduced chi-sqr  =  0.630
# Prob(Noise)      <  1   (~0.0 sigma)
# P_topo (ms)      =  714.485969857757  +/- 9.95e-05
# P'_topo (s/s)    =  -0                +/- 5.39e-11
# P''_topo (s/s^2) =  0                 +/- 2.45e-14
# P_bary (ms)      =  N/A
# P'_bary (s/s)    =  N/A
# P''_bary (s/s^2) =  N/A
# P_orb (s)        =  N/A
# asin(i)/c (s)    =  N/A
# eccentricity     =  N/A
# w (rad)          =  N/A
# T_peri           =  N/A
######################################################
   0  2595.016
   1  2614.059
   2  2621.99
   3  2536.598
   4  2502.901
   5  2443.254
   6  2737.72
   7  2963.668
   8  2726.695
   9  2852.435
  10  2746.479
  11  2748.151
  12  2345.418
  13  2071.203
  14  2272.336
  15  2388.397
  16  2560.136
  17  2770.108
  18  2786.547
  19  2775.71
  20  2582.51
  21  2633.785
  22  2780.667
  23  2380.075
  24  2734.377
  25  2828.724
  26  2748.25
  27  2738.495
  28  2900.471
  29  2675.176
  30  2451.792
  31  2666.881
  32  2501.76
  33  2544.29
  34  2643.852
  35  2701.629
  36  2583.25
  37  2431.139
  38  2516.537
  39  2684.069
  40  2565.945
  41  2362.109
  42  2260.494
  43  2627.942
  44  2668.116
  45  2431.133
  46  2500.849
  47  2817.788
  48  2574.952
  49  2447.485
  50  2566.059
  51  2875.679
  52  2795.814
  53  2720.725
  54  3033.097
  55  2609.75
  56  2541.541
  57  2474.788
  58  2347.58
  59  2282.41
  60  2470.988
  61  2604.784
  62  2506.694
  63  2656.703
  64  2540.909
  65  2481.92
  66  2473.186
  67  2516.548
  68  2632.136
  69  2409.186
  70  2405.353
  71  2573.747
  72  2567.156
  73  2291.938
  74  2306.597
  75  2764.141
  76  2603.133
  77  2324.873
  78  2470.79
  79  2612.416
  80  2410.071
  81  2313.937
  82  2596.969
  83  2931.068
  84  3112.131
  85  2837.02
  86  2717.962
  87  2576.149
  88  2433.613
  89  2238.938
  90  2438.586
  91  2789.211
  92  2605.138
  93  2365.375
  94  2213.21
  95  2610.677
  96  2687.646
  97  2472.174
  98  2361.192
  99  2369.793
 100  2694.98
 101  2556.945
 102  2363.595
 103  2449.252
 104  2308.769
 105  2542.204
 106  2413.227
 107  2270.946
 108  2818.559
 109  2823.757
 110  2742.495
 111  2704.78
 112  2773.045
 113  2629.941
 114  2381.863
 115  2448.87
 116  2996.515
 117  2861.456
 118  2821.261
 119  2928.074
 120  2981.758
 121  2871.153
 122  2729.049
 123  2740.16
 124  2684.491
 125  2608.729
 126  2789.715
 127  2860.38
 128  2776.801
 129  2517.573
 130  2466.216
 131  2350.802
 132  2639.417
 133  2541.087
 134  2630.369
 135  3132.969
 136  2937.268
 137  2779.629
 138  2789.563
 139  2401.323
 140  2287.152
 141  2447.635
 142  2477.136
 143  2570.955
 144  2533.845
 145  2593.748
 146  2784.199
 147  2546.792
 148  2988.113
 149  3216.11
 150  2956.236
 151  2829.011
 152  2795.085
 153  2874.147
 154  2493.336
 155  2502.854
 156  2664.533
 157  3003.637
 158  2667.094
 159  2610.31
 160  2579.151
 161  2563.815
 162  2636.249
 163  2471.319
 164  2304.423
 165  2407.061
 166  2763.749
 167  3196.511
 168  2959.428
 169  2808.474
 170  2810.485
 171  2784.01
 172  2847.939
 173  2716.96
 174  2685.599
 175  2860.862
 176  2541.163
 177  2385.411
 178  2294.789
 179  2836.729
 180  2775.75
 181  2980.067
 182  2799.083
 183  2651.382
 184  2776.763
 185  2590.782
 186  2637.253
 187  2766.106
 188  2751.287
 189  2572.529
 190  2641.79
 191  3069.874
 192  3019.194
 193  2577.638
 194  2638.74
 195  2281.335
 196  2094.509
 197  2405.42
 198  2897.93
 199  2833.256
 200  2855.46
 201  2715.766
 202  2559.19
 203  2508.109
 204  2682.435
 205  2563.106
 206  2539.984
 207  2556.8
 208  2706.167
 209  3134.02
 210  2853.613
 211  2718.97
 212  2737.439
 213  2941.804
 214  2656.183
 215  2749.335
 216  2921.138
 217  2803.735
 218  2871.5
 219  2873.967
 220  2482.68
 221  2811.571
 222  2791.653
 223  2846.245
 224  3096.013
 225  2922.266
 226  2789.449
 227  2526.779
 228  2524.121
 229  2698.535
 230  2613.797
 231  2852.939
 232  2797.878
 233  2827.99
 234  2881.099
 235  2740.756
 236  2639.785
 237  2651.227
 238  2439.038
 239  2520.905
 240  2633.327
 241  2584.655
 242  2508.732
 243  2603.219
 244  2313.948
 245  2616.175
 246  2442.656
 247  2654.769
 248  2783.885
 249  2603.619
 250  2615.949
 251  2880.65
 252  2893.006
 253  2643.403
 254  2227.289
 255  2489.797
 256  2548.678
 257  2210.679
 258  2453.07
 259  2676.627
 260  2498.311
 261  2891.686
 262  2544.425
 263  2507.98
 264  2657.29
 265  2711.583
 266  2825.21
 267  2593.245
 268  2556.807
 269  2652.438
 270  2631.38
 271  2577.498
 272  2833.792
 273  3243.451
 274  2894.258
 275  2601.448
 276  2523.446
 277  2720.385
 278  2642.232
 279  2690.881
 280  2650.889
 281  2477.557
 282  2788.292
 283  2664.838
 284  2557.039
 285  2731.258
 286  2819.904
 287  2682.511
 288  2765.39
 289  2934.349
 290  2755.24
 291  2639.493
 292  2300.127
 293  2242.226
 294  2445.021
 295  2895.961
 296  2712.257
 297  2707.118
 298  2866.51
 299  2763.31
 300  3003.771
 301  3202.501
 302  2900.046
 303  2707.562
 304  2990.113
 305  2914.76
 306  2681.06
 307  2931.651
 308  3055.759
 309  2827.462
 310  2549.561
 311  2169.852
 312  2673.363
 313  2748.972
 314  2781.172
 315  3153.571
 316  3152.915
 317  3007.57
 318  2882.182
 319  2756.115
 320  2591.872
 321  2842.281
 322  2945.542
 323  2962.771
 324  2751.521
 325  2511.292
 326  2543.495
 327  2428.71
 328  2832.501
 329  2511.715
 330  2561.551
 331  2985.388
 332  2775.908
 333  2714.846
 334  2606.439
 335  2673.322
 336  2422.281
 337  2211.653
 338  2621.962
 339  2610.579
 340  2500.11
 341  2600.491
 342  2812.326
 343  2448.721
 344  2632.961
 345  2698.88
 346  2328.572
 347  2553.914
 348  2724.489
 349  2897.872
 350  2798.34
 351  2818.187
 352  2931.053
 353  2790.478
 354  2408.698
 355  2440.302
 356  2514.138
 357  2634.024
 358  2714.74
 359  2666.799
 360  2524.792
 361  2582.182
 362  2517.96
 363  2569.661
 364  2773.73
 365  2901.781
 366  3303.642
 367  2926.925
 368  2919.038
 369  2896.508
 370  2837.672
 371  3165.998
 372  2853.002
 373  2996.619
 374  3141.787
 375  2439.186
 376  2395.73
 377  2288.311
 378  2390.43
 379  2710.023
 380  3053.113
 381  3122.86
 382  2948.208
 383  2850.948
 384  2897.589
 385  2829.786
 386  2664.651
 387  2735.467
 388  3031.132
 389  2972.292
 390  2729.493
 391  2999.546
 392  2771.811
 393  2457.51
 394  2454.539
 395  2926.458
 396  2915.006
 397  3136.331
 398  3048.041
 399  2724.91
 400  2940.806
 401  2828.625
 402  2772.859
 403  2777.19
 404  2873.091
 405  2998.061
 406  2826.465
 407  2756.755
 408  2448.05
 409  2547.669
 410  2602.117
 411  2503.161
 412  2629.597
 413  2707.182
 414  2890.448
 415  2873.586
 416  2828.09
 417  2599.363
 418  2675.708
 419  2475.039
 420  2318.981
 421  2297.493
 422  2848.023
 423  2868.155
 424  2529.236
 425  2812.832
 426  2783.39
 427  2340.825
 428  2545.891
 429  2999.974
 430  3077.78
 431  3073.771
 432  3136.198
 433  3141.175
 434  3275.722
 435  3109.997
 436  3164.968
 437  2823.77
 438  2886.769
 439  2703.946
 440  2514.067
 441  2670.8
 442  2726.698
 443  2589.322
 444  2690.495
 445  2764.814
 446  2695.424
 447  2757.907
 448  3008.84
 449  2566.653
 450  2624.908
 451  2868.659
 452  2810.402
 453  2670.616
 454  2849.614
 455  2948.198
 456  2961.833
 457  2411.698
 458  2536.059
 459  2496.907
 460  2251.921
 461  2676.338
 462  2989.797
 463  3021.591
 464  2808.234
 465  2685.818
 466  2759.724
 467  2923.802
 468  2655.294
 469  2633.464
 470  2259.993
 471  2571.589
 472  2917.352
 473  2740.628
 474  2538.489
 475  2389.761
 476  2480.512
 477  2576.543
 478  2701.035
 479  2821.563
 480  2884.805
 481  2941.329
 482  2690.724
 483  2795.164
 484  2511.585
 485  2447.453
 486  2837.884
 487  3013.055
 488  2836.636
 489  2820.935
 490  2700.55
 491  2528.853
 492  2451.884
 493  2401.542
 494  2573.384
 495  2769.074
 496  2982.76
 497  3253.834
 498  3147.628
 499  2872.861
 500  2957.699
 501  2771.785
 502  3557.278
 503  4086.375
 504  4247.973
 505  4102.254
 506  4002.224
 507  3594.596
 508  2893.663
 509  2629.068
 510  2868.5
 511  2669.255
