# Input file       =  1192931700.156139-PSRB0329-2ms-sampling-dd.dat
# Candidate        =  PSR_0332+5434
# Telescope        =  AR
# Epoch_topo       =  58051.080082825683
# Epoch_bary       =  N/A
# T_sample         =  0.002
# Data Folded      =  7340032
# Data Avg         =  -3.86644873422191e-10
# Data StdDev      =  6.20981396180373 
# Profile Bins     =  512
# Profile Avg      =  0.0461313211468886
# Profile StdDev   =  743.519880981596 
# Reduced chi-sqr  =  0.906
# Prob(Noise)      <  0.937   (~0.0 sigma)
# P_topo (ms)      =  714.489918197784  +/- 0.000186
# P'_topo (s/s)    =  -0                +/- 9.79e-11
# P''_topo (s/s^2) =  0                 +/- 4.32e-14
# P_bary (ms)      =  N/A
# P'_bary (s/s)    =  N/A
# P''_bary (s/s^2) =  N/A
# P_orb (s)        =  N/A
# asin(i)/c (s)    =  N/A
# eccentricity     =  N/A
# w (rad)          =  N/A
# T_peri           =  N/A
######################################################
   0  215.7016
   1  98.09111
   2  9.647476
   3  9.161761
   4  153.7772
   5  -90.19912
   6  -145.5472
   7  -124.9103
   8  115.9216
   9  -370.0728
  10  42.87565
  11  81.12891
  12  438.517
  13  726.0893
  14  858.1173
  15  406.7382
  16  59.17268
  17  229.9042
  18  703.9676
  19  389.0149
  20  463.6703
  21  494.9219
  22  10.25717
  23  118.7129
  24  11.78964
  25  166.3998
  26  871.23
  27  613.7857
  28  591.4542
  29  258.8567
  30  259.0087
  31  445.3236
  32  641.5798
  33  751.4528
  34  636.9009
  35  532.6931
  36  57.96511
  37  -47.23257
  38  -59.70363
  39  -305.6709
  40  -404.1799
  41  378.5904
  42  313.3829
  43  302.6875
  44  492.7508
  45  202.2139
  46  -201.2116
  47  -326.5434
  48  -151.7013
  49  155.492
  50  299.4238
  51  76.97391
  52  -78.30683
  53  -506.4516
  54  -38.83931
  55  -151.4054
  56  -41.30904
  57  239.0608
  58  -59.87168
  59  -413.303
  60  -408.6205
  61  -758.2862
  62  -738.644
  63  -124.9841
  64  -76.53326
  65  -183.3875
  66  -98.73402
  67  90.51208
  68  -159.4032
  69  -294.3217
  70  -320.2256
  71  -295.3674
  72  -163.4925
  73  15.01684
  74  -203.4427
  75  -573.2435
  76  -618.3572
  77  -636.8799
  78  126.5138
  79  -416.2376
  80  -522.0313
  81  -292.2057
  82  -283.972
  83  202.2343
  84  3.872013
  85  124.2319
  86  -39.96697
  87  -293.9177
  88  -562.422
  89  -291.7024
  90  24.25157
  91  136.4265
  92  -56.9307
  93  -454.3999
  94  -697.2831
  95  -426.7135
  96  -480.4199
  97  -219.3039
  98  -71.05263
  99  -43.37465
 100  215.3547
 101  -534.7759
 102  -626.7778
 103  -827.6805
 104  -772.3316
 105  -683.6298
 106  -144.6894
 107  -246.1527
 108  -305.9243
 109  -170.9282
 110  -41.16422
 111  209.4829
 112  311.8418
 113  46.78725
 114  -158.0595
 115  -159.2077
 116  -98.68028
 117  51.9437
 118  205.5985
 119  -58.61591
 120  -422.836
 121  -666.8018
 122  -262.7612
 123  -367.5965
 124  -289.5762
 125  63.96082
 126  140.8051
 127  252.1035
 128  -127.0664
 129  -108.407
 130  188.4272
 131  558.5924
 132  715.8458
 133  580.6304
 134  179.0749
 135  59.51766
 136  644.2423
 137  1156.148
 138  1509.034
 139  1738.634
 140  1923.153
 141  1008.426
 142  276.2877
 143  156.5292
 144  88.49381
 145  572.184
 146  2236.597
 147  3045.522
 148  3608.626
 149  3730.21
 150  772.5276
 151  842.7698
 152  1538.546
 153  2164.029
 154  2060.761
 155  1538.774
 156  1461.601
 157  444.821
 158  -323.3191
 159  194.4691
 160  18.46524
 161  387.8484
 162  498.8281
 163  9.039713
 164  19.09546
 165  26.16221
 166  -127.6941
 167  275.3399
 168  -110.8811
 169  -481.2764
 170  -707.0212
 171  -566.5663
 172  -216.5121
 173  -35.68976
 174  26.13556
 175  102.7454
 176  -103.9205
 177  -178.5838
 178  2.002788
 179  -19.12324
 180  99.21171
 181  240.4554
 182  471.1295
 183  542.7941
 184  396.5053
 185  161.6608
 186  -314.253
 187  -269.7139
 188  66.72757
 189  224.7118
 190  99.2573
 191  -78.68043
 192  130.533
 193  -184.4946
 194  -324.4277
 195  -112.7006
 196  167.1087
 197  -115.9208
 198  253.8992
 199  519.2856
 200  276.4062
 201  71.46339
 202  26.13305
 203  -24.88225
 204  -610.4661
 205  -179.1011
 206  -38.62701
 207  106.9526
 208  266.5061
 209  4.895143
 210  -296.7637
 211  -826.0398
 212  -793.5216
 213  -123.0449
 214  109.2013
 215  181.4715
 216  99.13215
 217  -36.57224
 218  -140.0938
 219  -79.21382
 220  279.0309
 221  309.4537
 222  52.37086
 223  -174.526
 224  -9.330991
 225  -97.53729
 226  -23.42944
 227  -320.3252
 228  -198.8513
 229  -74.82694
 230  131.4395
 231  37.05804
 232  -232.8788
 233  -334.3182
 234  -508.0578
 235  -581.4275
 236  -628.0608
 237  -715.4254
 238  -556.5153
 239  -309.8281
 240  260.919
 241  415.3633
 242  -19.57954
 243  25.6683
 244  49.61559
 245  448.0887
 246  -46.89828
 247  -146.1556
 248  291.4476
 249  1194.091
 250  1108.995
 251  442.9625
 252  79.68517
 253  -148.2241
 254  -426.3903
 255  -621.4224
 256  -447.6765
 257  -512.4706
 258  -423.3378
 259  -530.3067
 260  -648.842
 261  -756.1447
 262  -934.5299
 263  -517.7515
 264  -609.2128
 265  -177.8696
 266  32.24012
 267  -106.4533
 268  -271.832
 269  -225.3645
 270  -156.8559
 271  -76.23706
 272  125.6778
 273  106.4912
 274  -46.89105
 275  -449.0166
 276  -508.7593
 277  -603.5927
 278  -689.7971
 279  -63.84733
 280  341.0115
 281  311.8709
 282  117.0347
 283  -50.97912
 284  17.00827
 285  -290.565
 286  -564.5339
 287  -361.1028
 288  -388.5066
 289  -445.406
 290  -203.3174
 291  -201.8652
 292  -544.5732
 293  -349.2934
 294  -508.0941
 295  -478.4675
 296  -53.14244
 297  7.682699
 298  -154.4777
 299  93.28632
 300  350.5206
 301  -165.016
 302  -345.1904
 303  -200.9615
 304  67.09148
 305  -229.7792
 306  -149.6397
 307  -138.959
 308  -45.83543
 309  139.471
 310  14.20775
 311  224.3371
 312  -14.19736
 313  224.9068
 314  45.48732
 315  -138.494
 316  -338.3536
 317  -39.72815
 318  133.1134
 319  -220.0417
 320  13.57547
 321  -252.4195
 322  -93.2119
 323  -87.00674
 324  -350.412
 325  -531.6292
 326  -707.0765
 327  -595.8724
 328  -314.906
 329  372.0649
 330  312.5403
 331  74.93474
 332  90.76151
 333  -216.5896
 334  -271.1985
 335  20.87235
 336  276.6406
 337  436.2199
 338  470.0231
 339  237.0088
 340  -518.7932
 341  -321.0504
 342  8.892451
 343  324.2559
 344  667.2896
 345  224.8946
 346  16.64991
 347  13.67081
 348  -419.8174
 349  156.1904
 350  652.833
 351  409.1664
 352  546.4954
 353  -37.09611
 354  -299.4572
 355  -782.9126
 356  -1039.532
 357  -518.0629
 358  -50.08358
 359  288.0453
 360  -103.8299
 361  -145.7371
 362  -391.3439
 363  -448.838
 364  -404.7596
 365  -414.5002
 366  -171.0319
 367  -524.2755
 368  -604.4307
 369  -487.3742
 370  -245.6079
 371  -91.1259
 372  -136.5701
 373  -251.3887
 374  -711.9117
 375  -704.1074
 376  -614.4755
 377  -151.8751
 378  -148.6093
 379  93.83723
 380  -168.661
 381  -365.9069
 382  -435.2245
 383  -401.932
 384  -484.7336
 385  -517.7431
 386  -229.5246
 387  -239.7369
 388  -552.5669
 389  -686.138
 390  -750.1965
 391  -594.9225
 392  -199.9549
 393  -129.3638
 394  -80.79826
 395  -224.906
 396  -325.758
 397  -303.5237
 398  -395.0404
 399  -560.2039
 400  -574.9509
 401  45.45862
 402  -254.1288
 403  -371.6637
 404  -545.9641
 405  -12.14077
 406  39.63795
 407  -311.5936
 408  -731.9269
 409  -295.1476
 410  -320.135
 411  -264.3499
 412  -511.3255
 413  7.12181
 414  116.752
 415  -256.1809
 416  -59.75811
 417  -197.7379
 418  -150.1428
 419  -270.9471
 420  -380.3782
 421  16.19278
 422  -23.43295
 423  -172.382
 424  -137.2052
 425  6.379943
 426  -65.76322
 427  -275.1175
 428  -57.74633
 429  -286.8337
 430  -416.6143
 431  -66.06017
 432  448.4244
 433  866.3456
 434  843.2184
 435  811.6411
 436  296.7937
 437  18.31544
 438  -58.57933
 439  -83.07188
 440  184.8237
 441  281.5203
 442  499.3232
 443  517.0917
 444  446.9182
 445  136.0734
 446  197.6933
 447  139.5537
 448  -449.6288
 449  -332.6018
 450  -476.9345
 451  28.60062
 452  -136.9882
 453  243.8483
 454  147.9016
 455  -340.0152
 456  -570.8624
 457  -315.389
 458  -311.5893
 459  -101.7747
 460  68.81409
 461  396.4894
 462  47.90615
 463  -80.1961
 464  -98.30016
 465  92.89594
 466  240.363
 467  426.2129
 468  282.3912
 469  363.6815
 470  126.9653
 471  193.0163
 472  500.0539
 473  974.3256
 474  831.9124
 475  311.6012
 476  -59.33989
 477  -75.84897
 478  49.17008
 479  -60.27523
 480  408.5174
 481  289.3138
 482  -116.6001
 483  -170.3712
 484  -630.5763
 485  -123.8311
 486  92.57096
 487  36.66349
 488  95.49022
 489  -214.7831
 490  -221.1052
 491  -582.4837
 492  -90.49802
 493  123.4877
 494  542.2477
 495  565.3772
 496  486.4528
 497  261.9181
 498  -517.8588
 499  -98.91702
 500  157.8852
 501  362.2963
 502  344.571
 503  317.0581
 504  278.2102
 505  123.148
 506  -444.2536
 507  -417.0614
 508  56.33494
 509  249.2602
 510  48.61457
 511  94.8842
