# Input file       =  1192156340.126739_cleaned.dat
# Candidate        =  PSR_0332+5434
# Telescope        =  AR
# Epoch_topo       =  58042.106008411334
# Epoch_bary       =  N/A
# T_sample         =  0.002
# Data Folded      =  7340032
# Data Avg         =  0.0130718679169075
# Data StdDev      =  0.999886405736766
# Profile Bins     =  512
# Profile Avg      =  187.415450378426 
# Profile StdDev   =  119.719435390714 
# Reduced chi-sqr  =  1.570
# Prob(Noise)      <  2.62e-15   (~7.8 sigma)
# P_topo (ms)      =  714.482699999308  +/- 0.000164
# P'_topo (s/s)    =  -0                +/- 8.64e-11
# P''_topo (s/s^2) =  0                 +/- 3.82e-14
# P_bary (ms)      =  N/A
# P'_bary (s/s)    =  N/A
# P''_bary (s/s^2) =  N/A
# P_orb (s)        =  N/A
# asin(i)/c (s)    =  N/A
# eccentricity     =  N/A
# w (rad)          =  N/A
# T_peri           =  N/A
######################################################
   0  221.684
   1  116.6396
   2  213.3511
   3  273.7207
   4  204.3341
   5  155.8017
   6  216.0237
   7  232.7762
   8  138.1785
   9  195.7574
  10  276.4384
  11  166.6422
  12  -0.1983274
  13  92.19594
  14  127.194
  15  222.08
  16  303.3906
  17  173.7242
  18  94.07565
  19  87.33337
  20  83.29107
  21  13.89284
  22  7.594221
  23  63.64228
  24  62.02377
  25  96.51147
  26  158.884
  27  209.332
  28  157.4511
  29  172.4118
  30  190.1682
  31  192.2831
  32  131.2245
  33  105.0561
  34  110.0728
  35  44.03805
  36  120.7034
  37  96.75418
  38  46.45213
  39  22.62828
  40  -5.770873
  41  65.22273
  42  53.78965
  43  64.73756
  44  86.03625
  45  51.41879
  46  155.6824
  47  108.2456
  48  133.2776
  49  218.4948
  50  133.2691
  51  291.0373
  52  367.2433
  53  197.7541
  54  93.63399
  55  132.6896
  56  137.648
  57  58.77716
  58  166.8939
  59  152.3147
  60  163.9507
  61  194.6324
  62  118.3547
  63  106.527
  64  103.3964
  65  150.5598
  66  36.71385
  67  17.47167
  68  259.545
  69  233.8275
  70  189.956
  71  205.202
  72  98.89341
  73  88.74065
  74  162.5408
  75  221.8042
  76  303.2423
  77  225.5173
  78  288.0874
  79  154.9497
  80  49.8721
  81  84.41123
  82  197.8692
  83  332.4951
  84  257.483
  85  195.8891
  86  219.6353
  87  131.2932
  88  215.6286
  89  230.0482
  90  164.8361
  91  62.45016
  92  128.527
  93  273.1068
  94  234.0022
  95  145.5385
  96  232.612
  97  269.2408
  98  377.8112
  99  401.5997
 100  282.3424
 101  155.8429
 102  234.0603
 103  199.1577
 104  256.0648
 105  163.573
 106  181.9261
 107  350.6436
 108  276.4802
 109  218.6894
 110  100.0702
 111  207.295
 112  234.843
 113  319.4921
 114  287.4113
 115  173.662
 116  82.00098
 117  109.4348
 118  180.4865
 119  141.6386
 120  312.0851
 121  344.005
 122  214.6677
 123  235.9337
 124  206.931
 125  192.9103
 126  93.43202
 127  166.3789
 128  186.3349
 129  242.8092
 130  116.5407
 131  52.86116
 132  93.1357
 133  133.5078
 134  160.4382
 135  -2.406262
 136  -22.10104
 137  38.44675
 138  183.1449
 139  212.133
 140  279.4989
 141  203.1939
 142  194.5057
 143  239.0039
 144  150.6158
 145  262.3566
 146  161.4425
 147  126.5134
 148  217.9746
 149  205.2953
 150  146.7955
 151  203.458
 152  163.1403
 153  168.8485
 154  133.3614
 155  142.748
 156  279.4273
 157  268.4366
 158  140.3134
 159  228.1726
 160  262.8319
 161  150.7274
 162  106.1264
 163  46.94254
 164  150.8293
 165  242.4034
 166  137.6098
 167  198.9932
 168  236.5165
 169  288.9794
 170  4.113241
 171  19.90911
 172  188.8097
 173  292.2233
 174  385.8354
 175  220.182
 176  95.03609
 177  116.2536
 178  378.8573
 179  366.1767
 180  181.3685
 181  239.9157
 182  166.0573
 183  62.56499
 184  55.30031
 185  115.1585
 186  63.60146
 187  117.7316
 188  180.8007
 189  227.9233
 190  132.8297
 191  56.14019
 192  32.42593
 193  163.9018
 194  230.8313
 195  248.3818
 196  121.6227
 197  90.75172
 198  282.6619
 199  241.659
 200  109.9089
 201  203.4623
 202  251.7368
 203  235.4166
 204  254.844
 205  195.104
 206  158.526
 207  212.3168
 208  190.1257
 209  272.3954
 210  276.1311
 211  308.1493
 212  203.8349
 213  148.5976
 214  225.9476
 215  172.1482
 216  110.3436
 217  215.5505
 218  395.1685
 219  321.6021
 220  177.6959
 221  233.9991
 222  159.4372
 223  161.7472
 224  138.3395
 225  111.6644
 226  131.5883
 227  207.4664
 228  332.3946
 229  252.8633
 230  197.642
 231  165.7539
 232  120.9791
 233  153.9892
 234  245.4804
 235  268.0063
 236  193.6244
 237  253.8445
 238  240.6398
 239  187.2684
 240  134.6782
 241  213.0923
 242  282.6324
 243  87.09168
 244  60.73454
 245  78.29726
 246  81.2108
 247  37.93639
 248  96.51112
 249  147.9618
 250  127.9772
 251  209.7338
 252  278.4535
 253  235.2999
 254  199.3384
 255  -50.34801
 256  -57.55734
 257  240.1958
 258  170.5537
 259  110.5827
 260  141.3876
 261  159.7212
 262  95.42252
 263  60.6454
 264  54.30367
 265  30.49551
 266  21.71533
 267  144.4891
 268  201.9063
 269  160.1055
 270  123.6596
 271  68.57073
 272  -17.02198
 273  99.71973
 274  199.3406
 275  212.1999
 276  213.889
 277  311.2876
 278  170.1067
 279  144.7457
 280  262.2993
 281  267.1604
 282  150.5766
 283  218.8389
 284  197.5106
 285  246.2932
 286  175.0018
 287  45.24556
 288  140.7386
 289  74.75189
 290  200.843
 291  151.4749
 292  139.0858
 293  161.7119
 294  59.35362
 295  271.345
 296  139.7974
 297  14.00772
 298  23.59318
 299  175.8219
 300  253.5414
 301  93.88317
 302  215.5631
 303  249.9102
 304  257.7854
 305  172.278
 306  237.4722
 307  131.4821
 308  -22.65441
 309  45.73664
 310  68.07286
 311  65.97714
 312  87.40675
 313  249.9575
 314  330.8925
 315  265.208
 316  149.5974
 317  33.42913
 318  -30.41327
 319  104.642
 320  278.1592
 321  286.4705
 322  155.0081
 323  65.50661
 324  78.82946
 325  184.7871
 326  329.0444
 327  271.014
 328  192.2014
 329  257.2778
 330  390.1571
 331  318.993
 332  277.1302
 333  110.8402
 334  97.23977
 335  199.945
 336  211.928
 337  203.4377
 338  197.9965
 339  72.84274
 340  -6.063694
 341  46.69607
 342  169.3465
 343  40.09849
 344  161.4309
 345  287.3148
 346  178.9337
 347  106.0788
 348  178.0891
 349  260.944
 350  236.7746
 351  246.2693
 352  188.575
 353  197.0625
 354  308.1655
 355  136.4016
 356  56.07935
 357  101.5032
 358  203.194
 359  260.5236
 360  267.6148
 361  176.947
 362  329.0388
 363  336.5367
 364  403.4284
 365  459.2028
 366  636.056
 367  756.4078
 368  858.5763
 369  900.8736
 370  728.1718
 371  416.4382
 372  406.5213
 373  361.7262
 374  279.0711
 375  228.3226
 376  244.915
 377  96.86497
 378  135.1503
 379  262.5931
 380  152.4466
 381  213.6696
 382  313.646
 383  305.7574
 384  334.5722
 385  420.5344
 386  247.7965
 387  71.05733
 388  77.09444
 389  279.4089
 390  157.4257
 391  144.9606
 392  144.6504
 393  211.5149
 394  203.2478
 395  297.3108
 396  236.5647
 397  251.8029
 398  233.9837
 399  298.6445
 400  281.4166
 401  397.4966
 402  337.7678
 403  235.2191
 404  231.2866
 405  364.219
 406  222.0628
 407  144.2746
 408  53.73367
 409  202.7656
 410  265.6122
 411  270.8955
 412  201.2708
 413  99.71205
 414  54.09981
 415  140.5777
 416  245.6815
 417  363.1517
 418  62.3773
 419  86.72557
 420  154.4038
 421  89.58674
 422  28.75183
 423  37.94212
 424  117.2153
 425  195.3604
 426  164.3309
 427  193.4548
 428  154.8574
 429  349.6306
 430  351.38
 431  316.2461
 432  288.8403
 433  228.8681
 434  280.2156
 435  214.7368
 436  147.9194
 437  131.1266
 438  246.5834
 439  341.947
 440  87.63293
 441  145.8434
 442  240.9633
 443  190.3771
 444  199.0102
 445  181.8399
 446  230.362
 447  230.9159
 448  337.8443
 449  203.5083
 450  153.2387
 451  95.6716
 452  112.0654
 453  208.1118
 454  191.4788
 455  212.9599
 456  229.1437
 457  258.3333
 458  226.3759
 459  135.9561
 460  237.3923
 461  245.893
 462  162.3848
 463  265.0439
 464  86.43718
 465  84.87029
 466  220.7174
 467  241.8102
 468  194.8383
 469  141.2339
 470  262.6546
 471  200.1508
 472  76.54038
 473  171.5214
 474  190.4148
 475  141.0169
 476  44.01947
 477  -6.461141
 478  131.9123
 479  230.0557
 480  225.9551
 481  332.5291
 482  252.5306
 483  304.7944
 484  178.883
 485  210.412
 486  191.4593
 487  260.5734
 488  250.4113
 489  241.1181
 490  184.9726
 491  299.1584
 492  472.2258
 493  295.5862
 494  217.308
 495  241.3794
 496  111.7842
 497  138.2871
 498  -13.89453
 499  130.1378
 500  102.4355
 501  76.12053
 502  63.86666
 503  62.75955
 504  70.06837
 505  146.0158
 506  163.7667
 507  146.721
 508  280.8913
 509  311.8804
 510  217.6555
 511  213.6967
