# Input file       =  1192212944.130537_cleaned.dat
# Candidate        =  PSR_0332+5434
# Telescope        =  AR
# Epoch_topo       =  58042.761147344179
# Epoch_bary       =  N/A
# T_sample         =  0.002
# Data Folded      =  7405568
# Data Avg         =  0.0291545109991232
# Data StdDev      =  0.999961880153663
# Profile Bins     =  512
# Profile Avg      =  421.56080462406  
# Profile StdDev   =  120.2617864914   
# Reduced chi-sqr  =  1.369
# Prob(Noise)      <  5.17e-08   (~5.3 sigma)
# P_topo (ms)      =  714.482844676302  +/- 0.000161
# P'_topo (s/s)    =  -0                +/- 8.45e-11
# P''_topo (s/s^2) =  0                 +/- 3.7e-14
# P_bary (ms)      =  N/A
# P'_bary (s/s)    =  N/A
# P''_bary (s/s^2) =  N/A
# P_orb (s)        =  N/A
# asin(i)/c (s)    =  N/A
# eccentricity     =  N/A
# w (rad)          =  N/A
# T_peri           =  N/A
######################################################
   0  1003.144
   1  1238.134
   2  1118.076
   3  886.1979
   4  743.2258
   5  448.5135
   6  397.3102
   7  488.5043
   8  365.3806
   9  387.4664
  10  388.7595
  11  302.4031
  12  256.2545
  13  381.6746
  14  391.4322
  15  392.8572
  16  514.3759
  17  349.9791
  18  334.3145
  19  454.6372
  20  411.33
  21  361.1759
  22  456.6979
  23  397.7111
  24  391.7516
  25  467.8522
  26  531.6278
  27  471.4976
  28  535.0758
  29  446.0369
  30  329.4655
  31  350.8185
  32  351.8704
  33  435.0959
  34  589.973
  35  569.3379
  36  488.1255
  37  448.2179
  38  483.7132
  39  491.412
  40  429.4759
  41  510.4931
  42  583.7379
  43  361.4619
  44  317.0291
  45  403.0039
  46  577.8713
  47  457.9035
  48  340.2139
  49  427.5177
  50  485.8444
  51  553.4433
  52  533.3334
  53  336.7682
  54  252.8471
  55  405.8539
  56  407.0107
  57  359.4823
  58  477.4555
  59  367.4131
  60  309.7193
  61  386.416
  62  508.5935
  63  338.3239
  64  348.2748
  65  385.189
  66  308.5145
  67  183.248
  68  234.8231
  69  369.5191
  70  399.3409
  71  391.2057
  72  531.5212
  73  373.3331
  74  473.0255
  75  512.8607
  76  446.6722
  77  409.0861
  78  402.4189
  79  469.4996
  80  499.1203
  81  344.5395
  82  398.5508
  83  347.9257
  84  300.855
  85  347.2681
  86  369.9599
  87  490.2622
  88  482.4792
  89  456.4469
  90  481.1004
  91  411.2587
  92  369.4066
  93  355.9341
  94  272.4151
  95  337.3031
  96  426.7877
  97  539.611
  98  525.8526
  99  422.8625
 100  418.0279
 101  374.9491
 102  419.3996
 103  441.2563
 104  366.2097
 105  381.1337
 106  511.3876
 107  456.6873
 108  333.0777
 109  284.8673
 110  465.2548
 111  507.6042
 112  467.4102
 113  372.1105
 114  448.9589
 115  345.1113
 116  352.9761
 117  345.0049
 118  379.3942
 119  473.8644
 120  431.5361
 121  396.3493
 122  419.6535
 123  377.2355
 124  289.2823
 125  238.4316
 126  336.4192
 127  500.9053
 128  341.2242
 129  312.3283
 130  358.1206
 131  387.8207
 132  306.9886
 133  353.3929
 134  346.0849
 135  339.3175
 136  354.2512
 137  386.5056
 138  346.587
 139  425.5048
 140  422.0489
 141  334.575
 142  385.7884
 143  476.4615
 144  489.5595
 145  473.6975
 146  404.3689
 147  392.1238
 148  395.8518
 149  342.9599
 150  349.1357
 151  586.4458
 152  640.1328
 153  565.3309
 154  479.4142
 155  503.4296
 156  412.2939
 157  434.7295
 158  398.3723
 159  464.1412
 160  549.2117
 161  468.7119
 162  319.5261
 163  357.5533
 164  484.3977
 165  555.6385
 166  350.5036
 167  366.5355
 168  358.746
 169  465.9763
 170  344.0478
 171  419.2191
 172  462.7309
 173  563.1158
 174  505.036
 175  508.1359
 176  633.0103
 177  516.0903
 178  443.5502
 179  542.3746
 180  400.428
 181  263.3615
 182  383.0704
 183  390.8871
 184  320.3426
 185  405.7819
 186  429.4844
 187  344.8722
 188  235.8527
 189  278.9574
 190  422.2673
 191  365.8428
 192  341.507
 193  382.1509
 194  427.8163
 195  508.4335
 196  465.992
 197  373.3094
 198  442.059
 199  462.6001
 200  394.4454
 201  396.4505
 202  388.1015
 203  510.0296
 204  432.0959
 205  493.382
 206  477.0695
 207  405.1218
 208  414.2202
 209  377.2925
 210  255.4253
 211  282.0898
 212  417.3329
 213  317.9649
 214  231.1261
 215  468.8752
 216  451.1533
 217  518.8464
 218  501.1544
 219  379.8507
 220  341.9033
 221  448.0552
 222  415.4711
 223  423.3052
 224  448.9896
 225  530.7814
 226  473.9787
 227  528.3326
 228  512.0244
 229  492.3002
 230  514.3367
 231  426.9505
 232  507.0616
 233  495.7798
 234  393.834
 235  424.4511
 236  494.9127
 237  475.605
 238  534.1403
 239  553.9611
 240  461.2478
 241  428.8585
 242  537.7989
 243  407.2827
 244  555.1085
 245  636.8854
 246  616.3314
 247  445.2741
 248  483.0082
 249  505.8738
 250  510.722
 251  385.0913
 252  393.2097
 253  422.892
 254  436.1472
 255  390.284
 256  460.3619
 257  432.1216
 258  382.881
 259  379.1084
 260  449.2802
 261  579.5697
 262  532.98
 263  509.2927
 264  330.6318
 265  253.3743
 266  431.4839
 267  448.5579
 268  477.3788
 269  521.0737
 270  608.1681
 271  378.9919
 272  345.1262
 273  251.4483
 274  403.6845
 275  449.6808
 276  414.3855
 277  383.4484
 278  362.0486
 279  426.7513
 280  421.2977
 281  283.4041
 282  378.2192
 283  382.8216
 284  419.2916
 285  369.9256
 286  159.5882
 287  221.2611
 288  252.1884
 289  361.0328
 290  435.7155
 291  400.6396
 292  397.7515
 293  271.9189
 294  251.9935
 295  332.1221
 296  288.0505
 297  283.5632
 298  248.4311
 299  342.1599
 300  550.3492
 301  465.2135
 302  519.5681
 303  558.9756
 304  450.5576
 305  464.6914
 306  507.9754
 307  398.1024
 308  310.99
 309  384.3024
 310  420.0428
 311  462.0011
 312  433.704
 313  404.3566
 314  392.134
 315  380.8783
 316  272.3109
 317  307.157
 318  419.8141
 319  448.6878
 320  398.055
 321  447.8849
 322  518.0172
 323  428.7026
 324  500.39
 325  480.7652
 326  437.1387
 327  401.1008
 328  365.1877
 329  438.3712
 330  487.1954
 331  498.1088
 332  322.4597
 333  419.9151
 334  393.7918
 335  400.2125
 336  436.1535
 337  473.1641
 338  454.0501
 339  428.0502
 340  252.4515
 341  349.3286
 342  439.0524
 343  470.2996
 344  445.648
 345  446.0355
 346  508.6576
 347  435.1145
 348  499.3278
 349  371.2037
 350  291.1377
 351  433.3426
 352  437.5732
 353  293.8528
 354  401.0356
 355  314.8149
 356  419.9847
 357  475.9527
 358  479.4789
 359  469.42
 360  386.0121
 361  487.7641
 362  538.4738
 363  480.433
 364  394.7012
 365  342.4865
 366  400.5235
 367  355.2063
 368  474.2374
 369  388.6013
 370  485.218
 371  330.4021
 372  333.8882
 373  358.8098
 374  264.7596
 375  245.9927
 376  330.0352
 377  339.0748
 378  335.2011
 379  348.4897
 380  480.739
 381  393.9614
 382  365.8529
 383  362.215
 384  466.8445
 385  533.3771
 386  544.7226
 387  468.1592
 388  352.0082
 389  391.3097
 390  432.9883
 391  335.4508
 392  375.2624
 393  461.4779
 394  471.5122
 395  520.2523
 396  532.032
 397  475.6273
 398  413.3482
 399  365.0662
 400  531.9271
 401  616.1649
 402  504.4359
 403  422.965
 404  331.6391
 405  325.2239
 406  391.2872
 407  392.6056
 408  256.5076
 409  289.0807
 410  403.0577
 411  360.2132
 412  246.7253
 413  220.86
 414  424.5202
 415  387.3642
 416  424.6011
 417  300.9013
 418  354.0172
 419  351.2082
 420  363.7371
 421  450.7848
 422  349.3713
 423  322.9645
 424  375.4556
 425  402.233
 426  403.2035
 427  489.5594
 428  394.2032
 429  307.5577
 430  447.702
 431  454.6369
 432  403.951
 433  446.8874
 434  376.259
 435  397.8295
 436  539.3168
 437  517.535
 438  403.4869
 439  343.2538
 440  526.3144
 441  518.4513
 442  470.9439
 443  401.8433
 444  354.6851
 445  374.7111
 446  440.195
 447  417.403
 448  373.6474
 449  531.1661
 450  430.3296
 451  397.1432
 452  323.9243
 453  338.666
 454  271.7729
 455  386.4036
 456  470.4354
 457  510.7162
 458  426.682
 459  386.3697
 460  342.9896
 461  312.1913
 462  302.4846
 463  326.4933
 464  334.1513
 465  304.0183
 466  310.2118
 467  503.3193
 468  565.3797
 469  361.1166
 470  374.0628
 471  403.4287
 472  520.0184
 473  430.6979
 474  438.948
 475  498.452
 476  529.1437
 477  537.5507
 478  490.7521
 479  467.8347
 480  470.6781
 481  536.9341
 482  359.9571
 483  442.3481
 484  499.7155
 485  526.231
 486  442.838
 487  376.578
 488  309.3879
 489  348.8831
 490  371.387
 491  447.7713
 492  445.2082
 493  473.1771
 494  408.4221
 495  510.0934
 496  420.5496
 497  366.9063
 498  340.4964
 499  395.6
 500  509.4377
 501  324.4178
 502  276.1637
 503  426.9216
 504  393.4081
 505  378.3348
 506  375.9405
 507  421.8643
 508  479.4484
 509  561.2823
 510  578.7876
 511  831.7756
