# Input file       =  1192500920.129434_cleaned.dat
# Candidate        =  PSR_0332+5434
# Telescope        =  AR
# Epoch_topo       =  58046.094202886969
# Epoch_bary       =  N/A
# T_sample         =  0.002
# Data Folded      =  7340032
# Data Avg         =  0.04006338453993 
# Data StdDev      =  2.9510707253143  
# Profile Bins     =  256
# Profile Avg      =  1148.89961811175 
# Profile StdDev   =  499.699151394857 
# Reduced chi-sqr  =  1.889
# Prob(Noise)      <  3.74e-16   (~8.1 sigma)
# P_topo (ms)      =  714.485789120222  +/- 0.000358
# P'_topo (s/s)    =  -0                +/- 1.89e-10
# P''_topo (s/s^2) =  0                 +/- 8.34e-14
# P_bary (ms)      =  N/A
# P'_bary (s/s)    =  N/A
# P''_bary (s/s^2) =  N/A
# P_orb (s)        =  N/A
# asin(i)/c (s)    =  N/A
# eccentricity     =  N/A
# w (rad)          =  N/A
# T_peri           =  N/A
######################################################
   0  1314.603
   1  819.6577
   2  757.9989
   3  564.3827
   4  193.8073
   5  1050.561
   6  1909.767
   7  712.5532
   8  1066.426
   9  753.4515
  10  1118.684
  11  483.5319
  12  260.4919
  13  598.2927
  14  622.7731
  15  182.1485
  16  1284.517
  17  992.2411
  18  494.5641
  19  23.49927
  20  458.8939
  21  1096.63
  22  1398.91
  23  855.5417
  24  1213.631
  25  1280.391
  26  1429.002
  27  622.8541
  28  808.6103
  29  598.8898
  30  689.2705
  31  1206.926
  32  487.4408
  33  744.6984
  34  849.6241
  35  301.5426
  36  1054.444
  37  1110.352
  38  1346.388
  39  1521.693
  40  1488.342
  41  1251.013
  42  1677.515
  43  1545.666
  44  1066.298
  45  1540.881
  46  1808.597
  47  1852.054
  48  1406.198
  49  1445.323
  50  1207.341
  51  1212.101
  52  699.9786
  53  309.425
  54  679.8829
  55  1567.999
  56  1025.378
  57  1308.019
  58  1371.315
  59  1356.867
  60  652.4439
  61  1428.697
  62  1497.106
  63  992.509
  64  1042.143
  65  1943.194
  66  1370.724
  67  1023.034
  68  1121.137
  69  1711.387
  70  1430.918
  71  1208.81
  72  1188.217
  73  927.3377
  74  988.0444
  75  794.9098
  76  622.5833
  77  1137.238
  78  1353.828
  79  1174.787
  80  1482.035
  81  1211.081
  82  1127.721
  83  1570.938
  84  1385.776
  85  1548.615
  86  1543.54
  87  1209.512
  88  1172.612
  89  1116.832
  90  554.9462
  91  432.5739
  92  1486.365
  93  1195.676
  94  771.5621
  95  402.151
  96  1275.232
  97  1775.905
  98  2149.851
  99  2087.496
 100  983.4764
 101  1185.463
 102  1254.961
 103  968.8632
 104  929.2189
 105  1641.405
 106  1153.599
 107  1125.239
 108  620.5714
 109  1041.418
 110  801.6829
 111  1518.292
 112  1304.463
 113  1407.531
 114  1633.222
 115  803.9404
 116  958.8351
 117  915.9642
 118  558.4276
 119  1201.662
 120  1357.796
 121  1238.479
 122  1448.18
 123  967.3786
 124  1052.285
 125  321.5659
 126  818.2194
 127  913.7615
 128  561.1957
 129  1106.457
 130  161.7173
 131  232.9548
 132  610.2488
 133  1564.224
 134  1287.216
 135  270.8638
 136  611.7819
 137  773.9498
 138  878.4073
 139  964.5433
 140  568.9592
 141  1223.762
 142  776.5556
 143  1512.901
 144  852.0232
 145  512.9719
 146  567.9458
 147  1609.745
 148  893.9885
 149  1741.887
 150  1429.631
 151  2333.495
 152  1289.672
 153  1450.819
 154  903.2485
 155  1975.862
 156  2248.964
 157  2974.75
 158  4913.526
 159  5640.455
 160  3314.133
 161  1735.198
 162  1557.704
 163  1776.297
 164  1493.564
 165  1810.873
 166  1239.708
 167  1343.431
 168  1597.613
 169  814.15
 170  1987.846
 171  1316.201
 172  1346.649
 173  1139.18
 174  928.5632
 175  1150.431
 176  1126.632
 177  1394.105
 178  881.6034
 179  1088.841
 180  821.6669
 181  1642.936
 182  1510.137
 183  974.941
 184  669.9648
 185  536.1481
 186  1155.521
 187  1498.446
 188  783.0387
 189  1007.689
 190  544.2114
 191  801.0852
 192  1620.249
 193  949.577
 194  1014.297
 195  693.7267
 196  1766.715
 197  1580.919
 198  1389.189
 199  924.9886
 200  1709.472
 201  1205.318
 202  1743.518
 203  572.4178
 204  1190.335
 205  1314.808
 206  1198.415
 207  1689.742
 208  948.2686
 209  1024.571
 210  482.4026
 211  858.9145
 212  1472.717
 213  1072.41
 214  1351.637
 215  1781.954
 216  1090.953
 217  1316.375
 218  1373.972
 219  2011.028
 220  1248.782
 221  1552.391
 222  1417.012
 223  1247.062
 224  484.6458
 225  68.91119
 226  509.3035
 227  609.5605
 228  635.1484
 229  1189.642
 230  640.5538
 231  564.5345
 232  691.0713
 233  936.0668
 234  1120.871
 235  1252.051
 236  898.7611
 237  571.1618
 238  547.3767
 239  320.6592
 240  968.1983
 241  751.8316
 242  1215.377
 243  1464.667
 244  1232.717
 245  1343.421
 246  595.1996
 247  694.7376
 248  1608.073
 249  1300.58
 250  943.6067
 251  870.2635
 252  1314.144
 253  1431.365
 254  802.8047
 255  958.388
