# Input file       =  1192845516.153047_cleaned.dat
# Candidate        =  PSR_0332+5434
# Telescope        =  AR
# Epoch_topo       =  58050.082582789895
# Epoch_bary       =  N/A
# T_sample         =  0.002
# Data Folded      =  7340032
# Data Avg         =  0.0187592532303253
# Data StdDev      =  0.999954331093703
# Profile Bins     =  512
# Profile Avg      =  268.922750986751 
# Profile StdDev   =  119.727568299947 
# Reduced chi-sqr  =  1.494
# Prob(Noise)      <  2.72e-12   (~6.9 sigma)
# P_topo (ms)      =  714.489069798151  +/- 0.000131
# P'_topo (s/s)    =  -0                +/- 6.89e-11
# P''_topo (s/s^2) =  0                 +/- 3.04e-14
# P_bary (ms)      =  N/A
# P'_bary (s/s)    =  N/A
# P''_bary (s/s^2) =  N/A
# P_orb (s)        =  N/A
# asin(i)/c (s)    =  N/A
# eccentricity     =  N/A
# w (rad)          =  N/A
# T_peri           =  N/A
######################################################
   0  181.0667
   1  213.8872
   2  224.8518
   3  170.3182
   4  192.7341
   5  80.13966
   6  194.1575
   7  283.8485
   8  264.6983
   9  250.6158
  10  179.737
  11  166.1095
  12  192.6239
  13  304.4281
  14  300.4372
  15  274.2106
  16  263.5848
  17  313.367
  18  356.6317
  19  316.2832
  20  276.7315
  21  331.2969
  22  209.4439
  23  86.30885
  24  56.7918
  25  55.68529
  26  143.8737
  27  144.3594
  28  290.3328
  29  392.2261
  30  357.4272
  31  179.6264
  32  248.4083
  33  154.2626
  34  151.2799
  35  121.2077
  36  148.8311
  37  210.5625
  38  239.4867
  39  251.5763
  40  282.7497
  41  286.7573
  42  211.5631
  43  237.0414
  44  169.1432
  45  193.5971
  46  276.3655
  47  394.7524
  48  310.2834
  49  384.5974
  50  295.7033
  51  243.0432
  52  197.7121
  53  246.5062
  54  251.4345
  55  341.7777
  56  300.4265
  57  169.6343
  58  107.1699
  59  241.1529
  60  289.7969
  61  343.0345
  62  311.0595
  63  256.1777
  64  201.0436
  65  145.0168
  66  281.1444
  67  261.2564
  68  168.4907
  69  296.529
  70  366.9839
  71  288.2142
  72  110.1648
  73  207.1006
  74  181.1154
  75  303.7296
  76  358.1899
  77  352.2881
  78  240.8539
  79  227.7695
  80  356.7654
  81  319.0321
  82  346.4752
  83  254.4078
  84  326.2471
  85  291.1565
  86  277.552
  87  218.9418
  88  211.1396
  89  207.3258
  90  335.6963
  91  389.6225
  92  415.137
  93  372.2226
  94  173.6929
  95  190.2903
  96  178.6065
  97  41.59946
  98  167.1339
  99  301.2586
 100  279.3725
 101  219.9155
 102  322.7184
 103  266.9961
 104  264.1273
 105  404.7106
 106  357.7337
 107  295.9228
 108  258.2862
 109  251.4427
 110  122.5009
 111  189.8184
 112  214.1131
 113  277.4277
 114  532.4489
 115  434.0688
 116  276.5621
 117  149.8841
 118  35.4304
 119  87.28506
 120  165.2334
 121  188.523
 122  272.6403
 123  310.1985
 124  330.8448
 125  302.8013
 126  246.1902
 127  339.0683
 128  415.4086
 129  340.2849
 130  378.0529
 131  454.129
 132  336.7951
 133  209.856
 134  330.4657
 135  359.917
 136  333.3842
 137  155.6663
 138  174.185
 139  286.4568
 140  309.31
 141  297.1589
 142  356.1031
 143  362.7461
 144  224.4653
 145  131.3996
 146  137.0826
 147  232.4059
 148  308.8062
 149  428.6188
 150  353.6279
 151  294.0353
 152  231.6229
 153  190.7305
 154  273.1299
 155  256.256
 156  244.0869
 157  272.9138
 158  271.9353
 159  272.8328
 160  317.3818
 161  297.0307
 162  319.9537
 163  284.8304
 164  237.378
 165  118.0453
 166  54.58255
 167  92.92101
 168  171.2981
 169  204.2585
 170  212.2593
 171  311.9884
 172  365.4901
 173  300.2361
 174  223.7957
 175  162.3928
 176  239.5282
 177  319.5751
 178  253.6891
 179  161.2528
 180  276.3154
 181  330.7271
 182  169.4776
 183  148.5552
 184  288.1329
 185  280.9769
 186  210.006
 187  303.9676
 188  284.362
 189  339.257
 190  303.5662
 191  238.522
 192  277.3682
 193  223.0218
 194  185.7925
 195  170.9833
 196  138.7881
 197  116.4797
 198  191.4372
 199  264.9852
 200  227.7782
 201  140.9759
 202  219.7926
 203  251.3177
 204  297.6205
 205  330.5235
 206  367.0759
 207  351.9168
 208  201.3363
 209  237.0379
 210  299.7892
 211  269.0057
 212  154.2696
 213  191.7526
 214  269.8943
 215  278.537
 216  260.4182
 217  309.4307
 218  283.1911
 219  365.6978
 220  415.9502
 221  456.2678
 222  418.4927
 223  190.8376
 224  218.6751
 225  356.9776
 226  446.4328
 227  391.2659
 228  392.0313
 229  346.7941
 230  152.9278
 231  175.3132
 232  228.8567
 233  248.0881
 234  315.2366
 235  428.8676
 236  539.4299
 237  709.1089
 238  838.9631
 239  944.1431
 240  984.294
 241  778.8422
 242  588.948
 243  386.9207
 244  318.6511
 245  328.1069
 246  363.0136
 247  271.0693
 248  264.67
 249  213.3552
 250  251.1157
 251  344.8798
 252  411.7945
 253  498.0549
 254  413.588
 255  307.8131
 256  360.3102
 257  283.7274
 258  212.8269
 259  222.0859
 260  431.8918
 261  324.4524
 262  328.9521
 263  316.8843
 264  282.4493
 265  364.9345
 266  411.3251
 267  283.2455
 268  234.1928
 269  147.4426
 270  290.726
 271  331.5356
 272  325.1785
 273  311.3384
 274  289.3651
 275  248.4631
 276  239.0434
 277  284.3919
 278  255.3724
 279  213.1336
 280  89.61423
 281  289.9904
 282  172.9182
 283  160.032
 284  260.0679
 285  322.0278
 286  211.4127
 287  239.5265
 288  286.5514
 289  256.0128
 290  302.4904
 291  304.1413
 292  196.8623
 293  152.1226
 294  228.9093
 295  268.6013
 296  283.4989
 297  198.925
 298  204.2435
 299  260.1897
 300  149.0149
 301  315.0977
 302  386.5278
 303  321.2374
 304  344.9812
 305  319.8953
 306  156.5949
 307  132.1846
 308  92.43077
 309  181.1585
 310  248.7885
 311  298.0343
 312  335.4773
 313  189.5228
 314  136.3098
 315  341.5382
 316  438.2905
 317  406.5024
 318  348.6761
 319  352.8704
 320  312.1182
 321  212.0369
 322  304.1446
 323  324.4344
 324  257.796
 325  309.4323
 326  300.8323
 327  366.3573
 328  352.985
 329  183.5036
 330  175.6543
 331  231.5078
 332  213.3762
 333  330.1136
 334  430.2904
 335  300.6306
 336  210.6839
 337  245.677
 338  229.3951
 339  256.5909
 340  287.3018
 341  236.7318
 342  157.4828
 343  131.7318
 344  228.422
 345  201.9789
 346  276.4818
 347  186.5216
 348  172.9977
 349  260.0097
 350  304.4301
 351  197.124
 352  278.8443
 353  335.2997
 354  236.7501
 355  271.5281
 356  296.8333
 357  257.1887
 358  290.922
 359  369.2284
 360  166.4844
 361  196.3789
 362  237.715
 363  164.7115
 364  254.4897
 365  484.993
 366  347.8719
 367  289.3578
 368  277.0481
 369  285.5408
 370  138.1301
 371  98.53748
 372  138.8022
 373  240.5269
 374  228.2577
 375  224.7519
 376  290.5501
 377  347.3096
 378  386.9977
 379  316.9284
 380  298.2438
 381  352.1895
 382  241.7258
 383  235.6548
 384  149.4435
 385  163.1469
 386  254.5654
 387  316.5513
 388  303.8297
 389  198.9421
 390  176.4022
 391  193.8012
 392  243.218
 393  353.4684
 394  278.4352
 395  353.3775
 396  202.5329
 397  199.1009
 398  272.292
 399  212.5623
 400  302.4043
 401  363.0577
 402  326.1439
 403  267.716
 404  278.2737
 405  240.4799
 406  259.1051
 407  272.8363
 408  398.5059
 409  341.4993
 410  313.4234
 411  274.1523
 412  150.0417
 413  134.8602
 414  223.0759
 415  220.0453
 416  414.1049
 417  349.9186
 418  272.8979
 419  237.7434
 420  240.0438
 421  245.1691
 422  241.0207
 423  87.74342
 424  39.49758
 425  354.2356
 426  464.5035
 427  295.2227
 428  282.1488
 429  358.3474
 430  179.2337
 431  167.445
 432  284.1858
 433  353.759
 434  212.4409
 435  274.3287
 436  222.4952
 437  286.0809
 438  257.4121
 439  184.0977
 440  164.7224
 441  290.4095
 442  232.3088
 443  271.3345
 444  241.0849
 445  360.8924
 446  413.1068
 447  248.134
 448  208.0189
 449  96.4441
 450  154.7348
 451  307.4003
 452  425.4106
 453  390.3079
 454  72.71722
 455  94.38474
 456  197.8818
 457  233.6259
 458  372.0084
 459  190.6545
 460  187.1316
 461  330.0476
 462  267.4501
 463  168.0194
 464  13.21027
 465  167.6397
 466  264.2366
 467  294.1998
 468  356.2441
 469  335.4324
 470  324.6551
 471  210.6229
 472  284.3446
 473  431.0935
 474  489.437
 475  399.1094
 476  335.4555
 477  403.9363
 478  373.814
 479  358.5963
 480  406.2344
 481  357.9326
 482  212.3493
 483  177.4209
 484  218.1576
 485  298.873
 486  392.3947
 487  293.3542
 488  239.9863
 489  257.9549
 490  222.0677
 491  107.5834
 492  190.4577
 493  357.4687
 494  354.8905
 495  165.0797
 496  136.609
 497  30.78614
 498  34.60062
 499  365.2927
 500  341.697
 501  196.2637
 502  134.9736
 503  144.7732
 504  238.4565
 505  283.3865
 506  369.105
 507  202.0935
 508  158.1945
 509  242.9503
 510  204.6233
 511  168.6998
