# Input file       =  1192500920.129434-PSRB0329-2ms-sampling-dd.dat
# Candidate        =  PSR_0332+5434
# Telescope        =  AR
# Epoch_topo       =  58046.094202886969
# Epoch_bary       =  N/A
# T_sample         =  0.002
# Data Folded      =  7340032
# Data Avg         =  -1.13100335105681e-09
# Data StdDev      =  35.2486149148141 
# Profile Bins     =  512
# Profile Avg      =  0.145060246084805
# Profile StdDev   =  4220.42369182605 
# Reduced chi-sqr  =  1.089
# Prob(Noise)      <  0.0797   (~1.4 sigma)
# P_topo (ms)      =  714.485789057863  +/- 0.0174
# P'_topo (s/s)    =  -0                +/- 1.85e-08
# P''_topo (s/s^2) =  0                 +/- 8.1e-12
# P_bary (ms)      =  N/A
# P'_bary (s/s)    =  N/A
# P''_bary (s/s^2) =  N/A
# P_orb (s)        =  N/A
# asin(i)/c (s)    =  N/A
# eccentricity     =  N/A
# w (rad)          =  N/A
# T_peri           =  N/A
######################################################
   0  -501.3504
   1  -822.1557
   2  -562.6559
   3  -431.4776
   4  -686.7968
   5  -933.4727
   6  -843.9998
   7  -743.9243
   8  -442.4799
   9  -494.3734
  10  -497.3943
  11  -253.1158
  12  -301.8557
  13  -279.0565
  14  -268.1769
  15  -323.9857
  16  -569.9471
  17  -434.755
  18  -518.4907
  19  -538.5305
  20  -317.2941
  21  -689.8691
  22  -684.1048
  23  -483.4599
  24  -485.7218
  25  -497.2773
  26  -518.6194
  27  -380.3702
  28  -236.4688
  29  44.46154
  30  279.3864
  31  -34.438
  32  -231.2138
  33  -233.3306
  34  -204.0765
  35  -90.12934
  36  -570.8075
  37  -130.6971
  38  -131.4165
  39  -185.6745
  40  16.27828
  41  -34.5197
  42  -230.6815
  43  -611.4069
  44  -87.91018
  45  269.0518
  46  -56.03218
  47  -364.2452
  48  245.8927
  49  131.5811
  50  371.8563
  51  183.9494
  52  -74.53108
  53  -148.8099
  54  -82.42498
  55  -14.16396
  56  21.87135
  57  268.0074
  58  -22.23396
  59  -367.5776
  60  -189.6435
  61  -215.5796
  62  -234.9246
  63  -610.157
  64  -629.3948
  65  -534.0715
  66  -116.9433
  67  329.8655
  68  80.51766
  69  -267.0009
  70  -374.1996
  71  198.9274
  72  16.66101
  73  -45.21133
  74  -86.88327
  75  161.1938
  76  137.5352
  77  -358.7495
  78  -68.66564
  79  -263.354
  80  -469.0775
  81  -623.0752
  82  46.60875
  83  -58.19452
  84  -405.451
  85  -426.8869
  86  -528.8497
  87  -203.7671
  88  -29.82184
  89  -601.1028
  90  -266.7709
  91  173.6972
  92  -312.797
  93  -619.5875
  94  -672.015
  95  -716.3349
  96  -677.6742
  97  -511.6792
  98  -298.0146
  99  -106.3382
 100  57.24962
 101  -321.0925
 102  -277.1414
 103  -75.52536
 104  -62.4254
 105  -28.00008
 106  -99.73042
 107  -133.3463
 108  276.1096
 109  228.7317
 110  -479.4763
 111  10.18364
 112  297.7115
 113  -315.0346
 114  -5.824616
 115  109.2438
 116  -108.0824
 117  -149.6114
 118  246.9808
 119  -273.8654
 120  -131.5804
 121  -218.2415
 122  -478.9563
 123  -7.936751
 124  -247.4248
 125  -731.975
 126  -326.8599
 127  -555.0039
 128  -194.1078
 129  -22.84489
 130  -1024.906
 131  73.96966
 132  1939.629
 133  66349.66
 134  27700.17
 135  -556.9296
 136  282.4041
 137  -265.1772
 138  -6.582915
 139  275.9498
 140  392.1764
 141  468.333
 142  249.5635
 143  94.06303
 144  -248.5612
 145  -65.76871
 146  -137.3656
 147  106.481
 148  261.0813
 149  531.3129
 150  538.3265
 151  114.5292
 152  66.46317
 153  55.45508
 154  -186.6896
 155  -18.71813
 156  -310.645
 157  337.0432
 158  167.9153
 159  -203.6184
 160  -109.8318
 161  -679.044
 162  -671.1779
 163  -948.0679
 164  -694.549
 165  -8.045333
 166  134.5433
 167  70.45017
 168  -52.40191
 169  -275.2658
 170  74.84558
 171  40.35098
 172  -29.09827
 173  -185.9894
 174  266.4398
 175  -117.2071
 176  -334.0691
 177  -316.8806
 178  -24.80388
 179  -90.28312
 180  -145.7793
 181  25.27421
 182  -563.9868
 183  -452.5805
 184  -413.2284
 185  268.8708
 186  163.013
 187  -234.3614
 188  -44.00974
 189  -337.8205
 190  -289.0619
 191  -211.9203
 192  -522.704
 193  -329.1529
 194  -22.97579
 195  182.4577
 196  -364.3826
 197  -383.2414
 198  -525.6641
 199  -170.7438
 200  132.9096
 201  -288.6561
 202  -92.54087
 203  -315.1559
 204  -469.2564
 205  -442.2267
 206  -381.2307
 207  -197.6324
 208  -67.40951
 209  -166.3082
 210  -243.1404
 211  -50.53708
 212  -155.1785
 213  -522.214
 214  -152.4062
 215  250.4781
 216  125.5467
 217  -198.7244
 218  -283.5929
 219  -328.1033
 220  -356.4733
 221  -555.612
 222  112.2651
 223  50.50252
 224  -148.4074
 225  -449.774
 226  -171.5779
 227  -160.0788
 228  -287.5532
 229  -362.8985
 230  -327.4259
 231  -453.9933
 232  -89.29211
 233  239.996
 234  -124.5031
 235  -669.8855
 236  -463.8753
 237  -736.5809
 238  -504.8831
 239  -8.676317
 240  -42.72805
 241  462.899
 242  107.3858
 243  -43.0036
 244  -332.7534
 245  -686.5637
 246  -852.0573
 247  -550.4728
 248  40.90208
 249  427.6227
 250  640.1328
 251  559.3921
 252  480.5713
 253  480.863
 254  620.562
 255  239.8834
 256  4.023095
 257  561.1696
 258  246.9201
 259  -118.5645
 260  176.3784
 261  245.4422
 262  -315.0624
 263  -249.6451
 264  -255.3228
 265  -24.9649
 266  -106.7086
 267  263.3254
 268  85.46574
 269  -22.19243
 270  48.73535
 271  -211.3544
 272  -294.6711
 273  -306.6453
 274  -22.598
 275  216.815
 276  -107.6528
 277  30.48079
 278  -2.024181
 279  -68.96181
 280  -357.6546
 281  -92.24739
 282  22.37684
 283  137.8576
 284  355.7074
 285  -155.0634
 286  -417.4596
 287  -759.7141
 288  -390.4599
 289  -319.5644
 290  -504.012
 291  -538.0687
 292  -611.1153
 293  -263.3036
 294  52.88865
 295  0.3980424
 296  -81.47865
 297  -27.22909
 298  -186.6568
 299  -268.5369
 300  -188.3021
 301  -671.6328
 302  -729.7059
 303  -374.617
 304  -474.6227
 305  -637.9955
 306  -745.2236
 307  -759.6116
 308  -463.3451
 309  -643.6834
 310  -542.0904
 311  -744.7363
 312  -979.67
 313  -702.0345
 314  -472.5355
 315  -514.7864
 316  -968.0425
 317  -825.3373
 318  -1070.426
 319  -1051.315
 320  -924.5096
 321  -446.344
 322  -399.2641
 323  -8.113827
 324  97.50388
 325  -324.8737
 326  -604.1119
 327  -775.8877
 328  -536.6332
 329  -381.1757
 330  -425.3116
 331  -707.3038
 332  -597.2631
 333  -272.293
 334  -244.6436
 335  -350.5436
 336  -434.8752
 337  -97.32431
 338  -293.298
 339  -574.5047
 340  -605.7069
 341  -322.3723
 342  -60.19841
 343  -137.5677
 344  -390.3793
 345  -765.4706
 346  -1059.727
 347  -477.6925
 348  -1253.203
 349  -822.8651
 350  123.7254
 351  -236.8211
 352  -278.7605
 353  -237.8038
 354  -200.9027
 355  -436.7158
 356  -481.8749
 357  -33.35892
 358  193.8886
 359  51.56539
 360  -104.0036
 361  -127.629
 362  -119.0806
 363  -336.8328
 364  -445.6074
 365  -106.5964
 366  236.4511
 367  462.5013
 368  241.5566
 369  124.1518
 370  517.4861
 371  943.8467
 372  1379.881
 373  1821.816
 374  1959.126
 375  1511.015
 376  771.9848
 377  375.422
 378  -138.3323
 379  -616.3462
 380  -252.3762
 381  -440.0643
 382  -337.8625
 383  -166.2934
 384  -180.6086
 385  -128.4816
 386  -149.9629
 387  -327.5148
 388  -742.8176
 389  -271.4652
 390  -535.937
 391  -218.8895
 392  230.8343
 393  -215.7532
 394  -514.9038
 395  -463.1107
 396  142.0297
 397  130.1058
 398  -151.6133
 399  -204.4287
 400  -326.2831
 401  -595.5231
 402  -629.1383
 403  -625.5649
 404  -440.2931
 405  -482.4626
 406  -286.4205
 407  -470.8503
 408  -346.5685
 409  -211.9057
 410  -254.5298
 411  -511.3565
 412  -562.139
 413  -515.7342
 414  -475.2638
 415  -655.9727
 416  -764.2235
 417  -178.8089
 418  435.0753
 419  -22.82689
 420  169.963
 421  -145.3231
 422  -327.2356
 423  -530.8563
 424  -446.1902
 425  -525.2949
 426  -215.5725
 427  -423.6477
 428  -117.5165
 429  132.4789
 430  159.7815
 431  -281.3012
 432  -211.4386
 433  51.89897
 434  -63.23599
 435  -446.0357
 436  -601.7053
 437  -493.5058
 438  -201.7412
 439  262.4343
 440  109.3388
 441  -82.1078
 442  -155.7103
 443  -199.3433
 444  -237.8278
 445  -511.635
 446  -461.3859
 447  -24.83216
 448  -107.6019
 449  42.53558
 450  56.81771
 451  -106.4188
 452  6.64134
 453  -98.63975
 454  -537.0321
 455  -695.545
 456  1.640629
 457  -101.3213
 458  207.7806
 459  418.4484
 460  781.3467
 461  330.0981
 462  -636.0872
 463  -26.56301
 464  -340.1844
 465  -135.5487
 466  224.2321
 467  121.0061
 468  256.6736
 469  -70.8362
 470  432.3215
 471  292.0039
 472  -509.5358
 473  -199.5529
 474  -83.19775
 475  36.29263
 476  -250.1201
 477  -632.1668
 478  -277.4222
 479  -273.093
 480  217.4311
 481  -303.0699
 482  -193.458
 483  -8.871527
 484  -308.213
 485  30.24797
 486  60.49922
 487  147.5734
 488  -245.8941
 489  -505.8069
 490  -24.70531
 491  -47.54186
 492  73.85396
 493  381.7899
 494  239.1427
 495  374.4846
 496  -26.95082
 497  29.4752
 498  1.924541
 499  -158.0397
 500  387.9521
 501  535.1437
 502  -44.36156
 503  -276.1237
 504  -268.0263
 505  -563.4695
 506  -817.2657
 507  -490.6944
 508  -360.044
 509  -657.5219
 510  -406.5982
 511  -401.0014
