# Input file       =  1192228095.134478-PSRB0329-2ms-sampling-dd.dat
# Candidate        =  PSR_0332+5434
# Telescope        =  AR
# Epoch_topo       =  58042.936506186088
# Epoch_bary       =  N/A
# T_sample         =  0.002
# Data Folded      =  7340032
# Data Avg         =  -7.49125215482015e-10
# Data StdDev      =  2.95864356967068 
# Profile Bins     =  512
# Profile Avg      =  0.244349556425955
# Profile StdDev   =  354.247378153264 
# Reduced chi-sqr  =  1.306
# Prob(Noise)      <  3.58e-06   (~4.5 sigma)
# P_topo (ms)      =  714.482998802224  +/- 0.000349
# P'_topo (s/s)    =  -0                +/- 1.84e-10
# P''_topo (s/s^2) =  0                 +/- 8.13e-14
# P_bary (ms)      =  N/A
# P'_bary (s/s)    =  N/A
# P''_bary (s/s^2) =  N/A
# P_orb (s)        =  N/A
# asin(i)/c (s)    =  N/A
# eccentricity     =  N/A
# w (rad)          =  N/A
# T_peri           =  N/A
######################################################
   0  -443.8294
   1  -483.7775
   2  -257.9418
   3  -153.4886
   4  -175.0333
   5  -267.9997
   6  -226.6314
   7  -272.7459
   8  -529.8456
   9  -360.8638
  10  -58.06971
  11  -72.18858
  12  188.3491
  13  2.41273
  14  49.54984
  15  -202.648
  16  111.9964
  17  -53.59927
  18  -203.2663
  19  -257.4258
  20  -130.4443
  21  -425.4345
  22  -590.7678
  23  -361.0658
  24  -77.16281
  25  33.87065
  26  -73.12865
  27  -122.5142
  28  -106.441
  29  -227.052
  30  -258.5208
  31  -277.0867
  32  -190.5351
  33  -113.9572
  34  -64.83044
  35  168.5538
  36  47.02034
  37  -297.9896
  38  -129.8029
  39  35.98269
  40  -218.4319
  41  142.7868
  42  241.0845
  43  -72.88892
  44  81.1591
  45  26.144
  46  163.9775
  47  -39.23038
  48  -51.87331
  49  45.25212
  50  192.956
  51  -69.37156
  52  -59.84364
  53  -35.75291
  54  -88.4786
  55  -139.6207
  56  -51.52753
  57  -38.97991
  58  -287.2727
  59  -542.874
  60  -188.2489
  61  33.81542
  62  202.9835
  63  -71.60493
  64  -148.0333
  65  -423.5482
  66  -82.69376
  67  51.37257
  68  20.56127
  69  -59.7515
  70  -2.627937
  71  185.0178
  72  478.6167
  73  195.1639
  74  -19.14703
  75  167.7102
  76  145.5885
  77  6.41501
  78  148.4274
  79  316.0074
  80  257.6033
  81  -51.7209
  82  -57.71601
  83  410.2948
  84  331.1695
  85  -13.39505
  86  -19.41428
  87  -200.3706
  88  -161.4788
  89  -128.0291
  90  -168.8794
  91  21.13594
  92  279.7309
  93  -5.348098
  94  -64.63927
  95  -87.92389
  96  -308.6847
  97  -537.4772
  98  211.0931
  99  338.302
 100  68.82906
 101  -223.7605
 102  -204.7739
 103  4.077104
 104  27.66651
 105  -225.465
 106  -144.4456
 107  -91.67976
 108  79.65963
 109  -286.1644
 110  -200.6213
 111  -403.7899
 112  -330.3074
 113  -126.1931
 114  -115.9625
 115  -153.4619
 116  142.6483
 117  183.0342
 118  46.28975
 119  4.437972
 120  59.3095
 121  -110.8005
 122  152.0524
 123  62.23018
 124  -171.0288
 125  -119.9592
 126  124.4358
 127  146.7379
 128  65.40367
 129  126.695
 130  -217.2939
 131  -242.8905
 132  -271.0102
 133  -104.4575
 134  78.12309
 135  -83.78817
 136  -105.2249
 137  -305.845
 138  -100.7388
 139  61.83918
 140  -140.7436
 141  106.4449
 142  -112.2808
 143  -471.3748
 144  -575.5482
 145  -511.2042
 146  -430.3324
 147  -70.17667
 148  -107.4044
 149  -71.63449
 150  -221.2278
 151  -427.5996
 152  -201.7832
 153  -298.5349
 154  -105.9056
 155  23.68658
 156  47.65071
 157  -334.7015
 158  -373.8358
 159  -218.1746
 160  -278.5248
 161  -226.2547
 162  -208.5321
 163  -228.0852
 164  -393.4348
 165  -176.3478
 166  117.7236
 167  -41.9349
 168  -135.0552
 169  -245.2983
 170  -232.128
 171  -505.5844
 172  -307.2101
 173  -134.7454
 174  -285.0465
 175  -95.63334
 176  -198.0285
 177  22.95595
 178  -28.53814
 179  -174.0689
 180  -370.0579
 181  -264.4639
 182  -17.76303
 183  -254.7846
 184  -298.0211
 185  -203.4122
 186  -50.35783
 187  -421.6953
 188  -301.5724
 189  -386.997
 190  -379.7326
 191  52.27519
 192  268.7976
 193  -5.180144
 194  -180.3754
 195  -246.2439
 196  -468.8109
 197  -239.287
 198  -17.84039
 199  -93.48692
 200  -150.3711
 201  -22.96295
 202  -204.4255
 203  148.8092
 204  -60.68681
 205  23.02379
 206  -49.71529
 207  -258.0786
 208  37.62358
 209  16.40637
 210  372.6097
 211  403.0728
 212  261.3372
 213  263.5793
 214  342.2289
 215  -59.34986
 216  -343.2308
 217  83.37397
 218  109.2028
 219  314.6895
 220  70.54012
 221  -11.8123
 222  13.81987
 223  -19.44007
 224  278.2813
 225  241.3153
 226  370.9447
 227  750.8918
 228  1476.054
 229  1837.795
 230  1675.513
 231  1720.927
 232  1476.236
 233  856.5581
 234  689.5392
 235  522.1622
 236  572.7618
 237  496.0775
 238  646.9564
 239  286.7459
 240  -67.60585
 241  -311.7034
 242  -9.646805
 243  280.5741
 244  101.8304
 245  78.99979
 246  -42.31079
 247  -105.3894
 248  138.3408
 249  314.8043
 250  393.568
 251  276.1819
 252  122.1504
 253  -331.4747
 254  -406.5437
 255  -258.704
 256  -94.35313
 257  -25.03821
 258  419.5219
 259  415.1888
 260  113.492
 261  207.8564
 262  107.3804
 263  -42.39571
 264  -73.15028
 265  -15.19097
 266  40.34181
 267  111.973
 268  336.8486
 269  43.37169
 270  -13.90745
 271  3.976921
 272  289.3489
 273  65.9766
 274  327.3704
 275  133.3726
 276  383.7293
 277  266.8133
 278  252.5917
 279  -69.73272
 280  -207.7195
 281  30.56835
 282  -24.83833
 283  -57.41662
 284  187.6908
 285  162.2638
 286  -21.49246
 287  -22.29377
 288  156.0615
 289  41.63725
 290  -91.09008
 291  -478.9989
 292  -259.6375
 293  -61.45126
 294  6.000937
 295  -163.9121
 296  132.3124
 297  100.5629
 298  237.8254
 299  28.06265
 300  27.86508
 301  -144.8299
 302  -70.56673
 303  -157.8178
 304  111.4206
 305  84.03518
 306  224.422
 307  170.0649
 308  132.99
 309  142.0211
 310  314.8566
 311  -39.28007
 312  31.44872
 313  21.55118
 314  -110.4355
 315  10.9256
 316  -134.1502
 317  -18.91024
 318  87.75701
 319  289.2582
 320  507.8534
 321  423.4309
 322  498.6569
 323  423.4776
 324  239.5979
 325  175.5039
 326  89.14375
 327  -116.7389
 328  101.9146
 329  -175.25
 330  -25.88937
 331  192.4424
 332  -117.9216
 333  243.7041
 334  180.1253
 335  224.4836
 336  209.0992
 337  70.07863
 338  -52.91952
 339  152.0923
 340  5.17942
 341  158.7298
 342  48.09881
 343  85.99858
 344  341.8034
 345  -132.259
 346  -59.8178
 347  293.8637
 348  -89.94827
 349  318.7138
 350  247.2835
 351  420.6534
 352  136.5036
 353  70.83962
 354  488.9273
 355  411.2852
 356  435.823
 357  437.1588
 358  326.2807
 359  255.3443
 360  112.8277
 361  313.2159
 362  603.7363
 363  518.3674
 364  275.2163
 365  17.92396
 366  -116.3799
 367  383.9026
 368  309.2031
 369  370.9583
 370  363.1409
 371  445.1435
 372  461.8493
 373  195.8086
 374  36.30098
 375  376.6877
 376  343.3331
 377  260.6134
 378  321.778
 379  203.3325
 380  131.8885
 381  -441.9733
 382  41.14545
 383  301.671
 384  253.2045
 385  215.9657
 386  142.5168
 387  55.36861
 388  250.5016
 389  373.7856
 390  11.07676
 391  -81.44477
 392  -56.23534
 393  242.2623
 394  98.70465
 395  -86.05093
 396  -184.7582
 397  8.295473
 398  -88.17816
 399  -303.3399
 400  -206.9678
 401  -277.8955
 402  -254.2709
 403  19.02615
 404  111.2735
 405  105.5248
 406  -312.0136
 407  -487.1967
 408  -316.375
 409  -215.1316
 410  40.21526
 411  -151.4039
 412  -313.9093
 413  -168.5198
 414  -361.9769
 415  -217.6805
 416  -291.3535
 417  -157.7202
 418  -119.7914
 419  147.2177
 420  -25.73069
 421  43.19245
 422  60.824
 423  -12.86247
 424  247.6069
 425  148.7111
 426  263.1706
 427  244.5422
 428  7.523887
 429  22.80037
 430  336.7267
 431  126.6346
 432  -35.41947
 433  51.78661
 434  144.4838
 435  -104.4016
 436  39.53131
 437  -17.52359
 438  -233.7804
 439  -104.642
 440  31.66028
 441  -15.36837
 442  -246.2184
 443  -390.2613
 444  -387.5882
 445  -464.1145
 446  -637.979
 447  -501.8337
 448  -417.3697
 449  -177.5586
 450  -236.1368
 451  -270.5198
 452  -356.0237
 453  -435.786
 454  -9.665684
 455  -134.4568
 456  -122.8849
 457  56.12014
 458  -226.8574
 459  -321.9371
 460  -330.9596
 461  -475.1053
 462  195.4539
 463  257.4864
 464  579.943
 465  196.8749
 466  484.5734
 467  651.0205
 468  -342.0236
 469  -310.6229
 470  113.1871
 471  -127.6153
 472  55.80438
 473  -287.1333
 474  -649.8409
 475  -245.615
 476  -17.84061
 477  -238.171
 478  37.48796
 479  111.5752
 480  -309.9785
 481  -524.6114
 482  -15.2404
 483  36.47348
 484  94.89177
 485  -24.05797
 486  -78.11987
 487  -283.5533
 488  -161.9553
 489  -183.9602
 490  -54.15176
 491  -267.8451
 492  62.31954
 493  179.73
 494  44.97973
 495  -56.78535
 496  -146.5148
 497  -102.0855
 498  -27.67428
 499  -105.9718
 500  108.9337
 501  64.23583
 502  -31.24477
 503  -103.783
 504  -343.4956
 505  -220.925
 506  -215.1559
 507  -188.7702
 508  -435.4669
 509  -200.7191
 510  -135.5853
 511  -81.14558
