# Input file       =  1192658309.14104_cleaned.dat
# Candidate        =  PSR_0332+5434
# Telescope        =  AR
# Epoch_topo       =  58047.915834965745
# Epoch_bary       =  N/A
# T_sample         =  0.002
# Data Folded      =  7340032
# Data Avg         =  0.011987684059692
# Data StdDev      =  1.00007578984057 
# Profile Bins     =  512
# Profile Avg      =  171.84194444447  
# Profile StdDev   =  119.742110924503 
# Reduced chi-sqr  =  1.855
# Prob(Noise)      <  1.44e-28   (~11.0 sigma)
# P_topo (ms)      =  714.486931639023  +/- 0.000172
# P'_topo (s/s)    =  -0                +/- 9.06e-11
# P''_topo (s/s^2) =  0                 +/- 4e-14
# P_bary (ms)      =  N/A
# P'_bary (s/s)    =  N/A
# P''_bary (s/s^2) =  N/A
# P_orb (s)        =  N/A
# asin(i)/c (s)    =  N/A
# eccentricity     =  N/A
# w (rad)          =  N/A
# T_peri           =  N/A
######################################################
   0  154.9722
   1  86.09286
   2  172.7455
   3  210.5489
   4  183.8455
   5  231.7809
   6  192.3311
   7  130.8874
   8  76.27988
   9  111.5506
  10  174.0427
  11  176.4413
  12  264.6958
  13  315.2715
  14  296.2784
  15  415.4696
  16  525.7654
  17  767.4803
  18  1038.171
  19  1203.147
  20  1169.535
  21  926.5273
  22  512.3694
  23  245.9814
  24  206.5314
  25  269.8569
  26  228.6981
  27  91.50932
  28  34.65114
  29  194.5431
  30  296.4153
  31  222.2829
  32  228.1389
  33  222.8305
  34  154.0391
  35  85.99207
  36  108.3801
  37  157.3076
  38  153.6374
  39  206.5367
  40  201.3122
  41  136.7132
  42  133.4341
  43  -8.862727
  44  143.0781
  45  221.0613
  46  198.6443
  47  178.3152
  48  19.64911
  49  106.3945
  50  254.3349
  51  196.8525
  52  257.1693
  53  216.3488
  54  121.0533
  55  109.7865
  56  14.57388
  57  61.16817
  58  104.5384
  59  125.3597
  60  143.3311
  61  149.2543
  62  147.8125
  63  262.023
  64  316.4718
  65  232.8859
  66  95.88599
  67  157.1929
  68  167.7678
  69  110.1905
  70  180.8161
  71  81.3531
  72  93.62508
  73  195.6679
  74  124.394
  75  239.621
  76  196.4843
  77  100.5853
  78  177.6196
  79  128.3999
  80  173.3438
  81  61.35912
  82  141.1256
  83  100.2034
  84  43.82299
  85  145.5884
  86  -72.35363
  87  -77.16997
  88  -18.04079
  89  80.18211
  90  10.8629
  91  105.2504
  92  180.4529
  93  197.8834
  94  93.14264
  95  151.6161
  96  163.3335
  97  40.53343
  98  -3.200319
  99  48.99175
 100  149.569
 101  226.7199
 102  173.5275
 103  159.7796
 104  43.45407
 105  193.6537
 106  115.7581
 107  -15.28483
 108  69.27774
 109  218.9275
 110  160.5
 111  253.7737
 112  126.9642
 113  61.62723
 114  10.98691
 115  70.02402
 116  179.3035
 117  154.4771
 118  126.9927
 119  43.73337
 120  108.0903
 121  65.07108
 122  89.25438
 123  89.16238
 124  163.6692
 125  134.8941
 126  196.5941
 127  155.051
 128  101.1253
 129  48.26268
 130  0.07885738
 131  96.11739
 132  177.525
 133  193.6603
 134  -11.26694
 135  -38.91778
 136  135.4642
 137  219.3201
 138  276.1304
 139  164.4519
 140  232.7461
 141  241.8298
 142  58.97901
 143  111.6748
 144  109.7382
 145  125.322
 146  58.22815
 147  32.05964
 148  -17.90338
 149  232.1044
 150  285.2614
 151  229.0849
 152  211.8508
 153  170.6022
 154  161.8459
 155  70.67088
 156  265.5342
 157  246.2469
 158  28.21587
 159  126.4836
 160  222.3467
 161  177.1745
 162  89.15681
 163  140.665
 164  200.4388
 165  210.3888
 166  255.7818
 167  112.0311
 168  130.2014
 169  196.6155
 170  257.1037
 171  135.8427
 172  73.19415
 173  116.1867
 174  111.4392
 175  103.9024
 176  126.41
 177  160.5649
 178  102.6045
 179  112.1009
 180  234.5983
 181  260.3386
 182  221.3096
 183  86.77958
 184  170.817
 185  209.8064
 186  208.3714
 187  199.2687
 188  187.5099
 189  157.3833
 190  99.8196
 191  86.42509
 192  210.2807
 193  200.1207
 194  194.1996
 195  30.48363
 196  34.29848
 197  247.1667
 198  262.7428
 199  167.8054
 200  144.9059
 201  111.5359
 202  192.327
 203  150.9038
 204  89.38206
 205  52.17291
 206  32.2166
 207  52.41338
 208  116.5887
 209  71.70498
 210  169.3502
 211  221.4033
 212  110.5257
 213  125.5737
 214  165.3206
 215  120.6553
 216  249.9013
 217  266.8527
 218  149.6037
 219  252.6462
 220  194.9429
 221  148.6291
 222  15.71164
 223  141.6983
 224  263.1574
 225  47.78601
 226  145.7501
 227  190.8835
 228  164.3626
 229  285.1963
 230  226.2625
 231  314.3198
 232  210.7754
 233  251.3261
 234  198.6784
 235  35.50228
 236  28.46917
 237  268.4183
 238  296.9373
 239  164.0237
 240  146.5399
 241  263.5189
 242  178.0686
 243  145.3215
 244  202.8558
 245  233.3024
 246  237.8793
 247  365.2495
 248  359.3372
 249  322.7006
 250  185.4211
 251  57.86855
 252  137.5967
 253  74.5499
 254  66.65323
 255  22.71001
 256  123.2332
 257  179.994
 258  219.3506
 259  267.2038
 260  418.463
 261  162.4725
 262  194.7023
 263  158.527
 264  270.8084
 265  273.388
 266  258.2964
 267  286.1417
 268  244.7482
 269  228.2932
 270  186.7299
 271  210.9962
 272  220.032
 273  281.676
 274  117.6587
 275  213.2336
 276  183.0364
 277  99.61518
 278  192.2054
 279  96.25201
 280  13.93709
 281  117.7205
 282  255.8327
 283  214.9029
 284  219.3167
 285  180.8563
 286  159.2836
 287  128.7728
 288  302.4136
 289  229.712
 290  230.1106
 291  223.2867
 292  248.0927
 293  213.0037
 294  197.5786
 295  192.3889
 296  63.65147
 297  67.74137
 298  184.7075
 299  94.80704
 300  176.9389
 301  193.6585
 302  97.50768
 303  146.1323
 304  99.9259
 305  215.7406
 306  189.8284
 307  148.4914
 308  193.0491
 309  131.0197
 310  125.5309
 311  142.3889
 312  159.5257
 313  107.2177
 314  39.92234
 315  63.54379
 316  199.6991
 317  169.0045
 318  220.2294
 319  214.7024
 320  256.6284
 321  272.5375
 322  159.9701
 323  173.813
 324  265.0546
 325  195.0309
 326  206.9882
 327  155.3791
 328  224.9664
 329  57.40926
 330  81.27975
 331  241.3444
 332  259.4336
 333  248.2904
 334  137.2094
 335  89.8606
 336  70.72458
 337  111.3866
 338  187.404
 339  337.4993
 340  209.3792
 341  160.0443
 342  197.0855
 343  123.2081
 344  91.68553
 345  94.03113
 346  103.5697
 347  171.5655
 348  128.8407
 349  116.8816
 350  256.4831
 351  166.3082
 352  103.1883
 353  126.5027
 354  197.0378
 355  64.82407
 356  39.88883
 357  179.4534
 358  223.2969
 359  133.3085
 360  204.5609
 361  226.4556
 362  216.0846
 363  62.97317
 364  82.66581
 365  249.4061
 366  266.7172
 367  52.97304
 368  54.39867
 369  127.0808
 370  240.9095
 371  178.0337
 372  122.7785
 373  192.5771
 374  235.2624
 375  117.2265
 376  30.32755
 377  204.9454
 378  111.574
 379  162.4367
 380  206.3846
 381  325.1295
 382  286.587
 383  43.58965
 384  86.60174
 385  213.3774
 386  159.6345
 387  128.2708
 388  156.8208
 389  150.9305
 390  201.0125
 391  205.9476
 392  164.4266
 393  196.7869
 394  107.4194
 395  248.2849
 396  217.1267
 397  314.5546
 398  171.9552
 399  105.5668
 400  80.08138
 401  299.7128
 402  229.3615
 403  223.5965
 404  24.79611
 405  165.6246
 406  105.245
 407  126.5576
 408  193.0788
 409  102.5788
 410  155.0409
 411  59.46732
 412  110.869
 413  152.6837
 414  12.41231
 415  205.3551
 416  124.7764
 417  151.5697
 418  78.95422
 419  58.06584
 420  149.408
 421  74.65762
 422  87.77614
 423  217.4857
 424  173.8118
 425  122.5529
 426  104.5041
 427  104.9806
 428  261.7972
 429  190.9629
 430  181.9478
 431  161.5232
 432  121.7116
 433  127.6658
 434  100.3322
 435  157.7315
 436  265.943
 437  87.80067
 438  46.98685
 439  122.6476
 440  136.3337
 441  149.6324
 442  165.1309
 443  212.1863
 444  221.8949
 445  236.5536
 446  87.12172
 447  196.7212
 448  315.1719
 449  272.6203
 450  351.8487
 451  226.2661
 452  173.9899
 453  238.7668
 454  84.05179
 455  88.28667
 456  34.73381
 457  148.0304
 458  209.2263
 459  158.916
 460  72.92697
 461  38.02915
 462  54.9256
 463  112.514
 464  125.4371
 465  251.6832
 466  177.4786
 467  76.69737
 468  203.7773
 469  216.0445
 470  272.5886
 471  386.1694
 472  299.9201
 473  250.2207
 474  144.3055
 475  92.68951
 476  176.6107
 477  156.8051
 478  251.4167
 479  273.2333
 480  145.2954
 481  179.009
 482  119.1808
 483  121.9628
 484  253.589
 485  195.8727
 486  145.8152
 487  211.4661
 488  237.9106
 489  181.1526
 490  235.9206
 491  230.8889
 492  259.2193
 493  302.1648
 494  319.0378
 495  184.9636
 496  79.6463
 497  227.3133
 498  131.4097
 499  99.96388
 500  228.7227
 501  240.8404
 502  256.7998
 503  280.3629
 504  318.6157
 505  257.8454
 506  166.6596
 507  82.06799
 508  159.4489
 509  55.66898
 510  59.08905
 511  131.4033
