# Input file       =  1192658309.14104_cleaned.dat
# Candidate        =  PSR_0332+5434
# Telescope        =  AR
# Epoch_topo       =  58047.915834965745
# Epoch_bary       =  N/A
# T_sample         =  0.002
# Data Folded      =  7340032
# Data Avg         =  0.0258240400871728
# Data StdDev      =  2.03832293666647 
# Profile Bins     =  512
# Profile Avg      =  370.184850829839 
# Profile StdDev   =  244.054594323483 
# Reduced chi-sqr  =  1.761
# Prob(Noise)      <  7.39e-24   (~10.0 sigma)
# P_topo (ms)      =  714.48693169724   +/- 0.000199
# P'_topo (s/s)    =  -0                +/- 1.05e-10
# P''_topo (s/s^2) =  0                 +/- 4.63e-14
# P_bary (ms)      =  N/A
# P'_bary (s/s)    =  N/A
# P''_bary (s/s^2) =  N/A
# P_orb (s)        =  N/A
# asin(i)/c (s)    =  N/A
# eccentricity     =  N/A
# w (rad)          =  N/A
# T_peri           =  N/A
######################################################
   0  295.3474
   1  362.8524
   2  229.0851
   3  542.4434
   4  532.6114
   5  311.2043
   6  495.5117
   7  400.4124
   8  277.1761
   9  49.51818
  10  374.4055
  11  527.8823
  12  81.1301
  13  314.1177
  14  380.5601
  15  362.6808
  16  600.9128
  17  479.6875
  18  664.1035
  19  432.7242
  20  539.5472
  21  391.7972
  22  39.53588
  23  128.087
  24  545.9617
  25  600.3329
  26  322.1317
  27  324.8121
  28  557.2338
  29  362.158
  30  291.8093
  31  423.3079
  32  493.9244
  33  497.1514
  34  773.251
  35  733.295
  36  701.6525
  37  369.9213
  38  158.2827
  39  311.0151
  40  131.7355
  41  170.0972
  42  93.52675
  43  371.5802
  44  456.9201
  45  476.333
  46  608.4471
  47  812.6137
  48  323.6262
  49  412.9615
  50  345.0444
  51  580.0922
  52  581.028
  53  557.2745
  54  618.3195
  55  471.1866
  56  488.2239
  57  397.0021
  58  465.3888
  59  475.9802
  60  574.9857
  61  268.9417
  62  452.8679
  63  337.9272
  64  281.7291
  65  436.3506
  66  189.8962
  67  61.17478
  68  286.0211
  69  527.4882
  70  463.7013
  71  461.1649
  72  367.0177
  73  312.4211
  74  263.621
  75  631.2272
  76  479.0685
  77  510.6953
  78  471.4789
  79  528.5096
  80  426.8069
  81  420.9051
  82  399.3523
  83  169.9703
  84  185.0492
  85  409.7018
  86  204.6486
  87  390.6524
  88  341.2774
  89  168.8037
  90  253.9629
  91  215.0422
  92  467.4899
  93  394.187
  94  309.9256
  95  401.7558
  96  250.3838
  97  249.7089
  98  275.3015
  99  336.7747
 100  218.3597
 101  89.25887
 102  195.9742
 103  432.4551
 104  331.4429
 105  480.4243
 106  458.6979
 107  544.2224
 108  593.2056
 109  315.712
 110  402.0364
 111  556.5704
 112  431.8663
 113  439.2129
 114  337.1021
 115  451.0879
 116  131.8191
 117  245.116
 118  500.4412
 119  517.9238
 120  468.3454
 121  280.6515
 122  156.9969
 123  146.5117
 124  228.0212
 125  446.6584
 126  708.6299
 127  456.2682
 128  344.8503
 129  421.6047
 130  277.065
 131  228.6973
 132  203.4907
 133  195.8671
 134  364.9437
 135  260.1904
 136  299.0821
 137  562.6034
 138  360.0893
 139  244.057
 140  283.8185
 141  376.0795
 142  102.2475
 143  129.961
 144  395.0646
 145  466.3691
 146  293.2709
 147  438.5756
 148  428.0299
 149  403.5147
 150  127.124
 151  221.8606
 152  549.093
 153  535.3158
 154  136.0778
 155  169.9616
 156  284.0941
 157  507.3999
 158  360.5298
 159  280.8398
 160  417.591
 161  478.4858
 162  207.7243
 163  88.21964
 164  436.5407
 165  212.4726
 166  341.6315
 167  433.1069
 168  664.5582
 169  540.0135
 170  95.1218
 171  247.0462
 172  465.2602
 173  361.9991
 174  294.3283
 175  370.0279
 176  351.7805
 177  437.3897
 178  406.1557
 179  355.4058
 180  353.8931
 181  249.2932
 182  504.512
 183  516.8553
 184  637.6825
 185  334.7117
 186  189.8963
 187  188.7308
 188  602.3757
 189  466.1866
 190  462.8087
 191  71.29156
 192  383.6969
 193  268.2041
 194  312.0404
 195  398.9336
 196  252.7408
 197  327.9053
 198  126.6294
 199  283.29
 200  265.833
 201  79.51743
 202  473.0553
 203  296.2884
 204  351.062
 205  149.4186
 206  180.6598
 207  307.8513
 208  195.3252
 209  266.2144
 210  497.8197
 211  370.9474
 212  292.0941
 213  201.1296
 214  277.8644
 215  555.214
 216  357.4612
 217  386.8076
 218  316.4652
 219  259.8429
 220  255.2141
 221  241.6345
 222  407.7225
 223  559.1712
 224  162.7703
 225  126.9097
 226  257.3905
 227  291.1162
 228  336.2101
 229  398.4059
 230  481.6316
 231  450.8298
 232  470.4977
 233  206.6555
 234  470.4074
 235  616.185
 236  579.2873
 237  678.0163
 238  436.7337
 239  393.6331
 240  538.7746
 241  219.5082
 242  175.1485
 243  125.6326
 244  338.7792
 245  448.3533
 246  320.4661
 247  154.8574
 248  82.76407
 249  138.5381
 250  255.9291
 251  315.4992
 252  607.033
 253  356.2361
 254  198.4066
 255  471.2352
 256  465.3287
 257  602.3616
 258  812.6458
 259  629.927
 260  565.3781
 261  338.5074
 262  258.7716
 263  437.9085
 264  365.5847
 265  567.3915
 266  553.9675
 267  315.773
 268  355.6683
 269  228.2286
 270  320.0943
 271  526.3785
 272  427.2343
 273  322.8567
 274  483.4977
 275  507.4747
 276  387.9561
 277  502.6722
 278  502.3565
 279  601.9172
 280  691.0579
 281  684.4562
 282  386.6321
 283  231.7752
 284  506.703
 285  256.807
 286  252.6834
 287  528.611
 288  538.2023
 289  564.2032
 290  574.7578
 291  645.8175
 292  478.8055
 293  355.4928
 294  239.9029
 295  385.1805
 296  139.2867
 297  229.1724
 298  332.6794
 299  338.6318
 300  201.9218
 301  367.1604
 302  435.4747
 303  383.495
 304  519.0672
 305  384.9313
 306  298.9141
 307  202.9111
 308  277.7424
 309  369.9043
 310  380.4237
 311  590.0114
 312  659.5885
 313  621.4136
 314  889.6031
 315  1123.283
 316  1604.822
 317  2144.109
 318  2424.394
 319  2321.325
 320  1766.041
 321  935.6515
 322  494.8199
 323  439.8955
 324  583.5909
 325  454.4113
 326  185.2755
 327  128.5867
 328  440.4073
 329  650.6373
 330  489.9588
 331  494.1867
 332  455.1133
 333  300.6129
 334  169.3616
 335  265.9752
 336  386.4392
 337  388.7411
 338  454.0343
 339  407.2871
 340  331.0646
 341  250.2601
 342  3.459762
 343  317.3719
 344  475.0208
 345  433.597
 346  380.6477
 347  14.32471
 348  243.3856
 349  505.0263
 350  400.8757
 351  538.5049
 352  450.8314
 353  293.9176
 354  202.471
 355  5.114119
 356  130.1976
 357  211.4189
 358  296.3526
 359  314.4071
 360  330.1599
 361  336.8174
 362  558.5032
 363  643.9665
 364  440.1821
 365  234.8632
 366  370.2385
 367  346.8033
 368  242.3435
 369  375.4032
 370  186.5877
 371  259.9928
 372  399.9439
 373  256.5361
 374  531.7387
 375  409.6793
 376  234.9002
 377  353.4377
 378  268.3715
 379  339.5884
 380  129.949
 381  282.4928
 382  200.1964
 383  80.50459
 384  319.2846
 385  -124.6972
 386  -124.34
 387  13.94229
 388  164.7493
 389  69.45936
 390  276.9231
 391  434.365
 392  378.4853
 393  214.4029
 394  371.6872
 395  318.9938
 396  91.49672
 397  14.84076
 398  123.8001
 399  368.5517
 400  415.2424
 401  400.7844
 402  290.5513
 403  109.8484
 404  409.9454
 405  239.9332
 406  25.42663
 407  240.4634
 408  469.3773
 409  336.3953
 410  522.3369
 411  257.9615
 412  164.5177
 413  42.08625
 414  183.3059
 415  383.0657
 416  321.6836
 417  256.7569
 418  102.8083
 419  234.3233
 420  189.1688
 421  217.883
 422  250.8513
 423  350.4597
 424  297.448
 425  397.5458
 426  309.3777
 427  221.3082
 428  128.3056
 429  61.43782
 430  280.8988
 431  453.0356
 432  332.1063
 433  2.338507
 434  10.90356
 435  347.076
 436  490.4257
 437  566.4205
 438  322.3148
 439  500.0395
 440  490.4043
 441  95.27078
 442  232.0988
 443  185.3159
 444  261.3332
 445  142.4242
 446  99.54606
 447  88.24485
 448  512.334
 449  594.6607
 450  483.0053
 451  466.1443
 452  398.1093
 453  283.3797
 454  171.2802
 455  564.9706
 456  467.8394
 457  85.87115
 458  331.4831
 459  476.6424
 460  383.5493
 461  220.6341
 462  330.5491
 463  439.5218
 464  423.091
 465  510.218
 466  238.8106
 467  335.4288
 468  482.4494
 469  510.4252
 470  226.2708
 471  167.983
 472  237.1254
 473  274.8861
 474  239.2797
 475  287.54
 476  351.733
 477  240.8767
 478  265.5818
 479  487.2079
 480  525.616
 481  457.269
 482  181.3673
 483  392.9176
 484  423.7406
 485  393.0156
 486  399.0293
 487  398.3708
 488  328.362
 489  199.605
 490  224.2066
 491  436.2274
 492  450.715
 493  381.3239
 494  104.5152
 495  160.3393
 496  559.2653
 497  572.8685
 498  356.6327
 499  317.0663
 500  270.4889
 501  411.4718
 502  303.833
 503  179.8961
 504  129.3519
 505  107.7509
 506  201.2199
 507  278.0412
 508  163.0121
 509  370.0475
 510  460.5862
 511  224.4377
