# Input file       =  1192399868.133724-PSRB0329-2ms-sampling-dd.dat
# Candidate        =  PSR_0332+5434
# Telescope        =  AR
# Epoch_topo       =  58044.924619603284
# Epoch_bary       =  N/A
# T_sample         =  0.002
# Data Folded      =  7340032
# Data Avg         =  4.32179500059119e-10
# Data StdDev      =  2.70953386120698 
# Profile Bins     =  512
# Profile Avg      =  0.0406726161484239
# Profile StdDev   =  324.420716367976 
# Reduced chi-sqr  =  1.020
# Prob(Noise)      <  0.365   (~0.3 sigma)
# P_topo (ms)      =  714.484527852307  +/- 0.000205
# P'_topo (s/s)    =  -0                +/- 1.08e-10
# P''_topo (s/s^2) =  0                 +/- 4.77e-14
# P_bary (ms)      =  N/A
# P'_bary (s/s)    =  N/A
# P''_bary (s/s^2) =  N/A
# P_orb (s)        =  N/A
# asin(i)/c (s)    =  N/A
# eccentricity     =  N/A
# w (rad)          =  N/A
# T_peri           =  N/A
######################################################
   0  513.5756
   1  475.4156
   2  887.8688
   3  1364.133
   4  1511.707
   5  1424.518
   6  1397.821
   7  1381.169
   8  552.6114
   9  -144.6903
  10  -198.2686
  11  113.857
  12  197.2988
  13  -231.8424
  14  -482.946
  15  -21.77734
  16  94.69555
  17  -214.8589
  18  -274.5594
  19  -236.804
  20  -122.8842
  21  19.71856
  22  -196.3016
  23  -406.7622
  24  -325.9767
  25  -225.009
  26  -93.38259
  27  -308.3879
  28  -110.0767
  29  23.26258
  30  -355.5213
  31  -375.4773
  32  -42.51437
  33  -96.86382
  34  -212.2859
  35  -337.3563
  36  -321.7843
  37  -106.1636
  38  -285.1825
  39  -407.7994
  40  -171.6922
  41  107.1838
  42  -64.66232
  43  52.08965
  44  154.9954
  45  -222.5427
  46  -42.15882
  47  -45.12674
  48  35.12209
  49  6.065908
  50  -279.4698
  51  -505.0298
  52  -136.2079
  53  -147.3133
  54  -316.4506
  55  -27.41549
  56  -194.1467
  57  -207.5134
  58  -412.6966
  59  -12.1789
  60  -32.24837
  61  -354.4209
  62  -185.7921
  63  -101.2243
  64  -70.168
  65  40.18661
  66  258.0963
  67  261.4453
  68  136.5999
  69  -16.95398
  70  -296.3682
  71  -213.2342
  72  -180.1633
  73  -243.3797
  74  -241.6741
  75  -151.5483
  76  -158.7239
  77  24.61833
  78  72.05001
  79  -116.0756
  80  -63.56879
  81  65.97646
  82  189.4937
  83  20.89553
  84  27.49912
  85  -206.4957
  86  -252.7395
  87  -230.736
  88  51.47723
  89  120.9132
  90  -43.0116
  91  105.201
  92  43.34546
  93  17.66038
  94  -17.6475
  95  115.5967
  96  -8.365273
  97  -266.0544
  98  -119.2727
  99  70.0341
 100  -102.0813
 101  166.1223
 102  -20.20601
 103  -59.05243
 104  -224.5587
 105  -152.1354
 106  148.4165
 107  259.4924
 108  -159.027
 109  -296.1043
 110  -174.6986
 111  71.06541
 112  165.9019
 113  141.8266
 114  11.74914
 115  13.61885
 116  -6.823771
 117  -86.42667
 118  -193.8942
 119  -87.78924
 120  -45.28464
 121  -57.82021
 122  -253.0607
 123  -174.6308
 124  -253.3949
 125  16.90942
 126  87.33617
 127  224.0347
 128  -61.58381
 129  -25.80103
 130  -88.73487
 131  -217.9761
 132  16.27204
 133  80.8824
 134  11.95947
 135  -305.4772
 136  104.8801
 137  234.9982
 138  54.4538
 139  -331.7086
 140  -184.0438
 141  -154.8643
 142  37.23283
 143  270.6061
 144  -89.44606
 145  -196.2553
 146  30.54053
 147  -1.70695
 148  -120.6746
 149  -41.51689
 150  -193.6481
 151  68.90057
 152  202.6427
 153  -131.0006
 154  -296.4455
 155  -215.0983
 156  -337.1591
 157  -161.517
 158  -167.8484
 159  51.54973
 160  -14.67233
 161  103.2216
 162  84.70172
 163  -201.0865
 164  -152.9053
 165  -172.1228
 166  -140.3792
 167  -119.688
 168  133.6265
 169  182.925
 170  219.6458
 171  -28.87453
 172  -187.6654
 173  -337.7263
 174  -210.0633
 175  -237.8916
 176  -24.32668
 177  -325.0025
 178  -110.4701
 179  -69.05505
 180  429.1675
 181  348.1435
 182  67.35865
 183  -488.0795
 184  -301.6079
 185  -83.02311
 186  149.3945
 187  279.9139
 188  123.923
 189  21.03517
 190  -154.8915
 191  102.0258
 192  49.13689
 193  162.2775
 194  442.4185
 195  45.65796
 196  -2.302102
 197  -313.0956
 198  -220.4347
 199  -280.7647
 200  -178.8079
 201  -333.3911
 202  76.04777
 203  -10.75919
 204  -136.5262
 205  -137.3023
 206  -93.64336
 207  274.0109
 208  152.5443
 209  67.82481
 210  161.6344
 211  -209.0597
 212  -59.81831
 213  36.07269
 214  172.9696
 215  -3.564106
 216  189.309
 217  -0.804036
 218  105.347
 219  61.09588
 220  -32.13763
 221  -293.6789
 222  -59.12006
 223  -64.99299
 224  324.73
 225  197.3158
 226  -76.41609
 227  -66.31466
 228  -108.7679
 229  19.7245
 230  83.21645
 231  89.6815
 232  -110.72
 233  22.5489
 234  47.09034
 235  30.42426
 236  175.9627
 237  56.13721
 238  59.03741
 239  191.4679
 240  163.1434
 241  228.6633
 242  162.2174
 243  212.2339
 244  -27.04413
 245  -321.5487
 246  -40.70244
 247  194.7851
 248  207.5266
 249  260.574
 250  140.783
 251  -52.81909
 252  128.5779
 253  162.8678
 254  94.93634
 255  -109.3895
 256  -157.4179
 257  44.57464
 258  -68.95472
 259  28.79153
 260  160.7677
 261  367.5555
 262  324.0091
 263  162.8755
 264  -72.73403
 265  343.7381
 266  115.0933
 267  -28.66685
 268  -96.69234
 269  158.3816
 270  191.426
 271  4.608275
 272  -4.240473
 273  -259.1724
 274  -124.1397
 275  50.10235
 276  90.43374
 277  223.5497
 278  51.80106
 279  46.89823
 280  61.89855
 281  49.23835
 282  -8.786783
 283  190.3482
 284  362.2392
 285  308.6805
 286  -10.66564
 287  -43.42528
 288  466.9348
 289  15.31732
 290  76.05718
 291  212.9933
 292  -62.81523
 293  81.86301
 294  118.0653
 295  332.4224
 296  51.44726
 297  56.3652
 298  336.7188
 299  388.8036
 300  253.6118
 301  -111.5694
 302  -119.8139
 303  -76.95759
 304  118.4015
 305  -25.80697
 306  31.45777
 307  -92.8487
 308  -48.96582
 309  -95.85224
 310  -175.4536
 311  -244.4681
 312  372.1695
 313  172.7145
 314  -135.8087
 315  -188.2838
 316  -286.1555
 317  -52.45595
 318  290.1815
 319  -186.1198
 320  -86.53621
 321  140.0712
 322  157.1364
 323  9.79805
 324  -197.3177
 325  174.9725
 326  24.42645
 327  -68.42287
 328  201.6526
 329  -70.60197
 330  156.4867
 331  227.9272
 332  -84.92995
 333  147.9219
 334  155.0552
 335  404.8706
 336  -200.4601
 337  -195.7313
 338  -94.12477
 339  140.7856
 340  81.87415
 341  -1.205742
 342  266.2008
 343  306.1985
 344  153.9178
 345  113.2964
 346  111.5988
 347  90.69784
 348  -13.38576
 349  166.3226
 350  -125.0925
 351  -24.24584
 352  -52.64133
 353  250.0811
 354  37.6778
 355  -79.92896
 356  141.6403
 357  214.1369
 358  82.84196
 359  146.5004
 360  134.3928
 361  49.71067
 362  211.8485
 363  204.367
 364  306.4005
 365  33.16689
 366  62.25334
 367  -142.5889
 368  -150.9554
 369  -128.2591
 370  -370.6523
 371  213.4656
 372  442.171
 373  395.106
 374  216.2372
 375  44.81501
 376  51.75544
 377  17.60782
 378  167.4123
 379  167.2291
 380  -82.0032
 381  -41.56743
 382  37.49056
 383  -36.48127
 384  69.17379
 385  -14.49315
 386  85.44397
 387  77.09534
 388  220.6674
 389  -133.869
 390  54.99341
 391  -67.7494
 392  21.67142
 393  14.7408
 394  -335.1506
 395  -82.31464
 396  -72.18643
 397  -60.23173
 398  -184.2081
 399  -170.7745
 400  -129.0727
 401  -118.7975
 402  -196.4957
 403  -182.656
 404  -259.0419
 405  -298.2245
 406  -221.576
 407  34.87503
 408  3.601742
 409  -176.6426
 410  -360.9154
 411  -42.06385
 412  -27.64519
 413  -140.8376
 414  123.2773
 415  102.3513
 416  -2.523529
 417  94.35371
 418  -19.85008
 419  -146.1067
 420  -270.1767
 421  53.2601
 422  -248.3947
 423  -120.5645
 424  140.8249
 425  298.4925
 426  116.3576
 427  -27.22274
 428  72.85934
 429  -89.53915
 430  252.2574
 431  181.4286
 432  -53.08576
 433  -107.5209
 434  -356.5702
 435  -345.0192
 436  -77.55913
 437  110.1865
 438  134.1196
 439  136.0578
 440  -125.2368
 441  -219.1081
 442  -319.9876
 443  -352.7467
 444  -263.0129
 445  -214.8038
 446  88.20719
 447  45.91119
 448  -253.5153
 449  -268.2726
 450  39.52253
 451  33.42948
 452  126.2799
 453  48.02943
 454  -108.9224
 455  -223.1691
 456  -384.3565
 457  -119.9852
 458  -39.30801
 459  125.0941
 460  219.4422
 461  -86.64608
 462  -135.2756
 463  -94.3323
 464  -65.89553
 465  -77.30887
 466  -307.4523
 467  -215.2707
 468  209.3302
 469  232.3302
 470  -40.283
 471  1.278862
 472  172.7039
 473  57.18479
 474  93.19774
 475  -303.8569
 476  -452.6624
 477  -477.1573
 478  -288.3279
 479  59.5645
 480  -50.04843
 481  59.51112
 482  220.2368
 483  158.4698
 484  -11.03888
 485  -405.9903
 486  -147.748
 487  286.1902
 488  354.315
 489  156.4046
 490  88.35101
 491  258.2272
 492  -167.2046
 493  -347.2866
 494  -10.89428
 495  154.8279
 496  307.836
 497  171.5429
 498  13.07179
 499  159.7294
 500  129.5879
 501  -145.9151
 502  124.8876
 503  220.138
 504  -150.2605
 505  -313.1572
 506  -9.568294
 507  -67.98793
 508  -105.8591
 509  -107.644
 510  -227.1205
 511  467.1825
