# Input file       =  1192572168.134948_cleaned.dat
# Candidate        =  PSR_0332+5434
# Telescope        =  AR
# Epoch_topo       =  58046.918832580413
# Epoch_bary       =  N/A
# T_sample         =  0.002
# Data Folded      =  7340032
# Data Avg         =  0.0144739777297526
# Data StdDev      =  1.00008942907569 
# Profile Bins     =  512
# Profile Avg      =  207.487881517271 
# Profile StdDev   =  119.743743991539 
# Reduced chi-sqr  =  1.862
# Prob(Noise)      <  5.87e-29   (~11.1 sigma)
# P_topo (ms)      =  714.486117680238  +/- 0.000269
# P'_topo (s/s)    =  -0                +/- 1.42e-10
# P''_topo (s/s^2) =  0                 +/- 6.27e-14
# P_bary (ms)      =  N/A
# P'_bary (s/s)    =  N/A
# P''_bary (s/s^2) =  N/A
# P_orb (s)        =  N/A
# asin(i)/c (s)    =  N/A
# eccentricity     =  N/A
# w (rad)          =  N/A
# T_peri           =  N/A
######################################################
   0  1140.624
   1  1028.76
   2  825.0897
   3  474.126
   4  231.9662
   5  242.9747
   6  222.4935
   7  123.8717
   8  156.1949
   9  341.5064
  10  200.5635
  11  205.6006
  12  204.8617
  13  260.4755
  14  200.3924
  15  371.6911
  16  425.8598
  17  180.7615
  18  182.5368
  19  208.2029
  20  301.6487
  21  233.8581
  22  343.1484
  23  367.26
  24  249.6174
  25  263.0528
  26  289.3397
  27  303.8727
  28  365.243
  29  241.8739
  30  242.1474
  31  265.3422
  32  260.8912
  33  222.5139
  34  205.4897
  35  342.9846
  36  301.9813
  37  233.6622
  38  269.8295
  39  217.8241
  40  202.1477
  41  241.6713
  42  280.502
  43  194.379
  44  122.4486
  45  121.2656
  46  -29.34258
  47  2.400799
  48  95.20765
  49  203.4524
  50  212.7962
  51  115.6073
  52  231.8041
  53  172.3618
  54  181.4861
  55  243.5573
  56  181.5738
  57  120.7949
  58  288.1714
  59  261.2293
  60  84.44269
  61  31.09099
  62  201.6982
  63  -3.366055
  64  104.7327
  65  248.4087
  66  236.2614
  67  297.701
  68  344.9762
  69  249.6107
  70  162.851
  71  202.73
  72  236.7725
  73  227.7597
  74  198.9847
  75  217.2743
  76  172.47
  77  217.799
  78  134.758
  79  201.9
  80  206.9439
  81  214.7289
  82  195.019
  83  314.634
  84  210.7621
  85  119.9272
  86  139.4579
  87  75.31586
  88  70.25404
  89  182.4831
  90  162.967
  91  129.0093
  92  13.01427
  93  144.2806
  94  230.5007
  95  219.9092
  96  250.2906
  97  239.1794
  98  203.5913
  99  272.8449
 100  139.487
 101  84.64597
 102  119.3663
 103  197.3111
 104  279.6833
 105  344.1497
 106  253.3144
 107  177.5541
 108  97.90819
 109  104.7438
 110  168.896
 111  192.1865
 112  197.0166
 113  139.6334
 114  124.4885
 115  229.8114
 116  306.9349
 117  311.8162
 118  314.244
 119  168.6817
 120  182.6278
 121  139.6626
 122  217.571
 123  361.4612
 124  257.4922
 125  262.6979
 126  230.703
 127  268.7681
 128  138.8432
 129  48.66636
 130  148.5441
 131  188.3405
 132  212.709
 133  243.7714
 134  313.0984
 135  267.3378
 136  102.0409
 137  129.1267
 138  262.0875
 139  205.5601
 140  224.7053
 141  158.9113
 142  120.6326
 143  237.31
 144  99.38634
 145  228.5795
 146  257.1768
 147  130.4453
 148  280.8524
 149  393.6461
 150  460.0758
 151  413.1704
 152  283.6865
 153  212.6459
 154  298.7984
 155  208.6446
 156  173.3736
 157  186.0843
 158  251.9149
 159  184.5609
 160  346.6622
 161  347.9238
 162  165.3272
 163  142.259
 164  171.2346
 165  222.1509
 166  242.2102
 167  228.384
 168  248.7733
 169  202.6205
 170  121.4733
 171  69.453
 172  178.0998
 173  247.4441
 174  202.3579
 175  182.6843
 176  206.5665
 177  105.7039
 178  169.9771
 179  235.607
 180  136.8666
 181  110.5181
 182  224.2173
 183  269.2289
 184  331.2462
 185  283.4274
 186  190.0906
 187  203.3138
 188  175.2514
 189  201.7102
 190  128.9327
 191  55.47726
 192  281.3475
 193  298.2581
 194  294.7836
 195  212.8727
 196  315.4853
 197  225.8229
 198  108.6782
 199  304.658
 200  245.3724
 201  407.1772
 202  330.565
 203  363.454
 204  472.0103
 205  249.4492
 206  167.7541
 207  180.533
 208  208.197
 209  255.039
 210  116.8894
 211  193.2782
 212  181.371
 213  120.7146
 214  104.2753
 215  228.0149
 216  162.1757
 217  140.8337
 218  261.752
 219  268.6363
 220  281.5727
 221  167.4308
 222  234.8905
 223  305.8052
 224  309.1184
 225  370.5046
 226  235.1808
 227  155.0451
 228  241.4795
 229  252.7633
 230  126.8797
 231  255.1904
 232  191.2679
 233  276.0173
 234  137.5141
 235  96.7952
 236  161.4489
 237  235.2259
 238  167.7985
 239  123.9199
 240  221.0825
 241  274.2521
 242  130.6168
 243  46.70209
 244  79.85512
 245  59.39426
 246  99.29487
 247  137.133
 248  138.4886
 249  89.80007
 250  216.3223
 251  194.6466
 252  178.7496
 253  160.2008
 254  187.2896
 255  158.8617
 256  196.172
 257  231.9072
 258  173.5853
 259  313.0549
 260  231.0245
 261  260.0778
 262  121.3354
 263  97.0934
 264  68.31226
 265  206.4885
 266  308.1516
 267  261.2448
 268  203.0229
 269  212.681
 270  259.4749
 271  120.5249
 272  177.4469
 273  199.96
 274  110.7628
 275  106.7394
 276  139.7191
 277  220.2133
 278  393.3917
 279  194.5862
 280  176.0152
 281  221.9354
 282  204.4471
 283  127.8352
 284  190.557
 285  218.8544
 286  280.5359
 287  189.4406
 288  234.0046
 289  269.0631
 290  205.1052
 291  327.4803
 292  290.4361
 293  258.4907
 294  179.3468
 295  191.8562
 296  151.1547
 297  91.50816
 298  65.52924
 299  80.02535
 300  79.66626
 301  90.44783
 302  49.81749
 303  132.1937
 304  173.2912
 305  119.4726
 306  189.2082
 307  384.8522
 308  122.1753
 309  84.47299
 310  144.6794
 311  323.3593
 312  280.561
 313  329.3503
 314  242.3832
 315  141.5468
 316  410.9037
 317  291.4519
 318  225.4989
 319  116.3017
 320  171.6023
 321  239.7574
 322  157.3922
 323  324.6001
 324  319.5178
 325  278.0731
 326  327.7911
 327  280.4895
 328  225.7827
 329  150.9118
 330  66.42724
 331  -60.93704
 332  52.00546
 333  162.6566
 334  125.2935
 335  86.54137
 336  146.3157
 337  -31.3411
 338  133.5457
 339  57.03833
 340  155.4576
 341  51.98023
 342  211.9602
 343  297.7982
 344  224.9031
 345  207.4573
 346  255.1995
 347  325.7501
 348  311.2826
 349  174.6377
 350  188.4704
 351  146.5873
 352  166.5392
 353  137.0496
 354  89.98307
 355  99.58589
 356  263.3843
 357  175.1947
 358  190.2513
 359  191.8707
 360  36.50135
 361  81.85289
 362  108.7386
 363  160.3919
 364  101.3242
 365  93.10555
 366  100.0608
 367  207.872
 368  208.8515
 369  196.3375
 370  151.2444
 371  161.9485
 372  260.8349
 373  270.5238
 374  254.2703
 375  109.65
 376  114.1738
 377  210.1364
 378  153.8722
 379  220.2188
 380  248.8414
 381  87.31503
 382  78.34103
 383  111.7567
 384  199.8252
 385  243.5921
 386  129.0977
 387  193.34
 388  177.8228
 389  188.0895
 390  141.1894
 391  59.47175
 392  220.9885
 393  284.5092
 394  201.4205
 395  48.69127
 396  6.309311
 397  77.79848
 398  206.6047
 399  245.8856
 400  257.9388
 401  70.57544
 402  195.114
 403  248.9363
 404  189.4742
 405  273.4856
 406  231.3941
 407  66.41614
 408  111.7873
 409  90.98309
 410  131.2407
 411  81.88646
 412  175.8483
 413  270.6031
 414  225.6774
 415  180.0424
 416  108.0388
 417  151.4603
 418  307.4509
 419  384.332
 420  180.2867
 421  47.11237
 422  218.038
 423  268.4801
 424  184.2625
 425  135.049
 426  212.4697
 427  176.326
 428  161.1364
 429  184.7418
 430  260.089
 431  187.1034
 432  70.21775
 433  233.2787
 434  346.1864
 435  366.8242
 436  219.9647
 437  223.4056
 438  250.7718
 439  252.3307
 440  195.6265
 441  85.17718
 442  147.08
 443  14.61285
 444  84.10102
 445  176.9692
 446  206.6362
 447  88.28674
 448  73.13992
 449  107.3928
 450  199.2203
 451  114.3299
 452  58.67654
 453  145.7413
 454  138.5872
 455  -36.01077
 456  189.3003
 457  263.349
 458  209.0103
 459  58.23246
 460  164.8235
 461  142.6722
 462  72.27959
 463  151.0422
 464  256.1736
 465  277.533
 466  248.0609
 467  204.1324
 468  27.81408
 469  45.48673
 470  128.9742
 471  111.4705
 472  200.411
 473  172.5683
 474  155.8902
 475  113.6989
 476  79.85796
 477  78.75317
 478  119.1997
 479  276.3193
 480  313.0872
 481  230.2029
 482  144.5695
 483  195.6534
 484  225.3896
 485  252.046
 486  209.6487
 487  325.0823
 488  258.1463
 489  139.4118
 490  157.0159
 491  240.8457
 492  272.2033
 493  320.5256
 494  295.2552
 495  198.3088
 496  157.6942
 497  313.4998
 498  326.9238
 499  214.878
 500  227.4876
 501  247.8448
 502  187.1323
 503  281.4754
 504  310.0339
 505  382.575
 506  423.773
 507  484.285
 508  501.9924
 509  639.0932
 510  844.994
 511  1071.177
