# Input file       =  1192070158.12806_cleaned.dat
# Candidate        =  PSR_0332+5434
# Telescope        =  AR
# Epoch_topo       =  58041.108531574770
# Epoch_bary       =  N/A
# T_sample         =  0.002
# Data Folded      =  7340032
# Data Avg         =  0.0150967541804679
# Data StdDev      =  1.00063567515078 
# Profile Bins     =  512
# Profile Avg      =  216.426979220724 
# Profile StdDev   =  119.809147692718 
# Reduced chi-sqr  =  1.432
# Prob(Noise)      <  4.4e-10   (~6.1 sigma)
# P_topo (ms)      =  714.481959171053  +/- 0.000204
# P'_topo (s/s)    =  -0                +/- 1.08e-10
# P''_topo (s/s^2) =  0                 +/- 4.75e-14
# P_bary (ms)      =  N/A
# P'_bary (s/s)    =  N/A
# P''_bary (s/s^2) =  N/A
# P_orb (s)        =  N/A
# asin(i)/c (s)    =  N/A
# eccentricity     =  N/A
# w (rad)          =  N/A
# T_peri           =  N/A
######################################################
   0  277.4009
   1  298.1502
   2  253.1713
   3  246.437
   4  154.9091
   5  154.8245
   6  286.0641
   7  256.585
   8  170.9297
   9  122.8652
  10  185.6527
  11  211.2962
  12  274.8391
  13  270.4612
  14  290.7375
  15  279.4575
  16  218.9605
  17  199.8014
  18  203.7991
  19  210.6599
  20  120.6964
  21  166.3237
  22  362.9722
  23  172.5617
  24  89.87988
  25  232.6434
  26  249.0027
  27  291.9191
  28  279.3464
  29  234.1393
  30  215.2026
  31  240.8253
  32  171.2038
  33  45.13229
  34  42.38116
  35  -24.62518
  36  95.62853
  37  62.5665
  38  47.3979
  39  161.7917
  40  320.9608
  41  299.6271
  42  218.9268
  43  212.3568
  44  164.7843
  45  210.5721
  46  194.929
  47  304.6778
  48  268.3493
  49  232.0111
  50  316.4013
  51  220.9877
  52  106.0445
  53  46.20372
  54  246.0099
  55  221.5535
  56  265.6058
  57  307.3649
  58  230.9556
  59  226.185
  60  155.3223
  61  151.8917
  62  160.1749
  63  148.6248
  64  265.83
  65  199.7198
  66  198.3956
  67  90.22002
  68  187.2402
  69  34.47359
  70  46.02828
  71  267.2009
  72  287.0355
  73  163.2369
  74  236.601
  75  163.0456
  76  143.7463
  77  110.176
  78  197.5465
  79  134.7411
  80  206.7478
  81  220.3904
  82  185.5543
  83  131.3999
  84  183.593
  85  129.5474
  86  195.4305
  87  97.80619
  88  112.7392
  89  197.261
  90  239.0346
  91  214.2969
  92  166.3774
  93  191.0336
  94  87.46869
  95  24.85133
  96  137.3354
  97  186.3408
  98  94.05497
  99  183.6777
 100  212.8498
 101  217.6714
 102  94.90943
 103  98.11862
 104  141.188
 105  188.9813
 106  213.0081
 107  184.3024
 108  230.6972
 109  250.8703
 110  250.0612
 111  209.1869
 112  194.0249
 113  159.2193
 114  224.1971
 115  317.0107
 116  239.5318
 117  187.8085
 118  151.1351
 119  370.0797
 120  354.4745
 121  310.6769
 122  281.5106
 123  254.1529
 124  168.0409
 125  97.76363
 126  314.5946
 127  272.2188
 128  303.7967
 129  303.2131
 130  160.3957
 131  148.9587
 132  146.9357
 133  156.7381
 134  168.5467
 135  101.3338
 136  117.2479
 137  66.05321
 138  130.2931
 139  1.097173
 140  19.44305
 141  270.5284
 142  203.5997
 143  201.8019
 144  223.5641
 145  147.7062
 146  153.8228
 147  287.2859
 148  223.2686
 149  293.2953
 150  185.3766
 151  214.0834
 152  246.017
 153  298.6898
 154  157.0915
 155  199.5715
 156  152.084
 157  152.9671
 158  269.8395
 159  353.7936
 160  309.6547
 161  448.3347
 162  467.2691
 163  669.0405
 164  920.601
 165  976.823
 166  1019.946
 167  783.9852
 168  417.6369
 169  250.0676
 170  278.0369
 171  316.6175
 172  188.0704
 173  202.4104
 174  190.4632
 175  205.6142
 176  291.4887
 177  303.6583
 178  296.8456
 179  336.0099
 180  318.6435
 181  342.5793
 182  274.3582
 183  208.6917
 184  271.6571
 185  264.3529
 186  251.6997
 187  200.058
 188  174.2601
 189  273.2376
 190  311.8673
 191  280.8824
 192  104.1296
 193  113.5555
 194  149.4204
 195  143.5363
 196  203.2576
 197  187.4749
 198  197.861
 199  235.2981
 200  407.4939
 201  420.6752
 202  380.8388
 203  244.2341
 204  290.0604
 205  302.2676
 206  186.1934
 207  139.6361
 208  115.4478
 209  78.20839
 210  151.2173
 211  157.2154
 212  169.1727
 213  100.405
 214  42.98252
 215  192.4815
 216  247.7422
 217  111.2349
 218  146.5804
 219  0.4701752
 220  73.03123
 221  214.1488
 222  248.1701
 223  265.2119
 224  283.5059
 225  195.83
 226  114.1921
 227  91.01214
 228  222.5032
 229  258.5571
 230  197.6185
 231  178.6377
 232  213.2341
 233  202.849
 234  310.6848
 235  312.2267
 236  387.833
 237  261.0256
 238  197.4354
 239  143.2101
 240  139.6885
 241  135.5111
 242  150.3676
 243  87.06606
 244  171.9589
 245  185.0759
 246  214.1599
 247  226.9277
 248  210.1474
 249  228.1358
 250  267.3363
 251  266.3124
 252  165.472
 253  194.2473
 254  215.7399
 255  247.3724
 256  236.832
 257  105.5415
 258  86.04266
 259  189.6514
 260  397.0682
 261  200.0354
 262  117.7205
 263  186.6809
 264  173.0109
 265  184.3402
 266  265.7744
 267  175.8422
 268  81.2372
 269  218.9281
 270  254.3494
 271  97.00834
 272  127.2943
 273  134.8589
 274  127.1718
 275  190.1206
 276  247.1948
 277  308.7314
 278  229.6953
 279  110.6508
 280  151.3324
 281  263.3321
 282  205.8471
 283  243.6039
 284  299.4478
 285  351.7284
 286  294.1279
 287  252.593
 288  220.465
 289  229.8939
 290  147.4161
 291  86.05216
 292  108.3201
 293  112.269
 294  252.3663
 295  141.0923
 296  121.0755
 297  111.7711
 298  49.51642
 299  119.4744
 300  146.0943
 301  206.1885
 302  202.2452
 303  162.3938
 304  95.32186
 305  220.5424
 306  330.5869
 307  344.3043
 308  355.0601
 309  207.0223
 310  151.8279
 311  177.7807
 312  116.4179
 313  162.0357
 314  155.1307
 315  323.1598
 316  236.7921
 317  203.116
 318  293.7025
 319  323.1428
 320  205.1273
 321  164.08
 322  154.9788
 323  108.3428
 324  214.2595
 325  322.3839
 326  374.1634
 327  265.4919
 328  269.9513
 329  162.7731
 330  173.9399
 331  185.7407
 332  206.4681
 333  258.47
 334  312.6149
 335  383.7151
 336  286.8527
 337  198.839
 338  246.3458
 339  263.7914
 340  365.6758
 341  137.5313
 342  187.1772
 343  273.2018
 344  154.4884
 345  207.4211
 346  208.3347
 347  175.9951
 348  286.2065
 349  257.738
 350  304.7474
 351  154.8163
 352  252.6944
 353  266.5442
 354  223.7786
 355  220.0256
 356  63.87482
 357  156.1108
 358  204.4395
 359  108.8434
 360  158.8942
 361  66.27932
 362  222.5087
 363  252.4346
 364  384.2587
 365  139.4852
 366  123.3926
 367  163.958
 368  186.6125
 369  278.5882
 370  181.0146
 371  255.0896
 372  309.0223
 373  284.8625
 374  236.0454
 375  126.5283
 376  222.5101
 377  286.463
 378  289.9067
 379  223.3895
 380  273.5829
 381  288.2173
 382  245.2736
 383  160.8783
 384  319.1458
 385  348.3138
 386  222.3916
 387  190.6277
 388  239.0066
 389  150.5006
 390  242.0183
 391  192.4011
 392  91.20133
 393  190.9504
 394  236.7519
 395  266.8343
 396  208.7419
 397  204.2161
 398  162.4907
 399  75.51141
 400  311.4856
 401  296.5056
 402  174.8336
 403  130.158
 404  146.2407
 405  131.6705
 406  175.6399
 407  100.3103
 408  246.9764
 409  325.4082
 410  248.6668
 411  180.0148
 412  210.4435
 413  229.1331
 414  215.1498
 415  238.0765
 416  280.2294
 417  265.1222
 418  269.9487
 419  337.4843
 420  196.7294
 421  124.4178
 422  102.9783
 423  1.708803
 424  179.4034
 425  156.0818
 426  240.8045
 427  357.4807
 428  383.1346
 429  244.7223
 430  223.8121
 431  251.6755
 432  198.9705
 433  328.3314
 434  210.0631
 435  127.6745
 436  263.8
 437  381.3773
 438  306.0649
 439  237.6649
 440  188.8024
 441  336.5036
 442  340.6721
 443  282.0129
 444  186.1406
 445  111.3168
 446  194.039
 447  179.1093
 448  268.2849
 449  302.136
 450  248.2449
 451  285.4837
 452  252.1964
 453  286.0659
 454  176.6642
 455  90.19644
 456  173.4804
 457  58.46509
 458  117.4969
 459  173.9812
 460  230.5695
 461  178.3858
 462  137.0428
 463  140.2492
 464  198.4498
 465  170.3421
 466  228.9209
 467  123.0329
 468  228.3053
 469  289.7454
 470  186.6165
 471  208.8548
 472  227.6569
 473  122.7631
 474  142.7993
 475  227.4259
 476  249.8333
 477  255.7167
 478  109.7811
 479  54.86785
 480  185.769
 481  380.9832
 482  203.9804
 483  249.5662
 484  256.3023
 485  274.8757
 486  137.9028
 487  154.5961
 488  166.0532
 489  101.7895
 490  41.18404
 491  150.3805
 492  230.1013
 493  393.2926
 494  369.3287
 495  192.524
 496  192.7995
 497  253.2206
 498  259.019
 499  261.2191
 500  133.8725
 501  201.3508
 502  225.9002
 503  239.2925
 504  291.5331
 505  353.0069
 506  222.3988
 507  314.69
 508  300.9434
 509  239.9617
 510  292.6522
 511  306.6281
