# Input file       =  1192399868.133724_cleaned.dat
# Candidate        =  PSR_0332+5434
# Telescope        =  AR
# Epoch_topo       =  58044.924619603284
# Epoch_bary       =  N/A
# T_sample         =  0.002
# Data Folded      =  7340032
# Data Avg         =  0.0155643795082456
# Data StdDev      =  0.999964079101611
# Profile Bins     =  512
# Profile Avg      =  223.139876298705 
# Profile StdDev   =  119.728735458533 
# Reduced chi-sqr  =  1.437
# Prob(Noise)      <  3.05e-10   (~6.2 sigma)
# P_topo (ms)      =  714.484526680246  +/- 0.000249
# P'_topo (s/s)    =  -0                +/- 1.31e-10
# P''_topo (s/s^2) =  0                 +/- 5.8e-14
# P_bary (ms)      =  N/A
# P'_bary (s/s)    =  N/A
# P''_bary (s/s^2) =  N/A
# P_orb (s)        =  N/A
# asin(i)/c (s)    =  N/A
# eccentricity     =  N/A
# w (rad)          =  N/A
# T_peri           =  N/A
######################################################
   0  905.2726
   1  933.0977
   2  700.7784
   3  332.0706
   4  146.7819
   5  260.3235
   6  352.2896
   7  279.3908
   8  91.32476
   9  137.115
  10  334.8189
  11  245.888
  12  183.4785
  13  180.9689
  14  223.18
  15  313.0266
  16  256.9702
  17  148.5935
  18  135.5047
  19  172.2738
  20  236.7479
  21  194.3393
  22  142.4084
  23  250.5577
  24  214.3198
  25  124.9067
  26  234.6858
  27  249.2476
  28  181.333
  29  164.6729
  30  92.57296
  31  184.0809
  32  178.1624
  33  81.51955
  34  123.8214
  35  257.0379
  36  293.6813
  37  233.0585
  38  311.624
  39  232.9395
  40  138.006
  41  207.6002
  42  163.7283
  43  260.3758
  44  222.7989
  45  60.05189
  46  57.15155
  47  236.6384
  48  72.55279
  49  182.3073
  50  178.3011
  51  153.8497
  52  64.81319
  53  107.3263
  54  263.6929
  55  125.4193
  56  121.0576
  57  202.8257
  58  217.6688
  59  220.7688
  60  255.6243
  61  296.6259
  62  252.0715
  63  241.0111
  64  153.6137
  65  134.8863
  66  176.1533
  67  115.4363
  68  92.44849
  69  93.83015
  70  164.3948
  71  158.0913
  72  250.0236
  73  149.7752
  74  157.7329
  75  187.6957
  76  308.6769
  77  214.5504
  78  265.7462
  79  208.6361
  80  163.7325
  81  122.6035
  82  194.1391
  83  310.9522
  84  257.0885
  85  244.7632
  86  279.9904
  87  229.4687
  88  198.6182
  89  213.8904
  90  216.1422
  91  114.9331
  92  80.40392
  93  252.8907
  94  186.0695
  95  286.8586
  96  317.3484
  97  227.5961
  98  172.9123
  99  145.5294
 100  248.581
 101  327.5676
 102  257.6547
 103  79.62756
 104  146.9502
 105  173.0455
 106  285.9481
 107  217.9591
 108  272.439
 109  234.1762
 110  258.0974
 111  212.5009
 112  174.808
 113  145.697
 114  222.4812
 115  239.949
 116  161.457
 117  129.434
 118  181.9263
 119  180.3704
 120  299.0852
 121  306.5279
 122  275.5912
 123  205.3799
 124  250.9409
 125  226.5595
 126  238.3932
 127  327.4142
 128  296.6927
 129  142.7623
 130  182.1532
 131  321.305
 132  345.3175
 133  123.5636
 134  59.7145
 135  150.5573
 136  198.2581
 137  292.5577
 138  276.9416
 139  102.6412
 140  231.7222
 141  281.7054
 142  212.8389
 143  244.4937
 144  194.9259
 145  255.4081
 146  307.794
 147  261.8165
 148  104.707
 149  188.8183
 150  144.62
 151  165.9825
 152  167.0826
 153  209.1377
 154  232.0998
 155  213.048
 156  269.9784
 157  206.6993
 158  126.7938
 159  190.4335
 160  119.5705
 161  222.6191
 162  245.1891
 163  309.112
 164  258.8553
 165  212.8389
 166  130.4744
 167  94.16058
 168  134.3192
 169  114.1685
 170  185.1496
 171  117.1144
 172  74.16985
 173  111.0298
 174  251.0937
 175  398.0746
 176  327.6527
 177  135.974
 178  48.79997
 179  162.213
 180  199.5191
 181  270.636
 182  232.363
 183  190.474
 184  159.6518
 185  193.9657
 186  289.6953
 187  257.4406
 188  396.1877
 189  336.397
 190  216.6649
 191  151.1248
 192  140.0092
 193  152.5588
 194  167.2901
 195  104.9241
 196  164.17
 197  255.1527
 198  173.8611
 199  164.9041
 200  131.8942
 201  300.7343
 202  371.8904
 203  272.0112
 204  255.2313
 205  172.6546
 206  120.6588
 207  281.1835
 208  338.2317
 209  275.9854
 210  262.3898
 211  251.6099
 212  260.6579
 213  273.2267
 214  249.7413
 215  167.4244
 216  158.8626
 217  222.3123
 218  309.0219
 219  400.0617
 220  264.5779
 221  212.1794
 222  180.5503
 223  226.025
 224  232.8191
 225  286.9812
 226  193.5518
 227  217.1865
 228  278.7743
 229  261.4598
 230  280.6416
 231  319.1532
 232  224.1441
 233  306.1804
 234  288.4032
 235  266.3294
 236  296.7979
 237  290.6252
 238  297.3259
 239  123.9102
 240  120.2145
 241  260.5408
 242  268.3403
 243  324.3033
 244  307.3477
 245  183.4247
 246  228.7794
 247  308.7601
 248  277.289
 249  238.2982
 250  147.1627
 251  229.0528
 252  214.3652
 253  165.4038
 254  262.4185
 255  289.6126
 256  341.4235
 257  380.3819
 258  221.8904
 259  310.4175
 260  334.2289
 261  206.9421
 262  136.2025
 263  153.4956
 264  239.1175
 265  164.8451
 266  182.3032
 267  141.7513
 268  100.7792
 269  212.0049
 270  258.4884
 271  285.4043
 272  280.8419
 273  171.3289
 274  236.1523
 275  251.3228
 276  195.492
 277  241.1901
 278  260.5717
 279  347.9099
 280  214.2307
 281  151.5393
 282  279.2992
 283  316.1265
 284  145.8221
 285  273.561
 286  199.9541
 287  195.5695
 288  218.5741
 289  324.8199
 290  291.3875
 291  166.2849
 292  232.8399
 293  312.4265
 294  293.5015
 295  239.8463
 296  118.1236
 297  172.5648
 298  211.1857
 299  206.812
 300  189.0055
 301  195.174
 302  163.7921
 303  166.6164
 304  122.2659
 305  51.43682
 306  195.1228
 307  346.3695
 308  192.4252
 309  143.2704
 310  74.80013
 311  50.38927
 312  251.1741
 313  263.0514
 314  97.75052
 315  231.131
 316  237.095
 317  262.1419
 318  97.42556
 319  208.6302
 320  273.4952
 321  169.3928
 322  281.4226
 323  227.7522
 324  189.4156
 325  300.5095
 326  224.6321
 327  240.7496
 328  285.4034
 329  303.3696
 330  299.0173
 331  92.81762
 332  186.5163
 333  236.5967
 334  304.6264
 335  244.5299
 336  238.2801
 337  363.4121
 338  293.3276
 339  308.8998
 340  225.9991
 341  286.3996
 342  192.0529
 343  257.957
 344  210.8312
 345  177.3313
 346  183.8185
 347  239.0233
 348  306.5699
 349  132.3967
 350  171.9368
 351  276.57
 352  241.2829
 353  253.5647
 354  274.8575
 355  217.7778
 356  254.865
 357  271.4059
 358  277.4663
 359  222.9455
 360  179.5708
 361  197.0245
 362  77.45686
 363  182.4816
 364  40.63537
 365  175.6698
 366  366.0745
 367  380.2006
 368  325.1589
 369  265.0492
 370  222.5044
 371  180.0177
 372  225.0062
 373  286.9098
 374  218.9566
 375  190.0482
 376  199.9331
 377  209.6005
 378  214.0643
 379  214.1517
 380  209.3202
 381  216.5965
 382  288.5001
 383  219.7909
 384  181.9099
 385  205.6752
 386  143.8912
 387  207.2676
 388  116.5871
 389  62.77165
 390  208.3789
 391  124.1387
 392  175.1302
 393  95.43945
 394  133.0797
 395  126.6243
 396  150.7934
 397  141.8986
 398  112.9322
 399  110.5868
 400  130.2765
 401  210.9083
 402  259.2391
 403  176.6796
 404  91.89456
 405  128.6614
 406  247.8983
 407  147.9017
 408  187.593
 409  269.7686
 410  213.0389
 411  247.7067
 412  219.015
 413  213.3421
 414  86.79575
 415  197.0099
 416  188.398
 417  83.36535
 418  244.864
 419  263.7227
 420  337.9276
 421  198.5128
 422  246.5558
 423  163.1697
 424  256.6288
 425  300.2085
 426  203.6869
 427  128.7018
 428  128.5609
 429  63.0021
 430  171.9352
 431  249.1568
 432  282.478
 433  283.9686
 434  266.7661
 435  169.5821
 436  150.2379
 437  124.1295
 438  115.1364
 439  124.5191
 440  159.7111
 441  278.9143
 442  209.73
 443  130.4147
 444  206.6302
 445  275.2773
 446  297.7636
 447  309.6991
 448  196.422
 449  169.4529
 450  80.97499
 451  173.5408
 452  213.5277
 453  247.8394
 454  318.9215
 455  291.8728
 456  175.5293
 457  175.6716
 458  212.1929
 459  227.4315
 460  152.7168
 461  69.7238
 462  276.5789
 463  399.3875
 464  272.0641
 465  155.2198
 466  298.6699
 467  275.875
 468  297.9289
 469  212.7405
 470  55.68219
 471  91.48262
 472  102.3048
 473  252.5132
 474  240.1191
 475  142.5582
 476  251.3065
 477  247.3526
 478  215.1591
 479  140.6762
 480  95.9558
 481  259.7566
 482  313.4932
 483  245.0177
 484  184.5143
 485  254.9799
 486  259.2184
 487  71.48987
 488  186.5392
 489  254.9879
 490  308.0843
 491  355.7178
 492  226.6993
 493  257.9434
 494  325.2975
 495  244.3645
 496  248.9825
 497  376.8913
 498  292.0254
 499  90.24611
 500  200.8283
 501  226.6684
 502  199.6384
 503  233.7928
 504  191.8525
 505  243.1256
 506  513.2698
 507  459.1817
 508  571.7271
 509  780.2369
 510  979.7009
 511  975.6299
