# Input file       =  1192299056.166723_cleaned.dat
# Candidate        =  PSR_0332+5434
# Telescope        =  AR
# Epoch_topo       =  58043.757814429664
# Epoch_bary       =  N/A
# T_sample         =  0.002
# Data Folded      =  7208960
# Data Avg         =  0.0868649734289978
# Data StdDev      =  3.58593297871068 
# Profile Bins     =  256
# Profile Avg      =  2446.08334345833 
# Profile StdDev   =  601.753317922705 
# Reduced chi-sqr  =  0.849
# Prob(Noise)      <  0.961   (~0.0 sigma)
# P_topo (ms)      =  714.483606986274  +/- 0.00109
# P'_topo (s/s)    =  -0                +/- 5.84e-10
# P''_topo (s/s^2) =  0                 +/- 2.63e-13
# P_bary (ms)      =  N/A
# P'_bary (s/s)    =  N/A
# P''_bary (s/s^2) =  N/A
# P_orb (s)        =  N/A
# asin(i)/c (s)    =  N/A
# eccentricity     =  N/A
# w (rad)          =  N/A
# T_peri           =  N/A
######################################################
   0  2995.611
   1  2629.648
   2  2428.746
   3  2495.448
   4  2503.11
   5  2925.213
   6  2303.159
   7  2575.12
   8  2563.196
   9  1675.013
  10  2028.93
  11  2101.402
  12  2468.176
  13  2286.277
  14  2296.211
  15  1979.945
  16  2187.153
  17  1738.834
  18  1957.694
  19  1787.718
  20  2039.632
  21  2780.474
  22  1637.296
  23  1476.03
  24  2267.102
  25  2805.974
  26  2080.136
  27  2585.342
  28  2157.905
  29  1577.091
  30  1913.218
  31  1996.734
  32  2260.304
  33  1776.398
  34  2442.874
  35  1954.662
  36  2134.347
  37  2083.866
  38  1879.969
  39  2061.639
  40  1552.401
  41  2749.75
  42  2899.158
  43  1888.533
  44  1871.689
  45  2248.962
  46  2210.931
  47  2172.546
  48  2672.135
  49  2366.752
  50  2791.031
  51  2231.127
  52  2603.63
  53  2592.437
  54  2449.297
  55  2621.664
  56  2688.134
  57  2815.283
  58  2373.463
  59  1958.957
  60  2113.985
  61  2071.646
  62  2364.66
  63  2508.772
  64  3029.826
  65  2053.937
  66  1466.441
  67  2413.995
  68  2459.04
  69  1955.722
  70  1653.609
  71  2429.969
  72  2220.513
  73  2228.132
  74  2412.352
  75  2378.19
  76  2196.422
  77  2768.341
  78  1769.729
  79  2218.858
  80  2420.072
  81  2598.555
  82  2443.335
  83  1913.128
  84  2298.625
  85  2509.056
  86  2331.062
  87  2151.358
  88  2312.404
  89  2740.899
  90  2518.481
  91  2201.21
  92  2078.711
  93  2863.399
  94  2595.538
  95  2815.194
  96  3073.978
  97  2465.45
  98  2403.663
  99  2814.249
 100  2776.781
 101  2648.414
 102  2452.363
 103  1886.012
 104  2166.448
 105  1780.148
 106  2397.067
 107  2481.186
 108  2372.524
 109  2861.005
 110  2705.653
 111  2338.066
 112  2680.115
 113  3003.362
 114  2184.6
 115  2031.882
 116  2779.134
 117  3108.454
 118  2160.686
 119  1792.806
 120  1968.794
 121  2539.344
 122  2498.543
 123  1794.835
 124  2002.636
 125  1800.408
 126  2933.309
 127  2457.593
 128  2742.763
 129  3090.77
 130  2437.304
 131  2302.074
 132  2179.526
 133  2940.681
 134  2460.265
 135  2624.555
 136  2314.973
 137  2718.427
 138  2548.794
 139  2586.904
 140  2672.41
 141  2422.312
 142  2524.229
 143  2333.738
 144  2276.318
 145  2717.078
 146  2375.206
 147  2250.494
 148  1991.811
 149  2661.316
 150  3052.373
 151  2723.525
 152  2420.979
 153  2908.578
 154  2841.923
 155  2986.073
 156  3010.58
 157  3598.486
 158  5309.032
 159  6306.241
 160  4034.381
 161  2207.106
 162  2908.083
 163  3083.024
 164  2495.232
 165  2944.279
 166  3259.047
 167  2565.703
 168  2801.484
 169  1773.848
 170  2083.63
 171  1980.26
 172  2304.39
 173  2138.57
 174  2038.546
 175  2465.127
 176  2178.104
 177  2342.956
 178  2821.697
 179  2271.071
 180  2332.107
 181  2252.057
 182  2692.128
 183  2607.906
 184  2464.721
 185  2443.021
 186  2656.297
 187  2648.916
 188  2763.512
 189  2229.308
 190  2627.3
 191  2891.98
 192  2301.605
 193  2421.606
 194  2418.448
 195  2162.484
 196  2875.986
 197  2679.292
 198  2777.678
 199  2113.354
 200  2109.269
 201  2832.972
 202  2067.041
 203  2237.411
 204  2894.984
 205  2749.55
 206  2025.997
 207  2729.883
 208  2652.691
 209  2667.169
 210  2332.963
 211  2312.508
 212  2246.48
 213  2743.604
 214  2579.932
 215  2782.147
 216  2199.97
 217  2663.361
 218  2576.858
 219  2633.976
 220  2864.338
 221  1989.676
 222  1804.801
 223  2225.439
 224  2100.777
 225  2016.474
 226  2266.305
 227  2430.559
 228  2684.551
 229  2503.972
 230  2338.663
 231  2412.908
 232  2339.335
 233  2604.985
 234  2645.213
 235  2065.628
 236  2340.635
 237  2516.146
 238  2160.444
 239  2563.5
 240  2337.871
 241  2915.132
 242  2651.447
 243  2360.211
 244  2883.11
 245  3081.399
 246  2915.654
 247  2754.01
 248  1838.511
 249  2637.151
 250  2293.422
 251  2496.18
 252  2479.529
 253  2869.066
 254  2706.536
 255  2218.861
