# Input file       =  1192988327.145844_cleaned.dat
# Candidate        =  PSR_0332+5434
# Telescope        =  AR
# Epoch_topo       =  58051.735487799124
# Epoch_bary       =  N/A
# T_sample         =  0.002
# Data Folded      =  7208960
# Data Avg         =  0.0367440641921184
# Data StdDev      =  3.07258269626965 
# Profile Bins     =  512
# Profile Avg      =  517.329174328663 
# Profile StdDev   =  364.590130296821 
# Reduced chi-sqr  =  1.012
# Prob(Noise)      <  0.417   (~0.2 sigma)
# P_topo (ms)      =  714.490135606336  +/- 6.81e-05
# P'_topo (s/s)    =  -0                +/- 3.66e-11
# P''_topo (s/s^2) =  0                 +/- 1.64e-14
# P_bary (ms)      =  N/A
# P'_bary (s/s)    =  N/A
# P''_bary (s/s^2) =  N/A
# P_orb (s)        =  N/A
# asin(i)/c (s)    =  N/A
# eccentricity     =  N/A
# w (rad)          =  N/A
# T_peri           =  N/A
######################################################
   0  818.2238
   1  625.7795
   2  472.4918
   3  572.3329
   4  366.4854
   5  154.4947
   6  278.4873
   7  621.9635
   8  546.6722
   9  462.1962
  10  157.2553
  11  168.9112
  12  -47.60078
  13  92.16906
  14  449.2737
  15  506.6076
  16  895.9081
  17  883.2976
  18  418.7628
  19  103.3619
  20  579.6628
  21  779.1173
  22  395.1395
  23  360.0985
  24  432.7325
  25  258.5329
  26  203.7574
  27  203.0236
  28  364.3906
  29  682.0287
  30  271.4538
  31  360.6546
  32  240.1947
  33  243.8979
  34  699.4268
  35  839.8118
  36  848.1658
  37  510.4292
  38  541.9155
  39  570.2291
  40  568.837
  41  324.5417
  42  540.0894
  43  403.3575
  44  88.1146
  45  128.877
  46  352.3445
  47  537.3753
  48  262.946
  49  237.1582
  50  274.1993
  51  521.2975
  52  365.5663
  53  522.8104
  54  678.5406
  55  558.5709
  56  628.0174
  57  378.8228
  58  472.6145
  59  288.3999
  60  497.325
  61  589.2545
  62  662.4601
  63  439.3636
  64  223.2298
  65  508.9591
  66  652.5461
  67  657.9881
  68  684.1578
  69  536.8915
  70  391.3784
  71  437.3957
  72  311.6822
  73  138.4292
  74  531.5393
  75  973.4856
  76  783.1726
  77  787.4932
  78  665.5731
  79  644.7338
  80  568.149
  81  603.3057
  82  556.7073
  83  784.6722
  84  816.72
  85  638.2308
  86  247.4762
  87  609.506
  88  865.3636
  89  789.2061
  90  948.4818
  91  1166.322
  92  1450.028
  93  1876.471
  94  1763.953
  95  2119.948
  96  1967.478
  97  1742.062
  98  1585.927
  99  1149.742
 100  692.5204
 101  370.3935
 102  518.2139
 103  676.4141
 104  513.8958
 105  641.1797
 106  666.5124
 107  708.1607
 108  846.9673
 109  611.5245
 110  577.9374
 111  329.1948
 112  673.1979
 113  848.8259
 114  987.199
 115  695.2607
 116  803.1725
 117  683.1209
 118  478.7625
 119  608.6248
 120  615.2914
 121  816.2196
 122  623.6179
 123  497.2623
 124  480.9214
 125  195.3141
 126  -77.49668
 127  432.8624
 128  727.6063
 129  701.0414
 130  501.9214
 131  202.0783
 132  261.9484
 133  664.7136
 134  602.2825
 135  574.6255
 136  647.2578
 137  908.5062
 138  575.9987
 139  495.3523
 140  414.3651
 141  565.7225
 142  961.4571
 143  431.1774
 144  559.1171
 145  609.7891
 146  255.3832
 147  254.3893
 148  545.0311
 149  649.8653
 150  772.2187
 151  1073.67
 152  659.9008
 153  437.9293
 154  141.3366
 155  424.9962
 156  306.9571
 157  171.5607
 158  396.4112
 159  542.6316
 160  423.0103
 161  344.4255
 162  406.9089
 163  210.656
 164  121.0326
 165  475.1645
 166  895.116
 167  903.8442
 168  494.7034
 169  591.357
 170  450.1097
 171  508.7896
 172  333.1339
 173  395.0167
 174  734.3661
 175  530.4443
 176  581.6424
 177  544.368
 178  621.1548
 179  615.133
 180  428.4221
 181  642.3351
 182  756.567
 183  505.7206
 184  171.0703
 185  326.8382
 186  703.3875
 187  1018.851
 188  675.3265
 189  774.3144
 190  761.1851
 191  441.1557
 192  250.2739
 193  630.8711
 194  807.4479
 195  719.2126
 196  905.2881
 197  736.7571
 198  959.6719
 199  501.4301
 200  391.6781
 201  233.4935
 202  597.5814
 203  859.6906
 204  638.2716
 205  348.2435
 206  211.3904
 207  75.5675
 208  108.2366
 209  619.4194
 210  665.0315
 211  640.0229
 212  487.2496
 213  526.9387
 214  471.0282
 215  680.9721
 216  697.8382
 217  598.7222
 218  219.6502
 219  267.1228
 220  893.6962
 221  290.6251
 222  466.8593
 223  383.0297
 224  502.6339
 225  520.431
 226  165.7459
 227  665.9567
 228  820.0923
 229  515.8788
 230  84.43111
 231  140.6368
 232  367.5254
 233  480.2148
 234  607.9164
 235  619.431
 236  381.0937
 237  172.6288
 238  245.5004
 239  506.5112
 240  745.8871
 241  821.3563
 242  782.9106
 243  772.6333
 244  350.3006
 245  -15.71798
 246  610.5578
 247  623.4681
 248  574.2358
 249  904.774
 250  1142.782
 251  353.9218
 252  406.327
 253  717.0966
 254  321.7719
 255  392.6035
 256  629.6251
 257  545.8394
 258  262.8158
 259  195.0036
 260  512.6831
 261  762.6664
 262  949.6901
 263  979.95
 264  882.4175
 265  896.1866
 266  646.5446
 267  730.4672
 268  615.2106
 269  431.2886
 270  724.813
 271  721.1926
 272  784.3898
 273  498.8714
 274  379.7026
 275  486.365
 276  651.0639
 277  602.7187
 278  347.5994
 279  789.4702
 280  740.8298
 281  552.3574
 282  299.9832
 283  414.1081
 284  217.299
 285  332.7029
 286  572.8295
 287  540.6938
 288  405.3783
 289  588.5375
 290  357.3966
 291  361.8055
 292  478.6934
 293  414.3138
 294  700.0371
 295  496.8944
 296  650.7498
 297  539.985
 298  339.035
 299  86.73167
 300  205.7544
 301  354.4307
 302  322.3203
 303  392.1089
 304  234.0036
 305  326.4072
 306  525.2493
 307  403.6465
 308  196.6305
 309  233.8048
 310  434.8406
 311  416.9443
 312  145.5066
 313  255.6338
 314  611.3088
 315  577.6262
 316  696.9918
 317  769.4684
 318  695.0973
 319  553.4405
 320  271.885
 321  482.9425
 322  954.6032
 323  1008.683
 324  674.5405
 325  594.261
 326  575.5412
 327  345.3535
 328  260.9095
 329  471.5075
 330  594.6317
 331  473.5816
 332  655.5916
 333  424.0337
 334  588.5544
 335  472.1064
 336  348.9221
 337  322.4559
 338  190.8652
 339  394.7551
 340  373.3965
 341  424.9393
 342  319.1504
 343  14.90731
 344  447.7693
 345  203.8551
 346  104.1002
 347  472.8987
 348  523.0961
 349  451.0539
 350  506.6317
 351  313.4193
 352  124.5197
 353  212.8035
 354  237.7117
 355  390.3787
 356  786.3742
 357  362.5787
 358  346.6948
 359  414.0125
 360  129.7199
 361  277.4031
 362  728.9139
 363  898.5548
 364  543.3732
 365  555.7889
 366  531.4748
 367  407.1874
 368  384.3618
 369  554.9983
 370  970.3809
 371  627.0198
 372  175.7075
 373  87.94184
 374  362.0155
 375  495.0911
 376  651.686
 377  593.0597
 378  365.7583
 379  171.4319
 380  404.0977
 381  635.4975
 382  263.6638
 383  501.8843
 384  611.691
 385  536.0859
 386  458.43
 387  75.44823
 388  103.6671
 389  510.27
 390  349.1359
 391  458.4895
 392  484.0919
 393  434.4956
 394  422.0754
 395  348.7805
 396  775.9536
 397  613.4845
 398  631.6612
 399  848.8168
 400  722.2352
 401  554.6105
 402  300.5296
 403  234.2902
 404  264.3826
 405  243.7567
 406  189.5827
 407  406.5247
 408  551.6819
 409  412.7789
 410  373.4543
 411  483.1517
 412  801.0301
 413  433.9106
 414  316.2114
 415  429.0948
 416  466.2744
 417  115.2762
 418  275.044
 419  467.4381
 420  581.9724
 421  384.5375
 422  709.2798
 423  859.921
 424  517.7086
 425  510.2784
 426  261.8621
 427  190.8662
 428  440.7948
 429  345.085
 430  610.2908
 431  586.0729
 432  505.7489
 433  468.8393
 434  133.1975
 435  98.42081
 436  349.9849
 437  472.2053
 438  700.0553
 439  679.4548
 440  500.8386
 441  490.6631
 442  407.9264
 443  191.37
 444  430.8033
 445  762.8781
 446  594.5812
 447  379.8103
 448  163.4872
 449  331.075
 450  495.1856
 451  414.5954
 452  560.8465
 453  544.2432
 454  708.2665
 455  453.3323
 456  441.9062
 457  360.2749
 458  329.2587
 459  461.637
 460  472.2787
 461  715.4922
 462  295.2286
 463  351.892
 464  364.789
 465  342.5719
 466  286.1258
 467  955.2802
 468  882.9655
 469  710.7604
 470  356.3402
 471  174.0915
 472  372.5398
 473  615.4584
 474  903.6967
 475  909.6819
 476  596.4325
 477  284.1383
 478  487.9548
 479  408.3445
 480  540.1108
 481  766.3499
 482  693.8707
 483  434.803
 484  336.9232
 485  245.0342
 486  267.2248
 487  441.0301
 488  308.3748
 489  366.4216
 490  187.714
 491  254.2513
 492  465.3977
 493  443.1337
 494  665.0307
 495  159.648
 496  450.9883
 497  518.1782
 498  867.9643
 499  735.6324
 500  628.1066
 501  552.4729
 502  227.5578
 503  556.7487
 504  940.0998
 505  695.7109
 506  715.4394
 507  491.3293
 508  564.9269
 509  389.6636
 510  306.0544
 511  561.9722
