# Input file       =  1192385205.116898-PSRB0329-2ms-sampling-dd.dat
# Candidate        =  PSR_0332+5434
# Telescope        =  AR
# Epoch_topo       =  58044.754908760391
# Epoch_bary       =  N/A
# T_sample         =  0.002
# Data Folded      =  7208960
# Data Avg         =  7.33414250105925e-11
# Data StdDev      =  23.0252112963919 
# Profile Bins     =  512
# Profile Avg      =  0.00137158322859199
# Profile StdDev   =  2732.15259490175 
# Reduced chi-sqr  =  0.727
# Prob(Noise)      <  1   (~0.0 sigma)
# P_topo (ms)      =  714.484382222623  +/- 6.73e-05
# P'_topo (s/s)    =  -0                +/- 3.62e-11
# P''_topo (s/s^2) =  0                 +/- 1.63e-14
# P_bary (ms)      =  N/A
# P'_bary (s/s)    =  N/A
# P''_bary (s/s^2) =  N/A
# P_orb (s)        =  N/A
# asin(i)/c (s)    =  N/A
# eccentricity     =  N/A
# w (rad)          =  N/A
# T_peri           =  N/A
######################################################
   0  -869.2368
   1  -1050.946
   2  -914.84
   3  -915.0436
   4  -659.1486
   5  -638.1318
   6  -1110.333
   7  -1161.241
   8  -1267.301
   9  -175.457
  10  -247.5732
  11  -507.6023
  12  -238.8889
  13  -963.6328
  14  -1499.139
  15  -1320.867
  16  -265.3353
  17  -173.6886
  18  -357.2543
  19  -385.9211
  20  -1077.58
  21  -1417.059
  22  -1377.025
  23  -2057.887
  24  -1432.048
  25  -1065.762
  26  -708.1261
  27  -999.1141
  28  -1532.796
  29  -1977.368
  30  -2041.352
  31  -2079.218
  32  -2027.276
  33  -1806.94
  34  -1907.477
  35  -2124.87
  36  -2203.901
  37  -2347.541
  38  -2386.94
  39  -2035.926
  40  -1452.596
  41  -1195.747
  42  -1702.493
  43  -1937.481
  44  -2373.516
  45  -2249.251
  46  -2054.588
  47  -2209.158
  48  -2163.505
  49  -2179.369
  50  -2126.101
  51  -1975.683
  52  -1891.352
  53  -1676.707
  54  -1742.663
  55  -1677.421
  56  -2056.515
  57  -2363.195
  58  -2487.971
  59  -2296.088
  60  -1813.867
  61  -1822.278
  62  -1765.143
  63  -2019.017
  64  -2547
  65  -2596.013
  66  -2225.126
  67  -2278.469
  68  -2528.742
  69  -2570.197
  70  -2765.399
  71  -3081.023
  72  -3230.064
  73  -2729.499
  74  -2508.713
  75  -2162.017
  76  -2255.039
  77  -2209.995
  78  -1652.172
  79  -2158.632
  80  -2396.857
  81  -2501.616
  82  -2368.972
  83  -2193.959
  84  -2132.301
  85  -2512.951
  86  -2510.421
  87  -2426.844
  88  -2463.655
  89  -2129.423
  90  -1824.103
  91  -1517.704
  92  -304.7282
  93  227.0249
  94  600.3089
  95  -79.35482
  96  -249.3699
  97  -453.2682
  98  -1218.82
  99  497.1456
 100  1651.132
 101  4236.819
 102  4675.021
 103  4798.174
 104  3579.108
 105  -434.1993
 106  -424.773
 107  393.3376
 108  3811.763
 109  3315.568
 110  3009.352
 111  745.889
 112  -1097.85
 113  -1602.294
 114  -806.2849
 115  1105.916
 116  1870.738
 117  2195.09
 118  335.8642
 119  -1311.36
 120  -2163.45
 121  1441.655
 122  3271.31
 123  4618.972
 124  4723.842
 125  1836.82
 126  -290.382
 127  -2384.926
 128  1050.937
 129  2165.53
 130  3047.286
 131  3846.003
 132  3077.36
 133  1617.329
 134  -551.2531
 135  839.9081
 136  1563.373
 137  2911.592
 138  3068.094
 139  2791.351
 140  1759.42
 141  -46.49619
 142  -256.3105
 143  -442.6049
 144  405.9699
 145  625.2708
 146  581.7014
 147  359.6438
 148  621.2197
 149  1671.062
 150  3373.908
 151  5024.983
 152  4915.741
 153  4080.325
 154  1370.217
 155  1050.565
 156  1601.7
 157  4037.321
 158  4049.927
 159  3742.339
 160  3064.778
 161  908.2723
 162  415.7611
 163  125.5686
 164  2411.248
 165  3417.229
 166  3971.335
 167  3647.834
 168  1110.38
 169  -545.4147
 170  -1287.332
 171  2508.604
 172  2987.726
 173  3349.055
 174  3701.99
 175  2010.996
 176  82.44265
 177  -1541.447
 178  143.5718
 179  693.4721
 180  687.3927
 181  396.5919
 182  173.5359
 183  -1110.894
 184  -1823.155
 185  -1545.05
 186  -1284.459
 187  -1268.078
 188  -1528.017
 189  -864.8196
 190  -877.4962
 191  -721.0011
 192  -527.9791
 193  -3.549937
 194  371.9909
 195  379.4961
 196  521.3729
 197  -531.2779
 198  -764.7024
 199  -226.2596
 200  1184.407
 201  1626.521
 202  1710.958
 203  1582.88
 204  -220.8029
 205  256.1318
 206  491.9553
 207  1340.378
 208  959.2964
 209  1262.06
 210  1176.009
 211  1572.993
 212  1433.979
 213  1086.41
 214  1984.12
 215  1366.403
 216  2039.279
 217  2247.667
 218  691.4562
 219  329.7745
 220  891.6346
 221  873.2471
 222  817.9152
 223  823.8384
 224  520.1609
 225  -223.3503
 226  -832.6509
 227  -1070.961
 228  368.5093
 229  1118.139
 230  2238.176
 231  2189.561
 232  1009.716
 233  -715.8118
 234  -1145.84
 235  -212.4293
 236  1065.947
 237  3001.088
 238  2818.769
 239  2388.125
 240  1025.85
 241  292.5941
 242  335.693
 243  2337.622
 244  3082.729
 245  3162.38
 246  2415.885
 247  -554.8641
 248  -361.1028
 249  379.9029
 250  2804.862
 251  3213.681
 252  3058.562
 253  2145.016
 254  482.4522
 255  -142.8808
 256  -429.5253
 257  2634.192
 258  3846.486
 259  4688.291
 260  4803.037
 261  3116.867
 262  1264.066
 263  -920.3193
 264  948.1098
 265  2108.448
 266  3926.909
 267  3813.543
 268  3277.265
 269  1926.773
 270  391.6078
 271  605.6225
 272  313.077
 273  29.6647
 274  -461.153
 275  -869.3799
 276  -1720.859
 277  -1342.919
 278  -737.853
 279  -361.9655
 280  467.1092
 281  743.3132
 282  501.4897
 283  -208.3081
 284  -798.227
 285  -452.0265
 286  750.7612
 287  2238.47
 288  2882.408
 289  2499.339
 290  680.7051
 291  371.1633
 292  -439.869
 293  1033.854
 294  880.8796
 295  1086.279
 296  558.3096
 297  -547.8704
 298  -994.9418
 299  -1838.798
 300  -1264.897
 301  -245.81
 302  981.2841
 303  995.4807
 304  389.4077
 305  -490.9463
 306  -1971.54
 307  240.845
 308  1235.953
 309  2199.33
 310  2047.838
 311  734.0363
 312  -597.9061
 313  -1948.426
 314  -145.7591
 315  1202.648
 316  1942.47
 317  1928.519
 318  1203.139
 319  -222.9241
 320  -1357.829
 321  779.6914
 322  2735.837
 323  2705.204
 324  2670.864
 325  2386.316
 326  -767.0797
 327  -1478.865
 328  -605.638
 329  1516.662
 330  2043.373
 331  2070.07
 332  1870.125
 333  -743.6963
 334  -1174.73
 335  -1224.47
 336  699.4676
 337  550.1444
 338  752.7324
 339  651.4067
 340  -272.3141
 341  -1272.16
 342  -2438.088
 343  -616.6479
 344  -461.8133
 345  397.8816
 346  1218.935
 347  580.1295
 348  -352.5089
 349  -1677.602
 350  34.03016
 351  67.36237
 352  969.8387
 353  653.9612
 354  349.593
 355  -687.4671
 356  -1394.777
 357  -639.465
 358  -353.2577
 359  508.2904
 360  768.0311
 361  781.3109
 362  697.805
 363  -591.4585
 364  -380.2501
 365  -540.4507
 366  801.0658
 367  1331.969
 368  876.265
 369  -414.6919
 370  -1486.991
 371  -1269.435
 372  -642.3301
 373  -366.1194
 374  -8.44913
 375  -239.6448
 376  -1329.104
 377  -1599.791
 378  -1959.099
 379  347.1463
 380  1228.647
 381  1861.803
 382  1548.82
 383  -423.5305
 384  -1347.001
 385  -1533.39
 386  -7.957689
 387  404.561
 388  607.0248
 389  -108.7061
 390  -1110.146
 391  -2052.977
 392  -2334.441
 393  -1784.993
 394  -1134.92
 395  -660.6485
 396  -471.2731
 397  -869.9189
 398  -1448.608
 399  -1904.952
 400  -1552.543
 401  -494.0869
 402  440.0417
 403  393.3197
 404  28.82061
 405  -967.2105
 406  -1993.609
 407  -1027.469
 408  62.04351
 409  812.6673
 410  500.6773
 411  -348.8966
 412  -1774.443
 413  -1965.489
 414  -871.6116
 415  770.8457
 416  1687.386
 417  1753.611
 418  1357.31
 419  246.7271
 420  -328.3649
 421  6.186576
 422  2327.685
 423  1452.656
 424  1115.163
 425  306.912
 426  -577.9153
 427  -635.3704
 428  -288.9504
 429  -50.5728
 430  243.0114
 431  -246.5954
 432  -626.8188
 433  -1422.739
 434  -1237.021
 435  -666.1549
 436  120.6188
 437  61.9856
 438  -185.837
 439  -49.70888
 440  -376.3383
 441  -355.0301
 442  53.6199
 443  126.3375
 444  -258.2416
 445  -1216.203
 446  -1095.286
 447  -974.2092
 448  -688.2562
 449  -566.0554
 450  -248.8291
 451  -512.987
 452  -1220.653
 453  -944.0988
 454  -353.7005
 455  -184.5114
 456  84.48296
 457  421.4256
 458  548.0386
 459  151.3037
 460  275.2043
 461  399.4241
 462  -611.4464
 463  -824.8196
 464  -975.544
 465  -294.1802
 466  -761.5444
 467  -244.7525
 468  -766.5447
 469  -1753.36
 470  -1387.405
 471  -1720.05
 472  -1414.937
 473  -1665.622
 474  -1332.21
 475  -1605.793
 476  -2073.743
 477  -2089.331
 478  -2099.333
 479  -1495.216
 480  -1640.946
 481  -1657.295
 482  -1717.993
 483  -2223.249
 484  -2173.825
 485  -2071.015
 486  -2321.436
 487  -1708.469
 488  -1241.357
 489  -1090.988
 490  -486.6087
 491  -684.0999
 492  -705.144
 493  -1293.193
 494  -1428.467
 495  -675.0801
 496  -400.4507
 497  -351.5251
 498  -979.4911
 499  -827.912
 500  -1159.81
 501  -1078.604
 502  -1048.414
 503  -313.1029
 504  -294.743
 505  -958.2881
 506  -717.2939
 507  -945.812
 508  -494.3211
 509  17.69202
 510  424.7427
 511  127.3362
