# Input file       =  1192486011.12838_cleaned.dat
# Candidate        =  PSR_0332+5434
# Telescope        =  AR
# Epoch_topo       =  58045.921645004397
# Epoch_bary       =  N/A
# T_sample         =  0.002
# Data Folded      =  7340032
# Data Avg         =  0.0350021826307056
# Data StdDev      =  2.22906121188041 
# Profile Bins     =  256
# Profile Avg      =  1003.78466980132 
# Profile StdDev   =  377.442663921652 
# Reduced chi-sqr  =  2.190
# Prob(Noise)      <  9.53e-25   (~10.2 sigma)
# P_topo (ms)      =  714.485317064636  +/- 0.000252
# P'_topo (s/s)    =  -0                +/- 1.33e-10
# P''_topo (s/s^2) =  0                 +/- 5.87e-14
# P_bary (ms)      =  N/A
# P'_bary (s/s)    =  N/A
# P''_bary (s/s^2) =  N/A
# P_orb (s)        =  N/A
# asin(i)/c (s)    =  N/A
# eccentricity     =  N/A
# w (rad)          =  N/A
# T_peri           =  N/A
######################################################
   0  1293.357
   1  1376.542
   2  969.1719
   3  1173.272
   4  1098.87
   5  944.0304
   6  1457.363
   7  1314.223
   8  1357.346
   9  675.819
  10  743.1213
  11  900.3159
  12  1212.758
  13  911.2247
  14  763.1093
  15  917.7859
  16  1006.468
  17  557.2361
  18  1269.997
  19  1089.897
  20  1274.241
  21  1219.441
  22  1428.481
  23  822.8654
  24  1270.795
  25  1072.841
  26  1060.473
  27  728.6261
  28  781.2535
  29  799.6935
  30  587.3254
  31  1517.908
  32  800.8337
  33  956.3565
  34  942.8351
  35  1235.319
  36  1518.96
  37  1712.941
  38  949.3639
  39  1024.338
  40  808.0463
  41  1288.223
  42  1066.697
  43  999.3491
  44  1511.386
  45  1327.497
  46  758.3283
  47  1159.964
  48  1326.742
  49  657.4248
  50  975.2965
  51  810.1484
  52  1179.215
  53  1067.228
  54  1036.017
  55  529.2151
  56  797.5834
  57  745.7816
  58  796.8159
  59  1074.208
  60  928.8474
  61  1141.815
  62  1156.617
  63  966.9702
  64  915.3729
  65  679.7501
  66  1122.728
  67  1149.447
  68  1090.257
  69  1325.311
  70  1017.96
  71  396.7554
  72  711.1159
  73  882.1913
  74  844.6867
  75  644.8801
  76  1030.13
  77  561.2644
  78  616.6667
  79  806.8099
  80  877.5247
  81  988.4345
  82  1163.708
  83  1130.468
  84  1431.506
  85  1082.731
  86  1111.454
  87  1138.606
  88  1423.587
  89  518.6796
  90  972.3607
  91  1533.095
  92  871.0245
  93  635.3116
  94  1243.948
  95  655.0942
  96  1071.921
  97  679.7153
  98  1158.995
  99  838.5519
 100  804.4888
 101  1053.4
 102  345.0768
 103  648.938
 104  1170.145
 105  1153.127
 106  713.9246
 107  1003.884
 108  859.4631
 109  826.9355
 110  1141.062
 111  1149.945
 112  1205.58
 113  769.577
 114  817.1088
 115  645.4396
 116  442.127
 117  1115.858
 118  264.709
 119  718.5734
 120  633.9647
 121  1116.303
 122  1211.808
 123  968.6141
 124  981.7394
 125  840.7346
 126  1081.799
 127  1351.165
 128  861.6843
 129  949.9598
 130  961.3558
 131  1050.749
 132  750.632
 133  822.3679
 134  803.5753
 135  577.5953
 136  333.3802
 137  385.7357
 138  335.6422
 139  467.2345
 140  460.0816
 141  825.7496
 142  528.0282
 143  337.7834
 144  417.1624
 145  848.6403
 146  1271.273
 147  187.4999
 148  1395.996
 149  1429.356
 150  885.2798
 151  956.3494
 152  730.9515
 153  953.8353
 154  1106.943
 155  1701.022
 156  1749.874
 157  2548.474
 158  3913.145
 159  5264.93
 160  3504.831
 161  661.041
 162  985.8116
 163  600.549
 164  604.0656
 165  1163.95
 166  908.905
 167  797.6173
 168  1634.354
 169  1120.747
 170  1092.873
 171  1254.671
 172  748.2468
 173  694.0863
 174  279.2349
 175  840.5983
 176  1097.455
 177  1156.941
 178  768.5839
 179  767.7527
 180  1243.128
 181  1137.592
 182  1351.466
 183  894.4523
 184  1092.992
 185  826.9937
 186  949.9582
 187  470.7779
 188  868.2523
 189  717.0626
 190  982.1036
 191  576.9329
 192  613.8558
 193  1053.223
 194  625.4952
 195  182.3887
 196  634.3704
 197  482.2806
 198  952.2598
 199  415.2807
 200  1054.354
 201  989.2717
 202  862.473
 203  896.0471
 204  869.4429
 205  1443.633
 206  1007.074
 207  1170.591
 208  1240.332
 209  865.7105
 210  734.8861
 211  680.3896
 212  1112.118
 213  1827.837
 214  1619.895
 215  1876.818
 216  1116.89
 217  1087.414
 218  1316.965
 219  1466.584
 220  982.8957
 221  991.3151
 222  938.7043
 223  870.6075
 224  717.0668
 225  790.736
 226  1244.785
 227  1204.957
 228  995.3442
 229  908.4467
 230  1311.81
 231  1161.029
 232  902.5697
 233  1080.684
 234  648.7167
 235  1576.051
 236  1240.85
 237  1148.123
 238  1299.983
 239  654.1581
 240  1100.781
 241  960.4164
 242  541.2737
 243  560.514
 244  713.892
 245  1018.126
 246  803.5936
 247  1105.066
 248  1186.076
 249  1192.699
 250  831.8601
 251  1284.089
 252  1061.468
 253  221.4132
 254  811.3242
 255  899.514
