# Input file       =  1192040582.118433_cleaned.dat
# Candidate        =  PSR_0332+5434
# Telescope        =  AR
# Epoch_topo       =  58040.766216648532
# Epoch_bary       =  N/A
# T_sample         =  0.002
# Data Folded      =  7208960
# Data Avg         =  0.0148438921317254
# Data StdDev      =  1.00007701716171 
# Profile Bins     =  512
# Profile Avg      =  208.954323819546 
# Profile StdDev   =  118.668314586461 
# Reduced chi-sqr  =  2.044
# Prob(Noise)      <  7.02e-39   (~13.0 sigma)
# P_topo (ms)      =  714.481360207432  +/- 0.000198
# P'_topo (s/s)    =  -0                +/- 1.06e-10
# P''_topo (s/s^2) =  0                 +/- 4.79e-14
# P_bary (ms)      =  N/A
# P'_bary (s/s)    =  N/A
# P''_bary (s/s^2) =  N/A
# P_orb (s)        =  N/A
# asin(i)/c (s)    =  N/A
# eccentricity     =  N/A
# w (rad)          =  N/A
# T_peri           =  N/A
######################################################
   0  141.2314
   1  291.5613
   2  189.3751
   3  271.669
   4  289.338
   5  204.9816
   6  252.2971
   7  154.8884
   8  148.9532
   9  190.4829
  10  253.1311
  11  270.1941
  12  82.38471
  13  81.56448
  14  303.183
  15  208.1367
  16  103.765
  17  67.97472
  18  193.1275
  19  197.9114
  20  257.2054
  21  239.3836
  22  210.2552
  23  321.0152
  24  210.11
  25  228.3827
  26  241.8661
  27  150.6296
  28  195.1479
  29  135.6939
  30  188.2134
  31  193.0827
  32  159.2817
  33  236.3535
  34  228.7843
  35  103.017
  36  119.9526
  37  257.6825
  38  371.1533
  39  208.9322
  40  86.17477
  41  296.5078
  42  396.9694
  43  239.4023
  44  242.7895
  45  279.9482
  46  73.4855
  47  39.70528
  48  132.1774
  49  74.21709
  50  344.0695
  51  489.8321
  52  319.9481
  53  186.6258
  54  211.9593
  55  311.1004
  56  273.0373
  57  171.5816
  58  334.1205
  59  377.4375
  60  329.0914
  61  335.6654
  62  351.1038
  63  261.2494
  64  182.2468
  65  190.423
  66  278.6563
  67  335.9367
  68  273.1678
  69  84.85058
  70  28.54298
  71  155.8812
  72  237.8266
  73  115.1058
  74  60.66
  75  89.86263
  76  102.0351
  77  194.528
  78  154.455
  79  190.4293
  80  139.6292
  81  128.9275
  82  203.0218
  83  137.9886
  84  139.5531
  85  130.0327
  86  -39.49165
  87  98.04285
  88  254.0365
  89  118.5576
  90  236.6882
  91  211.9542
  92  223.7655
  93  253.7876
  94  222.3566
  95  120.0877
  96  126.8913
  97  82.00285
  98  42.43092
  99  179.0142
 100  231.0905
 101  162.9962
 102  150.6242
 103  233.8391
 104  162.3512
 105  186.3724
 106  178.9514
 107  170.2881
 108  165.6313
 109  139.757
 110  35.62934
 111  78.70233
 112  25.00967
 113  139.0306
 114  126.1608
 115  88.40927
 116  100.2961
 117  276.4033
 118  209.9149
 119  208.038
 120  275.0208
 121  373.7218
 122  341.022
 123  313.3814
 124  398.1109
 125  378.9062
 126  258.7128
 127  233.7746
 128  272.9047
 129  213.2617
 130  204.73
 131  119.397
 132  180.7204
 133  130.0279
 134  138.4142
 135  224.9674
 136  308.2939
 137  203.7566
 138  140.5764
 139  228.428
 140  188.6278
 141  138.0616
 142  104.7388
 143  -33.39556
 144  113.0418
 145  93.06451
 146  113.3698
 147  185.2569
 148  161.4289
 149  147.2801
 150  172.0091
 151  90.5045
 152  66.99635
 153  92.88612
 154  150.4841
 155  276.0431
 156  397.5479
 157  268.2217
 158  219.5359
 159  187.4505
 160  60.51199
 161  207.8987
 162  331.0717
 163  374.8265
 164  405.6993
 165  410.8387
 166  215.3205
 167  15.73113
 168  162.8347
 169  303.6001
 170  302.2068
 171  213.469
 172  339.8641
 173  350.8307
 174  150.8049
 175  180.4295
 176  239.1343
 177  181.2366
 178  129.3517
 179  206.6106
 180  330.2236
 181  235.9826
 182  208.96
 183  186.4094
 184  158.3208
 185  200.2052
 186  254.1926
 187  280.9521
 188  390.7872
 189  385.6116
 190  228.8893
 191  340.3739
 192  380.869
 193  363.6932
 194  604.4951
 195  783.4329
 196  977.7297
 197  1175.504
 198  1147.007
 199  989.6155
 200  712.0464
 201  494.3236
 202  303.9178
 203  247.1958
 204  326.961
 205  330.4446
 206  253.7917
 207  284.7136
 208  144.1808
 209  181.6887
 210  360.5794
 211  288.6198
 212  346.6706
 213  310.8462
 214  128.8004
 215  131.4116
 216  157.324
 217  245.2359
 218  283.1231
 219  213.1935
 220  182.9321
 221  186.8315
 222  251.7755
 223  190.2311
 224  171.4564
 225  204.2169
 226  145.5684
 227  208.704
 228  161.8675
 229  180.3036
 230  161.3258
 231  242.3807
 232  246.0914
 233  209.7288
 234  273.5187
 235  184.309
 236  301.8343
 237  224.2297
 238  176.7294
 239  258.4927
 240  145.5927
 241  90.06598
 242  167.5734
 243  307.5863
 244  278.4843
 245  246.107
 246  304.82
 247  39.09887
 248  59.27975
 249  158.8304
 250  204.0401
 251  217.3337
 252  260.9395
 253  225.6674
 254  216.6527
 255  214.6911
 256  210.9832
 257  190.1258
 258  208.0072
 259  191.1915
 260  66.08943
 261  156.2422
 262  200.4023
 263  259.8658
 264  167.3694
 265  172.7506
 266  157.7672
 267  288.5016
 268  258.0609
 269  101.1629
 270  97.13844
 271  222.0412
 272  352.7368
 273  259.1927
 274  307.226
 275  157.767
 276  117.3541
 277  292.3166
 278  234.7876
 279  199.2681
 280  328.8055
 281  221.326
 282  173.8064
 283  111.1977
 284  186.7942
 285  273.5439
 286  113.5721
 287  104.6418
 288  127.9326
 289  125.0802
 290  201.7041
 291  165.4208
 292  115.2897
 293  93.80149
 294  228.2016
 295  358.3386
 296  337.6444
 297  155.8066
 298  212.4191
 299  209.4494
 300  57.23708
 301  145.1458
 302  144.0961
 303  308.986
 304  171.8747
 305  129.1826
 306  275.2779
 307  298.488
 308  263.3844
 309  224.4569
 310  112.3818
 311  81.84665
 312  93.27983
 313  168.703
 314  81.12964
 315  72.01868
 316  200.087
 317  241.1249
 318  161.7433
 319  186.1495
 320  175.2646
 321  39.292
 322  65.79875
 323  241.4686
 324  244.7537
 325  222.2177
 326  237.2052
 327  226.5781
 328  141.4445
 329  254.2159
 330  207.2542
 331  294.2498
 332  333.1534
 333  353.1691
 334  289.1169
 335  301.8771
 336  325.2687
 337  167.8917
 338  224.7951
 339  282.2314
 340  290.9726
 341  155.4624
 342  125.4751
 343  155.9227
 344  166.1451
 345  206.641
 346  113.1164
 347  93.00638
 348  17.87641
 349  6.053846
 350  67.14363
 351  77.19951
 352  69.79036
 353  15.25098
 354  105.0475
 355  120.7625
 356  177.4613
 357  368.6551
 358  169.0029
 359  111.984
 360  238.2457
 361  269.0566
 362  120.8922
 363  56.59998
 364  83.95706
 365  163.4897
 366  233.3766
 367  281.2475
 368  218.6221
 369  310.7507
 370  385.282
 371  287.4633
 372  258.3797
 373  238.5936
 374  136.8279
 375  192.7967
 376  257.3671
 377  241.2528
 378  242.3562
 379  142.2391
 380  159.6421
 381  267.0126
 382  236.8284
 383  260.6565
 384  168.3412
 385  140.5152
 386  153.3777
 387  172.3115
 388  309.1801
 389  288.4849
 390  221.802
 391  202.5996
 392  195.9089
 393  220.5836
 394  201.1508
 395  127.2559
 396  316.2488
 397  312.7323
 398  326.2796
 399  364.8701
 400  280.489
 401  126.1576
 402  94.83924
 403  192.2479
 404  261.8014
 405  132.6702
 406  82.56045
 407  149.5857
 408  227.9929
 409  291.9497
 410  307.1517
 411  157.7509
 412  297.7946
 413  106.1019
 414  66.97754
 415  73.54395
 416  142.424
 417  152.3953
 418  36.47472
 419  62.94521
 420  192.9401
 421  168.3445
 422  272.8733
 423  227.3747
 424  0.1325292
 425  -14.72029
 426  62.59595
 427  208.6621
 428  187.6141
 429  88.94936
 430  155.212
 431  211.8031
 432  173.5997
 433  233.0996
 434  362.2147
 435  239.504
 436  194.1091
 437  75.47811
 438  74.69075
 439  132.0923
 440  147.4522
 441  295.9424
 442  183.7737
 443  283.6396
 444  298.2516
 445  39.57618
 446  116.9904
 447  193.6918
 448  150.4647
 449  285.208
 450  325.9995
 451  251.422
 452  234.9762
 453  170.582
 454  159.9097
 455  124.3161
 456  184.6251
 457  203.5048
 458  117.2089
 459  181.5758
 460  202.9235
 461  189.6251
 462  267.6015
 463  247.2062
 464  225.7361
 465  266.7927
 466  172.2059
 467  120.1991
 468  229.3369
 469  214.5392
 470  271.6872
 471  248.8046
 472  324.0326
 473  241.4277
 474  191.8787
 475  137.918
 476  152.319
 477  296.3435
 478  232.1308
 479  280.1631
 480  347.7376
 481  128.0919
 482  224.3098
 483  331.0707
 484  246.1821
 485  151.9322
 486  223.7147
 487  225.0968
 488  205.9318
 489  185.1123
 490  258.9027
 491  173.8215
 492  170.2705
 493  144.5363
 494  91.7894
 495  49.56652
 496  -14.05487
 497  69.62468
 498  138.5996
 499  192.6941
 500  95.81023
 501  114.8224
 502  77.46931
 503  111.132
 504  103.1376
 505  98.12875
 506  35.26666
 507  105.477
 508  236.6678
 509  302.6543
 510  202.5358
 511  44.6214
