# Input file       =  1192055239.118371_cleaned.dat
# Candidate        =  PSR_0332+5434
# Telescope        =  AR
# Epoch_topo       =  58040.935857851517
# Epoch_bary       =  N/A
# T_sample         =  0.002
# Data Folded      =  7340032
# Data Avg         =  0.0423471628205985
# Data StdDev      =  2.9199574453867  
# Profile Bins     =  256
# Profile Avg      =  1214.13984684331 
# Profile StdDev   =  494.430799320619 
# Reduced chi-sqr  =  1.402
# Prob(Noise)      <  2.31e-05   (~4.1 sigma)
# P_topo (ms)      =  714.481497582784  +/- 0.000203
# P'_topo (s/s)    =  -0                +/- 1.07e-10
# P''_topo (s/s^2) =  0                 +/- 4.72e-14
# P_bary (ms)      =  N/A
# P'_bary (s/s)    =  N/A
# P''_bary (s/s^2) =  N/A
# P_orb (s)        =  N/A
# asin(i)/c (s)    =  N/A
# eccentricity     =  N/A
# w (rad)          =  N/A
# T_peri           =  N/A
######################################################
   0  832.3837
   1  856.0886
   2  472.2474
   3  1156.919
   4  1495.858
   5  1008.108
   6  818.4349
   7  811.4857
   8  861.1311
   9  1063.198
  10  1116.601
  11  1275.719
  12  1321.674
  13  1201.923
  14  648.4791
  15  997.7184
  16  923.2499
  17  885.9227
  18  1204.337
  19  1249.698
  20  850.8549
  21  844.5656
  22  1026.105
  23  953.4179
  24  309.1899
  25  911.6061
  26  1263.431
  27  1113.918
  28  641.8698
  29  283.6697
  30  786.6109
  31  1212.259
  32  945.0411
  33  1320.149
  34  794.5782
  35  1279.949
  36  1202.168
  37  1279.333
  38  926.7448
  39  660.6007
  40  1260.568
  41  1623.918
  42  1489.764
  43  1619.037
  44  1139.709
  45  637.4716
  46  1007.88
  47  1445.299
  48  1222.551
  49  1484.779
  50  1632.352
  51  1785.195
  52  940.6025
  53  694.661
  54  1387.611
  55  1412.996
  56  1330.893
  57  1332.756
  58  645.2798
  59  922.8864
  60  731.3795
  61  852.3925
  62  646.2399
  63  253.0026
  64  1467.501
  65  949.822
  66  426.4239
  67  355.6032
  68  464.9633
  69  910.7994
  70  699.8741
  71  1326.724
  72  1506.322
  73  1117.544
  74  1465.152
  75  1770.156
  76  1096.446
  77  884.6144
  78  1589.049
  79  1575.396
  80  1311.792
  81  948.1136
  82  1641.931
  83  882.9454
  84  728.2108
  85  1067.791
  86  1467.185
  87  929.7147
  88  894.4677
  89  1585.373
  90  1679.386
  91  569.7927
  92  1075.122
  93  1709.271
  94  1124.106
  95  660.9299
  96  1142.561
  97  1340.074
  98  1113.042
  99  1072.398
 100  1383.999
 101  1259.855
 102  694.5797
 103  789.3931
 104  1174.372
 105  608.5215
 106  812.5383
 107  1087.674
 108  1932.834
 109  1065.581
 110  676.465
 111  939.2277
 112  1135.405
 113  618.1738
 114  712.8121
 115  953.8708
 116  1092.516
 117  1341.614
 118  918.2892
 119  912.3525
 120  929.8129
 121  1224.947
 122  2037.791
 123  918.3651
 124  747.7428
 125  1378.243
 126  1200.474
 127  1229.648
 128  963.3466
 129  1320.566
 130  1376.672
 131  1705.652
 132  1652.526
 133  1343.436
 134  670.9147
 135  1469.217
 136  1327.02
 137  1247.199
 138  1572.385
 139  1467.915
 140  1280.094
 141  988.9625
 142  1448.288
 143  1453.383
 144  935.9199
 145  1010.662
 146  1702.167
 147  1153.384
 148  1641.586
 149  1206.156
 150  1467.08
 151  1565.853
 152  1432.042
 153  1020.085
 154  1402.498
 155  1802.372
 156  1375.33
 157  2272.912
 158  3993.354
 159  5211.826
 160  4116.553
 161  1992.459
 162  1821.993
 163  1280.813
 164  1485.167
 165  879.2439
 166  1203.589
 167  1632.271
 168  1058.951
 169  1161.667
 170  597.7618
 171  1468.575
 172  1170.434
 173  923.9088
 174  1039.893
 175  1247.709
 176  1039.853
 177  867.1898
 178  783.718
 179  1700.42
 180  1064.815
 181  1071.673
 182  1674.475
 183  1389.897
 184  1401.799
 185  1246.798
 186  1923.565
 187  2054.665
 188  1536.533
 189  1591.722
 190  1163.462
 191  1200.55
 192  1397.557
 193  1535.226
 194  1512.701
 195  1440.59
 196  1694.874
 197  1220.602
 198  1057.587
 199  638.3397
 200  999.8554
 201  1305.38
 202  1046.587
 203  785.7744
 204  982.4634
 205  1438.214
 206  536.9848
 207  1089.497
 208  664.3871
 209  1163.904
 210  1166.876
 211  1563.265
 212  1209.593
 213  876.7803
 214  1442.578
 215  1716.79
 216  1399.75
 217  1543.646
 218  1265.422
 219  1251.444
 220  1698.525
 221  1490.409
 222  1415.416
 223  1223.041
 224  1108.99
 225  1687.833
 226  1871.637
 227  1070.024
 228  1076.427
 229  2003.971
 230  1540.376
 231  1469.347
 232  982.5837
 233  1596.881
 234  1359.142
 235  1082.542
 236  1011.904
 237  1333.24
 238  1249.986
 239  963.8005
 240  1968.693
 241  1269.682
 242  1491.76
 243  1018.589
 244  1069.718
 245  641.2075
 246  1213.985
 247  1362.043
 248  845.9254
 249  1075.44
 250  1356.345
 251  1116.309
 252  908.7737
 253  298.7201
 254  1145.662
 255  947.1146
