# Input file       =  1192916781.138746_cleaned.dat
# Candidate        =  PSR_0332+5434
# Telescope        =  AR
# Epoch_topo       =  58050.907409013264
# Epoch_bary       =  N/A
# T_sample         =  0.002
# Data Folded      =  7340032
# Data Avg         =  0.0190420488108536
# Data StdDev      =  0.999995443812535
# Profile Bins     =  512
# Profile Avg      =  273.012465201902 
# Profile StdDev   =  119.732490850607 
# Reduced chi-sqr  =  1.538
# Prob(Noise)      <  5.21e-14   (~7.4 sigma)
# P_topo (ms)      =  714.48943594705   +/- 0.000255
# P'_topo (s/s)    =  -0                +/- 1.34e-10
# P''_topo (s/s^2) =  0                 +/- 5.93e-14
# P_bary (ms)      =  N/A
# P'_bary (s/s)    =  N/A
# P''_bary (s/s^2) =  N/A
# P_orb (s)        =  N/A
# asin(i)/c (s)    =  N/A
# eccentricity     =  N/A
# w (rad)          =  N/A
# T_peri           =  N/A
######################################################
   0  1067.494
   1  969.828
   2  741.7355
   3  588.1149
   4  438.2757
   5  425.274
   6  348.262
   7  386.2544
   8  340.7704
   9  283.8341
  10  286.3536
  11  355.0943
  12  346.5155
  13  318.1678
  14  386.2354
  15  280.0771
  16  124.5079
  17  212.4282
  18  285.1601
  19  319.9783
  20  266.3851
  21  191.7131
  22  118.4653
  23  185.4662
  24  352.9911
  25  325.3557
  26  356.0683
  27  283.0628
  28  387.0504
  29  416.2021
  30  291.6656
  31  283.1942
  32  385.8341
  33  373.3138
  34  291.5785
  35  379.846
  36  341.1685
  37  365.9957
  38  306.3898
  39  428.852
  40  458.84
  41  367.0103
  42  359.4157
  43  293.6811
  44  296.0992
  45  288.0728
  46  309.1487
  47  497.2542
  48  368.7176
  49  179.1007
  50  160.198
  51  285.3002
  52  188.2378
  53  241.3448
  54  423.9458
  55  330.3965
  56  393.4684
  57  227.2153
  58  156.3887
  59  99.66069
  60  270.6408
  61  354.1705
  62  188.9164
  63  357.8123
  64  311.8758
  65  123.448
  66  189.9118
  67  336.3765
  68  269.5019
  69  118.7525
  70  247.0866
  71  263.4513
  72  310.5735
  73  325.2085
  74  359.5587
  75  373.8937
  76  188.0764
  77  244.1415
  78  240.5746
  79  259.8533
  80  249.3527
  81  315.3167
  82  323.6086
  83  264.8611
  84  218.4421
  85  317.506
  86  319.8218
  87  252.2759
  88  351.0659
  89  307.4165
  90  264.2928
  91  280.0902
  92  264.2508
  93  356.9972
  94  272.1653
  95  128.2168
  96  173.3605
  97  227.1558
  98  367.8994
  99  215.2882
 100  148.9657
 101  109.4745
 102  110.9336
 103  132.123
 104  204.5601
 105  202.725
 106  237.808
 107  363.9115
 108  301.3854
 109  313.9569
 110  354.239
 111  318.0086
 112  266.9027
 113  275.1737
 114  164.4672
 115  178.3981
 116  207.6274
 117  274.9794
 118  249.2381
 119  200.9946
 120  205.8955
 121  262.78
 122  240.4339
 123  284.1646
 124  175.0813
 125  207.5318
 126  174.9068
 127  146.7596
 128  250.1888
 129  346.72
 130  317.5608
 131  226.7095
 132  320.607
 133  298.213
 134  307.0893
 135  211.2152
 136  195.7408
 137  189.6268
 138  229.302
 139  292.9654
 140  276.4508
 141  73.39122
 142  62.29256
 143  214.8561
 144  235.6466
 145  252.7943
 146  322.9626
 147  260.4485
 148  148.4186
 149  221.581
 150  359.9515
 151  195.8376
 152  96.11588
 153  221.8343
 154  358.6828
 155  360.3063
 156  387.5037
 157  380.8388
 158  266.0361
 159  291.647
 160  290.3694
 161  200.5021
 162  217.0197
 163  272.165
 164  270.1575
 165  236.5534
 166  366.9691
 167  176.556
 168  238.3534
 169  247.5811
 170  421.9144
 171  343.9015
 172  315.0514
 173  259.1945
 174  267.0457
 175  305.6008
 176  265.4946
 177  259.1957
 178  385.6468
 179  221.7689
 180  202.483
 181  220.0636
 182  266.8138
 183  302.5874
 184  282.2603
 185  180.8046
 186  194.0351
 187  85.41556
 188  59.02411
 189  203.0254
 190  236.8455
 191  181.8566
 192  180.7056
 193  35.07426
 194  52.02832
 195  57.02829
 196  144.6364
 197  174.5129
 198  121.4384
 199  220.4717
 200  268.9661
 201  107.9998
 202  87.26001
 203  203.2012
 204  236.7544
 205  198.3647
 206  273.1696
 207  295.0576
 208  347.9635
 209  299.2125
 210  279.1585
 211  352.2101
 212  260.0031
 213  386.9633
 214  310.6629
 215  349.0324
 216  236.3808
 217  291.2581
 218  147.259
 219  130.7727
 220  241.0749
 221  209.9163
 222  225.2809
 223  214.5159
 224  319.5928
 225  337.5587
 226  233.5387
 227  201.5764
 228  258.6527
 229  353.2878
 230  232.845
 231  263.8985
 232  228.5474
 233  147.4726
 234  191.783
 235  309.3195
 236  237.7916
 237  138.1624
 238  134.654
 239  225.9705
 240  283.1161
 241  188.2789
 242  253.931
 243  279.5946
 244  278.1988
 245  351.6406
 246  400.2925
 247  288.2864
 248  204.071
 249  281.5124
 250  310.363
 251  259.8461
 252  248.5033
 253  315.5731
 254  248.5019
 255  153.6407
 256  249.9111
 257  163.9816
 258  290.852
 259  354.6398
 260  292.0884
 261  246.998
 262  312.1948
 263  312.761
 264  304.5589
 265  352.1747
 266  288.3038
 267  242.3802
 268  196.492
 269  196.034
 270  224.9928
 271  354.858
 272  211.6465
 273  230.9858
 274  403.2941
 275  315.5592
 276  268.067
 277  241.7954
 278  302.7245
 279  300.9152
 280  338.6493
 281  419.9123
 282  344.7494
 283  228.5859
 284  161.2009
 285  238.8359
 286  286.6609
 287  298.218
 288  167.2576
 289  254.6415
 290  277.9722
 291  266.1994
 292  301.3596
 293  264.0635
 294  127.2092
 295  125.2382
 296  234.0519
 297  328.6365
 298  294.0451
 299  150.8585
 300  202.4629
 301  344.264
 302  261.5135
 303  400.1631
 304  196.5794
 305  232.2585
 306  387.9471
 307  362.5227
 308  369.0818
 309  288.259
 310  224.1247
 311  328.8372
 312  433.1019
 313  354.6306
 314  331.1556
 315  326.6782
 316  430.8952
 317  396.9818
 318  371.3126
 319  240.4374
 320  256.5525
 321  257.7299
 322  257.1059
 323  313.0169
 324  392.0785
 325  435.8174
 326  418.4524
 327  444.7796
 328  377.2996
 329  265.6467
 330  182.2018
 331  166.2491
 332  293.2112
 333  464.8042
 334  339.5244
 335  264.3626
 336  228.7006
 337  216.8002
 338  167.2116
 339  201.7867
 340  229.2833
 341  297.0249
 342  365.2708
 343  294.5273
 344  261.073
 345  359.8953
 346  325.4832
 347  235.4256
 348  235.8326
 349  344.0221
 350  224.1731
 351  123.0078
 352  161.6369
 353  233.9329
 354  278.3716
 355  323.0439
 356  403.9395
 357  323.0227
 358  243.6225
 359  252.5141
 360  229.5974
 361  331.2572
 362  210.4753
 363  288.5875
 364  347.8241
 365  334.2646
 366  332.9659
 367  425.3738
 368  321.7101
 369  161.4419
 370  277.6599
 371  236.9
 372  322.7637
 373  356.9686
 374  259.3268
 375  354.0221
 376  352.6347
 377  436.6922
 378  195.6441
 379  135.0324
 380  231.6275
 381  176.9257
 382  367.6092
 383  301.7435
 384  234.4887
 385  159.2554
 386  182.3527
 387  203.0112
 388  233.1149
 389  253.2678
 390  263.7944
 391  188.367
 392  220.713
 393  187.604
 394  245.2607
 395  313.1631
 396  368.7191
 397  253.8781
 398  308.0035
 399  336.6342
 400  103.0958
 401  181.4742
 402  245.1207
 403  278.7163
 404  291.1793
 405  249.4269
 406  314.1112
 407  250.8101
 408  392.3052
 409  327.3223
 410  163.92
 411  124.884
 412  198.5638
 413  151.8998
 414  260.1356
 415  293.3318
 416  211.1389
 417  270.523
 418  226.1988
 419  283.6961
 420  298.4312
 421  162.6788
 422  202.526
 423  213.7947
 424  330.5064
 425  303.0836
 426  298.8132
 427  242.4159
 428  319.4752
 429  326.0209
 430  256.6105
 431  238.335
 432  222.4258
 433  317.8965
 434  270.4378
 435  222.333
 436  253.2501
 437  254.4129
 438  199.3753
 439  241.3018
 440  206.7214
 441  86.12862
 442  182.6621
 443  277.4384
 444  328.87
 445  277.0313
 446  252.5755
 447  167.6462
 448  215.5419
 449  178.7012
 450  293.1037
 451  207.0782
 452  197.5779
 453  253.0526
 454  234.3854
 455  342.0197
 456  247.47
 457  287.1547
 458  153.2462
 459  206.1625
 460  252.7969
 461  286.6617
 462  287.0236
 463  239.2257
 464  191.1153
 465  321.0816
 466  315.6957
 467  292.5818
 468  220.3262
 469  199.3809
 470  250.1645
 471  262.9803
 472  314.4615
 473  219.4214
 474  270.8544
 475  228.501
 476  118.8608
 477  133.8577
 478  256.4676
 479  259.7933
 480  101.5397
 481  154.2653
 482  256.7341
 483  222.6805
 484  170.2288
 485  197.648
 486  250.3824
 487  235.7267
 488  263.5285
 489  219.9321
 490  257.2895
 491  280.5354
 492  325.2199
 493  267.1986
 494  223.1288
 495  218.5134
 496  239.587
 497  137.2275
 498  214.8949
 499  274.3067
 500  304.3628
 501  304.5338
 502  275.6122
 503  420.0635
 504  379.0486
 505  337.9897
 506  435.2907
 507  395.6818
 508  515.3916
 509  556.8365
 510  922.962
 511  1144.151
