# Input file       =  1192156340.126739_cleaned.dat
# Candidate        =  PSR_0332+5434
# Telescope        =  AR
# Epoch_topo       =  58042.106008411334
# Epoch_bary       =  N/A
# T_sample         =  0.002
# Data Folded      =  7340032
# Data Avg         =  0.0130718679169075
# Data StdDev      =  0.999886405736766
# Profile Bins     =  512
# Profile Avg      =  187.415449610949 
# Profile StdDev   =  119.719435390714 
# Reduced chi-sqr  =  1.578
# Prob(Noise)      <  1.25e-15   (~7.9 sigma)
# P_topo (ms)      =  714.48269879092   +/- 0.000164
# P'_topo (s/s)    =  -0                +/- 8.68e-11
# P''_topo (s/s^2) =  0                 +/- 3.83e-14
# P_bary (ms)      =  N/A
# P'_bary (s/s)    =  N/A
# P''_bary (s/s^2) =  N/A
# P_orb (s)        =  N/A
# asin(i)/c (s)    =  N/A
# eccentricity     =  N/A
# w (rad)          =  N/A
# T_peri           =  N/A
######################################################
   0  858.7269
   1  553.9094
   2  385.552
   3  402.661
   4  314.1147
   5  246.9823
   6  245.2013
   7  181.8995
   8  61.13116
   9  239.9178
  10  211.3256
  11  149.7125
  12  269.0157
  13  331.1107
  14  301.5035
  15  409.926
  16  349.2539
  17  148.319
  18  37.38114
  19  188.7751
  20  226.6715
  21  143.0381
  22  134.9768
  23  197.4653
  24  196.8121
  25  261.0136
  26  260.958
  27  235.3724
  28  239.4614
  29  288.9275
  30  283.2109
  31  319.3273
  32  412.8955
  33  250.0174
  34  239.9962
  35  266.1976
  36  344.3492
  37  159.6026
  38  112.8113
  39  86.08028
  40  260.223
  41  267.29
  42  255.7741
  43  153.9477
  44  63.02304
  45  86.28789
  46  171.064
  47  354.4347
  48  227.6706
  49  27.30907
  50  146.1009
  51  112.4117
  52  72.74606
  53  4.837962
  54  92.43169
  55  145.8899
  56  176.023
  57  187.3285
  58  169.734
  59  239.6245
  60  384.2802
  61  315.0328
  62  313.3874
  63  256.0406
  64  250.9845
  65  271.2686
  66  169.2637
  67  123.1544
  68  159.0658
  69  340.0471
  70  233.5063
  71  62.03069
  72  234.1633
  73  212.1828
  74  184.3353
  75  194.8582
  76  195.0608
  77  234.7516
  78  270.1622
  79  298.1453
  80  153.9267
  81  155.3501
  82  67.34119
  83  183.3349
  84  198.5751
  85  190.2417
  86  232.1996
  87  229.0962
  88  284.0132
  89  154.4194
  90  166.087
  91  281.1524
  92  170.5665
  93  231.7909
  94  180.6151
  95  68.55457
  96  138.2092
  97  261.5855
  98  204.7072
  99  161.8084
 100  195.4888
 101  269.6649
 102  119.0606
 103  112.9213
 104  198.2432
 105  175.0201
 106  84.17197
 107  18.46643
 108  34.55572
 109  207.6992
 110  202.4024
 111  285.8639
 112  306.2867
 113  259.6288
 114  273.8136
 115  152.957
 116  239.7334
 117  201.5172
 118  285.4256
 119  243.7995
 120  211.5439
 121  197.9842
 122  401.6999
 123  430.7693
 124  214.31
 125  258.1535
 126  158.5152
 127  134.8987
 128  53.27054
 129  39.63721
 130  153.8543
 131  67.22254
 132  78.33685
 133  63.28393
 134  69.7285
 135  106.9854
 136  158.3661
 137  143.2122
 138  196.6193
 139  326.0117
 140  266.0493
 141  197.4741
 142  248.0802
 143  154.0959
 144  141.3473
 145  255.8418
 146  236.9376
 147  179.1328
 148  165.4524
 149  273.3163
 150  166.8656
 151  147.0153
 152  232.7556
 153  257.1752
 154  68.05605
 155  34.88531
 156  133.4194
 157  132.1528
 158  304.6801
 159  220.5733
 160  150.6255
 161  60.76112
 162  111.7527
 163  30.73854
 164  11.70234
 165  42.7508
 166  66.19241
 167  64.36839
 168  126.6563
 169  196.0734
 170  194.7752
 171  156.5083
 172  167.4257
 173  202.4491
 174  171.1951
 175  104.5241
 176  123.1646
 177  62.96217
 178  75.60789
 179  134.7534
 180  62.37226
 181  44.2698
 182  -17.18468
 183  45.49977
 184  59.72072
 185  63.48874
 186  79.03493
 187  36.97318
 188  110.8329
 189  144.8241
 190  100.9873
 191  201.2604
 192  175.0799
 193  190.327
 194  345.3038
 195  302.7669
 196  114.8991
 197  122.919
 198  143.4086
 199  81.89218
 200  104.4286
 201  179.7243
 202  144.1415
 203  203.7882
 204  146.0531
 205  119.3942
 206  87.67339
 207  133.5968
 208  109.11
 209  -9.415647
 210  119.1478
 211  319.1719
 212  156.9238
 213  248.1335
 214  132.8804
 215  85.05898
 216  119.6108
 217  161.3611
 218  300.5305
 219  250.2485
 220  278.0544
 221  243.9667
 222  80.41895
 223  49.77275
 224  130.4565
 225  261.9487
 226  344.3627
 227  176.6638
 228  246.9543
 229  157.4698
 230  155.0115
 231  249.1102
 232  208.0535
 233  104.0959
 234  61.95614
 235  198.4319
 236  293.9723
 237  168.4241
 238  188.6904
 239  252.1877
 240  321.9259
 241  406.5638
 242  359.0748
 243  191.652
 244  191.304
 245  218.9355
 246  215.1265
 247  243.5094
 248  125.5442
 249  296.7061
 250  308.2506
 251  261.4601
 252  138.1583
 253  154.5701
 254  223.5213
 255  275.1906
 256  336.8338
 257  218.5867
 258  130.2487
 259  71.99467
 260  155.0215
 261  152.2096
 262  197.282
 263  377.7305
 264  275.6916
 265  224.6261
 266  212.7715
 267  211.4735
 268  130.6178
 269  113.1475
 270  190.491
 271  216.3916
 272  219.748
 273  48.68403
 274  88.70742
 275  91.10771
 276  193.1832
 277  61.06133
 278  -14.39752
 279  -25.7463
 280  124.2612
 281  188.7265
 282  247.6216
 283  275.9991
 284  154.7185
 285  253.6649
 286  163.4591
 287  229.2284
 288  221.5016
 289  118.5961
 290  164.1018
 291  252.2267
 292  159.2451
 293  163.0436
 294  193.6911
 295  148.4264
 296  158.2168
 297  115.8931
 298  192.5187
 299  329.6237
 300  175.5256
 301  176.3596
 302  274.8444
 303  222.1052
 304  116.3142
 305  76.03148
 306  54.33803
 307  235.1868
 308  180.332
 309  155.5724
 310  219.9007
 311  289.583
 312  180.9139
 313  -51.39951
 314  114.3634
 315  239.7983
 316  347.8323
 317  348.1443
 318  125.1397
 319  74.17945
 320  242.522
 321  409.1683
 322  280.2631
 323  169.4428
 324  251.7912
 325  89.9108
 326  49.44741
 327  92.23077
 328  86.5246
 329  84.79862
 330  134.7142
 331  221.8372
 332  187.9018
 333  99.11913
 334  26.57321
 335  93.32198
 336  215.7901
 337  232.6917
 338  225.0201
 339  51.73759
 340  194.9623
 341  307.9952
 342  136.9306
 343  159.574
 344  216.386
 345  257.4239
 346  233.448
 347  261.044
 348  142.5077
 349  197.1819
 350  171.9979
 351  234.5603
 352  288.9178
 353  290.5237
 354  291.2123
 355  139.4384
 356  199.2835
 357  220.4822
 358  122.6484
 359  132.4842
 360  317.9409
 361  395.6951
 362  221.3061
 363  195.9121
 364  220.1661
 365  147.4159
 366  167.9502
 367  112.8925
 368  123.1946
 369  153.2341
 370  279.5214
 371  304.9049
 372  214.3216
 373  182.6958
 374  140.2995
 375  122.5172
 376  207.0249
 377  274.2826
 378  238.6291
 379  203.6605
 380  255.3445
 381  220.4647
 382  149.5027
 383  157.6503
 384  272.0114
 385  199.1849
 386  60.27393
 387  74.08765
 388  92.0924
 389  41.08768
 390  73.77782
 391  99.909
 392  184.2216
 393  100.967
 394  293.072
 395  213.2573
 396  273.5958
 397  82.68422
 398  -102.2077
 399  90.83999
 400  247.0836
 401  109.3457
 402  133.5302
 403  144.4844
 404  154.5951
 405  57.69035
 406  66.15619
 407  42.38345
 408  3.670211
 409  76.54756
 410  187.4462
 411  176.5811
 412  160.1898
 413  80.28575
 414  43.95668
 415  -5.9831
 416  196.3005
 417  196.321
 418  207.3853
 419  257.8083
 420  263.9172
 421  135.1557
 422  186.1736
 423  311.2375
 424  177.28
 425  186.5875
 426  200.9898
 427  223.8513
 428  233.7988
 429  111.6599
 430  67.33278
 431  133.4788
 432  96.96858
 433  237.3487
 434  87.59266
 435  208.1638
 436  54.26244
 437  177.7752
 438  250.1812
 439  44.47206
 440  15.5102
 441  73.2234
 442  257.6829
 443  174.0123
 444  115.929
 445  256.5681
 446  248.2567
 447  218.3836
 448  190.7075
 449  216.4998
 450  35.98322
 451  -2.319199
 452  81.25576
 453  67.67425
 454  60.04613
 455  163.6151
 456  304.033
 457  318.4242
 458  199.4923
 459  106.3371
 460  -23.38233
 461  -2.526606
 462  204.8787
 463  303.2666
 464  242.1724
 465  95.22392
 466  50.84121
 467  137.68
 468  268.6706
 469  324.3233
 470  226.4874
 471  179.1595
 472  359.1772
 473  349.0919
 474  310.39
 475  206.5441
 476  62.94851
 477  161.4633
 478  200.559
 479  229.2132
 480  179.6946
 481  180.895
 482  -12.61571
 483  22.58451
 484  95.65324
 485  125.3482
 486  36.5295
 487  282.3984
 488  244.1949
 489  132.8784
 490  119.9876
 491  235.2443
 492  253.1973
 493  222.302
 494  240.8684
 495  143.8177
 496  310.863
 497  211.9265
 498  115.2813
 499  28.15343
 500  186.7775
 501  198.3808
 502  306.2373
 503  208.2107
 504  243.5905
 505  361.6252
 506  339.4703
 507  440.7388
 508  521.7722
 509  707.6671
 510  809.1247
 511  887.7205
