# Input file       =  1192916781.138746_cleaned.dat
# Candidate        =  PSR_0332+5434
# Telescope        =  AR
# Epoch_topo       =  58050.907409013264
# Epoch_bary       =  N/A
# T_sample         =  0.002
# Data Folded      =  7340032
# Data Avg         =  0.0476509759817938
# Data StdDev      =  2.40012852933315 
# Profile Bins     =  256
# Profile Avg      =  1366.38071683165 
# Profile StdDev   =  406.409165005229 
# Reduced chi-sqr  =  1.795
# Prob(Noise)      <  1.05e-13   (~7.3 sigma)
# P_topo (ms)      =  714.489436880892  +/- 0.000408
# P'_topo (s/s)    =  -0                +/- 2.15e-10
# P''_topo (s/s^2) =  0                 +/- 9.5e-14
# P_bary (ms)      =  N/A
# P'_bary (s/s)    =  N/A
# P''_bary (s/s^2) =  N/A
# P_orb (s)        =  N/A
# asin(i)/c (s)    =  N/A
# eccentricity     =  N/A
# w (rad)          =  N/A
# T_peri           =  N/A
######################################################
   0  244.2761
   1  863.743
   2  893.4769
   3  903.856
   4  808.7344
   5  1058.011
   6  1337.77
   7  1544.878
   8  1526.529
   9  1519.217
  10  1599.796
  11  1193.679
  12  704.0273
  13  1157.125
  14  1002.828
  15  1618.167
  16  1025.003
  17  1505.109
  18  1084.223
  19  913.566
  20  1295.009
  21  918.7942
  22  871.2484
  23  1270.343
  24  1345.798
  25  1448.015
  26  1733.537
  27  1274.846
  28  1413.722
  29  1435.602
  30  1047.642
  31  1075.76
  32  1503.638
  33  1346.477
  34  1518.156
  35  1566.314
  36  1435.04
  37  1044.726
  38  1508.647
  39  1139.591
  40  1689.589
  41  1206.108
  42  1490.517
  43  1828.956
  44  1395.293
  45  999.982
  46  1454.865
  47  1091.989
  48  1250.481
  49  1379.845
  50  698.417
  51  1386.575
  52  1087.142
  53  1445.557
  54  1692.049
  55  979.61
  56  1689.481
  57  1513.819
  58  1404.604
  59  1872.4
  60  1610.389
  61  2004.165
  62  1573.865
  63  1246.688
  64  1397.46
  65  2007.507
  66  2081.101
  67  1544.81
  68  963.1506
  69  1838.177
  70  1472.068
  71  1150.226
  72  1025.917
  73  1368.276
  74  1621.878
  75  1622.514
  76  1362.779
  77  1387.863
  78  913.9655
  79  1008.072
  80  1417.898
  81  1672.481
  82  1151.713
  83  1451.234
  84  1269.439
  85  1654.74
  86  1824.816
  87  1166.327
  88  1244.632
  89  1473.257
  90  1423.003
  91  1867.274
  92  1001.52
  93  1107.476
  94  1653.201
  95  1080.909
  96  916.4171
  97  1159.05
  98  1190.013
  99  1048.366
 100  1607.045
 101  1598.525
 102  1646.548
 103  775.1078
 104  1297.774
 105  1298.812
 106  1328.406
 107  1765.322
 108  694.3026
 109  866.1365
 110  1345.783
 111  1305.381
 112  1303.057
 113  1110.278
 114  1008.913
 115  1542.832
 116  1299.242
 117  1532.141
 118  1203.576
 119  1240.66
 120  1192.858
 121  1282.968
 122  1140.384
 123  791.2855
 124  1167.185
 125  1474.517
 126  1122.296
 127  998.4949
 128  1298.912
 129  1265.545
 130  1414.958
 131  1338.102
 132  938.395
 133  1412.785
 134  1248.127
 135  1251.57
 136  1458.505
 137  1125.32
 138  1270.957
 139  1217.781
 140  1360.037
 141  805.6631
 142  1397.455
 143  722.2255
 144  1140.842
 145  999.5765
 146  1291.514
 147  1309.715
 148  1422.107
 149  1490.991
 150  1218.05
 151  1029.039
 152  1233.432
 153  1637.596
 154  1818.529
 155  1808.771
 156  2102.926
 157  2717.101
 158  4833.607
 159  4757.942
 160  3198.194
 161  2230.598
 162  1985.141
 163  1713.357
 164  1677.124
 165  1724.55
 166  1700.546
 167  863.3136
 168  1512.343
 169  1278.409
 170  966.3694
 171  1767.33
 172  1677.262
 173  1919.182
 174  1477.505
 175  1861.462
 176  1654.843
 177  1790.579
 178  1875.245
 179  2129.798
 180  1729.936
 181  1503.403
 182  2122.067
 183  1447.23
 184  1216.138
 185  1177.479
 186  1912.101
 187  1649.251
 188  727.0051
 189  1589.514
 190  1511.144
 191  1161.407
 192  1397.868
 193  1055.68
 194  1315.194
 195  1555.258
 196  1766.044
 197  1074.763
 198  1244.421
 199  1503.051
 200  1438.035
 201  1318.693
 202  1343.849
 203  1566.194
 204  1399.52
 205  1579.622
 206  994.1837
 207  1021.024
 208  1521.781
 209  643.3403
 210  581.8002
 211  1079.889
 212  1487.547
 213  1480.836
 214  1586.878
 215  1316.18
 216  868.2631
 217  1223.005
 218  1259.176
 219  1189.717
 220  1356.864
 221  945.2311
 222  815.4045
 223  1453.113
 224  1385.208
 225  1429.584
 226  1082.234
 227  859.4003
 228  1248.524
 229  856.8405
 230  641.7866
 231  1163.787
 232  1589.286
 233  1046.489
 234  1280.347
 235  745.6599
 236  1825.071
 237  1924.923
 238  1465.144
 239  1300.266
 240  1129.798
 241  1252.61
 242  1268.946
 243  1104.985
 244  1918.561
 245  1480.107
 246  1446.279
 247  1394.639
 248  1583.105
 249  1121.598
 250  1371.75
 251  1162.641
 252  745.9556
 253  733.2793
 254  1057.232
 255  538.4379
