# Input file       =  1192587082.133473_cleaned.dat
# Candidate        =  PSR_0332+5434
# Telescope        =  AR
# Epoch_topo       =  58047.091448304083
# Epoch_bary       =  N/A
# T_sample         =  0.002
# Data Folded      =  7340032
# Data Avg         =  0.0453665388849913
# Data StdDev      =  2.50487576456294 
# Profile Bins     =  256
# Profile Avg      =  1300.58790035094 
# Profile StdDev   =  424.145813641365 
# Reduced chi-sqr  =  1.827
# Prob(Noise)      <  1.55e-14   (~7.6 sigma)
# P_topo (ms)      =  714.48659286185   +/- 0.00025
# P'_topo (s/s)    =  -0                +/- 1.32e-10
# P''_topo (s/s^2) =  0                 +/- 5.82e-14
# P_bary (ms)      =  N/A
# P'_bary (s/s)    =  N/A
# P''_bary (s/s^2) =  N/A
# P_orb (s)        =  N/A
# asin(i)/c (s)    =  N/A
# eccentricity     =  N/A
# w (rad)          =  N/A
# T_peri           =  N/A
######################################################
   0  1650.426
   1  1570.396
   2  1635.993
   3  2196.453
   4  1666.811
   5  1128.149
   6  975.4855
   7  1437.684
   8  1918.603
   9  1394.584
  10  1306.349
  11  1680.026
  12  1864.642
  13  1276.03
  14  2004.276
  15  1978.552
  16  1503.179
  17  1254.11
  18  1503.572
  19  548.8913
  20  949.4332
  21  1351.45
  22  947.8174
  23  935.3689
  24  899.3591
  25  1164.836
  26  937.6276
  27  413.7246
  28  792.5069
  29  1579.4
  30  1060.906
  31  1581.575
  32  1849.533
  33  1649.903
  34  1212.493
  35  1386.042
  36  1277.742
  37  1132.067
  38  1020.057
  39  978.863
  40  1524.745
  41  1815.382
  42  1619.288
  43  1477.218
  44  1415.728
  45  1367.751
  46  551.291
  47  811.2797
  48  1201.225
  49  1316.973
  50  1269.217
  51  1607.453
  52  1573.312
  53  1204.983
  54  967.9136
  55  1305.695
  56  980.262
  57  1039.852
  58  1723.29
  59  1770.306
  60  1630.611
  61  1860.694
  62  1394.355
  63  855.3875
  64  1256.88
  65  1773.621
  66  1529.075
  67  1004.901
  68  1246.037
  69  1176.469
  70  990.299
  71  856.3732
  72  1074.008
  73  887.654
  74  1309.459
  75  1129.037
  76  1463.966
  77  1636.119
  78  1509.133
  79  1918.293
  80  2023.462
  81  1651.643
  82  1479.206
  83  1434.506
  84  1443.223
  85  1526.156
  86  1610.12
  87  1578.12
  88  1262.159
  89  748.8519
  90  1613.721
  91  1376.677
  92  1335.363
  93  1191.238
  94  680.4502
  95  1036.225
  96  1462.276
  97  1187.164
  98  1763.015
  99  596.4747
 100  974.4463
 101  1276.736
 102  1229.113
 103  1045.602
 104  1581.474
 105  1930.02
 106  1504.453
 107  1840.575
 108  982.7446
 109  1047.298
 110  926.1891
 111  1114.985
 112  1562.703
 113  1405.626
 114  1380.896
 115  1599.381
 116  2396.51
 117  2194.332
 118  2202.867
 119  1650.629
 120  1181.434
 121  512.8608
 122  755.8904
 123  1272.912
 124  1323.961
 125  901.9772
 126  856.753
 127  1289.362
 128  1586.451
 129  1211.546
 130  578.8977
 131  994.0245
 132  1052.749
 133  1237.871
 134  1429.46
 135  1030.897
 136  1474.434
 137  1664.505
 138  1328.098
 139  1071.114
 140  973.3809
 141  778.7826
 142  603.5086
 143  852.6281
 144  1318.526
 145  1754.078
 146  1087.548
 147  910.6719
 148  688.512
 149  759.3928
 150  1200.991
 151  1149.971
 152  1508.029
 153  1237.226
 154  1185.669
 155  2193.961
 156  1930.219
 157  2507.194
 158  4605.955
 159  4915.015
 160  3075.789
 161  1491.051
 162  1614.09
 163  1597.1
 164  978.8773
 165  1221.006
 166  1668.948
 167  1692.065
 168  914.0918
 169  654.6234
 170  755.8144
 171  1232.363
 172  826.6263
 173  1006.523
 174  1534.161
 175  1205.584
 176  421.6672
 177  1057.665
 178  1060.494
 179  1114.97
 180  605.1687
 181  947.2598
 182  1114.321
 183  1204.967
 184  1106.841
 185  1233.047
 186  709.6729
 187  1359.771
 188  999.3088
 189  772.2194
 190  1335.91
 191  1206.571
 192  1155.871
 193  969.1721
 194  1196.171
 195  940.6024
 196  1296.033
 197  1019.846
 198  1250.666
 199  1409.51
 200  1793.113
 201  1691.109
 202  1119.632
 203  760.6427
 204  1183.625
 205  1108.813
 206  1165.849
 207  936.9817
 208  364.2587
 209  1184.804
 210  736.8956
 211  610.3339
 212  1615.794
 213  1266.829
 214  1566.04
 215  876.608
 216  1011.77
 217  1171.346
 218  1179.727
 219  1154.033
 220  1133.813
 221  835.5782
 222  798.3999
 223  982.5378
 224  1528.571
 225  1046.963
 226  1084.058
 227  1167.813
 228  1095.454
 229  1434.822
 230  1407.751
 231  971.4189
 232  1557.017
 233  1925.34
 234  1815.052
 235  1718.937
 236  1284.497
 237  1253.229
 238  746.5672
 239  1568.223
 240  1550.59
 241  1695.252
 242  1090.351
 243  948.7808
 244  1338.795
 245  1019.925
 246  899.8091
 247  1197.44
 248  928.4462
 249  1226.208
 250  1445.794
 251  1301.273
 252  1174.556
 253  880.5265
 254  1725.355
 255  1293.175
