# Input file       =  1192471422.139069_cleaned.dat
# Candidate        =  PSR_0332+5434
# Telescope        =  AR
# Epoch_topo       =  58045.752790961451
# Epoch_bary       =  N/A
# T_sample         =  0.002
# Data Folded      =  7143424
# Data Avg         =  0.0495138658827958
# Data StdDev      =  2.61990556964437 
# Profile Bins     =  256
# Profile Avg      =  1381.63133891609 
# Profile StdDev   =  437.641874743827 
# Reduced chi-sqr  =  1.585
# Prob(Noise)      <  7.64e-09   (~5.7 sigma)
# P_topo (ms)      =  714.485169942692  +/- 0.000307
# P'_topo (s/s)    =  -0                +/- 1.66e-10
# P''_topo (s/s^2) =  0                 +/- 7.55e-14
# P_bary (ms)      =  N/A
# P'_bary (s/s)    =  N/A
# P''_bary (s/s^2) =  N/A
# P_orb (s)        =  N/A
# asin(i)/c (s)    =  N/A
# eccentricity     =  N/A
# w (rad)          =  N/A
# T_peri           =  N/A
######################################################
   0  972.1674
   1  1008.777
   2  1365.149
   3  1611.027
   4  2067.704
   5  1500.094
   6  2030.008
   7  1815.785
   8  940.324
   9  1606.421
  10  1738.309
  11  1848.092
  12  1577.403
  13  1520.319
  14  1363.22
  15  1580.84
  16  1873.339
  17  1315.831
  18  1515.334
  19  1353.961
  20  1883.296
  21  1502.858
  22  2014.354
  23  2182.695
  24  1012.431
  25  1226.444
  26  1425.92
  27  1435.63
  28  1070.477
  29  1406.162
  30  1204.974
  31  1027.29
  32  974.0421
  33  1055.734
  34  1491.958
  35  1103.923
  36  1084.213
  37  1277.913
  38  1738.753
  39  1750.673
  40  1631.515
  41  1132.695
  42  1303.275
  43  1453.817
  44  1544.307
  45  1652.931
  46  1024.787
  47  1183.8
  48  1670.973
  49  2546.07
  50  1753.171
  51  1460.28
  52  1122.48
  53  1477.757
  54  1197.151
  55  1437.639
  56  1546.703
  57  1377.319
  58  1492.161
  59  1299.511
  60  975.842
  61  946.3941
  62  1662.421
  63  1851.732
  64  1910.358
  65  1429.064
  66  1210.552
  67  1414.582
  68  1662.746
  69  1450.418
  70  1096.869
  71  1361.151
  72  2135.646
  73  2067.745
  74  1623.717
  75  1032.411
  76  1353.199
  77  1324.937
  78  1302.098
  79  1588.211
  80  1627.227
  81  1761.167
  82  823.3225
  83  1117.86
  84  1791.897
  85  1623.098
  86  1520.198
  87  1556.985
  88  1362.486
  89  1119.67
  90  1497.197
  91  994.2805
  92  1741.498
  93  848.9398
  94  937.347
  95  1254.467
  96  1540.275
  97  736.1996
  98  1268.976
  99  1318.961
 100  1437.181
 101  525.251
 102  1143.904
 103  1118.63
 104  1312.443
 105  1095.383
 106  669.6865
 107  1174.821
 108  1211.276
 109  1556.227
 110  1486.19
 111  1596.322
 112  1702.5
 113  1222.84
 114  1690.632
 115  1071.152
 116  1214.081
 117  934.1818
 118  628.1729
 119  1148.32
 120  997.3336
 121  793.4487
 122  983.8495
 123  1642.525
 124  1207.242
 125  811.6352
 126  1434.165
 127  1377.272
 128  1661.399
 129  714.1145
 130  763.5874
 131  1242.739
 132  998.9345
 133  939.808
 134  986.3649
 135  1401.027
 136  1962.108
 137  1253.211
 138  1672.321
 139  1061.6
 140  1102.968
 141  1094.734
 142  1278.841
 143  936.688
 144  2014.686
 145  1194.913
 146  1721.537
 147  1814.963
 148  944.2274
 149  1614.126
 150  1818.913
 151  1425.722
 152  1410.304
 153  1574.222
 154  1872.854
 155  1874.744
 156  2609.76
 157  2436.217
 158  4195.458
 159  5214.563
 160  3567.288
 161  2027.431
 162  1222.543
 163  1031.719
 164  1286.548
 165  1490.926
 166  1985.365
 167  1659.595
 168  1073.231
 169  1182.648
 170  939.8532
 171  1065.021
 172  1242.842
 173  1216.89
 174  1081.658
 175  1050.707
 176  808.3635
 177  1170.804
 178  1460.176
 179  1358.756
 180  1029.647
 181  1209.99
 182  1383.205
 183  1554.505
 184  1556.756
 185  1154.028
 186  1596.464
 187  1265
 188  1735.505
 189  1268.183
 190  1292.539
 191  1012.296
 192  1265.899
 193  979.577
 194  748.0487
 195  1213.148
 196  1355.638
 197  1195.564
 198  1329.242
 199  748.1694
 200  1135.504
 201  1559.882
 202  1509.164
 203  1669.581
 204  1416.311
 205  818.6204
 206  1078.904
 207  950.6006
 208  1279.191
 209  1039.899
 210  1063.648
 211  921.3818
 212  1341.5
 213  1199.823
 214  1219.476
 215  1596.399
 216  1333.536
 217  740.9528
 218  761.1613
 219  1151.86
 220  1248.338
 221  814.619
 222  616.8671
 223  1296.251
 224  1352.98
 225  1153.728
 226  1522.012
 227  1355.943
 228  1364.624
 229  2046.633
 230  1551.469
 231  1409.481
 232  1327.855
 233  1406.97
 234  1527.043
 235  1300.017
 236  1404.658
 237  1327.125
 238  1605.75
 239  1487.324
 240  1511.356
 241  1191.141
 242  1223.207
 243  1148.703
 244  1272.427
 245  1578.803
 246  1146.272
 247  959.9296
 248  1117.412
 249  1476.105
 250  1268.482
 251  910.915
 252  1423.496
 253  1085.332
 254  1023.222
 255  2019.312
