# Input file       =  1192313732.119416_cleaned.dat
# Candidate        =  PSR_0332+5434
# Telescope        =  AR
# Epoch_topo       =  58043.927674993240
# Epoch_bary       =  N/A
# T_sample         =  0.002
# Data Folded      =  7340032
# Data Avg         =  0.0404269180726259
# Data StdDev      =  2.3091949148658  
# Profile Bins     =  256
# Profile Avg      =  1159.15298688797 
# Profile StdDev   =  391.011550304632 
# Reduced chi-sqr  =  2.403
# Prob(Noise)      <  1.83e-31   (~11.6 sigma)
# P_topo (ms)      =  714.483751092939  +/- 0.000249
# P'_topo (s/s)    =  -0                +/- 1.31e-10
# P''_topo (s/s^2) =  0                 +/- 5.79e-14
# P_bary (ms)      =  N/A
# P'_bary (s/s)    =  N/A
# P''_bary (s/s^2) =  N/A
# P_orb (s)        =  N/A
# asin(i)/c (s)    =  N/A
# eccentricity     =  N/A
# w (rad)          =  N/A
# T_peri           =  N/A
######################################################
   0  1175.432
   1  1157.43
   2  1236.176
   3  611.7101
   4  955.9555
   5  1113.387
   6  1046.481
   7  1879.771
   8  1332.753
   9  1097.744
  10  1047.38
  11  1074.572
  12  946.1946
  13  1304.876
  14  438.4128
  15  1231.07
  16  942.1484
  17  634.8019
  18  1033.597
  19  1200.818
  20  1317.903
  21  1000.916
  22  1293.008
  23  1219.332
  24  1533.971
  25  1563.207
  26  1408.223
  27  969.0414
  28  795.8536
  29  540.1562
  30  1006.578
  31  1199.513
  32  1344.747
  33  1115.878
  34  1073.846
  35  1412.437
  36  1241.863
  37  1177.351
  38  185.5492
  39  939.6624
  40  1324.254
  41  1536.096
  42  1212.959
  43  1179.825
  44  734.1616
  45  820.6213
  46  602.5766
  47  1109.073
  48  1288.141
  49  1390.185
  50  1695.658
  51  1087.735
  52  745.5545
  53  852.2764
  54  899.8157
  55  1507.816
  56  1216.478
  57  1395.284
  58  1037.076
  59  844.8272
  60  1017.218
  61  1036.36
  62  873.9335
  63  1546.786
  64  985.1226
  65  1050.036
  66  1400.404
  67  1113.076
  68  717.0605
  69  600.428
  70  995.0703
  71  641.1805
  72  1144.424
  73  1348.356
  74  1755.379
  75  796.811
  76  359.1343
  77  512.4839
  78  1284.119
  79  1375.64
  80  687.812
  81  1335.98
  82  1177.875
  83  948.0623
  84  963.7189
  85  926.3569
  86  1261.838
  87  1098.71
  88  1507.813
  89  1180.868
  90  1046.125
  91  1008.728
  92  948.054
  93  342.2884
  94  1175.478
  95  870.4938
  96  546.5416
  97  808.5115
  98  1265.585
  99  951.4844
 100  810.4669
 101  61.13699
 102  458.3106
 103  847.527
 104  822.53
 105  1014.674
 106  1253.208
 107  904.594
 108  1368.123
 109  836.0016
 110  1300.324
 111  631.3297
 112  655.2407
 113  927.7655
 114  987.9076
 115  1278.324
 116  880.5764
 117  763.1316
 118  1054.799
 119  1102.879
 120  916.9672
 121  611.6214
 122  968.2194
 123  1663.329
 124  1367.996
 125  1506.992
 126  848.316
 127  1634.619
 128  1362.777
 129  1535.288
 130  1106.549
 131  1583.788
 132  1593.52
 133  1008.023
 134  1055.558
 135  1917.105
 136  1149.878
 137  1354.666
 138  1709.549
 139  1226.221
 140  847.1518
 141  646.1887
 142  719.7706
 143  510.7141
 144  728.9485
 145  1391.665
 146  1333.323
 147  1208.536
 148  1535.909
 149  1949.468
 150  1492.717
 151  1033.24
 152  1331.565
 153  1116.83
 154  1366.785
 155  1391.105
 156  1923.162
 157  2378.316
 158  4427.911
 159  5357.26
 160  3900.32
 161  2067.366
 162  1665.177
 163  1477.057
 164  2020.794
 165  1933.062
 166  1709.521
 167  1061.336
 168  1628.934
 169  1050.172
 170  1243.944
 171  1647.736
 172  717.8414
 173  728.765
 174  1205.871
 175  741.8869
 176  965.5569
 177  936.0361
 178  1601.795
 179  1078.433
 180  774.4326
 181  1395.054
 182  1775.651
 183  1771.354
 184  1493.281
 185  1619.976
 186  1709.604
 187  1083.084
 188  1287.245
 189  1250.773
 190  848.7829
 191  978.3868
 192  916.2067
 193  791.0198
 194  749.485
 195  785.7094
 196  929.8857
 197  1209.278
 198  1268.901
 199  831.3445
 200  1214.515
 201  1144.819
 202  1633.972
 203  1197.765
 204  1282.845
 205  1403.81
 206  1497.501
 207  1364.521
 208  1228.672
 209  1636.342
 210  1330.473
 211  1365.995
 212  699.5228
 213  1192.894
 214  547.5856
 215  676.218
 216  1408.772
 217  944.6241
 218  1330.488
 219  1120.712
 220  1055.352
 221  1530.329
 222  671.6259
 223  846.2438
 224  812.4651
 225  812.1282
 226  1071.842
 227  415.513
 228  250.9857
 229  841.7929
 230  741.3288
 231  1482.037
 232  991.4679
 233  1639.467
 234  668.959
 235  908.5843
 236  1964.194
 237  1612.271
 238  804.2062
 239  1019.302
 240  1133.215
 241  512.4392
 242  1289.144
 243  832.2788
 244  993.3639
 245  343.2944
 246  1143.072
 247  789.6502
 248  816.3571
 249  1196.44
 250  1362.011
 251  1329.768
 252  1056.827
 253  1050.923
 254  1297.376
 255  727.8981
