# Input file       =  1192845516.153047-PSRB0329-2ms-sampling-dd.dat
# Candidate        =  PSR_0332+5434
# Telescope        =  AR
# Epoch_topo       =  58050.082582789895
# Epoch_bary       =  N/A
# T_sample         =  0.002
# Data Folded      =  7340032
# Data Avg         =  6.98217892005073e-10
# Data StdDev      =  7.35255847712717 
# Profile Bins     =  512
# Profile Avg      =  -0.00806693935479005
# Profile StdDev   =  880.344151604168 
# Reduced chi-sqr  =  1.009
# Prob(Noise)      <  0.435   (~0.2 sigma)
# P_topo (ms)      =  714.489069798151  +/- 0.000136
# P'_topo (s/s)    =  -0                +/- 7.17e-11
# P''_topo (s/s^2) =  0                 +/- 3.16e-14
# P_bary (ms)      =  N/A
# P'_bary (s/s)    =  N/A
# P''_bary (s/s^2) =  N/A
# P_orb (s)        =  N/A
# asin(i)/c (s)    =  N/A
# eccentricity     =  N/A
# w (rad)          =  N/A
# T_peri           =  N/A
######################################################
   0  -66.63016
   1  -281.9332
   2  -166.8951
   3  -468.9512
   4  -222.6019
   5  -780.1744
   6  -376.6703
   7  -5.445924
   8  -247.1548
   9  -3.20291
  10  -537.4673
  11  -664.7
  12  -728.0861
  13  -267.3489
  14  -332.0032
  15  -559.9884
  16  -313.6498
  17  -108.3619
  18  75.34854
  19  -301.6749
  20  -280.0975
  21  -369.6703
  22  -806.7966
  23  -816.5195
  24  -669.4745
  25  -493.0936
  26  -521.3365
  27  -480.2306
  28  -487.0847
  29  -265.4319
  30  -138.0564
  31  -407.2822
  32  72.75972
  33  -401.896
  34  -588.3418
  35  -886.0966
  36  -838.9877
  37  -712.7426
  38  -619.3398
  39  -170.7658
  40  -154.889
  41  51.19437
  42  -611.4066
  43  -668.8289
  44  -980.2679
  45  -864.1278
  46  -448.5381
  47  -172.8851
  48  -17.47322
  49  36.56644
  50  57.90502
  51  -150.1332
  52  -211.517
  53  -42.81038
  54  60.77503
  55  183.2918
  56  253.3777
  57  306.5707
  58  39.13689
  59  427.3189
  60  534.4979
  61  669.8445
  62  562.1696
  63  90.86055
  64  187.6916
  65  -125.6894
  66  133.5002
  67  44.07765
  68  -119.1861
  69  163.6145
  70  211.4879
  71  117.3528
  72  -518.2687
  73  -195.3321
  74  -77.16068
  75  -137.2658
  76  -152.341
  77  -574.0892
  78  -578.9288
  79  -740.2599
  80  -67.54227
  81  80.28769
  82  219.7511
  83  -28.19717
  84  -73.14594
  85  73.54606
  86  -37.35164
  87  -142.9295
  88  -30.63972
  89  143.0391
  90  546.4792
  91  457.8078
  92  371.572
  93  186.1741
  94  -172.2544
  95  -298.9478
  96  -391.6133
  97  -726.4762
  98  -392.3264
  99  8.963792
 100  -17.32107
 101  -169.2727
 102  -49.23564
 103  -90.40289
 104  -229.5414
 105  -3.406704
 106  127.2359
 107  24.41368
 108  44.24938
 109  31.28159
 110  -83.53392
 111  -38.13386
 112  56.77986
 113  279.786
 114  1024.445
 115  806.2947
 116  268.591
 117  37.83294
 118  -324.8757
 119  -67.49371
 120  138.1563
 121  87.19273
 122  417.6092
 123  874.5402
 124  1569.152
 125  1101.006
 126  599.9991
 127  619.7291
 128  62.43615
 129  689.1128
 130  1036.438
 131  1475.938
 132  905.4625
 133  184.8439
 134  -87.90976
 135  -205.6934
 136  -51.54559
 137  -527.7874
 138  -184.0553
 139  172.2115
 140  298.4329
 141  -82.73473
 142  -95.28596
 143  -12.77555
 144  51.58105
 145  729.7183
 146  846.8141
 147  1082.253
 148  667.2521
 149  398.2583
 150  76.02904
 151  389.9507
 152  915.8345
 153  811.8473
 154  939.6888
 155  563.6304
 156  126.3236
 157  -15.86119
 158  -268.0477
 159  86.59191
 160  537.7544
 161  642.7467
 162  500.3377
 163  227.0636
 164  30.19944
 165  -121.1
 166  -129.514
 167  -84.70593
 168  163.3576
 169  -30.88224
 170  -278.1118
 171  81.83137
 172  726.9945
 173  1072.597
 174  982.7443
 175  402.6755
 176  307.8572
 177  396.1765
 178  119.4174
 179  46.71901
 180  565.0494
 181  1040.34
 182  492.2719
 183  119.7361
 184  329.1351
 185  39.81967
 186  8.388947
 187  353.1942
 188  285.1411
 189  775.7324
 190  418.7511
 191  25.0581
 192  -77.9489
 193  77.25629
 194  90.91067
 195  -124.8886
 196  267.3402
 197  345.9143
 198  497.9472
 199  575.7242
 200  100.7761
 201  -193.8451
 202  -212.7254
 203  94.68198
 204  85.43277
 205  333.2786
 206  244.2206
 207  205.7543
 208  -279.8979
 209  -231.4494
 210  -155.8543
 211  9.414892
 212  -79.5875
 213  -60.47318
 214  119.9823
 215  46.19387
 216  -59.51001
 217  117.0731
 218  363.8343
 219  716.6368
 220  713.1221
 221  1016.24
 222  1035.954
 223  537.0757
 224  324.8867
 225  379.3834
 226  845.1121
 227  512.313
 228  319.0908
 229  352.5434
 230  -125.1165
 231  38.17503
 232  199.7374
 233  221.6042
 234  144.4099
 235  306.3159
 236  693.8727
 237  1146.484
 238  1799.098
 239  2158.542
 240  2134.773
 241  1446.855
 242  775.2738
 243  182.8717
 244  -62.16267
 245  135.6646
 246  447.9749
 247  337.3089
 248  122.5757
 249  -331.5645
 250  -404.7206
 251  -65.07974
 252  352.8856
 253  654.0981
 254  522.2291
 255  218.0847
 256  325.8317
 257  92.04185
 258  -152.4899
 259  7.119543
 260  1244.05
 261  2754.143
 262  3753.936
 263  4232.478
 264  3568.074
 265  2463.432
 266  -115.6387
 267  1841.08
 268  2158.411
 269  2368.351
 270  3488.079
 271  3050.714
 272  2380.618
 273  104.134
 274  226.4761
 275  68.64259
 276  -150.1765
 277  40.16205
 278  25.49134
 279  58.82509
 280  -254.3025
 281  87.92203
 282  -249.9857
 283  -378.1628
 284  -248.7774
 285  200.6025
 286  -5.585426
 287  -123.3659
 288  127.8247
 289  -118.6332
 290  188.9314
 291  35.48697
 292  -337.9248
 293  -261.6491
 294  -162.5244
 295  -227.8427
 296  79.96656
 297  70.02877
 298  -173.6857
 299  -130.244
 300  -477.6477
 301  -214.6999
 302  -231.0733
 303  -167.2614
 304  51.80824
 305  242.6969
 306  -33.91107
 307  -476.8054
 308  -674.039
 309  -824.8454
 310  -559.7742
 311  -164.2859
 312  386.8871
 313  219.5326
 314  -75.57539
 315  223.6658
 316  119.3169
 317  -244.0655
 318  -268.1682
 319  -103.428
 320  -20.38543
 321  -162.0258
 322  -81.24791
 323  -82.68884
 324  -312.7805
 325  -480.1772
 326  -316.0134
 327  -181.5065
 328  -230.451
 329  -585.395
 330  -519.8768
 331  -403.9502
 332  -727.8821
 333  -445.3289
 334  -329.1384
 335  -572.9856
 336  -753.5689
 337  -457.4272
 338  -102.865
 339  -109.7939
 340  -56.61015
 341  35.5475
 342  56.36893
 343  -360.7529
 344  -135.4616
 345  27.65833
 346  97.85944
 347  -416.5499
 348  -632.7587
 349  -306.7974
 350  -319.268
 351  -514.7207
 352  -388.9777
 353  -110.4163
 354  44.37486
 355  3.334308
 356  -83.29113
 357  -524.7031
 358  -522.6118
 359  -375.8306
 360  -534.4004
 361  -273.4054
 362  -174.2048
 363  -418.2034
 364  -472.4887
 365  -168.6072
 366  -748.6806
 367  -751.5554
 368  -315.886
 369  -286.2277
 370  -493.5336
 371  -741.9286
 372  -893.4311
 373  -755.0058
 374  -631.3904
 375  -419.2376
 376  -186.7038
 377  687.2858
 378  696.3793
 379  399.6257
 380  67.45978
 381  -126.7884
 382  -385.8062
 383  -263.0541
 384  -65.21059
 385  -177.4028
 386  -47.90836
 387  23.92538
 388  264.1911
 389  -511.5587
 390  -882.279
 391  -880.3807
 392  -769.8967
 393  -409.3757
 394  -587.3199
 395  -215.1353
 396  -535.8854
 397  -752.7614
 398  -743.7604
 399  -816.7822
 400  -539.7216
 401  -479.8022
 402  -508.7662
 403  -324.9122
 404  -96.72112
 405  -177.8928
 406  -153.639
 407  -157.3969
 408  166.2224
 409  -224.4484
 410  -137.2892
 411  -212.8807
 412  -445.7529
 413  -622.5416
 414  -556.7797
 415  -711.1739
 416  -429.1255
 417  -331.5114
 418  -398.0288
 419  -821.9182
 420  -620.9957
 421  -197.1558
 422  -203.9667
 423  -872.1335
 424  -995.5999
 425  -233.5226
 426  275.9384
 427  -350.181
 428  -73.53763
 429  223.2127
 430  -405.575
 431  -760.5715
 432  -308.3134
 433  116.6924
 434  -428.1558
 435  -154.965
 436  -94.17033
 437  204.1971
 438  71.0104
 439  -307.1041
 440  -400.1761
 441  -311.8693
 442  -293.1149
 443  -302.9106
 444  -295.8942
 445  17.09223
 446  -96.01731
 447  -376.2234
 448  -661.1649
 449  -853.05
 450  -681.0715
 451  -297.0807
 452  -263.6776
 453  -126.5123
 454  -779.3493
 455  -1008.875
 456  -684.7184
 457  -796.8976
 458  -298.3704
 459  -790.5507
 460  -623.7217
 461  -264.9127
 462  -102.8309
 463  -215.3214
 464  -816.5688
 465  -430.7155
 466  -227.1585
 467  -267.0979
 468  -211.9679
 469  18.85003
 470  416.3213
 471  325.0069
 472  77.10132
 473  212.4363
 474  139.1974
 475  111.4753
 476  71.72065
 477  699.7716
 478  678.3619
 479  408.7615
 480  152.3441
 481  -201.7293
 482  -634.5645
 483  -592.441
 484  -378.0764
 485  -99.30772
 486  274.5565
 487  123.4938
 488  94.20732
 489  -322.5301
 490  -435.5332
 491  -679.8918
 492  -501.974
 493  -272.2005
 494  -312.1751
 495  -450.608
 496  -103.4858
 497  -555.9476
 498  -822.6709
 499  -253.0476
 500  -616.7498
 501  -1007.369
 502  -781.8493
 503  -508.8363
 504  -273.5505
 505  -112.1118
 506  -56.40501
 507  -568.0685
 508  -852.5573
 509  -298.3534
 510  -255.4509
 511  -185.1762
