# Input file       =  1192486011.12838_cleaned.dat
# Candidate        =  PSR_0332+5434
# Telescope        =  AR
# Epoch_topo       =  58045.921645004397
# Epoch_bary       =  N/A
# T_sample         =  0.002
# Data Folded      =  7340032
# Data Avg         =  0.0350021826307056
# Data StdDev      =  2.22906121188041 
# Profile Bins     =  512
# Profile Avg      =  501.892335132268 
# Profile StdDev   =  266.892267168115 
# Reduced chi-sqr  =  1.805
# Prob(Noise)      <  4.65e-26   (~10.5 sigma)
# P_topo (ms)      =  714.485317114683  +/- 0.000249
# P'_topo (s/s)    =  -0                +/- 1.31e-10
# P''_topo (s/s^2) =  0                 +/- 5.8e-14
# P_bary (ms)      =  N/A
# P'_bary (s/s)    =  N/A
# P''_bary (s/s^2) =  N/A
# P_orb (s)        =  N/A
# asin(i)/c (s)    =  N/A
# eccentricity     =  N/A
# w (rad)          =  N/A
# T_peri           =  N/A
######################################################
   0  130.918
   1  497.5642
   2  699.1158
   3  454.8365
   4  432.6577
   5  668.6687
   6  586.789
   7  792.9995
   8  862.5316
   9  958.7447
  10  465.7166
  11  428.6007
  12  641.0155
  13  508.0134
  14  408.0992
  15  339.4348
  16  687.7272
  17  674.2445
  18  464.7081
  19  572.6749
  20  471.1936
  21  531.0989
  22  572.5406
  23  785.9821
  24  782.9485
  25  684.6494
  26  554.4187
  27  427.9979
  28  226.7504
  29  644.4941
  30  634.0978
  31  645.4869
  32  610.2872
  33  264.1475
  34  404.8056
  35  482.8379
  36  467.1947
  37  341.0703
  38  568.5875
  39  563.6031
  40  624.9768
  41  583.7684
  42  402.8654
  43  526.0976
  44  530.5218
  45  231.6096
  46  184.1633
  47  466.3866
  48  355.6619
  49  380.8296
  50  411.2186
  51  422.0941
  52  395.026
  53  529.0756
  54  637.6128
  55  480.5101
  56  339.3552
  57  605.6878
  58  541.9135
  59  581.7983
  60  565.8739
  61  467.6854
  62  490.5682
  63  460.7863
  64  429.5013
  65  330.5978
  66  330.7897
  67  530.1163
  68  854.5352
  69  551.1132
  70  419.2828
  71  559.1325
  72  593.7682
  73  690.2614
  74  642.7491
  75  610.7968
  76  105.9965
  77  152.4696
  78  517.4999
  79  340.9515
  80  223.1825
  81  471.4016
  82  486.3532
  83  420.4746
  84  352.012
  85  293.9311
  86  465.7163
  87  553.3705
  88  360.3855
  89  254.1921
  90  327.9205
  91  289.7845
  92  366.6483
  93  401.6758
  94  390.2412
  95  455.6683
  96  509.5014
  97  439.5174
  98  628.0902
  99  663.8694
 100  326.4109
 101  619.2455
 102  666.4383
 103  688.3107
 104  745.2717
 105  508.5593
 106  519.6046
 107  546.1014
 108  566.3501
 109  474.308
 110  814.8994
 111  748.6639
 112  436.2323
 113  192.2876
 114  373.5917
 115  537.8855
 116  578.7955
 117  826.3575
 118  621.0953
 119  486.8084
 120  181.3785
 121  347.3405
 122  426.8301
 123  682.7607
 124  576.5291
 125  313.8148
 126  248.5136
 127  554.3766
 128  625.5042
 129  311.4933
 130  331.5312
 131  607.7873
 132  636.549
 133  338.153
 134  445.3345
 135  338.2263
 136  433.4128
 137  511.8763
 138  537.7021
 139  88.37536
 140  86.44234
 141  304.4387
 142  627.4526
 143  612.1852
 144  451.1478
 145  657.1293
 146  471.1546
 147  305.1907
 148  486.432
 149  506.4602
 150  478.7377
 151  370.6469
 152  517.6155
 153  387.4197
 154  395.2091
 155  629.5482
 156  537.3204
 157  579.5049
 158  628.1074
 159  687.7906
 160  344.7349
 161  368.6817
 162  486.2497
 163  433.9848
 164  262.7715
 165  392.6158
 166  150.1213
 167  123.8692
 168  610.4014
 169  588.0101
 170  313.2744
 171  53.81966
 172  252.904
 173  428.8992
 174  207.2088
 175  329.9139
 176  416.4969
 177  556.5633
 178  721.2339
 179  642.8666
 180  407.2517
 181  535.8427
 182  500.3544
 183  479.7615
 184  537.8436
 185  389.3275
 186  408.6487
 187  463.5259
 188  741.1118
 189  706.8189
 190  519.9469
 191  378.5822
 192  518.9149
 193  493.8649
 194  361.5477
 195  514.2962
 196  529.6306
 197  629.5628
 198  261.5593
 199  418.0025
 200  482.9778
 201  494.4492
 202  142.348
 203  428.735
 204  651.2836
 205  317.0826
 206  -43.36932
 207  224.6349
 208  145.8959
 209  254.6304
 210  100.2472
 211  121.686
 212  382.7917
 213  203.177
 214  192.2866
 215  199.6585
 216  313.4166
 217  473.4113
 218  314.8573
 219  236.0733
 220  291.5573
 221  138.0914
 222  147.3297
 223  191.6466
 224  299.716
 225  397.0212
 226  627.1901
 227  668.6313
 228  398.3171
 229  37.65372
 230  151.4524
 231  813.8799
 232  821.0035
 233  736.3391
 234  644.2244
 235  403.8422
 236  364.1966
 237  495.4494
 238  440.3178
 239  289.5201
 240  484.818
 241  429.3868
 242  587.0928
 243  520.2242
 244  654.9877
 245  915.134
 246  810.6909
 247  837.9808
 248  1052.813
 249  1240.806
 250  1543.424
 251  1897.71
 252  2532.053
 253  2711.772
 254  2346.469
 255  1852.433
 256  839.0502
 257  252.573
 258  325.9557
 259  540.3986
 260  465.8773
 261  333.5959
 262  122.4335
 263  290.3338
 264  497.3346
 265  522.2126
 266  725.8611
 267  415.9825
 268  291.5042
 269  297.7647
 270  758.574
 271  873.0999
 272  588.0055
 273  577.5561
 274  569.721
 275  534.5215
 276  624.8672
 277  611.0717
 278  524.1538
 279  313.6648
 280  488.6269
 281  295.0999
 282  296.2374
 283  37.98624
 284  236.3827
 285  367.3693
 286  703.9946
 287  529.2338
 288  395.8569
 289  565.9302
 290  658.7799
 291  348.2253
 292  374.7741
 293  388.1161
 294  372.161
 295  642.2883
 296  692.8275
 297  493.3179
 298  757.7206
 299  668.9987
 300  505.8608
 301  360.9821
 302  596.4583
 303  466.7174
 304  627.0203
 305  341.5916
 306  405.3268
 307  490.3709
 308  436.0082
 309  206.3384
 310  206.9818
 311  497.52
 312  456.7722
 313  346.3805
 314  354.9772
 315  611.8558
 316  268.5169
 317  297.4525
 318  354.1335
 319  278.6791
 320  420.8795
 321  546.389
 322  476.4407
 323  342.9617
 324  61.57875
 325  64.43736
 326  211.3218
 327  343.8964
 328  301.9626
 329  227.9387
 330  316.7444
 331  543.3141
 332  406.8093
 333  205.8027
 334  136.4282
 335  595.8139
 336  640.5196
 337  433.0737
 338  538.8068
 339  472.4782
 340  284.2131
 341  527.2887
 342  316.0485
 343  466.301
 344  559.4654
 345  823.6469
 346  609.1562
 347  442.7982
 348  633.2445
 349  610.4081
 350  528.8421
 351  649.7294
 352  565.2327
 353  419.4059
 354  329.499
 355  317.9119
 356  486.6966
 357  307.0599
 358  347.5662
 359  511.9814
 360  850.9182
 361  987.3323
 362  773.0991
 363  842.8715
 364  840.7415
 365  995.2752
 366  803.1769
 367  492.1297
 368  514.1115
 369  518.7979
 370  596.9249
 371  579.4076
 372  839.0463
 373  753.2721
 374  590.9811
 375  467.9366
 376  441.8898
 377  550.6443
 378  456.5402
 379  481.0769
 380  472.0692
 381  494.2589
 382  311.1562
 383  422.359
 384  259.0591
 385  415.9968
 386  612.0535
 387  703.774
 388  425.9348
 389  674.6279
 390  570.6871
 391  504.0378
 392  426.7639
 393  459.2657
 394  509.2077
 395  670.0887
 396  690.3463
 397  517.6486
 398  655.1397
 399  414.7422
 400  360.3187
 401  541.3431
 402  570.9838
 403  180.7834
 404  578.8195
 405  802.15
 406  835.2776
 407  602.4434
 408  531.0362
 409  589.4326
 410  460.1787
 411  637.1795
 412  737.0903
 413  248.5352
 414  334.61
 415  555.3465
 416  624.7532
 417  554.5681
 418  201.97
 419  285.8528
 420  292.7519
 421  273.1591
 422  323.5133
 423  397.1531
 424  316.2633
 425  565.1743
 426  445.8029
 427  379.0526
 428  517.0202
 429  512.4711
 430  603.5162
 431  503.7326
 432  805.6272
 433  586.6053
 434  400.5535
 435  388.2297
 436  564.2003
 437  613.3631
 438  746.3069
 439  634.0093
 440  77.65802
 441  49.62087
 442  360.4004
 443  443.7965
 444  349.5528
 445  399.9483
 446  673.9473
 447  629.9007
 448  593.1573
 449  774.4737
 450  524.7606
 451  481.9527
 452  616.2249
 453  600.0766
 454  440.4148
 455  592.097
 456  563.6706
 457  479.7485
 458  405.4916
 459  694.3887
 460  1029.019
 461  643.4836
 462  433.9009
 463  793.4706
 464  595.9755
 465  347.6807
 466  168.5892
 467  383.0214
 468  482.012
 469  517.6089
 470  244.2015
 471  622.2719
 472  858.0763
 473  298.2278
 474  466.6285
 475  332.7723
 476  398.2199
 477  485.151
 478  475.6529
 479  578.6599
 480  260.3896
 481  206.4028
 482  570.7805
 483  661.3839
 484  640.7739
 485  578.0684
 486  409.9255
 487  631.1167
 488  787.6135
 489  505.9064
 490  766.5813
 491  741.4134
 492  504.0438
 493  336.715
 494  691.0984
 495  676.805
 496  418.568
 497  573.2473
 498  493.3276
 499  539.7297
 500  442.7137
 501  326.3054
 502  409.0323
 503  423.0884
 504  383.3225
 505  439.5233
 506  330.6954
 507  240.1934
 508  491.4047
 509  801.929
 510  738.3497
 511  415.9283
