# Input file       =  1192070158.12806_cleaned.dat
# Candidate        =  PSR_0332+5434
# Telescope        =  AR
# Epoch_topo       =  58041.108531574770
# Epoch_bary       =  N/A
# T_sample         =  0.002
# Data Folded      =  7340032
# Data Avg         =  0.282280330017136
# Data StdDev      =  11.6761591153454 
# Profile Bins     =  512
# Profile Avg      =  4046.77059881156 
# Profile StdDev   =  1398.02198409856 
# Reduced chi-sqr  =  0.740
# Prob(Noise)      <  1   (~0.0 sigma)
# P_topo (ms)      =  714.481959171053  +/- 5.24e-05
# P'_topo (s/s)    =  -0                +/- 2.76e-11
# P''_topo (s/s^2) =  0                 +/- 1.22e-14
# P_bary (ms)      =  N/A
# P'_bary (s/s)    =  N/A
# P''_bary (s/s^2) =  N/A
# P_orb (s)        =  N/A
# asin(i)/c (s)    =  N/A
# eccentricity     =  N/A
# w (rad)          =  N/A
# T_peri           =  N/A
######################################################
   0  3494.07
   1  4274.628
   2  4976.999
   3  5289.285
   4  4496.551
   5  4951.882
   6  5582.881
   7  4315.842
   8  3799.374
   9  3622.057
  10  5500.062
  11  5376.979
  12  5496.419
  13  5244.128
  14  5339.008
  15  5862.616
  16  5133.52
  17  4648.082
  18  3857.321
  19  4281.645
  20  5091.396
  21  4523.996
  22  5008.062
  23  4545.028
  24  3511.427
  25  4252.918
  26  3542.093
  27  4353.983
  28  4606.512
  29  4967.135
  30  4789.35
  31  3892.094
  32  3053.476
  33  3412.069
  34  3812.726
  35  3200.603
  36  3354.823
  37  4420.116
  38  3648.951
  39  3478.57
  40  4138.338
  41  4487.746
  42  3817.154
  43  3881.19
  44  4100.063
  45  3796.605
  46  2524.937
  47  3359.235
  48  4226.353
  49  4844.218
  50  3800.73
  51  3608.036
  52  2827.758
  53  2366.118
  54  3404.501
  55  3622.212
  56  4011.243
  57  3366.725
  58  4099.149
  59  4174.935
  60  3665.181
  61  3875.465
  62  4033.07
  63  4784.904
  64  4212.176
  65  3662.703
  66  3992.124
  67  3918.924
  68  4408.341
  69  3036.798
  70  2971.769
  71  3192.718
  72  4582.744
  73  4567.903
  74  4133.741
  75  3717.417
  76  3822.661
  77  4761.669
  78  4942.62
  79  3934.41
  80  4251.562
  81  4113.29
  82  4399.546
  83  4184.018
  84  4149.291
  85  3076.32
  86  3484.727
  87  3911.462
  88  3726.427
  89  3340.651
  90  3940.491
  91  4270.492
  92  4025.422
  93  3341.285
  94  3421.597
  95  3347.875
  96  3756.863
  97  3711.688
  98  4054.857
  99  4719.622
 100  3988.574
 101  4554.481
 102  4803.095
 103  4458.301
 104  4219.76
 105  4766.375
 106  5787.896
 107  4830.579
 108  4829.345
 109  4775.75
 110  3942.561
 111  3959.451
 112  3595.211
 113  3892.108
 114  3664.948
 115  4543.419
 116  4507.699
 117  4015.232
 118  2753.807
 119  3889.633
 120  5233.054
 121  5149.252
 122  4596.84
 123  4493.41
 124  3704.282
 125  3153.033
 126  3708.831
 127  4252.176
 128  3508.507
 129  3403.876
 130  3689.379
 131  3867.678
 132  3380.945
 133  3415.747
 134  4111.383
 135  3719.564
 136  2459.983
 137  3104.484
 138  3642.731
 139  2998.931
 140  2570.896
 141  3713.157
 142  3442.574
 143  3130.203
 144  3488.832
 145  3693.41
 146  2534.754
 147  1877.213
 148  2767.055
 149  4685.819
 150  3871.413
 151  3727.563
 152  3880.992
 153  2712.083
 154  2204.642
 155  2802.792
 156  3967.807
 157  3242.566
 158  4316.635
 159  3967.214
 160  3083.178
 161  2577.086
 162  3418.285
 163  5376.864
 164  6617.486
 165  5558.436
 166  5440.772
 167  3892.838
 168  2728.159
 169  3415.443
 170  5047.338
 171  4856.576
 172  4349.491
 173  3904.119
 174  3442.048
 175  1868.734
 176  2803.115
 177  4783.928
 178  5629.438
 179  4487.148
 180  4200.594
 181  3823.554
 182  2232.281
 183  2620.178
 184  4428.968
 185  4419.5
 186  3821.213
 187  3716.246
 188  3194.251
 189  2842.611
 190  2392.398
 191  3727.875
 192  4237.891
 193  3856.461
 194  2984.384
 195  2565.295
 196  1502.772
 197  1395.688
 198  2097.816
 199  3339.528
 200  3320.978
 201  4513.065
 202  4266.519
 203  2852.966
 204  1728.831
 205  2526.45
 206  4051.095
 207  4513.6
 208  3938.51
 209  4166.957
 210  3026.986
 211  2505.006
 212  3029.102
 213  4063.285
 214  3879.747
 215  4222.635
 216  4032.83
 217  3685.591
 218  2221.327
 219  1944.196
 220  3108.19
 221  4884.973
 222  4475.35
 223  3810.303
 224  3197.222
 225  2452.167
 226  2587.436
 227  3853.597
 228  4696.217
 229  4195.357
 230  4228.212
 231  4351.583
 232  3898.269
 233  2901.117
 234  4391.993
 235  5712.163
 236  6317.538
 237  4674.619
 238  4287.532
 239  2161.782
 240  1959.682
 241  3054.48
 242  3956.239
 243  2901.97
 244  3548.194
 245  3024.566
 246  2989.435
 247  2647.301
 248  3244.82
 249  4491.875
 250  5598.646
 251  4916.795
 252  4865.349
 253  3639.176
 254  3663.957
 255  4483.937
 256  4955.214
 257  4356.645
 258  3825.754
 259  4247.981
 260  5344.116
 261  3781.459
 262  3740.9
 263  4721.833
 264  5593.068
 265  4958.971
 266  4810.659
 267  3997.1
 268  2696.492
 269  3256.968
 270  4175.516
 271  4368.536
 272  3206.141
 273  3174.305
 274  2785.033
 275  2552.92
 276  2577.908
 277  3945.376
 278  4526.557
 279  4381.653
 280  3460.996
 281  3890.791
 282  2338.278
 283  2732.419
 284  3968.833
 285  5645.475
 286  5171.333
 287  5430.077
 288  4579.368
 289  4544.782
 290  3839.396
 291  4217.411
 292  4137.895
 293  4794.318
 294  4834.44
 295  4962.309
 296  3906.093
 297  3365.739
 298  3062.448
 299  3695.674
 300  3626.728
 301  3482.871
 302  4590.854
 303  4446.971
 304  2702.119
 305  3466.201
 306  4647.963
 307  5958.753
 308  5429.482
 309  4684.565
 310  4152.466
 311  3058.082
 312  3223.453
 313  4611.282
 314  5950.543
 315  5613.823
 316  4771.539
 317  4265.389
 318  4172.962
 319  4310.423
 320  4385.364
 321  5238.816
 322  4625.405
 323  3314.34
 324  3714.675
 325  3206.811
 326  4243.435
 327  4304.321
 328  5040.427
 329  4095.007
 330  3615.562
 331  3078.236
 332  3463.37
 333  4003.393
 334  4224.997
 335  4565.187
 336  4203.174
 337  2901.889
 338  4349.29
 339  3502.242
 340  3423.179
 341  3335.553
 342  3830.203
 343  3417.612
 344  2831.351
 345  3907.124
 346  4461.009
 347  3164.744
 348  3749.856
 349  4349.753
 350  5387.613
 351  4023.891
 352  4558.448
 353  4821.523
 354  4248.919
 355  4069.497
 356  4342.297
 357  4643.493
 358  4259.875
 359  4091.516
 360  4763.546
 361  3661.836
 362  4459.079
 363  4256.442
 364  5449.079
 365  5043.948
 366  3933.356
 367  4563.434
 368  3591.921
 369  4648.703
 370  4471.695
 371  5026.179
 372  4946.912
 373  4236.083
 374  4391.701
 375  3881.103
 376  3772.417
 377  4203.604
 378  4849.241
 379  4529.576
 380  4060.243
 381  4989.763
 382  4315.884
 383  3248.785
 384  4216.515
 385  5020.487
 386  5081.462
 387  3975.39
 388  4199.278
 389  4423.597
 390  4164.682
 391  4264.68
 392  3889.202
 393  4438.708
 394  2935.685
 395  4036.443
 396  4746.934
 397  3488.203
 398  3505.222
 399  3149.913
 400  3991.903
 401  3180.111
 402  3061.149
 403  3521.907
 404  3143.251
 405  2672.876
 406  2985.563
 407  2918.015
 408  3270.743
 409  3116.409
 410  3990.908
 411  2224.815
 412  2218.929
 413  2922.517
 414  3941.255
 415  4356.832
 416  3759.338
 417  4049.788
 418  3725.672
 419  3279.264
 420  4076.911
 421  3872.438
 422  4464.028
 423  3625.382
 424  5043.775
 425  4667.42
 426  4127.303
 427  5426.215
 428  5882.201
 429  5900.642
 430  4736.472
 431  4930.105
 432  5022.121
 433  4082.602
 434  4313.79
 435  3964.736
 436  4583.422
 437  4404.621
 438  4490.513
 439  4459.896
 440  3525.82
 441  4424.236
 442  5256.448
 443  5181.279
 444  4336.935
 445  4261.722
 446  5400.198
 447  4689.23
 448  4908.358
 449  5692.116
 450  5917.226
 451  6128.123
 452  5651.255
 453  5823.608
 454  3614.838
 455  3072.72
 456  4470.27
 457  4866.87
 458  4222.02
 459  3724.56
 460  4575.269
 461  4090.777
 462  2170.939
 463  3027.398
 464  3272.078
 465  3550.222
 466  3252.601
 467  3885.842
 468  3903.774
 469  3213.134
 470  4036.492
 471  4875.582
 472  4361.143
 473  3000.905
 474  4292.866
 475  5640.69
 476  4318.846
 477  4449.432
 478  4166.033
 479  4566.247
 480  4005.31
 481  4578.381
 482  3670.936
 483  3008.211
 484  3863.782
 485  4151.293
 486  4499.482
 487  4197.494
 488  4049.312
 489  4238.592
 490  3488.137
 491  3847.713
 492  5393.789
 493  5989.87
 494  6199.488
 495  4929.892
 496  5491.371
 497  4476.904
 498  5264.302
 499  5567.527
 500  5059.721
 501  4712.176
 502  4618.842
 503  5515.177
 504  5670.543
 505  4906.053
 506  5073.925
 507  5468.444
 508  5593.697
 509  4828.565
 510  4986.848
 511  3604.473
