# Input file       =  1192399868.133724_cleaned.dat
# Candidate        =  PSR_0332+5434
# Telescope        =  AR
# Epoch_topo       =  58044.924619603284
# Epoch_bary       =  N/A
# T_sample         =  0.002
# Data Folded      =  7340032
# Data Avg         =  0.0155643795082456
# Data StdDev      =  0.999964079101611
# Profile Bins     =  512
# Profile Avg      =  223.139871884944 
# Profile StdDev   =  119.728735458533 
# Reduced chi-sqr  =  1.443
# Prob(Noise)      <  1.92e-10   (~6.3 sigma)
# P_topo (ms)      =  714.484527852307  +/- 0.000251
# P'_topo (s/s)    =  -0                +/- 1.32e-10
# P''_topo (s/s^2) =  0                 +/- 5.84e-14
# P_bary (ms)      =  N/A
# P'_bary (s/s)    =  N/A
# P''_bary (s/s^2) =  N/A
# P_orb (s)        =  N/A
# asin(i)/c (s)    =  N/A
# eccentricity     =  N/A
# w (rad)          =  N/A
# T_peri           =  N/A
######################################################
   0  495.5744
   1  490.2017
   2  679.1203
   3  892.6232
   4  991.1087
   5  928.6927
   6  911.9224
   7  888.1427
   8  502.5926
   9  203.1421
  10  178.254
  11  320.2019
  12  343.008
  13  177.5953
  14  59.13681
  15  257.0806
  16  327.6466
  17  205.3772
  18  181.2412
  19  191.9838
  20  265.143
  21  308.5527
  22  198.1282
  23  126.3174
  24  152.7014
  25  198.6033
  26  241.332
  27  148.6016
  28  201.6592
  29  255.8913
  30  137.3272
  31  165.1999
  32  264.9365
  33  223.1643
  34  172.667
  35  124.7118
  36  117.0268
  37  196.3433
  38  131.2233
  39  86.71055
  40  191.4587
  41  300.0902
  42  235.5153
  43  266.8146
  44  317.3902
  45  150.3954
  46  195.7868
  47  175.5441
  48  220.3497
  49  265.267
  50  133.7616
  51  5.576023
  52  175.8261
  53  171.2684
  54  95.29812
  55  222.766
  56  137.3769
  57  130.303
  58  32.96147
  59  225.1518
  60  218.969
  61  84.36196
  62  155.7641
  63  215.0866
  64  218.7374
  65  240.22
  66  279.1824
  67  285.511
  68  245.9103
  69  206.3278
  70  124.6632
  71  161.0957
  72  159.1375
  73  91.83458
  74  79.61301
  75  136.8606
  76  135.8349
  77  220.601
  78  216.7276
  79  143.7716
  80  175.1475
  81  250.2245
  82  282.5228
  83  218.3247
  84  251.3872
  85  172.7077
  86  139.8563
  87  135.9448
  88  266.3723
  89  313.8526
  90  232.1265
  91  283.2552
  92  239.8768
  93  213.749
  94  199.4899
  95  237.5496
  96  150.1742
  97  77.01945
  98  164.3997
  99  253.815
 100  188.69
 101  346.0638
 102  262.4359
 103  206.3276
 104  147.2837
 105  172.1822
 106  311.1942
 107  332.5389
 108  154.0347
 109  108.4297
 110  135.3627
 111  233.0839
 112  244.5741
 113  263.076
 114  244.3794
 115  253.3135
 116  229.746
 117  206.4677
 118  148.2718
 119  194.2995
 120  227.9979
 121  213.5965
 122  112.5743
 123  181.0185
 124  149.5948
 125  265.2364
 126  291.6564
 127  335.867
 128  210.1171
 129  236.9012
 130  242.1619
 131  196.1138
 132  295.8772
 133  311.6524
 134  244.5368
 135  115.2906
 136  263.9757
 137  354.0995
 138  256.0317
 139  51.4748
 140  112.0741
 141  155.509
 142  239.6486
 143  318.9434
 144  188.8035
 145  160.5424
 146  267.5458
 147  250.2826
 148  210.2739
 149  245.5819
 150  187.4409
 151  290.022
 152  316.9368
 153  179.0094
 154  134.3957
 155  178.6126
 156  130.2415
 157  184.4553
 158  162.8789
 159  249.8219
 160  211.9214
 161  247.5522
 162  256.7951
 163  136.7369
 164  171.0005
 165  153.259
 166  157.6141
 167  218.8207
 168  290.4059
 169  285.9975
 170  267.4513
 171  154.7883
 172  114.4033
 173  86.4832
 174  152.3596
 175  117.8273
 176  208.0364
 177  42.32609
 178  124.7993
 179  126.0072
 180  380.0737
 181  353.806
 182  255.0508
 183  39.09262
 184  121.3426
 185  183.5547
 186  237.9508
 187  267.9271
 188  204.1716
 189  186.2332
 190  145.7956
 191  269.2456
 192  261.9738
 193  303.4292
 194  409.471
 195  242.0614
 196  214.6357
 197  112.354
 198  167.1756
 199  147.2826
 200  163.2423
 201  86.91271
 202  250.0653
 203  207.4512
 204  162.4098
 205  153.7614
 206  183.7623
 207  381.6987
 208  317.2286
 209  251.9293
 210  253.1639
 211  101.3184
 212  200.9123
 213  307.4111
 214  331.407
 215  239.7719
 216  293.6545
 217  222.242
 218  282.263
 219  252.0636
 220  243.5987
 221  117.0725
 222  220.2426
 223  218.7934
 224  400.5111
 225  337.4579
 226  220.3711
 227  205.4141
 228  181.0306
 229  237.9185
 230  269.3901
 231  250.9101
 232  185.688
 233  247.4833
 234  277.2245
 235  263.368
 236  314.531
 237  260.1446
 238  253.8716
 239  319.1913
 240  270.1259
 241  290.7574
 242  273.2868
 243  319.0199
 244  204.2665
 245  94.00395
 246  196.4294
 247  288.8981
 248  290.878
 249  322.3039
 250  263.385
 251  169.091
 252  287.5575
 253  272.1582
 254  262.0005
 255  189.3373
 256  169.6371
 257  249.3907
 258  178.9558
 259  229.7958
 260  267.8987
 261  320.0368
 262  363.1001
 263  316.9376
 264  211.2818
 265  373.8821
 266  261.1794
 267  180.228
 268  113.9991
 269  221.6733
 270  198.4134
 271  162.4658
 272  191.3325
 273  90.90353
 274  157.101
 275  242.5576
 276  262.3015
 277  295.3916
 278  206.9915
 279  210.5265
 280  250.0989
 281  239.5574
 282  197.0989
 283  246.7608
 284  306.2085
 285  303.2802
 286  179.7897
 287  174.6916
 288  364.8757
 289  186.213
 290  206.2
 291  266.795
 292  164.0832
 293  218.5159
 294  254.6844
 295  342.1501
 296  209.7344
 297  177.0284
 298  283.1644
 299  307.8695
 300  291.2612
 301  165.677
 302  157.3846
 303  166.7965
 304  241.5085
 305  172.0336
 306  207.1486
 307  162.3076
 308  178.9714
 309  144.2504
 310  91.95588
 311  65.99551
 312  339.5508
 313  266.5903
 314  154.4087
 315  109.5083
 316  52.84948
 317  129.3488
 318  317.8094
 319  141.351
 320  153.4873
 321  249.0671
 322  257.8842
 323  180.3502
 324  118.513
 325  275.5941
 326  225.8232
 327  186.1157
 328  303.6057
 329  172.1737
 330  253.6124
 331  295.4278
 332  186.7303
 333  288.2848
 334  257.1071
 335  366.1348
 336  158.6826
 337  147.9008
 338  194.9474
 339  286.7819
 340  271.3796
 341  222.9991
 342  305.3863
 343  350.5077
 344  297.2413
 345  262.2425
 346  249.39
 347  263.4258
 348  203.652
 349  266.0308
 350  142.3318
 351  195.3896
 352  180.0301
 353  321.1283
 354  217.2262
 355  124.4659
 356  247.318
 357  270.502
 358  225.4648
 359  267.8296
 360  252.1685
 361  213.7154
 362  289.1885
 363  259.1247
 364  276.7393
 365  169.6178
 366  213.0182
 367  125.3355
 368  134.4701
 369  128.8647
 370  44.9477
 371  305.3939
 372  390.4581
 373  357.9916
 374  293.7401
 375  232.8612
 376  200.369
 377  197.8217
 378  256.5876
 379  260.1419
 380  189.1568
 381  195.2864
 382  222.4179
 383  189.2308
 384  238.0059
 385  193.2278
 386  232.7072
 387  238.5811
 388  291.0719
 389  158.8571
 390  215.884
 391  163.0002
 392  178.2422
 393  187.2295
 394  47.80732
 395  162.9482
 396  163.0543
 397  156.3969
 398  120.5376
 399  114.4046
 400  120.0521
 401  151.5739
 402  147.001
 403  144.5186
 404  106.2666
 405  112.7546
 406  144.4397
 407  253.3505
 408  219.2549
 409  143.4363
 410  70.46643
 411  203.3403
 412  213.3697
 413  150.9378
 414  240.2556
 415  248.4672
 416  206.0991
 417  267.4351
 418  213.4268
 419  150.0842
 420  107.0572
 421  239.7522
 422  106.7935
 423  158.6053
 424  253.279
 425  312.6448
 426  275.3449
 427  215.2269
 428  222.1483
 429  166.1822
 430  306.8657
 431  261.9911
 432  152.6696
 433  143.7913
 434  75.92961
 435  105.5013
 436  218.263
 437  282.3011
 438  272.8562
 439  297.2496
 440  205.5384
 441  176.4614
 442  137.2126
 443  100.3808
 444  131.2381
 445  112.7135
 446  241.6795
 447  252.106
 448  156.5167
 449  150.4084
 450  255.2128
 451  274.0617
 452  319.3171
 453  267.0763
 454  177.0991
 455  134.9489
 456  88.42441
 457  208.5548
 458  222.7361
 459  286.6723
 460  333.7588
 461  219.2339
 462  169.8788
 463  188.8997
 464  228.3088
 465  207.739
 466  93.21047
 467  149.4691
 468  360.5373
 469  362.8742
 470  191.7129
 471  209.4474
 472  312.8414
 473  254.0397
 474  284.5291
 475  116.8764
 476  77.41494
 477  89.96129
 478  165.3575
 479  283.9041
 480  161.9616
 481  201.471
 482  255.1982
 483  233.3164
 484  197.2906
 485  84.16473
 486  183.9744
 487  297.0175
 488  298.7591
 489  201.0816
 490  203.8128
 491  298.128
 492  143.1181
 493  91.60111
 494  233.6142
 495  280.2839
 496  353.7993
 497  291.3601
 498  220.7813
 499  297.6949
 500  305.7986
 501  214.1444
 502  333.0813
 503  364.3061
 504  175.9737
 505  110.4954
 506  241.269
 507  190.0324
 508  219.2729
 509  243.4572
 510  164.0621
 511  407.7592
