# Input file       =  1192759393.134662_cleaned.dat
# Candidate        =  PSR_0332+5434
# Telescope        =  AR
# Epoch_topo       =  58049.085788595621
# Epoch_bary       =  N/A
# T_sample         =  0.002
# Data Folded      =  7340032
# Data Avg         =  0.0178380855522949
# Data StdDev      =  1.0001098422952  
# Profile Bins     =  512
# Profile Avg      =  255.721625111608 
# Profile StdDev   =  119.746188128293 
# Reduced chi-sqr  =  1.552
# Prob(Noise)      <  1.52e-14   (~7.6 sigma)
# P_topo (ms)      =  714.488234176441  +/- 0.000161
# P'_topo (s/s)    =  -0                +/- 8.5e-11
# P''_topo (s/s^2) =  0                 +/- 3.75e-14
# P_bary (ms)      =  N/A
# P'_bary (s/s)    =  N/A
# P''_bary (s/s^2) =  N/A
# P_orb (s)        =  N/A
# asin(i)/c (s)    =  N/A
# eccentricity     =  N/A
# w (rad)          =  N/A
# T_peri           =  N/A
######################################################
   0  301.263
   1  322.4539
   2  302.3958
   3  292.5519
   4  232.3171
   5  255.1803
   6  264.8326
   7  200.1393
   8  217.7751
   9  265.1952
  10  214.8913
  11  195.1947
  12  125.112
  13  175.37
  14  173.0235
  15  111.6644
  16  116.4964
  17  247.2649
  18  236.1129
  19  405.2706
  20  363.1042
  21  332.8493
  22  350.8588
  23  225.0999
  24  233.1274
  25  185.8557
  26  184.7985
  27  237.1943
  28  331.3357
  29  359.7143
  30  406.6412
  31  366.1057
  32  250.6215
  33  144.432
  34  201.4833
  35  266.3142
  36  293.6392
  37  135.2805
  38  218.192
  39  161.0807
  40  208.6018
  41  210.5981
  42  207.3374
  43  182.5751
  44  124.6023
  45  176.6259
  46  169.7843
  47  233.9536
  48  266.3793
  49  243.9001
  50  172.8617
  51  113.023
  52  237.5507
  53  171.7746
  54  104.3927
  55  132.8262
  56  100.3868
  57  240.9302
  58  281.9857
  59  110.0502
  60  145.2681
  61  322.3671
  62  269.0329
  63  165.138
  64  150.4002
  65  158.1933
  66  195.0888
  67  270.7497
  68  190.5546
  69  253.3276
  70  116.2498
  71  183.4262
  72  267.8051
  73  246.4647
  74  237.0771
  75  344.3782
  76  397.9808
  77  266.6722
  78  265.3387
  79  352.5457
  80  255.9443
  81  199.4119
  82  448.7006
  83  541.0668
  84  307.594
  85  203.8914
  86  313.977
  87  308.8197
  88  334.0041
  89  175.5384
  90  207.3482
  91  206.6705
  92  213.1797
  93  276.2094
  94  249.742
  95  198.8745
  96  110.5608
  97  99.26954
  98  84.07306
  99  165.2889
 100  431.7107
 101  401.7985
 102  265.0766
 103  177.3515
 104  139.6947
 105  279.5197
 106  275.9802
 107  239.8285
 108  203.4053
 109  191.7182
 110  251.6192
 111  165.0828
 112  193.1519
 113  221.8459
 114  263.1489
 115  253.4215
 116  254.3677
 117  288.6941
 118  204.2971
 119  122.7036
 120  222.0329
 121  334.1424
 122  281.462
 123  256.2721
 124  183.7523
 125  66.00977
 126  141.9666
 127  96.87148
 128  209.7344
 129  306.7941
 130  310.0915
 131  160.6817
 132  197.1601
 133  204.1091
 134  254.8275
 135  257.5316
 136  267.4578
 137  313.6487
 138  335.0051
 139  280.5816
 140  212.7574
 141  129.0734
 142  225.6835
 143  285.1622
 144  191.1598
 145  97.10715
 146  133.9576
 147  203.6939
 148  218.3465
 149  323.4145
 150  214.6653
 151  200.9482
 152  225.8717
 153  139.6401
 154  194.5212
 155  228.5278
 156  191.4794
 157  344.7331
 158  239.4138
 159  172.1306
 160  118.4856
 161  169.6555
 162  359.566
 163  349.1228
 164  336.1583
 165  368.3891
 166  305.3997
 167  280.1407
 168  250.943
 169  242.8524
 170  248.5691
 171  228.5942
 172  318.6402
 173  258.1705
 174  200.6557
 175  339.5571
 176  346.8088
 177  204.1446
 178  192.8443
 179  206.8788
 180  77.16825
 181  122.0119
 182  264.6943
 183  343.0679
 184  357.3084
 185  232.6769
 186  302.6722
 187  365.3659
 188  316.2779
 189  341.2768
 190  363.8986
 191  360.5677
 192  354.285
 193  199.5412
 194  210.9272
 195  34.63261
 196  117.0025
 197  221.3686
 198  335.3781
 199  252.4228
 200  260.047
 201  170.1394
 202  206.1976
 203  159.7298
 204  220.9385
 205  284.3809
 206  232.5053
 207  215.4924
 208  274.8132
 209  262.3405
 210  310.5458
 211  216.6877
 212  252.724
 213  109.2167
 214  302.9967
 215  364.6657
 216  330.01
 217  287.9792
 218  302.2556
 219  106.0573
 220  136.7633
 221  394.9801
 222  363.8348
 223  263.9816
 224  354.7914
 225  436.7151
 226  300.7996
 227  246.2186
 228  461.1764
 229  672.3778
 230  860.0271
 231  823.09
 232  927.8124
 233  1095.691
 234  823.7286
 235  492.8814
 236  456.4709
 237  293.5999
 238  256.2889
 239  365.911
 240  217.4673
 241  267.3649
 242  317.5455
 243  442.2105
 244  420.7086
 245  418.0152
 246  302.7931
 247  315.1525
 248  398.9971
 249  399.7413
 250  291.7565
 251  348.6285
 252  350.3518
 253  252.2551
 254  236.2021
 255  231.536
 256  126.0278
 257  306.5678
 258  433.7819
 259  381.1181
 260  394.8033
 261  326.2741
 262  379.6421
 263  349.8051
 264  236.8305
 265  409.6789
 266  370.879
 267  203.5468
 268  181.2287
 269  236.1524
 270  198.5252
 271  303.8965
 272  395.6409
 273  411.324
 274  316.3593
 275  265.4529
 276  370.7284
 277  229.5337
 278  328.9753
 279  355.1894
 280  387.4343
 281  370.6463
 282  292.7498
 283  169.3086
 284  151.3175
 285  254.3175
 286  344.8439
 287  319.5549
 288  262.4126
 289  281.1864
 290  289.0959
 291  197.0717
 292  240.2821
 293  304.1331
 294  281.186
 295  101.0646
 296  155.1924
 297  289.5728
 298  328.6184
 299  231.3917
 300  202.8317
 301  298.2526
 302  270.1754
 303  254.8225
 304  293.8497
 305  200.0687
 306  88.89989
 307  141.8582
 308  300.6884
 309  330.4656
 310  369.2627
 311  420.3239
 312  226.8753
 313  233.0776
 314  255.7406
 315  277.0655
 316  347.7505
 317  344.9495
 318  153.5096
 319  144.8373
 320  223.6447
 321  202.9888
 322  149.5815
 323  94.4052
 324  52.67033
 325  140.8442
 326  126.9274
 327  92.06263
 328  156.1725
 329  344.3252
 330  343.1686
 331  305.9669
 332  273.3228
 333  240.2807
 334  285.2327
 335  340.0869
 336  308.8514
 337  241.8864
 338  287.7011
 339  388.8689
 340  266.4071
 341  211.6955
 342  122.0327
 343  133.5734
 344  196.0663
 345  132.2244
 346  222.6566
 347  256.4469
 348  263.5701
 349  264.1921
 350  160.775
 351  180.043
 352  191.9489
 353  158.0037
 354  218.1826
 355  330.5193
 356  313.593
 357  219.5485
 358  292.2245
 359  370.0882
 360  294.0345
 361  222.0437
 362  194.3418
 363  311.472
 364  321.9538
 365  154.6348
 366  168.8808
 367  293.2411
 368  336.0405
 369  226.731
 370  224.814
 371  116.7201
 372  206.617
 373  202.3444
 374  357.7299
 375  258.9168
 376  325.8454
 377  252.9694
 378  26.93542
 379  271.1727
 380  367.184
 381  283.486
 382  180.6316
 383  276.8185
 384  308.3582
 385  262.1965
 386  285.7351
 387  266.1941
 388  221.9536
 389  172.5609
 390  152.6391
 391  207.6463
 392  173.3562
 393  232.4945
 394  327.5515
 395  307.6314
 396  200.9619
 397  253.6559
 398  340.6487
 399  296.3979
 400  214.7277
 401  186.0399
 402  219.6297
 403  213.8373
 404  218.2494
 405  294.5555
 406  283.1686
 407  235.4001
 408  308.1984
 409  179.4943
 410  216.8324
 411  286.1246
 412  220.1184
 413  256.6458
 414  192.6849
 415  327.187
 416  388.573
 417  85.00914
 418  90.75884
 419  213.5989
 420  178.8855
 421  235.7898
 422  225.5391
 423  320.1741
 424  378.1571
 425  377.6808
 426  331.1075
 427  193.8904
 428  187.3822
 429  328.5975
 430  307.3984
 431  235.126
 432  383.7576
 433  419.5265
 434  311.003
 435  329.5326
 436  249.8457
 437  174.7628
 438  252.644
 439  209.7999
 440  172.3782
 441  222.8347
 442  185.9563
 443  235.4001
 444  281.7907
 445  183.9824
 446  206.3584
 447  122.7252
 448  188.3523
 449  308.4402
 450  375.6674
 451  267.4605
 452  270.0515
 453  266.7199
 454  229.3262
 455  245.431
 456  106.3087
 457  132.8642
 458  267.3916
 459  322.9575
 460  120.1007
 461  58.72983
 462  178.7037
 463  306.0717
 464  298.2993
 465  266.3986
 466  205.0782
 467  114.6416
 468  117.1843
 469  225.9778
 470  298.7935
 471  343.4527
 472  258.9727
 473  283.7132
 474  318.5461
 475  246.3108
 476  260.5972
 477  332.5136
 478  304.4875
 479  136.2293
 480  74.0898
 481  216.6295
 482  308.6177
 483  249.7349
 484  343.3286
 485  332.8472
 486  241.1917
 487  278.4346
 488  229.3187
 489  226.1071
 490  350.7583
 491  319.0216
 492  146.3099
 493  102.315
 494  67.65549
 495  152.2859
 496  254.9633
 497  271.2726
 498  312.5178
 499  304.2951
 500  180.3538
 501  258.6573
 502  123.7592
 503  156.1852
 504  115.7128
 505  187.5815
 506  193.2567
 507  21.36473
 508  167.6022
 509  297.7061
 510  241.5079
 511  195.3434
