# Input file       =  1192126827.138242_cleaned.dat
# Candidate        =  PSR_0332+5434
# Telescope        =  AR
# Epoch_topo       =  58041.764422896318
# Epoch_bary       =  N/A
# T_sample         =  0.002
# Data Folded      =  7143424
# Data Avg         =  0.0417355895768679
# Data StdDev      =  3.38497278298413 
# Profile Bins     =  256
# Profile Avg      =  1164.62690915484 
# Profile StdDev   =  565.442454058788 
# Reduced chi-sqr  =  0.988
# Prob(Noise)      <  0.541   (~0.0 sigma)
# P_topo (ms)      =  714.482095217999  +/- 9.28e-05
# P'_topo (s/s)    =  -0                +/- 5.03e-11
# P''_topo (s/s^2) =  0                 +/- 2.28e-14
# P_bary (ms)      =  N/A
# P'_bary (s/s)    =  N/A
# P''_bary (s/s^2) =  N/A
# P_orb (s)        =  N/A
# asin(i)/c (s)    =  N/A
# eccentricity     =  N/A
# w (rad)          =  N/A
# T_peri           =  N/A
######################################################
   0  793.8717
   1  616.6591
   2  1141.407
   3  818.0442
   4  1093.608
   5  474.06
   6  888.1782
   7  1391.699
   8  1104.073
   9  513.4715
  10  1397.442
  11  2159.906
  12  1150.524
  13  1385.592
  14  805.9059
  15  919.6022
  16  656.3922
  17  876.8257
  18  1693.595
  19  1407.022
  20  709.3127
  21  1249.257
  22  1488.58
  23  1240.668
  24  1077.356
  25  960.0301
  26  1150.385
  27  2001.39
  28  1191.825
  29  415.9836
  30  500.7183
  31  1143.136
  32  896.1022
  33  367.2301
  34  870.9775
  35  608.2678
  36  66.21758
  37  618.8788
  38  707.1786
  39  762.9079
  40  948.2155
  41  470.4707
  42  955.2585
  43  1537.402
  44  1353.331
  45  1083.227
  46  664.4992
  47  1020.512
  48  1545.114
  49  912.8256
  50  195.7551
  51  1500.539
  52  1705.723
  53  186.9967
  54  780.9491
  55  1402.971
  56  1536.557
  57  708.0679
  58  670.8236
  59  931.1697
  60  1825.293
  61  1049.077
  62  674.7449
  63  1071.499
  64  1194.278
  65  1024.642
  66  1001.975
  67  835.9879
  68  1459.677
  69  1402.451
  70  1004.133
  71  777.4271
  72  1048.597
  73  1365.722
  74  1025.295
  75  630.179
  76  1023.64
  77  1373.599
  78  1684.068
  79  1011.924
  80  1192.588
  81  1229.141
  82  1152.869
  83  428.7654
  84  942.1381
  85  1390.697
  86  1776.016
  87  1193.071
  88  1052.172
  89  1529.694
  90  568.7979
  91  1262.044
  92  1187.492
  93  1425.806
  94  1906.151
  95  678.706
  96  1159.591
  97  1627.434
  98  1365.072
  99  801.3698
 100  1435.191
 101  1301.283
 102  954.968
 103  1076.515
 104  991.8142
 105  1081.784
 106  857.3719
 107  1137.512
 108  963.7443
 109  678.3567
 110  765.39
 111  1314.964
 112  1156.014
 113  1428.487
 114  995.9551
 115  919.6729
 116  615.9636
 117  623.4987
 118  718.6742
 119  808.6101
 120  672.3052
 121  964.158
 122  1774.112
 123  1091.066
 124  1001.403
 125  1332.793
 126  1277.604
 127  801.1516
 128  1099.386
 129  1298.736
 130  1453.308
 131  1273.127
 132  582.7737
 133  1053.378
 134  1791.708
 135  1097.061
 136  763.6693
 137  919.2589
 138  1448.929
 139  1371.05
 140  1030.222
 141  1282.231
 142  532.66
 143  901.1303
 144  909.4172
 145  1448.477
 146  1223.176
 147  828.207
 148  530.4265
 149  1651.441
 150  1426.646
 151  886.6101
 152  1011.499
 153  1427.147
 154  1200.252
 155  2287.618
 156  1907.893
 157  1572.334
 158  2871.444
 159  4293.424
 160  3527.342
 161  1436.999
 162  1689.791
 163  1199.08
 164  1149.237
 165  1008.427
 166  1327.784
 167  1432.043
 168  975.8004
 169  706.9241
 170  1591.135
 171  1829.51
 172  1427.692
 173  640.0856
 174  1072.27
 175  1715.704
 176  1798.793
 177  1406.451
 178  1474.627
 179  1590.64
 180  824.0037
 181  639.866
 182  927.7467
 183  1484.278
 184  1191.445
 185  1116.787
 186  2045.613
 187  2219.474
 188  2022.392
 189  586.3695
 190  831.8205
 191  1204.207
 192  906.8599
 193  1356.144
 194  1076.5
 195  888.8104
 196  873.6535
 197  1415.389
 198  1473.767
 199  1790.877
 200  1882.136
 201  1304.393
 202  1203.486
 203  601.6918
 204  1452.507
 205  1683.382
 206  1116.984
 207  468.3209
 208  1153.031
 209  1189.067
 210  1104.281
 211  912.7324
 212  1553.452
 213  764.29
 214  1323.156
 215  1060.386
 216  1299.732
 217  1719.023
 218  1160.541
 219  1948.263
 220  2402.399
 221  1850.144
 222  832.5696
 223  1466.52
 224  1556.091
 225  1756.201
 226  1044.442
 227  1505.675
 228  1327.247
 229  1016.755
 230  1253.078
 231  1471.78
 232  1057.248
 233  1379.603
 234  937.0521
 235  1350.312
 236  1416.512
 237  1113.387
 238  1055.946
 239  964.9522
 240  1606.247
 241  1718.122
 242  1434.818
 243  592.4445
 244  723.5466
 245  1196.11
 246  1144.944
 247  102.7349
 248  381.7599
 249  927.1579
 250  1125.875
 251  766.1497
 252  609.9327
 253  932.4641
 254  755.6317
 255  697.9299
