# Input file       =  1192557560.121388_cleaned.dat
# Candidate        =  PSR_0332+5434
# Telescope        =  AR
# Epoch_topo       =  58046.749758349397
# Epoch_bary       =  N/A
# T_sample         =  0.002
# Data Folded      =  7143424
# Data Avg         =  0.193702881684774
# Data StdDev      =  3.78320039892607 
# Profile Bins     =  512
# Profile Avg      =  2702.35017094024 
# Profile StdDev   =  446.866275932383 
# Reduced chi-sqr  =  0.630
# Prob(Noise)      <  1   (~0.0 sigma)
# P_topo (ms)      =  714.485970000017  +/- 9.82e-05
# P'_topo (s/s)    =  -0                +/- 5.32e-11
# P''_topo (s/s^2) =  0                 +/- 2.41e-14
# P_bary (ms)      =  N/A
# P'_bary (s/s)    =  N/A
# P''_bary (s/s^2) =  N/A
# P_orb (s)        =  N/A
# asin(i)/c (s)    =  N/A
# eccentricity     =  N/A
# w (rad)          =  N/A
# T_peri           =  N/A
######################################################
   0  2720.607
   1  2783.35
   2  2595.361
   3  2594.497
   4  2905.196
   5  3151.673
   6  2667.253
   7  2644.423
   8  2452.201
   9  2085.603
  10  2224.52
  11  2785.656
  12  2904.461
  13  2846.874
  14  2763.475
  15  2611.617
  16  2471.293
  17  2654.67
  18  2603.496
  19  2562.045
  20  2539.134
  21  2576.819
  22  3043.279
  23  2983.879
  24  2753.169
  25  2718.676
  26  2892.632
  27  2748.642
  28  2637.505
  29  2928.341
  30  2870.326
  31  2806.474
  32  2971.437
  33  2522.498
  34  2684.149
  35  2833.734
  36  2798.849
  37  3044.955
  38  2986.729
  39  2864.069
  40  2560.467
  41  2479.528
  42  2692.343
  43  2641.368
  44  2757.183
  45  2847.52
  46  2820.5
  47  2889.639
  48  2799.411
  49  2653.569
  50  2671.854
  51  2470.797
  52  2486.82
  53  2592.224
  54  2626.605
  55  2486.672
  56  2632.958
  57  2327.908
  58  2537.141
  59  2566.828
  60  2530.416
  61  2757.226
  62  2650.996
  63  2569.144
  64  2780.379
  65  2966.588
  66  2773.694
  67  2314.891
  68  2330.916
  69  2627.052
  70  2306.597
  71  2307.564
  72  2686.601
  73  2480.68
  74  2777.923
  75  2709.18
  76  2475.137
  77  2613.798
  78  2666.699
  79  2803.396
  80  2702.482
  81  2540.948
  82  2622.968
  83  2703.935
  84  2546.963
  85  2678.069
  86  3170.457
  87  3021.616
  88  2733.549
  89  2473.966
  90  2720.674
  91  2613.925
  92  2648.262
  93  2732.475
  94  2485.036
  95  2675.543
  96  2751.68
  97  2581.859
  98  2646.227
  99  2817.808
 100  2746.285
 101  2644.158
 102  2999.236
 103  2757.21
 104  2726.403
 105  2391.997
 106  2239.34
 107  2349.492
 108  2770.112
 109  2818.763
 110  2666.92
 111  2844.853
 112  2777.305
 113  2857.666
 114  3210.605
 115  3024.618
 116  2735.105
 117  2848.034
 118  3011.53
 119  2712.621
 120  2829.525
 121  3071.581
 122  2893.667
 123  2723.292
 124  2204.929
 125  2481.319
 126  2738.703
 127  2730.814
 128  3044.495
 129  3227.993
 130  3063.204
 131  2884.525
 132  2817.823
 133  2601.709
 134  2780.218
 135  2901.906
 136  2964.496
 137  2846.708
 138  2557.172
 139  2567.018
 140  2416.856
 141  2723.37
 142  2675.868
 143  2448
 144  2870.61
 145  2905.287
 146  2689.558
 147  2640.666
 148  2668.453
 149  2572.036
 150  2204.339
 151  2509.176
 152  2590.457
 153  2595.12
 154  2443.095
 155  2873.999
 156  2500.812
 157  2566.447
 158  2742.458
 159  2422.027
 160  2387.063
 161  2780.563
 162  2772.531
 163  2921.243
 164  2724.653
 165  2920.565
 166  2882.36
 167  2483.372
 168  2404.941
 169  2441.048
 170  2650.967
 171  2707.889
 172  2710.917
 173  2521.683
 174  2563.697
 175  2571.159
 176  2524.474
 177  2726.845
 178  2760.561
 179  3279.103
 180  3028.191
 181  2915.874
 182  2919.923
 183  2773.076
 184  3143.558
 185  2931.561
 186  2909.628
 187  3192.887
 188  2710.315
 189  2318.478
 190  2339.932
 191  2295.368
 192  2620.027
 193  2953.809
 194  3108.237
 195  3066.409
 196  2821.003
 197  2868.389
 198  2892.626
 199  2721.672
 200  2646.704
 201  2980.935
 202  3024.042
 203  2797.558
 204  2891.996
 205  2884.026
 206  2569.504
 207  2311.362
 208  2873.372
 209  2864.824
 210  3081.437
 211  3125.72
 212  2851.698
 213  2822.042
 214  2906.907
 215  2769.5
 216  2773.939
 217  2854.327
 218  2939.152
 219  2905.452
 220  2741.919
 221  2584.908
 222  2464.775
 223  2658.353
 224  2468.8
 225  2585.842
 226  2707.128
 227  2839.829
 228  2886.205
 229  2834.047
 230  2667.951
 231  2616.585
 232  2611.699
 233  2321.603
 234  2255.128
 235  2651.708
 236  2958.318
 237  2593.105
 238  2706.146
 239  2910.696
 240  2470.531
 241  2358.494
 242  2889.003
 243  3063.741
 244  3082.625
 245  3094.118
 246  3126.803
 247  3282.693
 248  3131.764
 249  3189.636
 250  2897.826
 251  2865.169
 252  2826.264
 253  2539.644
 254  2624.649
 255  2713.597
 256  2645.923
 257  2578.757
 258  2793.733
 259  2700.371
 260  2702.75
 261  2974.556
 262  2731.638
 263  2566.433
 264  2782.579
 265  2855.449
 266  2702.346
 267  2755.485
 268  2925.799
 269  3013.247
 270  2581.42
 271  2468.433
 272  2529.2
 273  2322.642
 274  2445.727
 275  3003.256
 276  2980.53
 277  2937.023
 278  2687.243
 279  2681.914
 280  2945.429
 281  2677.917
 282  2752.932
 283  2277.954
 284  2446.297
 285  2830.694
 286  2870.857
 287  2569.572
 288  2447.779
 289  2392.427
 290  2609.994
 291  2584.653
 292  2847.383
 293  2806.984
 294  2989.232
 295  2720.826
 296  2766.844
 297  2664.974
 298  2397.451
 299  2650.676
 300  3051.877
 301  2848.532
 302  2898.312
 303  2719.747
 304  2619.015
 305  2454.73
 306  2383.345
 307  2487.007
 308  2710.298
 309  2923.308
 310  3149.996
 311  3264.21
 312  2889.807
 313  2973.406
 314  2798.576
 315  3181.812
 316  4049.237
 317  4204.744
 318  4182.733
 319  3979.229
 320  3823.844
 321  3134.599
 322  2604.059
 323  2796.043
 324  2769.22
 325  2594.156
 326  2601.966
 327  2641.729
 328  2570.431
 329  2517.288
 330  2447.009
 331  2578.516
 332  2928.973
 333  2818.797
 334  2797.208
 335  2819.861
 336  2719.754
 337  2532.729
 338  2081.32
 339  2179.485
 340  2418.905
 341  2454.181
 342  2777.088
 343  2734.038
 344  2850.941
 345  2590.131
 346  2558.709
 347  2830.967
 348  2448.718
 349  2588.86
 350  2829.36
 351  2794.601
 352  2705.434
 353  2880.518
 354  2768.556
 355  2513.45
 356  2579.122
 357  2633.841
 358  2454.879
 359  2612.955
 360  2702.127
 361  2609.392
 362  2476.748
 363  2434.309
 364  2665.221
 365  2660.86
 366  2419
 367  2301.1
 368  2438.413
 369  2773.41
 370  2413.418
 371  2480.504
 372  2703.433
 373  2690.357
 374  2455.156
 375  2503.161
 376  2813.201
 377  2841.448
 378  2718.997
 379  2955.294
 380  2763.196
 381  2535.462
 382  2496.366
 383  2446.639
 384  2230.707
 385  2401.149
 386  2574.328
 387  2526.109
 388  2656.023
 389  2592.866
 390  2458.257
 391  2477.591
 392  2443.541
 393  2684.261
 394  2476.078
 395  2401.621
 396  2479.281
 397  2644.03
 398  2332.743
 399  2291.539
 400  2558.721
 401  2787.311
 402  2291.403
 403  2443.723
 404  2596.091
 405  2515.846
 406  2315.507
 407  2456.948
 408  2818.246
 409  3096.078
 410  2942.102
 411  2769.595
 412  2587.211
 413  2512.592
 414  2240.952
 415  2347.009
 416  2735.932
 417  2722.841
 418  2434.333
 419  2200.644
 420  2451.093
 421  2719.004
 422  2562.976
 423  2371.482
 424  2303.607
 425  2605.23
 426  2680.196
 427  2370.546
 428  2463.411
 429  2338.302
 430  2422.993
 431  2515.594
 432  2271.13
 433  2613.776
 434  2875.047
 435  2759.454
 436  2688.039
 437  2785.171
 438  2679.127
 439  2476.138
 440  2326.492
 441  2893.148
 442  2949.41
 443  2812.849
 444  2849.253
 445  3032.369
 446  2923.038
 447  2762.603
 448  2693.505
 449  2704.082
 450  2578.304
 451  2766.827
 452  2859.918
 453  2844.828
 454  2615.981
 455  2412.919
 456  2418.043
 457  2499.768
 458  2673.989
 459  2460.735
 460  3036.26
 461  3022.836
 462  2793.663
 463  2816.888
 464  2539.751
 465  2280.126
 466  2429.261
 467  2455.606
 468  2529.789
 469  2565.367
 470  2525.397
 471  2796.103
 472  2568.222
 473  2830.997
 474  3178.243
 475  3076.629
 476  2831.619
 477  2836.37
 478  2812.986
 479  2665.368
 480  2453.475
 481  2590.626
 482  2960.182
 483  2744.241
 484  2648.14
 485  2556.934
 486  2593.21
 487  2557.973
 488  2587.598
 489  2318.255
 490  2394.293
 491  2575.939
 492  3117.661
 493  3068.517
 494  2835.825
 495  2791.775
 496  2820.161
 497  2808.228
 498  2804.252
 499  2612.925
 500  2871.835
 501  2627.052
 502  2435.037
 503  2260.526
 504  2703.483
 505  2813.68
 506  2878.62
 507  2926.095
 508  2640.022
 509  2781.814
 510  2651.628
 511  2584.913
