# Input file       =  1192830597.138417_cleaned.dat
# Candidate        =  PSR_0332+5434
# Telescope        =  AR
# Epoch_topo       =  58049.909909009453
# Epoch_bary       =  N/A
# T_sample         =  0.002
# Data Folded      =  7340032
# Data Avg         =  0.0463765401925359
# Data StdDev      =  2.36168998514396 
# Profile Bins     =  256
# Profile Avg      =  1329.51062561386 
# Profile StdDev   =  399.900439969456 
# Reduced chi-sqr  =  1.575
# Prob(Noise)      <  1.22e-08   (~5.6 sigma)
# P_topo (ms)      =  714.488590555843  +/- 0.000226
# P'_topo (s/s)    =  -0                +/- 1.19e-10
# P''_topo (s/s^2) =  0                 +/- 5.27e-14
# P_bary (ms)      =  N/A
# P'_bary (s/s)    =  N/A
# P''_bary (s/s^2) =  N/A
# P_orb (s)        =  N/A
# asin(i)/c (s)    =  N/A
# eccentricity     =  N/A
# w (rad)          =  N/A
# T_peri           =  N/A
######################################################
   0  1715.616
   1  1552.637
   2  1483.418
   3  1409.604
   4  1158.35
   5  1577.928
   6  1419.298
   7  930.3817
   8  1177.273
   9  1813.553
  10  1276.603
  11  1044.791
  12  2272.135
  13  1689.81
  14  1695.986
  15  1781.691
  16  1764.351
  17  1412.436
  18  1072.283
  19  829.3052
  20  1567.778
  21  1025.462
  22  1066.598
  23  1225.567
  24  1988.163
  25  1550.569
  26  1475.408
  27  1726.957
  28  1218.869
  29  1104.395
  30  1107.329
  31  1940.635
  32  1612.022
  33  1056.083
  34  713.0383
  35  1040.001
  36  1020.391
  37  1526.938
  38  1189.556
  39  1623.973
  40  1763.37
  41  1927.536
  42  1490.556
  43  1379.771
  44  1543.8
  45  832.8348
  46  991.3382
  47  1090.76
  48  1377.152
  49  1571.434
  50  1455.902
  51  1424.012
  52  1839.231
  53  1271.038
  54  1379.926
  55  1279.245
  56  1580.815
  57  1548.307
  58  1462.209
  59  754.8259
  60  1090.993
  61  1261.993
  62  1399.088
  63  834.002
  64  1762.982
  65  1876.248
  66  964.3604
  67  932.4095
  68  1423.271
  69  1835.233
  70  1422.467
  71  1751.766
  72  1229.64
  73  1892.321
  74  1431.638
  75  956.5853
  76  1138.213
  77  1341.132
  78  1274.484
  79  1054.914
  80  1442.366
  81  1709.639
  82  1173.655
  83  1305.62
  84  1429.713
  85  1121.801
  86  1215.298
  87  1697.295
  88  1113.02
  89  1574.663
  90  1208.721
  91  564.928
  92  717.8557
  93  992.1675
  94  1538.316
  95  1292.875
  96  1579.114
  97  1545.417
  98  1027.874
  99  1213.499
 100  1331.217
 101  1529.813
 102  1093.724
 103  1041.965
 104  1191.172
 105  853.0693
 106  1240.265
 107  684.1536
 108  1319.833
 109  846.3236
 110  267.4592
 111  908.6639
 112  1448.256
 113  1270.09
 114  1026.572
 115  1462.395
 116  987.2543
 117  1166.649
 118  802.2213
 119  891.7845
 120  614.0781
 121  1083.284
 122  1571.881
 123  1020.135
 124  968.9692
 125  1286.583
 126  975.4712
 127  1333.557
 128  1290.087
 129  1257.501
 130  1391.992
 131  1213.337
 132  1634.437
 133  2121.974
 134  1235.76
 135  1479.444
 136  1417.583
 137  1334.898
 138  809.1051
 139  667.5352
 140  310.3097
 141  728.1021
 142  687.6077
 143  1842.34
 144  1622.498
 145  1599.795
 146  1242.853
 147  1502.132
 148  1317.79
 149  1843.91
 150  1598.887
 151  1589.637
 152  1081.497
 153  1365.134
 154  1568.996
 155  1454.864
 156  1502.079
 157  2254.241
 158  4250.456
 159  4113.079
 160  2957.47
 161  1017.335
 162  1384.914
 163  787.4077
 164  634.3836
 165  1028.366
 166  1489.452
 167  1065.464
 168  1600.43
 169  780.8111
 170  1134.165
 171  916.3875
 172  986.0817
 173  1146.588
 174  695.1
 175  1324.738
 176  1368.172
 177  1160.656
 178  1001.169
 179  1195.875
 180  1015.497
 181  1145.613
 182  1398.987
 183  1707.672
 184  1395.301
 185  1096.991
 186  1907.803
 187  830.9025
 188  1199.903
 189  1206.469
 190  929.7823
 191  1420.031
 192  1566.242
 193  1476.685
 194  1172.481
 195  948.7902
 196  1532.848
 197  1419.218
 198  1013.163
 199  1243.419
 200  1272.973
 201  1572.882
 202  923.6193
 203  1065.915
 204  701.0984
 205  784.1842
 206  1171.575
 207  1305.644
 208  1098.523
 209  1521.964
 210  1474.132
 211  903.1302
 212  456.6504
 213  1175.333
 214  1394.186
 215  1469.208
 216  1293.048
 217  1920.152
 218  1307.27
 219  1474.562
 220  1433.919
 221  1264.913
 222  1581.423
 223  1250.471
 224  1256.48
 225  1042.722
 226  1431.712
 227  1028.623
 228  1256.741
 229  1693.277
 230  1275.328
 231  1121.662
 232  1194.402
 233  877.2921
 234  1778.147
 235  1152.792
 236  1090.125
 237  1173.183
 238  1651.361
 239  1236.284
 240  1418.756
 241  1988.261
 242  1573.787
 243  1312.49
 244  1435.016
 245  1349.012
 246  1631.607
 247  1799.718
 248  1511.979
 249  1803.202
 250  1929.198
 251  1819.708
 252  1048.885
 253  1645.513
 254  1380.984
 255  1621.412
