# Input file       =  1192414777.133384_cleaned.dat
# Candidate        =  PSR_0332+5434
# Telescope        =  AR
# Epoch_topo       =  58045.097177469725
# Epoch_bary       =  N/A
# T_sample         =  0.002
# Data Folded      =  7340032
# Data Avg         =  0.00398118755827605
# Data StdDev      =  1.00008459920653 
# Profile Bins     =  512
# Profile Avg      =  57.099935737795  
# Profile StdDev   =  119.743165696639 
# Reduced chi-sqr  =  1.659
# Prob(Noise)      <  4.06e-19   (~8.9 sigma)
# P_topo (ms)      =  714.48499780807   +/- 0.000177
# P'_topo (s/s)    =  -0                +/- 9.36e-11
# P''_topo (s/s^2) =  0                 +/- 4.13e-14
# P_bary (ms)      =  N/A
# P'_bary (s/s)    =  N/A
# P''_bary (s/s^2) =  N/A
# P_orb (s)        =  N/A
# asin(i)/c (s)    =  N/A
# eccentricity     =  N/A
# w (rad)          =  N/A
# T_peri           =  N/A
######################################################
   0  29.94849
   1  109.2821
   2  129.3665
   3  -79.85369
   4  -126.4438
   5  19.19474
   6  -41.42108
   7  97.22843
   8  54.78962
   9  -9.989607
  10  112.9631
  11  78.16015
  12  85.10381
  13  85.3043
  14  -58.1391
  15  99.01096
  16  162.9162
  17  137.3053
  18  183.4896
  19  -20.81335
  20  -16.79102
  21  -40.61029
  22  -12.22187
  23  234.6619
  24  177.3571
  25  40.39817
  26  71.66951
  27  -64.6651
  28  -0.5407649
  29  91.9293
  30  -69.01009
  31  -26.49701
  32  86.51253
  33  110.9388
  34  123.7616
  35  56.22065
  36  141.7029
  37  190.0398
  38  37.78864
  39  114.5581
  40  48.10053
  41  120.1481
  42  84.5218
  43  21.28499
  44  23.81588
  45  18.68515
  46  -26.1301
  47  -55.40544
  48  34.71593
  49  98.19572
  50  36.41961
  51  114.4854
  52  8.852489
  53  -53.96474
  54  -4.970349
  55  -35.33966
  56  75.54041
  57  188.5298
  58  202.9772
  59  30.10886
  60  -81.01889
  61  -79.9846
  62  -2.557638
  63  20.13539
  64  95.19222
  65  91.42912
  66  -5.723435
  67  -64.71583
  68  106.5307
  69  135.9041
  70  189.9156
  71  293.7381
  72  170.9247
  73  34.14964
  74  -87.01223
  75  -30.97371
  76  -78.07364
  77  -34.76508
  78  85.51643
  79  68.78259
  80  139.9171
  81  89.145
  82  7.341101
  83  -62.07531
  84  17.62413
  85  94.2895
  86  167.5961
  87  87.85384
  88  -56.95375
  89  -68.715
  90  103.8253
  91  126.6475
  92  57.82824
  93  -9.9473
  94  111.9634
  95  134.5916
  96  122.0292
  97  69.92682
  98  198.7587
  99  50.54065
 100  58.69544
 101  208.4198
 102  83.34115
 103  27.13059
 104  134.4523
 105  29.87961
 106  179.1297
 107  188.7747
 108  196.6258
 109  208.9703
 110  108.8641
 111  103.5742
 112  438.9674
 113  664.3497
 114  834.2368
 115  814.5439
 116  856.6322
 117  664.6135
 118  258.4431
 119  167.3751
 120  106.8533
 121  161.5129
 122  109.3505
 123  117.6733
 124  71.93662
 125  95.97323
 126  -45.81823
 127  26.86434
 128  85.85368
 129  107.3243
 130  -39.88739
 131  103.0026
 132  197.4098
 133  180.3685
 134  130.3045
 135  -43.31864
 136  -23.76789
 137  105.2001
 138  19.73263
 139  14.34661
 140  -14.54195
 141  34.1741
 142  14.07728
 143  -33.26729
 144  -71.90625
 145  -84.9093
 146  -113.7013
 147  -106.5949
 148  -52.88557
 149  18.3187
 150  27.15186
 151  22.80778
 152  -109.7385
 153  43.84371
 154  162.7064
 155  55.06824
 156  30.54905
 157  29.92851
 158  65.91709
 159  46.05507
 160  44.48146
 161  5.844684
 162  20.85473
 163  -3.028063
 164  49.36369
 165  36.73396
 166  18.52229
 167  52.45762
 168  -61.72527
 169  -29.17968
 170  233.8545
 171  194.9182
 172  174.1673
 173  108.1447
 174  0.2704917
 175  74.83305
 176  -43.0606
 177  37.48785
 178  133.944
 179  122.4726
 180  122.3323
 181  98.70304
 182  30.45178
 183  114.1084
 184  120.7461
 185  86.25418
 186  -1.412198
 187  157.2029
 188  184.0273
 189  42.89073
 190  23.4596
 191  112.4109
 192  39.07607
 193  -14.24357
 194  -11.19403
 195  -99.35732
 196  -89.27473
 197  49.40294
 198  95.06998
 199  66.15888
 200  -8.865459
 201  38.60872
 202  75.58698
 203  143.7389
 204  -21.18133
 205  -69.13087
 206  -20.19943
 207  49.66944
 208  37.08104
 209  -37.49629
 210  -31.55842
 211  -56.17225
 212  -0.6242092
 213  128.2014
 214  290.3921
 215  166.8035
 216  -19.54653
 217  85.31
 218  139.6074
 219  76.45551
 220  81.47993
 221  72.70682
 222  27.4423
 223  -114.5647
 224  -119.9123
 225  -14.22279
 226  -22.59075
 227  56.27824
 228  72.26193
 229  3.948478
 230  34.73566
 231  -16.14711
 232  95.64906
 233  59.69107
 234  -44.25916
 235  21.89342
 236  29.43687
 237  8.97813
 238  -75.93806
 239  -51.69533
 240  128.4932
 241  141.9225
 242  118.8099
 243  4.594213
 244  37.72118
 245  -78.83064
 246  -91.36113
 247  -65.83081
 248  -44.37152
 249  92.22962
 250  82.35046
 251  -21.02166
 252  2.590734
 253  27.83822
 254  103.4206
 255  201.6533
 256  16.42196
 257  -46.08308
 258  71.7709
 259  115.3568
 260  -51.19387
 261  -112.2207
 262  14.26937
 263  45.75474
 264  81.61326
 265  56.24445
 266  48.19131
 267  132.6149
 268  136.4162
 269  108.356
 270  114.4575
 271  180.5539
 272  123.7524
 273  159.6275
 274  132.7304
 275  -124.9393
 276  -122.2966
 277  -76.59584
 278  -109.3919
 279  53.51771
 280  192.6155
 281  168.7724
 282  121.6804
 283  24.92706
 284  31.88063
 285  9.172902
 286  144.0642
 287  139.9657
 288  118.4729
 289  74.56393
 290  -129.2377
 291  -185.5171
 292  -82.72553
 293  53.12804
 294  86.02869
 295  126.5033
 296  40.60184
 297  -20.05006
 298  73.10571
 299  -1.322966
 300  -9.637513
 301  -22.59685
 302  0.9530291
 303  90.2191
 304  12.3439
 305  33.04977
 306  -40.13575
 307  38.99495
 308  -13.30878
 309  -81.27862
 310  -151.6816
 311  -2.933025
 312  -24.07897
 313  115.9181
 314  95.49917
 315  125.6032
 316  -23.04668
 317  -13.20676
 318  34.87103
 319  116.2535
 320  90.08136
 321  -4.88985
 322  -39.88134
 323  20.64998
 324  168.8523
 325  130.9842
 326  -15.15177
 327  99.33623
 328  117.1346
 329  122.6171
 330  191.7995
 331  202.0085
 332  134.4483
 333  -2.555364
 334  16.01286
 335  -10.659
 336  -3.383232
 337  -33.17902
 338  33.40584
 339  67.42199
 340  66.37779
 341  3.775538
 342  -31.01308
 343  125.615
 344  -66.89391
 345  33.49426
 346  110.1324
 347  5.249528
 348  -61.0463
 349  71.91492
 350  17.50094
 351  -102.9769
 352  -53.91372
 353  74.78737
 354  -45.70565
 355  62.82353
 356  263.9572
 357  192.1109
 358  93.08144
 359  57.92497
 360  108.1894
 361  7.637042
 362  27.98225
 363  63.59718
 364  18.00389
 365  55.66465
 366  118.1288
 367  92.20978
 368  28.40738
 369  -46.20025
 370  -6.70688
 371  49.72004
 372  44.97916
 373  5.76736
 374  -35.9943
 375  -29.95957
 376  53.07841
 377  130.0108
 378  138.8981
 379  89.18245
 380  32.48004
 381  70.76279
 382  -40.00563
 383  19.84609
 384  98.587
 385  154.4738
 386  138.2414
 387  116.6904
 388  53.81932
 389  1.973899
 390  -9.394955
 391  65.28748
 392  135.1089
 393  33.89656
 394  192.5164
 395  215.4771
 396  96.07803
 397  -42.64615
 398  50.78125
 399  146.8197
 400  93.04319
 401  24.18002
 402  196.1205
 403  183.2148
 404  133.2143
 405  32.39808
 406  76.3296
 407  271.9605
 408  198.7274
 409  330.4301
 410  314.8205
 411  152.4783
 412  45.72025
 413  22.9914
 414  92.16567
 415  52.86335
 416  -5.621917
 417  72.46893
 418  46.62335
 419  -25.90763
 420  8.887692
 421  81.61805
 422  -6.589918
 423  55.63876
 424  110.1286
 425  275.8709
 426  143.5914
 427  43.27499
 428  115.8889
 429  18.89898
 430  62.18291
 431  58.07119
 432  49.47056
 433  29.66087
 434  -45.27359
 435  -3.626035
 436  62.0093
 437  219.1564
 438  135.877
 439  -34.68603
 440  -43.81822
 441  44.08556
 442  -43.2937
 443  -186.978
 444  -111.9747
 445  -24.30187
 446  -27.32462
 447  97.49979
 448  53.52357
 449  61.3996
 450  33.07796
 451  -73.46934
 452  -10.38871
 453  -49.75306
 454  -80.92543
 455  -16.19973
 456  -55.59968
 457  25.55041
 458  92.50661
 459  -79.56387
 460  -71.92336
 461  15.02341
 462  -21.62793
 463  -54.06002
 464  -129.53
 465  -17.48441
 466  19.47597
 467  38.22181
 468  35.04525
 469  26.18724
 470  40.67254
 471  47.4645
 472  108.5153
 473  119.9177
 474  39.19992
 475  -45.96563
 476  -72.32144
 477  -69.44603
 478  116.6098
 479  40.88716
 480  34.44884
 481  125.1994
 482  227.2314
 483  51.67792
 484  -83.93201
 485  -25.58477
 486  97.82164
 487  81.94755
 488  137.7359
 489  274.584
 490  143.9392
 491  11.32292
 492  -162.9463
 493  -41.74649
 494  7.621465
 495  11.76163
 496  22.88086
 497  38.82684
 498  69.21873
 499  71.38259
 500  124.4874
 501  41.35985
 502  100.348
 503  42.57219
 504  -4.034994
 505  25.47709
 506  100.7132
 507  -15.50863
 508  51.32616
 509  78.41042
 510  139.8997
 511  120.5655
