# Input file       =  1192557560.121388_cleaned.dat
# Candidate        =  PSR_0332+5434
# Telescope        =  AR
# Epoch_topo       =  58046.749758349397
# Epoch_bary       =  N/A
# T_sample         =  0.002
# Data Folded      =  7143424
# Data Avg         =  0.0389452793960347
# Data StdDev      =  1.00017377550213 
# Profile Bins     =  512
# Profile Avg      =  543.2882357071   
# Profile StdDev   =  118.139110598197 
# Reduced chi-sqr  =  1.348
# Prob(Noise)      <  2.22e-07   (~5.0 sigma)
# P_topo (ms)      =  714.485968623304  +/- 0.000235
# P'_topo (s/s)    =  -0                +/- 1.27e-10
# P''_topo (s/s^2) =  0                 +/- 5.78e-14
# P_bary (ms)      =  N/A
# P'_bary (s/s)    =  N/A
# P''_bary (s/s^2) =  N/A
# P_orb (s)        =  N/A
# asin(i)/c (s)    =  N/A
# eccentricity     =  N/A
# w (rad)          =  N/A
# T_peri           =  N/A
######################################################
   0  1176.466
   1  1073.596
   2  891.3088
   3  634.2983
   4  586.1013
   5  609.1573
   6  514.2521
   7  454.2665
   8  452.8245
   9  546.0658
  10  483.3446
  11  500.0164
  12  518.888
  13  632.8791
  14  682.1542
  15  564.0861
  16  605.497
  17  557.9827
  18  547.8398
  19  403.6554
  20  360.852
  21  496.8789
  22  504.4303
  23  583.3096
  24  529.9763
  25  594.6506
  26  578.0507
  27  532.3149
  28  531.9705
  29  586.711
  30  522.1268
  31  588.6542
  32  593.3502
  33  554.9139
  34  552.2614
  35  622.2715
  36  499.5037
  37  444.5795
  38  538.7155
  39  504.3751
  40  452.223
  41  447.8583
  42  498.5275
  43  470.3924
  44  425.4423
  45  447.5064
  46  553.7331
  47  524.3084
  48  448.0332
  49  357.6856
  50  460.3057
  51  472.2074
  52  471.3617
  53  527.6063
  54  630.163
  55  528.3083
  56  408.0363
  57  470.5853
  58  540.8135
  59  485.1619
  60  486.4857
  61  572.0624
  62  496.3731
  63  518.7103
  64  474.7596
  65  427.9811
  66  400.7917
  67  439.0802
  68  475.2903
  69  494.1863
  70  533.6489
  71  494.908
  72  475.6599
  73  459.1917
  74  448.4211
  75  494.5696
  76  397.1513
  77  357.311
  78  494.1207
  79  478.8004
  80  418.1889
  81  436.6889
  82  531.9604
  83  454.0657
  84  465.6783
  85  531.3886
  86  567.6232
  87  498.4217
  88  399.2646
  89  478.2131
  90  594.7308
  91  634.8789
  92  569.2677
  93  462.0331
  94  456.3409
  95  429.8273
  96  370.6947
  97  439.0716
  98  534.4271
  99  481.5702
 100  412.3471
 101  400.7953
 102  525.0232
 103  537.285
 104  481.9811
 105  412.3602
 106  417.5892
 107  473.3445
 108  453.663
 109  354.9938
 110  412.3078
 111  366.3079
 112  449.1255
 113  449.9214
 114  417.8477
 115  564.9177
 116  576.1542
 117  594.379
 118  586.709
 119  577.8024
 120  484.4527
 121  363.103
 122  509.5476
 123  626.8364
 124  519.6729
 125  521.9589
 126  608.8618
 127  692.0183
 128  654.899
 129  670.9861
 130  601.9076
 131  487.6848
 132  469.7585
 133  543.5347
 134  577.9122
 135  530.6877
 136  498.4242
 137  483.5057
 138  437.5328
 139  553.7922
 140  473.0667
 141  486.1167
 142  596.692
 143  577.981
 144  524.1108
 145  577.2005
 146  444.52
 147  390.0388
 148  400.6133
 149  425.0158
 150  555.8612
 151  489.4902
 152  515.0616
 153  552.6707
 154  525.1533
 155  683.5552
 156  692.11
 157  617.9581
 158  562.475
 159  566.1954
 160  533.2363
 161  429.1149
 162  482.4731
 163  589.9689
 164  680.48
 165  543.2421
 166  544.4451
 167  516.8737
 168  532.597
 169  546.0262
 170  557.2444
 171  452.9893
 172  457.8832
 173  553.2112
 174  680.7117
 175  620.5134
 176  585.0342
 177  672.5906
 178  658.7012
 179  618.4875
 180  567.5893
 181  542.0789
 182  592.4144
 183  560.8846
 184  478.8089
 185  433.7045
 186  555.3877
 187  524.7269
 188  647.8248
 189  552.0889
 190  466.697
 191  527.8239
 192  534.6594
 193  557.9365
 194  553.6146
 195  530.6086
 196  442.556
 197  498.4172
 198  707.8537
 199  672.9257
 200  507.443
 201  502.0303
 202  434.7717
 203  378.7371
 204  489.1099
 205  637.3713
 206  509.2479
 207  485.2286
 208  461.4782
 209  456.9073
 210  497.7583
 211  580.2697
 212  575.5394
 213  580.1612
 214  519.6662
 215  510.1125
 216  700.7036
 217  660.0643
 218  552.4769
 219  565.981
 220  657.9354
 221  577.9102
 222  592.7595
 223  600.181
 224  543.971
 225  570.7254
 226  566.827
 227  443.1617
 228  601.2633
 229  609.243
 230  622.3759
 231  691.7482
 232  604.8908
 233  562.4796
 234  526.3315
 235  525.0442
 236  617.4298
 237  578.299
 238  604.0138
 239  519.1589
 240  515.1087
 241  590.9806
 242  582.8014
 243  562.2941
 244  543.0212
 245  498.4489
 246  505.111
 247  578.8077
 248  496.9991
 249  490.7314
 250  570.7339
 251  454.3701
 252  532.3651
 253  444.5164
 254  520.6234
 255  577.9321
 256  502.7823
 257  459.0291
 258  577.867
 259  582.526
 260  490.2491
 261  400.4147
 262  500.5088
 263  460.2724
 264  358.9163
 265  409.6895
 266  477.2222
 267  541.5146
 268  705.2861
 269  537.8752
 270  451.9823
 271  475.6576
 272  484.5302
 273  540.3912
 274  517.9357
 275  491.0297
 276  560.2739
 277  545.3459
 278  473.4568
 279  581.2225
 280  715.5726
 281  632.7614
 282  509.9973
 283  503.0736
 284  596.9345
 285  536.6269
 286  575.9456
 287  500.1953
 288  405.5594
 289  505.6731
 290  476.89
 291  418.8669
 292  485.1436
 293  532.8801
 294  504.0272
 295  589.6965
 296  612.4635
 297  507.0045
 298  531.2664
 299  429.3612
 300  357.7013
 301  452.0201
 302  643.8317
 303  562.4431
 304  546.7608
 305  576.6996
 306  574.371
 307  662.4447
 308  712.2446
 309  605.8535
 310  564.2542
 311  721.8735
 312  638.912
 313  521.4348
 314  653.6463
 315  663.5266
 316  603.131
 317  497.0583
 318  387.2122
 319  569.9159
 320  628.0778
 321  586.3305
 322  600.2136
 323  712.7963
 324  740.0925
 325  625.0167
 326  546.2893
 327  554.0847
 328  658.7165
 329  656.8834
 330  691.9371
 331  608.5739
 332  526.386
 333  495.0933
 334  528.7383
 335  659.3013
 336  462.4673
 337  494.1957
 338  659.9244
 339  548.324
 340  525.2144
 341  449.5931
 342  522.2969
 343  508.5255
 344  436.4773
 345  483.4134
 346  507.6566
 347  434.2296
 348  507.2299
 349  600.6669
 350  468.9272
 351  543.6765
 352  623.439
 353  414.5268
 354  447.3541
 355  509.1214
 356  527.1305
 357  520.8969
 358  555.5201
 359  639.34
 360  535.8688
 361  406.3225
 362  389.9115
 363  532.5525
 364  644.2331
 365  640.7012
 366  540.1965
 367  478.0974
 368  466.2178
 369  437.4485
 370  447.9825
 371  524.4814
 372  615.644
 373  736.0872
 374  601.3932
 375  625.6285
 376  634.0837
 377  602.6426
 378  688.4442
 379  596.9141
 380  603.5229
 381  654.9664
 382  396.366
 383  426.0208
 384  384.4973
 385  451.4567
 386  495.0871
 387  594.4669
 388  614.9852
 389  595.6144
 390  575.011
 391  616.3121
 392  608.7288
 393  529.4461
 394  572.9536
 395  631.7858
 396  579.3102
 397  546.3858
 398  655.4963
 399  584.538
 400  490.7937
 401  528.9544
 402  596.3879
 403  559.9273
 404  666.0902
 405  669.8105
 406  576.9126
 407  554.1719
 408  564.0217
 409  553.6718
 410  531.0453
 411  573.7057
 412  589.2867
 413  565.0863
 414  552.6101
 415  423.1424
 416  480.195
 417  516.3915
 418  429.6808
 419  498.9049
 420  451.3747
 421  543.9334
 422  608.1233
 423  561.425
 424  476.4268
 425  525.7307
 426  529.7838
 427  471.6835
 428  393.5049
 429  573.7516
 430  592.0414
 431  498.0746
 432  567.6545
 433  533.9789
 434  379.4906
 435  482.411
 436  652.0671
 437  687.8143
 438  723.8063
 439  704.0209
 440  666.2413
 441  712.6555
 442  661.5297
 443  707.2874
 444  560.4585
 445  581.688
 446  529.0352
 447  460.3557
 448  524.1539
 449  600.1694
 450  568.9662
 451  569.8701
 452  571.5626
 453  523.7258
 454  535.5634
 455  590.2361
 456  469.3636
 457  517.8836
 458  612.5243
 459  614.9216
 460  561.9417
 461  630.9525
 462  642.0714
 463  567.6123
 464  409.6676
 465  478.6062
 466  475.0266
 467  411.7783
 468  558.4865
 469  626.0219
 470  644.4257
 471  527.7156
 472  447.4584
 473  570.3087
 474  565.5926
 475  502.7458
 476  557.92
 477  425.3586
 478  483.0541
 479  570.6655
 480  522.2964
 481  485.6429
 482  423.6063
 483  432.9367
 484  532.0307
 485  578.8031
 486  583.541
 487  553.9222
 488  547.1758
 489  524.3486
 490  539.3101
 491  495.3473
 492  494.216
 493  635.3113
 494  690.1706
 495  612.6584
 496  576.1642
 497  585.1641
 498  477.8543
 499  439.7714
 500  449.5881
 501  508.7289
 502  591.916
 503  666.2551
 504  726.6699
 505  664.662
 506  556.5871
 507  664.0997
 508  640.8671
 509  960.7781
 510  1200.508
 511  1210.847
