# Input file       =  1192156340.126739_cleaned.dat
# Candidate        =  PSR_0332+5434
# Telescope        =  AR
# Epoch_topo       =  58042.106008411334
# Epoch_bary       =  N/A
# T_sample         =  0.002
# Data Folded      =  7340032
# Data Avg         =  0.0343642803615824
# Data StdDev      =  2.51785473371226 
# Profile Bins     =  256
# Profile Avg      =  985.359877930688 
# Profile StdDev   =  426.343517618521 
# Reduced chi-sqr  =  1.726
# Prob(Noise)      <  5.12e-12   (~6.8 sigma)
# P_topo (ms)      =  714.482699966762  +/- 0.000212
# P'_topo (s/s)    =  -0                +/- 1.12e-10
# P''_topo (s/s^2) =  0                 +/- 4.94e-14
# P_bary (ms)      =  N/A
# P'_bary (s/s)    =  N/A
# P''_bary (s/s^2) =  N/A
# P_orb (s)        =  N/A
# asin(i)/c (s)    =  N/A
# eccentricity     =  N/A
# w (rad)          =  N/A
# T_peri           =  N/A
######################################################
   0  1509.944
   1  1084.99
   2  710.1705
   3  593.7624
   4  921.1944
   5  1005.907
   6  588.628
   7  617.8343
   8  607.6607
   9  1141.749
  10  1020.13
  11  658.8843
  12  1434.862
  13  1475.959
  14  837.6915
  15  684.9071
  16  1590.405
  17  1021.859
  18  898.064
  19  1199.642
  20  505.4041
  21  1389.325
  22  1006.456
  23  1516.385
  24  1809.895
  25  999.7927
  26  1162.844
  27  1026.326
  28  1691.27
  29  987.7154
  30  1145.714
  31  1522.612
  32  803.8423
  33  790.316
  34  1017.609
  35  1595.739
  36  1217.818
  37  989.5886
  38  849.8652
  39  1048.67
  40  410.7997
  41  708.6375
  42  95.93867
  43  383.9554
  44  1145.41
  45  1134.757
  46  1179.977
  47  1182.548
  48  782.6432
  49  935.0853
  50  955.6999
  51  859.2563
  52  887.478
  53  1305.075
  54  1229.435
  55  813.3162
  56  405.9602
  57  908.5762
  58  1008.382
  59  1143.266
  60  293.6873
  61  1533.875
  62  1076.584
  63  906.4766
  64  1631.769
  65  1063.514
  66  361.2195
  67  517.2919
  68  670.4902
  69  904.0416
  70  186.0379
  71  694.6207
  72  1104.239
  73  716.0035
  74  1032.118
  75  1048.921
  76  1287.876
  77  1068.921
  78  841.4389
  79  1181.578
  80  1442.377
  81  999.2805
  82  756.741
  83  1338.702
  84  1502.512
  85  1127.144
  86  918.2468
  87  676.0965
  88  1224.302
  89  1325.114
  90  786.7651
  91  945.3281
  92  1216.649
  93  1200.61
  94  983.2068
  95  1120.768
  96  566.1037
  97  455.1974
  98  387.4428
  99  722.9558
 100  1049.8
 101  1219.167
 102  -68.5461
 103  847.3469
 104  679.7673
 105  702.5062
 106  263.5156
 107  81.1096
 108  711.137
 109  847.9943
 110  280.0532
 111  644.3328
 112  1061.356
 113  1335.186
 114  848.3292
 115  1232.519
 116  1238.638
 117  1347.635
 118  480.6435
 119  654.3693
 120  865.9423
 121  770.0731
 122  1188.361
 123  195.8154
 124  993.6254
 125  698.6639
 126  1417.217
 127  1087.119
 128  480.0837
 129  317.8552
 130  434.8702
 131  1312.94
 132  1320.086
 133  289.9479
 134  738.9714
 135  1200.301
 136  329.096
 137  1162.075
 138  1316.214
 139  1435.448
 140  1541.03
 141  779.7565
 142  1121.199
 143  1010.663
 144  250.1226
 145  375.9331
 146  301.1085
 147  1187.774
 148  557.5295
 149  1179.349
 150  1203.211
 151  1152.09
 152  585.4305
 153  576.0269
 154  1305.024
 155  1081.599
 156  1692.543
 157  2371.633
 158  3801.25
 159  4172.792
 160  2259.22
 161  1867.286
 162  1312.459
 163  625.3347
 164  1176.059
 165  1180.996
 166  1681.371
 167  1932.395
 168  421.1166
 169  1030.279
 170  660.0055
 171  1081.767
 172  1302.57
 173  1255.782
 174  1476.919
 175  1926.855
 176  1252.163
 177  1549.857
 178  654.7505
 179  987.2245
 180  1364.996
 181  666.4612
 182  789.0211
 183  1331.637
 184  647.8204
 185  524.3729
 186  396.8516
 187  887.9878
 188  1014.966
 189  1706.228
 190  1557.716
 191  1394.563
 192  1110.719
 193  604.8677
 194  1437.749
 195  763.7534
 196  1101.656
 197  899.6252
 198  1188.998
 199  982.3654
 200  525.0204
 201  990.5821
 202  1114.11
 203  1284.79
 204  789.881
 205  1080.618
 206  972.3608
 207  538.7203
 208  1210.902
 209  962.4555
 210  838.4471
 211  873.1332
 212  619.3016
 213  175.0347
 214  1017.758
 215  1493.563
 216  1386.635
 217  1061.994
 218  1407.563
 219  1188.343
 220  1670.131
 221  1604.097
 222  992.3306
 223  689.1724
 224  765.4612
 225  493.5451
 226  436.5379
 227  892.5337
 228  1129.054
 229  1444.765
 230  1126.024
 231  904.4186
 232  1241.644
 233  1006.658
 234  1218.415
 235  1216.478
 236  855.6351
 237  535.3843
 238  1253.606
 239  1054.314
 240  410.8923
 241  40.61134
 242  325.3336
 243  602.1129
 244  953.2388
 245  907.7284
 246  992.0833
 247  643.894
 248  411.4972
 249  411.4897
 250  99.9289
 251  440.5348
 252  492.613
 253  538.4376
 254  650.4213
 255  1031.624
