# Input file       =  1192587082.133473_cleaned.dat
# Candidate        =  PSR_0332+5434
# Telescope        =  AR
# Epoch_topo       =  58047.091448304083
# Epoch_bary       =  N/A
# T_sample         =  0.002
# Data Folded      =  7340032
# Data Avg         =  0.0177236557708423
# Data StdDev      =  1.00002868966135 
# Profile Bins     =  512
# Profile Avg      =  254.048503061802 
# Profile StdDev   =  119.736471477032 
# Reduced chi-sqr  =  1.646
# Prob(Noise)      <  1.6e-18   (~8.7 sigma)
# P_topo (ms)      =  714.486593002143  +/- 0.00021
# P'_topo (s/s)    =  -0                +/- 1.11e-10
# P''_topo (s/s^2) =  0                 +/- 4.89e-14
# P_bary (ms)      =  N/A
# P'_bary (s/s)    =  N/A
# P''_bary (s/s^2) =  N/A
# P_orb (s)        =  N/A
# asin(i)/c (s)    =  N/A
# eccentricity     =  N/A
# w (rad)          =  N/A
# T_peri           =  N/A
######################################################
   0  247.0028
   1  235.826
   2  267.6591
   3  138.188
   4  175.6493
   5  199.7986
   6  178.1048
   7  197.1245
   8  208.5431
   9  209.2367
  10  317.0154
  11  350.3145
  12  218.5785
  13  146.2664
  14  243.7715
  15  252.1258
  16  213.7986
  17  330.4909
  18  205.1699
  19  203.3632
  20  289.1027
  21  203.8635
  22  237.1632
  23  333.6901
  24  165.1744
  25  247.1243
  26  303.7699
  27  364.6236
  28  327.036
  29  446.0488
  30  336.9223
  31  401.4126
  32  339.2019
  33  287.3968
  34  266.4333
  35  247.7251
  36  273.7893
  37  229.4247
  38  126.1896
  39  188.0717
  40  287.0952
  41  391.937
  42  320.5005
  43  185.7278
  44  342.8419
  45  371.6154
  46  216.8209
  47  90.60608
  48  141.4686
  49  237.0552
  50  265.5206
  51  281.9044
  52  235.4996
  53  155.2212
  54  196.3035
  55  177.5005
  56  206.1589
  57  279.9694
  58  201.1419
  59  161.7498
  60  289.2933
  61  311.1865
  62  289.9395
  63  317.3625
  64  278.9003
  65  223.5045
  66  252.0191
  67  145.6718
  68  150.741
  69  293.8714
  70  359.5036
  71  300.8178
  72  271.1533
  73  264.179
  74  327.0396
  75  301.1629
  76  290.3381
  77  305.4973
  78  258.1859
  79  429.9892
  80  473.5934
  81  417.5911
  82  346.6353
  83  258.1942
  84  179.1179
  85  184.056
  86  154.4378
  87  176.6584
  88  226.0181
  89  331.9842
  90  311.6843
  91  322.1303
  92  180.1042
  93  309.3158
  94  256.6184
  95  244.5637
  96  311.0226
  97  411.5797
  98  446.2942
  99  238.5586
 100  262.9993
 101  288.1427
 102  438.6272
 103  414.5725
 104  377.7521
 105  362.5917
 106  315.0816
 107  298.7991
 108  210.6889
 109  260.143
 110  314.319
 111  193.4776
 112  58.45234
 113  110.9638
 114  180.6685
 115  245.9346
 116  230.1595
 117  337.1152
 118  209.6357
 119  101.2018
 120  186.2682
 121  196.3327
 122  186.5959
 123  169.0679
 124  201.0654
 125  346.2505
 126  195.1793
 127  153.992
 128  38.68455
 129  99.42429
 130  106.1392
 131  375.1781
 132  379.5731
 133  153.9101
 134  205.9532
 135  163.709
 136  302.2332
 137  298.9522
 138  388.3227
 139  333.3915
 140  328.7029
 141  238.649
 142  222.4329
 143  229.6227
 144  343.0969
 145  238.4999
 146  238.2344
 147  311.5579
 148  198.0505
 149  214.5151
 150  178.0458
 151  130.4706
 152  176.3141
 153  200.0879
 154  244.3692
 155  313.3165
 156  349.4303
 157  293.8655
 158  318.3722
 159  281.1397
 160  249.5948
 161  283.9947
 162  245.8667
 163  243.0355
 164  243.0208
 165  163.8948
 166  104.6189
 167  65.35729
 168  164.7099
 169  187.4501
 170  254.5426
 171  221.0841
 172  259.1125
 173  263.693
 174  257.2293
 175  258.9388
 176  356.8866
 177  307.0384
 178  288.6935
 179  346.3427
 180  230.2164
 181  233.7994
 182  151.7201
 183  237.3298
 184  262.0299
 185  187.6324
 186  241.4145
 187  67.81374
 188  196.0077
 189  283.6189
 190  314.1335
 191  364.9372
 192  358.6722
 193  339.5193
 194  311.4634
 195  313.4744
 196  383.6222
 197  321.5874
 198  267.5215
 199  228.6166
 200  173.6153
 201  148.169
 202  253.4378
 203  323.9884
 204  399.8032
 205  313.6692
 206  311.1023
 207  217.2613
 208  183.5448
 209  240.21
 210  185.6779
 211  220.2443
 212  232.1268
 213  208.983
 214  127.1283
 215  265.2782
 216  133.5246
 217  78.1954
 218  193.1135
 219  153.925
 220  172.0127
 221  147.6387
 222  229.2896
 223  257.1721
 224  204.5367
 225  261.7602
 226  284.9359
 227  286.0121
 228  307.5821
 229  277.6455
 230  182.2584
 231  368.2187
 232  335.0952
 233  404.0639
 234  478.9063
 235  296.3158
 236  301.0946
 237  287.2
 238  220.3131
 239  270.8733
 240  295.438
 241  237.5785
 242  211.3159
 243  314.2209
 244  311.0809
 245  214.6771
 246  297.4215
 247  396.6073
 248  244.9668
 249  313.8185
 250  237.7088
 251  218.1785
 252  166.55
 253  113.0105
 254  280.5309
 255  351.0664
 256  283.0647
 257  207.8602
 258  279.5305
 259  253.9928
 260  270.4363
 261  195.5285
 262  116.2
 263  117.9342
 264  190.5911
 265  202.4156
 266  331.6118
 267  239.5143
 268  227.0721
 269  260.4093
 270  386.483
 271  235.4048
 272  103.474
 273  151.3191
 274  154.3335
 275  225.8285
 276  287.124
 277  198.7041
 278  256.4376
 279  229.3989
 280  180.9803
 281  217.1238
 282  297.5966
 283  329.7835
 284  398.2639
 285  297.256
 286  232.461
 287  291.2834
 288  388.3135
 289  313.1742
 290  192.1206
 291  170.2904
 292  205.0774
 293  280.2603
 294  192.1927
 295  127.8783
 296  235.8646
 297  226.0165
 298  303.5118
 299  304.2163
 300  281.957
 301  255.9213
 302  324.4583
 303  241.5296
 304  258.2895
 305  454.8586
 306  449.9028
 307  493.2231
 308  428.7527
 309  453.5613
 310  458.4132
 311  308.0406
 312  314.9974
 313  282.2616
 314  238.3179
 315  84.57673
 316  134.921
 317  74.95442
 318  156.9757
 319  164.628
 320  239.4565
 321  288.9306
 322  239.5449
 323  256.8563
 324  201.343
 325  69.87553
 326  136.0086
 327  234.1222
 328  281.6069
 329  239.5101
 330  309.1974
 331  308.9695
 332  246.1374
 333  165.4292
 334  108.2896
 335  167.3454
 336  206.3434
 337  208.9467
 338  223.1579
 339  170.0295
 340  220.7026
 341  272.2229
 342  284.3457
 343  210.9549
 344  177.9186
 345  292.6223
 346  259.8616
 347  335.8412
 348  336.8454
 349  288.7194
 350  295.5971
 351  204.8154
 352  255.5609
 353  146.0412
 354  224.3856
 355  212.5641
 356  110.1891
 357  215.5078
 358  52.52775
 359  112.1065
 360  95.66682
 361  234.5974
 362  181.8914
 363  320.9116
 364  391.6873
 365  267.5256
 366  240.8512
 367  229.4421
 368  177.6293
 369  219.4136
 370  118.3089
 371  61.0736
 372  136.7018
 373  307.3686
 374  279.1548
 375  159.1112
 376  190.7742
 377  245.9964
 378  313.1463
 379  335.0084
 380  229.2467
 381  151.1201
 382  162.5588
 383  400.5612
 384  445.5223
 385  435.8915
 386  410.2298
 387  327.9701
 388  467.1928
 389  721.2318
 390  956.3177
 391  1119.301
 392  1100.607
 393  915.8139
 394  704.0277
 395  418.131
 396  272.2314
 397  260.3999
 398  257.9637
 399  350.5338
 400  325.778
 401  229.1575
 402  212.2869
 403  221.1478
 404  232.5867
 405  311.9831
 406  289.0688
 407  400.9966
 408  315.4756
 409  220.0727
 410  215.5584
 411  116.5095
 412  96.78541
 413  195.4167
 414  122.6816
 415  256.7515
 416  260.5072
 417  148.6512
 418  208.764
 419  121.206
 420  191.7353
 421  391.3585
 422  323.5135
 423  238.879
 424  214.8621
 425  209.9873
 426  38.79526
 427  100.7033
 428  200.3936
 429  215.6385
 430  150.2049
 431  319.1314
 432  231.5995
 433  167.7437
 434  143.2508
 435  196.5558
 436  183.7234
 437  130.5672
 438  228.2665
 439  248.6601
 440  237.8601
 441  226.8192
 442  237.7026
 443  182.8349
 444  215.1873
 445  220.429
 446  127.0867
 447  193.2528
 448  300.8933
 449  165.5667
 450  224.1626
 451  110.2503
 452  130.0544
 453  186.8788
 454  251.8363
 455  314.8069
 456  196.7062
 457  218.3095
 458  247.4087
 459  137.3536
 460  158.0272
 461  308.8383
 462  236.8129
 463  279.0095
 464  153.6994
 465  151.8417
 466  264.2406
 467  266.9813
 468  210.2639
 469  211.8932
 470  259.3948
 471  253.0523
 472  322.1897
 473  287.912
 474  400.6903
 475  330.7399
 476  350.6544
 477  298.131
 478  233.3803
 479  273.8957
 480  167.5756
 481  141.0597
 482  276.1094
 483  199.0267
 484  213.7109
 485  302.1839
 486  257.7568
 487  134.6145
 488  246.197
 489  125.3492
 490  55.43775
 491  168.8921
 492  259.6655
 493  210.4357
 494  168.9291
 495  152.4398
 496  168.4977
 497  178.7668
 498  329.3675
 499  350.7336
 500  255.7783
 501  265.8798
 502  355.5022
 503  232.7738
 504  154.6949
 505  187.2599
 506  158.3855
 507  271.3253
 508  234.2291
 509  117.3387
 510  239.8888
 511  336.6098
