# Input file       =  1192141432.122322_cleaned.dat
# Candidate        =  PSR_0332+5434
# Telescope        =  AR
# Epoch_topo       =  58041.933462063913
# Epoch_bary       =  N/A
# T_sample         =  0.002
# Data Folded      =  7340032
# Data Avg         =  0.0296924541097334
# Data StdDev      =  2.29055754945397 
# Profile Bins     =  512
# Profile Avg      =  425.749190055154 
# Profile StdDev   =  274.255410391848 
# Reduced chi-sqr  =  1.447
# Prob(Noise)      <  1.41e-10   (~6.3 sigma)
# P_topo (ms)      =  714.482235919921  +/- 0.00017
# P'_topo (s/s)    =  -0                +/- 8.96e-11
# P''_topo (s/s^2) =  0                 +/- 3.95e-14
# P_bary (ms)      =  N/A
# P'_bary (s/s)    =  N/A
# P''_bary (s/s^2) =  N/A
# P_orb (s)        =  N/A
# asin(i)/c (s)    =  N/A
# eccentricity     =  N/A
# w (rad)          =  N/A
# T_peri           =  N/A
######################################################
   0  104.9042
   1  176.6094
   2  -4.90326
   3  278.5135
   4  350.04
   5  130.2829
   6  349.216
   7  333.0461
   8  10.06967
   9  117.5776
  10  237.1212
  11  413.0259
  12  904.0401
  13  1017.657
  14  678.9382
  15  433.0355
  16  532.4026
  17  390.786
  18  513.1238
  19  669.6227
  20  381.4447
  21  359.432
  22  442.2859
  23  544.274
  24  516.8081
  25  360.6606
  26  462.8874
  27  661.3497
  28  406.9007
  29  257.9612
  30  563.7386
  31  613.5703
  32  394.8648
  33  512.8323
  34  800.8765
  35  552.1834
  36  401.7771
  37  277.9673
  38  77.94911
  39  258.4265
  40  336.7177
  41  472.6792
  42  277.601
  43  211.1584
  44  484.538
  45  235.9288
  46  408.5563
  47  349.9426
  48  233.1572
  49  275.3033
  50  250.0923
  51  -46.0702
  52  356.1526
  53  501.0174
  54  521.9479
  55  433.4971
  56  308.8115
  57  465.248
  58  343.081
  59  132.1971
  60  345.2179
  61  745.4153
  62  790.3755
  63  317.7529
  64  552.1699
  65  387.6384
  66  186.9339
  67  198.1481
  68  415.6697
  69  599.7984
  70  627.2606
  71  736.3668
  72  881.0895
  73  475.5869
  74  499.6135
  75  443.7948
  76  583.6388
  77  420.082
  78  285.0545
  79  638.4649
  80  552.288
  81  191.2531
  82  528.8765
  83  497.2949
  84  333.8401
  85  196.9776
  86  72.11686
  87  317.5711
  88  313.0018
  89  418.8147
  90  354.9077
  91  125.7914
  92  181.0925
  93  185.9878
  94  679.4992
  95  694.3636
  96  332.58
  97  255.8924
  98  441.4539
  99  258.6925
 100  453.8514
 101  368.6262
 102  621.2157
 103  396.3146
 104  631.0582
 105  526.4003
 106  373.3077
 107  307.4208
 108  404.3795
 109  616.1374
 110  591.412
 111  387.2634
 112  975.6444
 113  913.2687
 114  399.8416
 115  -45.29219
 116  267.8893
 117  444.2792
 118  844.4139
 119  638.7498
 120  449.0619
 121  558.1488
 122  375.3853
 123  455.0089
 124  386.8629
 125  578.3498
 126  740.1879
 127  383.6024
 128  305.0785
 129  475.2504
 130  551.9992
 131  725.7614
 132  551.5638
 133  452.0393
 134  322.6385
 135  299.4537
 136  316.6281
 137  254.6089
 138  221.0015
 139  349.6649
 140  336.2635
 141  -37.92143
 142  314.507
 143  356.3777
 144  405.6092
 145  587.7728
 146  483.064
 147  774.7891
 148  867.2659
 149  609.3739
 150  379.573
 151  385.0081
 152  321.2695
 153  337.4567
 154  418.9385
 155  219.8203
 156  227.7049
 157  711.1171
 158  659.2815
 159  441.7907
 160  329.6735
 161  382.5618
 162  429.3699
 163  443.5146
 164  456.8978
 165  396.7802
 166  311.2741
 167  670.0359
 168  780.9273
 169  339.9503
 170  219.7748
 171  99.4879
 172  50.40042
 173  210.4995
 174  -74.50439
 175  -12.72301
 176  268.729
 177  481.7122
 178  511.6263
 179  564.8303
 180  409.1382
 181  534.4423
 182  666.8933
 183  479.9933
 184  419.2109
 185  400.4146
 186  448.8376
 187  394.1357
 188  422.4992
 189  787.0129
 190  720.4645
 191  373.8114
 192  436.7305
 193  645.8924
 194  383.7404
 195  513.2565
 196  504.7122
 197  351.0968
 198  345.4648
 199  324.9784
 200  333.3476
 201  191.6403
 202  403.1376
 203  381.9199
 204  456.7643
 205  562.3434
 206  361.7689
 207  465.5802
 208  610.1915
 209  55.90233
 210  158.605
 211  520.3116
 212  655.401
 213  489.3909
 214  168.4205
 215  348.8381
 216  476.6538
 217  604.1957
 218  672.9664
 219  508.5092
 220  554.5159
 221  663.0097
 222  740.3569
 223  429.3616
 224  599.405
 225  220.2474
 226  246.3545
 227  512.34
 228  713.3991
 229  817.9316
 230  709.7629
 231  583.9628
 232  348.216
 233  311.0003
 234  197.5909
 235  194.4956
 236  260.6539
 237  179.0423
 238  279.6449
 239  277.2433
 240  652.3748
 241  683.3278
 242  322.7733
 243  220.6754
 244  785.6402
 245  879.7284
 246  457.435
 247  295.7428
 248  471.5868
 249  624.6149
 250  636.2235
 251  438.8358
 252  542.9271
 253  684.9518
 254  348.875
 255  361.9309
 256  312.3449
 257  274.0067
 258  280.6446
 259  413.088
 260  537.1961
 261  263.4622
 262  267.3899
 263  389.4326
 264  349.2433
 265  482.5558
 266  550.7611
 267  477.4589
 268  560.2354
 269  633.4977
 270  624.2475
 271  493.5802
 272  549.2387
 273  548.4433
 274  391.0459
 275  274.142
 276  -1.608725
 277  80.42622
 278  433.1613
 279  639.8077
 280  613.3962
 281  461.4667
 282  502.7739
 283  433.7528
 284  137.9192
 285  331.2163
 286  623.2309
 287  659.6086
 288  382.9246
 289  301.281
 290  346.028
 291  480.6912
 292  513.0328
 293  443.0798
 294  446.9291
 295  396.1926
 296  452.2391
 297  488.6396
 298  693.5783
 299  828.935
 300  899.6296
 301  646.9726
 302  460.0468
 303  647.6655
 304  332.2589
 305  76.18889
 306  473.8569
 307  494.8464
 308  336.5623
 309  468.0009
 310  561.0497
 311  457.1324
 312  693.0696
 313  838.2453
 314  1016.891
 315  897.0294
 316  1434.477
 317  1836.372
 318  1917.778
 319  1952.041
 320  1715.898
 321  1140.922
 322  905.0908
 323  711.4128
 324  558.215
 325  391.6744
 326  376.0598
 327  313.5885
 328  235.484
 329  337.9859
 330  544.0422
 331  499.8927
 332  797.7023
 333  698.8591
 334  744.6053
 335  569.736
 336  442.3306
 337  661.7076
 338  579.991
 339  579.7894
 340  269.4612
 341  77.38188
 342  42.38619
 343  346.8457
 344  680.7066
 345  730.3002
 346  562.2055
 347  615.5164
 348  448.8699
 349  388.9487
 350  548.3615
 351  668.6957
 352  431.8933
 353  139.4944
 354  88.78104
 355  538.3971
 356  590.8916
 357  471.3168
 358  490.2125
 359  570.741
 360  607.8093
 361  563.926
 362  741.7832
 363  497.7945
 364  445.2238
 365  567.4156
 366  373.2988
 367  61.78469
 368  141.1947
 369  82.59646
 370  51.8041
 371  387.9285
 372  473.2086
 373  296.0663
 374  560.489
 375  386.6123
 376  184.8221
 377  6.180977
 378  247.6934
 379  189.5607
 380  252.2018
 381  305.5295
 382  293.9156
 383  530.1174
 384  409.4154
 385  275.2962
 386  36.28926
 387  259.0285
 388  420.8207
 389  73.90247
 390  37.10691
 391  67.60394
 392  519.2365
 393  369.0405
 394  257.0483
 395  226.6747
 396  153.7393
 397  77.549
 398  383.7554
 399  294.1974
 400  249.4005
 401  336.6406
 402  449.3206
 403  111.5361
 404  -138.8663
 405  169.5386
 406  327.3915
 407  166.0712
 408  217.9928
 409  374.6597
 410  407.0617
 411  4.176706
 412  173.3584
 413  560.7454
 414  403.5681
 415  457.2274
 416  346.0623
 417  324.5805
 418  321.9688
 419  547.396
 420  530.6697
 421  528.3444
 422  320.2751
 423  375.8878
 424  511.4001
 425  436.7572
 426  319.3206
 427  372.6966
 428  388.2306
 429  591.8404
 430  490.2394
 431  551.0931
 432  501.1264
 433  380.4706
 434  388.3513
 435  105.428
 436  455.8013
 437  564.0854
 438  259.1639
 439  192.8966
 440  148.2214
 441  56.55682
 442  428.2419
 443  424.3976
 444  249.0171
 445  369.7547
 446  604.7348
 447  185.2011
 448  323.3285
 449  365.6874
 450  431.2462
 451  236.9773
 452  133.9662
 453  454.4763
 454  557.7219
 455  432.4218
 456  200.4275
 457  204.1135
 458  276.2029
 459  653.3589
 460  589.3295
 461  159.0782
 462  131.1552
 463  115.1094
 464  241.1886
 465  403.1175
 466  280.9933
 467  497.8384
 468  566.0264
 469  481.2439
 470  177.6883
 471  125.8773
 472  313.9763
 473  626.4452
 474  495.1719
 475  348.584
 476  204.1764
 477  196.5261
 478  324.43
 479  394.7834
 480  407.7534
 481  164.1033
 482  394.7958
 483  345.0894
 484  237.0555
 485  355.0831
 486  401.1471
 487  259.6996
 488  500.0299
 489  401.9633
 490  232.8165
 491  138.7965
 492  297.6897
 493  588.9646
 494  286.5208
 495  447.8062
 496  425.7497
 497  270.4007
 498  199.3237
 499  69.83196
 500  126.5756
 501  307.0731
 502  449.5117
 503  319.4829
 504  517.8364
 505  420.3448
 506  630.1234
 507  432.2481
 508  255.4849
 509  646.0118
 510  459.7213
 511  234.5853
