# Input file       =  1192055239.118371_cleaned.dat
# Candidate        =  PSR_0332+5434
# Telescope        =  AR
# Epoch_topo       =  58040.935857851517
# Epoch_bary       =  N/A
# T_sample         =  0.002
# Data Folded      =  7340032
# Data Avg         =  0.010774073737336
# Data StdDev      =  1.00014227307672 
# Profile Bins     =  512
# Profile Avg      =  154.447997168429 
# Profile StdDev   =  119.750071164236 
# Reduced chi-sqr  =  1.645
# Prob(Noise)      <  1.8e-18   (~8.7 sigma)
# P_topo (ms)      =  714.48149628608   +/- 0.000187
# P'_topo (s/s)    =  -0                +/- 9.85e-11
# P''_topo (s/s^2) =  0                 +/- 4.35e-14
# P_bary (ms)      =  N/A
# P'_bary (s/s)    =  N/A
# P''_bary (s/s^2) =  N/A
# P_orb (s)        =  N/A
# asin(i)/c (s)    =  N/A
# eccentricity     =  N/A
# w (rad)          =  N/A
# T_peri           =  N/A
######################################################
   0  1012.68
   1  996.9557
   2  598.8839
   3  323.8155
   4  265.1723
   5  275.609
   6  190.855
   7  178.162
   8  150.8795
   9  142.8332
  10  171.0569
  11  75.91504
  12  37.2891
  13  44.96203
  14  225.1118
  15  311.4347
  16  119.8641
  17  88.5183
  18  105.9383
  19  49.83822
  20  163.9612
  21  49.71861
  22  21.59435
  23  162.6546
  24  141.7366
  25  27.69567
  26  136.2665
  27  35.75726
  28  118.4895
  29  138.6091
  30  92.50978
  31  47.38729
  32  210.0032
  33  110.9585
  34  141.9801
  35  148.8709
  36  127.9156
  37  -34.21252
  38  189.6007
  39  214.9576
  40  186.4378
  41  79.96467
  42  72.60304
  43  158.1444
  44  134.8139
  45  211.6457
  46  291.7861
  47  167.3616
  48  137.067
  49  184.6247
  50  134.6685
  51  59.56113
  52  179.4794
  53  201.1615
  54  211.2918
  55  286.8291
  56  238.6477
  57  127.8792
  58  140.3603
  59  157.4807
  60  104.5237
  61  118.8322
  62  66.0545
  63  69.94585
  64  152.7108
  65  147.9566
  66  188.2776
  67  189.4729
  68  147.2513
  69  144.7779
  70  222.754
  71  331.1832
  72  181.3494
  73  144.075
  74  291.4979
  75  182.464
  76  70.55753
  77  99.05016
  78  246.2373
  79  107.5571
  80  124.4528
  81  103.1466
  82  92.02886
  83  156.1305
  84  178.0239
  85  173.8585
  86  94.46712
  87  79.63026
  88  114.6459
  89  121.1143
  90  135.4089
  91  275.7719
  92  206.7555
  93  33.43828
  94  82.11649
  95  143.125
  96  148.7914
  97  3.982177
  98  63.32051
  99  141.025
 100  238.78
 101  205.537
 102  119.4866
 103  197.9386
 104  166.0246
 105  105.0047
 106  92.80579
 107  145.3493
 108  12.46323
 109  106.8288
 110  248.1763
 111  173.3743
 112  220.5229
 113  179.5442
 114  208.6396
 115  206.3475
 116  144.8945
 117  141.1217
 118  52.9064
 119  84.35558
 120  163.7854
 121  196.3017
 122  270.8611
 123  175.93
 124  185.025
 125  136.9751
 126  117.5385
 127  129.3656
 128  241.4788
 129  188.4344
 130  147.0931
 131  165.4988
 132  176.3891
 133  304.0844
 134  173.743
 135  71.95367
 136  48.78658
 137  41.05024
 138  44.68631
 139  208.331
 140  186.6749
 141  217.4862
 142  255.5775
 143  259.359
 144  189.0919
 145  63.74745
 146  69.35236
 147  204.7152
 148  202.2298
 149  193.0639
 150  115.8842
 151  117.4684
 152  26.01213
 153  41.71747
 154  109.6596
 155  230.0759
 156  193.1565
 157  199.3126
 158  189.3144
 159  -6.02408
 160  46.5043
 161  202.6253
 162  225.1151
 163  127.3103
 164  206.7338
 165  261.4944
 166  266.0215
 167  207.4342
 168  70.64256
 169  156.2184
 170  239.257
 171  130.8476
 172  -34.74562
 173  105.295
 174  195.4503
 175  195.89
 176  170.216
 177  116.2766
 178  116.084
 179  147.0519
 180  196.7065
 181  241.3727
 182  279.6291
 183  256.5088
 184  66.79414
 185  161.785
 186  205.0462
 187  -14.29321
 188  7.763399
 189  132.3383
 190  282.1852
 191  177.3059
 192  135.9121
 193  135.7924
 194  112.0451
 195  166.3497
 196  149.7324
 197  97.89227
 198  15.04236
 199  196.5692
 200  210.1194
 201  183.3756
 202  297.2278
 203  263.8059
 204  197.9804
 205  119.7275
 206  213.4236
 207  159.8855
 208  143.8927
 209  138.6036
 210  165.2069
 211  211.2988
 212  160.2801
 213  222.9632
 214  193.1579
 215  142.1909
 216  221.2952
 217  225.3855
 218  142.1942
 219  145.1985
 220  218.8878
 221  128.3537
 222  39.72457
 223  103.8957
 224  74.87308
 225  81.34319
 226  146.8964
 227  147.4789
 228  131.9054
 229  149.5814
 230  145.1771
 231  222.7061
 232  125.9182
 233  133.9854
 234  116.5301
 235  111.1717
 236  117.8957
 237  153.776
 238  194.4978
 239  325.8237
 240  96.16839
 241  30.40796
 242  69.57718
 243  118.2903
 244  124.3221
 245  151.6652
 246  178.2832
 247  140.1621
 248  208.5704
 249  110.3473
 250  -66.72786
 251  -89.68845
 252  26.71055
 253  136.7849
 254  118.5989
 255  173.9183
 256  211.7335
 257  160.7649
 258  67.24953
 259  126.8
 260  245.5611
 261  187.3774
 262  121.1555
 263  203.7062
 264  221.3135
 265  150.2355
 266  208.2784
 267  290.2254
 268  165.9877
 269  175.1156
 270  129.529
 271  75.96725
 272  84.40191
 273  73.14561
 274  196.4086
 275  240.768
 276  262.9211
 277  280.3068
 278  247.1079
 279  229.1409
 280  304.5359
 281  292.6274
 282  64.47459
 283  77.56411
 284  92.385
 285  106.996
 286  180.9679
 287  287.8308
 288  189.1439
 289  123.6533
 290  142.9501
 291  176.199
 292  203.5694
 293  261.4854
 294  151.373
 295  240.6535
 296  183.7774
 297  60.53819
 298  74.86888
 299  136.9472
 300  47.08004
 301  151.2224
 302  295.2213
 303  280.5615
 304  132.6902
 305  138.4964
 306  221.583
 307  146.6435
 308  144.658
 309  97.47256
 310  -103.7677
 311  54.88924
 312  271.4848
 313  63.96595
 314  156.9517
 315  35.16928
 316  105.1334
 317  121.1331
 318  85.59867
 319  2.783416
 320  21.13503
 321  253.91
 322  129.1191
 323  -32.00452
 324  184.9673
 325  103.2298
 326  -4.127391
 327  49.085
 328  79.68856
 329  -18.90274
 330  -32.79137
 331  22.57477
 332  207.514
 333  135.62
 334  93.00044
 335  130.0738
 336  205.3508
 337  176.6671
 338  175.4188
 339  177.1429
 340  168.0237
 341  175.653
 342  289.0309
 343  189.8888
 344  213.9955
 345  174.974
 346  30.45688
 347  78.45625
 348  202.3093
 349  247.3509
 350  219.7856
 351  87.35191
 352  225.7547
 353  196.4175
 354  69.61884
 355  83.03549
 356  232.2685
 357  272.5121
 358  230.0471
 359  36.34108
 360  80.35487
 361  113.5972
 362  46.88286
 363  83.97575
 364  178.1559
 365  202.3777
 366  152.7708
 367  89.42999
 368  -18.73422
 369  3.748151
 370  129.0382
 371  186.7186
 372  215.6531
 373  132.1093
 374  203.1604
 375  85.1234
 376  -26.58356
 377  29.71165
 378  248.4564
 379  203.6207
 380  210.4163
 381  143.1973
 382  166.2104
 383  59.54991
 384  73.88041
 385  140.7733
 386  171.9275
 387  177.9722
 388  110.5485
 389  73.43587
 390  196.9001
 391  149.1048
 392  228.6921
 393  137.1408
 394  164.2259
 395  144.4025
 396  91.17232
 397  115.0923
 398  13.40869
 399  24.18088
 400  126.9507
 401  124.3438
 402  118.1385
 403  114.7935
 404  -34.43023
 405  88.95945
 406  179.1926
 407  51.526
 408  258.3436
 409  277.7411
 410  317.8571
 411  182.875
 412  179.3507
 413  -14.42752
 414  51.79883
 415  10.67197
 416  108.9162
 417  124.188
 418  93.28215
 419  65.57053
 420  -30.684
 421  7.531915
 422  102.5429
 423  78.95912
 424  60.54342
 425  58.39167
 426  124.3642
 427  271.0658
 428  136.2878
 429  112.5683
 430  48.27655
 431  91.76042
 432  -69.14606
 433  -6.090902
 434  162.177
 435  160.9522
 436  125.5066
 437  248.6513
 438  234.06
 439  93.34667
 440  58.10765
 441  73.76605
 442  -5.232904
 443  69.70092
 444  214.5435
 445  133.0962
 446  91.14202
 447  157.5951
 448  206.7793
 449  82.3662
 450  69.9336
 451  57.68177
 452  102.9864
 453  134.5827
 454  152.4061
 455  283.4304
 456  210.0789
 457  264.1984
 458  149.0859
 459  165.354
 460  185.3015
 461  76.99933
 462  43.56008
 463  175.9741
 464  266.1498
 465  81.20361
 466  151.2406
 467  153.5135
 468  178.1305
 469  195.0314
 470  245.3981
 471  195.3975
 472  164.3561
 473  125.4139
 474  191.1448
 475  161.6222
 476  38.39016
 477  161.7649
 478  292.4157
 479  291.4359
 480  118.5456
 481  90.77417
 482  69.10323
 483  66.10368
 484  186.422
 485  224.061
 486  179.9671
 487  105.4272
 488  125.2614
 489  205.3643
 490  274.6797
 491  202.5806
 492  108.2563
 493  125.2353
 494  219.4387
 495  208.2008
 496  162.3883
 497  177.2896
 498  188.9334
 499  87.479
 500  121.2604
 501  98.41241
 502  213.6812
 503  303.3013
 504  206.7016
 505  194.9615
 506  197.3044
 507  295.0529
 508  458.4388
 509  618.5339
 510  875.9564
 511  1060.736
