# Input file       =  1192243009.129_cleaned.dat
# Candidate        =  PSR_0332+5434
# Telescope        =  AR
# Epoch_topo       =  58043.109121863425
# Epoch_bary       =  N/A
# T_sample         =  0.002
# Data Folded      =  7340032
# Data Avg         =  0.0132303562789482
# Data StdDev      =  1.00001153783747 
# Profile Bins     =  512
# Profile Avg      =  189.65900159793  
# Profile StdDev   =  119.734417837079 
# Reduced chi-sqr  =  1.142
# Prob(Noise)      <  0.0144   (~2.2 sigma)
# P_topo (ms)      =  714.483469969965  +/- 0.000275
# P'_topo (s/s)    =  -0                +/- 1.45e-10
# P''_topo (s/s^2) =  0                 +/- 6.41e-14
# P_bary (ms)      =  N/A
# P'_bary (s/s)    =  N/A
# P''_bary (s/s^2) =  N/A
# P_orb (s)        =  N/A
# asin(i)/c (s)    =  N/A
# eccentricity     =  N/A
# w (rad)          =  N/A
# T_peri           =  N/A
######################################################
   0  716.0637
   1  669.0738
   2  476.7809
   3  241.9555
   4  161.5435
   5  85.13054
   6  71.91283
   7  109.8312
   8  151.0115
   9  128.8159
  10  239.3359
  11  362.2137
  12  251.4487
  13  247.1861
  14  227.4785
  15  270.3859
  16  229.9489
  17  150.4311
  18  163.2134
  19  205.8818
  20  291.9844
  21  230.3865
  22  343.1886
  23  211.6821
  24  151.5376
  25  164.2644
  26  259.2985
  27  161.0556
  28  130.7793
  29  231.4291
  30  221.7802
  31  85.93658
  32  98.89819
  33  160.9549
  34  178.3852
  35  166.7282
  36  151.879
  37  115.119
  38  96.95165
  39  48.32338
  40  204.2919
  41  208.7524
  42  115.9712
  43  149.9306
  44  132.9598
  45  144.2025
  46  163.3249
  47  274.3719
  48  249.2216
  49  157.191
  50  128.5909
  51  153.2804
  52  102.9019
  53  126.5071
  54  151.6286
  55  196.1991
  56  63.90622
  57  120.8418
  58  55.70822
  59  53.71954
  60  104.3891
  61  65.77577
  62  102.1879
  63  106.679
  64  250.3586
  65  195.6811
  66  245.0456
  67  186.1632
  68  181.8231
  69  158.578
  70  149.6493
  71  153.2391
  72  149.3331
  73  170.9799
  74  135.973
  75  85.57445
  76  114.0791
  77  78.09546
  78  -4.239212
  79  154.41
  80  298.4025
  81  311.6958
  82  253.7687
  83  232.0393
  84  220.2399
  85  171.2013
  86  197.5666
  87  118.3105
  88  175.3652
  89  210.2258
  90  245.3814
  91  192.7156
  92  190.3887
  93  130.1996
  94  214.2984
  95  183.556
  96  128.905
  97  231.8655
  98  146.8671
  99  124.9514
 100  188.809
 101  207.3122
 102  171.3763
 103  83.85928
 104  75.44206
 105  127.6668
 106  144.8746
 107  150.5377
 108  110.8468
 109  178.3233
 110  200.0961
 111  142.5295
 112  110.0906
 113  60.35017
 114  154.0909
 115  238.9048
 116  148.903
 117  144.0211
 118  246.2694
 119  175.1164
 120  208.6429
 121  166.3239
 122  281.9252
 123  177.9243
 124  100.9476
 125  108.8965
 126  27.49746
 127  137.7031
 128  87.50702
 129  151.9371
 130  125.5237
 131  43.08451
 132  96.1161
 133  56.24719
 134  71.30703
 135  126.2838
 136  132.2267
 137  210.2985
 138  135.1409
 139  41.86839
 140  -74.50143
 141  112.0424
 142  127.174
 143  190.9551
 144  142.5221
 145  82.70579
 146  -21.72669
 147  6.167895
 148  5.02489
 149  114.0576
 150  130.8142
 151  213.684
 152  252.0215
 153  228.8851
 154  208.9567
 155  133.981
 156  214.7568
 157  300.5078
 158  250.7921
 159  181.4828
 160  131.2032
 161  145.8682
 162  160.9516
 163  291.9005
 164  229.4223
 165  148.6893
 166  185.3708
 167  284.3638
 168  245.9639
 169  193.3458
 170  196.2053
 171  130.1486
 172  101.8761
 173  14.65997
 174  152.9703
 175  292.2632
 176  157.6282
 177  207.6807
 178  174.3807
 179  119.1244
 180  169.8168
 181  330.8378
 182  188.4632
 183  130.2918
 184  241.0072
 185  211.5802
 186  215.1312
 187  334.9035
 188  262.8556
 189  274.4988
 190  292.0609
 191  246.0447
 192  234.3562
 193  240.5271
 194  227.2543
 195  148.9323
 196  66.23515
 197  176.2994
 198  202.1573
 199  152.3248
 200  148.8405
 201  181.9778
 202  107.3423
 203  78.25626
 204  74.22658
 205  169.4603
 206  111.5193
 207  121.4977
 208  133.6016
 209  151.3044
 210  110.258
 211  103.9318
 212  158.0542
 213  143.8145
 214  119.4025
 215  74.37139
 216  122.3416
 217  192.496
 218  136.2692
 219  195.9513
 220  130.1154
 221  179.8806
 222  139.8935
 223  191.7526
 224  270.0588
 225  143.6041
 226  91.00146
 227  145.852
 228  159.8416
 229  199.7776
 230  232.749
 231  285.6396
 232  201.8795
 233  228.5613
 234  260.8754
 235  220.7935
 236  289.7941
 237  330.4166
 238  311.3714
 239  317.5392
 240  339.7175
 241  261.447
 242  166.8199
 243  195.4468
 244  299.8595
 245  301.3507
 246  207.1754
 247  231.2181
 248  275.8847
 249  202.8412
 250  309.0343
 251  309.3074
 252  175.7664
 253  180.6888
 254  181.4946
 255  201.6426
 256  251.2027
 257  141.6889
 258  91.66956
 259  193.1775
 260  307.341
 261  247.1878
 262  283.0352
 263  253.0098
 264  219.7371
 265  224.7244
 266  349.27
 267  385.4337
 268  260.3987
 269  245.3284
 270  276.7786
 271  206.9905
 272  235.2646
 273  238.6784
 274  256.9126
 275  200.5968
 276  257.3099
 277  263.5905
 278  247.7279
 279  155.582
 280  206.7403
 281  218.8004
 282  289.9047
 283  179.1371
 284  161.1454
 285  225.3842
 286  307.1022
 287  274.2898
 288  313.5461
 289  315.1975
 290  270.2374
 291  234.5636
 292  195.2063
 293  237.3547
 294  230.1907
 295  254.8804
 296  231.7128
 297  150.4376
 298  196.7713
 299  223.5579
 300  310.7313
 301  279.4792
 302  268.2134
 303  213.3139
 304  279.3934
 305  351.5221
 306  300.2908
 307  166.0302
 308  127.0552
 309  134.5438
 310  133.9946
 311  61.71222
 312  145.1858
 313  139.0212
 314  239.9887
 315  352.1952
 316  185.5203
 317  265.1118
 318  297.3385
 319  203.8524
 320  152.6398
 321  231.1066
 322  314.8097
 323  278.8664
 324  243.0689
 325  292.7241
 326  282.7263
 327  276.0501
 328  329.7526
 329  258.6537
 330  168.5321
 331  230.5042
 332  131.8885
 333  221.2367
 334  242.2218
 335  176.4743
 336  204.7237
 337  232.4086
 338  177.6146
 339  162.048
 340  171.3479
 341  117.3638
 342  162.9987
 343  294.5419
 344  351.0398
 345  260.9308
 346  94.16051
 347  73.49554
 348  162.1834
 349  294.3299
 350  181.0581
 351  202.3352
 352  255.261
 353  327.6374
 354  189.275
 355  142.2009
 356  120.983
 357  188.0664
 358  260.6214
 359  240.8191
 360  305.1008
 361  226.5534
 362  200.7652
 363  169.5775
 364  197.3111
 365  117.4726
 366  255.656
 367  153.1648
 368  103.8682
 369  136.9371
 370  158.8918
 371  172.051
 372  166.6677
 373  263.1419
 374  466.6834
 375  356.2027
 376  286.0213
 377  126.4363
 378  105.6825
 379  162.5271
 380  168.2609
 381  136.4972
 382  191.0113
 383  92.44288
 384  137.37
 385  166.5669
 386  216.1225
 387  228.5703
 388  287.2162
 389  317.2601
 390  272.0616
 391  286.6178
 392  253.7161
 393  240.6229
 394  338.1256
 395  297.4403
 396  217.4369
 397  283.8321
 398  285.0579
 399  147.6797
 400  72.89263
 401  181.0381
 402  214.3198
 403  168.7349
 404  159.0109
 405  140.098
 406  170.8947
 407  232.8123
 408  169.9642
 409  261.2945
 410  208.3135
 411  79.45742
 412  63.46029
 413  123.4516
 414  144.2838
 415  203.7195
 416  243.8217
 417  240.2312
 418  102.0444
 419  86.60265
 420  67.26537
 421  198.9568
 422  363.2625
 423  318.5933
 424  199.2577
 425  78.2504
 426  198.2044
 427  176.0488
 428  163.6905
 429  139.7891
 430  110.0895
 431  156.3909
 432  146.0831
 433  113.7306
 434  34.31908
 435  67.96667
 436  169.0983
 437  159.9521
 438  128.0796
 439  21.75716
 440  149.4384
 441  87.70278
 442  86.54247
 443  127.4229
 444  69.26855
 445  112.5326
 446  49.95936
 447  88.51139
 448  27.17615
 449  112.1835
 450  191.7889
 451  194.8212
 452  114.9602
 453  142.4913
 454  176.6105
 455  145.8573
 456  115.8137
 457  40.86105
 458  188.4672
 459  330.8726
 460  171.7762
 461  131.6783
 462  172.5595
 463  142.5144
 464  51.49103
 465  68.37376
 466  56.07013
 467  136.2879
 468  149.4628
 469  152.1069
 470  60.41053
 471  117.1155
 472  183.2745
 473  211.8914
 474  126.0971
 475  137.2878
 476  67.89255
 477  46.08855
 478  26.83683
 479  62.30853
 480  119.9861
 481  241.6656
 482  80.54251
 483  57.27388
 484  81.79053
 485  186.953
 486  252.2394
 487  159.4876
 488  256.8624
 489  225.1875
 490  128.243
 491  210.5233
 492  236.263
 493  299.9434
 494  381.5922
 495  327.6716
 496  132.2168
 497  108.0456
 498  211.8377
 499  128.7348
 500  102.8161
 501  250.4626
 502  297.0978
 503  310.2893
 504  354.5479
 505  290.6536
 506  237.7887
 507  237.8417
 508  384.2861
 509  447.2061
 510  697.0553
 511  771.495
