# Input file       =  1192816011.146538-PSRB0329-2ms-sampling-dd.dat
# Candidate        =  PSR_0332+5434
# Telescope        =  AR
# Epoch_topo       =  58049.741089659008
# Epoch_bary       =  N/A
# T_sample         =  0.002
# Data Folded      =  7208960
# Data Avg         =  -5.95539197552172e-10
# Data StdDev      =  4.27407717022685 
# Profile Bins     =  512
# Profile Avg      =  -1.32267918459255
# Profile StdDev   =  507.158474297064 
# Reduced chi-sqr  =  0.720
# Prob(Noise)      <  1   (~0.0 sigma)
# P_topo (ms)      =  714.488437855541  +/- 0.000228
# P'_topo (s/s)    =  -0                +/- 1.23e-10
# P''_topo (s/s^2) =  0                 +/- 5.51e-14
# P_bary (ms)      =  N/A
# P'_bary (s/s)    =  N/A
# P''_bary (s/s^2) =  N/A
# P_orb (s)        =  N/A
# asin(i)/c (s)    =  N/A
# eccentricity     =  N/A
# w (rad)          =  N/A
# T_peri           =  N/A
######################################################
   0  -233.7794
   1  -216.6205
   2  -399.938
   3  0.09324063
   4  -194.6812
   5  60.01519
   6  107.4104
   7  374.6962
   8  275.0092
   9  1.62019
  10  -354.2057
  11  -241.579
  12  112.2827
  13  -60.50105
  14  58.26308
  15  162.3424
  16  -80.33886
  17  -367.8632
  18  -179.2812
  19  -691.049
  20  -265.9843
  21  115.5877
  22  -8.163814
  23  -232.194
  24  -221.3921
  25  63.6291
  26  -20.25896
  27  -286.5766
  28  -158.8853
  29  -16.07799
  30  6.294896
  31  -20.99087
  32  -206.2548
  33  -436.4865
  34  -498.9219
  35  -539.0087
  36  -203.4739
  37  -96.06594
  38  418.2537
  39  -304.3465
  40  -531.1656
  41  -178.6615
  42  -461.9992
  43  -164.9836
  44  -124.5913
  45  210.7629
  46  157.607
  47  22.79682
  48  -35.31801
  49  -222.3022
  50  -409.6078
  51  -67.39239
  52  172.642
  53  -33.20143
  54  -224.5797
  55  -436.0975
  56  -392.9071
  57  -353.3663
  58  -328.9153
  59  -99.90659
  60  420.2869
  61  272.1163
  62  135.2496
  63  -47.92524
  64  -348.1988
  65  -176.8365
  66  241.5368
  67  -85.27121
  68  11.46419
  69  -297.2775
  70  -279.7274
  71  -278.9117
  72  -241.4608
  73  -212.5162
  74  -123.6982
  75  18.08378
  76  -490.314
  77  -232.1473
  78  -77.53648
  79  326.7416
  80  111.6229
  81  195.0932
  82  321.6676
  83  -23.52424
  84  104.2583
  85  294.2111
  86  60.19399
  87  -149.3177
  88  -256.1386
  89  -5.433346
  90  -119.8884
  91  -20.19424
  92  -174.6532
  93  -628.5024
  94  -219.7645
  95  -42.1546
  96  -6.035161
  97  24.19117
  98  -146.7708
  99  -253.2659
 100  14.58956
 101  129.7341
 102  268.2765
 103  418.1503
 104  373.7033
 105  575.5295
 106  -55.20315
 107  110.2012
 108  -19.98232
 109  271.9456
 110  679.0835
 111  922.7537
 112  793.6308
 113  2.756773
 114  121.5559
 115  -158.554
 116  -452.9131
 117  -62.29768
 118  395.7467
 119  335.0471
 120  115.1102
 121  104.6376
 122  -330.1819
 123  -526.2982
 124  -279.8634
 125  -129.4015
 126  65.0456
 127  138.1348
 128  391.7961
 129  89.28954
 130  -137.5503
 131  -332.178
 132  -232.4339
 133  -201.2646
 134  -360.734
 135  -68.53355
 136  52.07747
 137  -154.5322
 138  133.9317
 139  534.6217
 140  356.4964
 141  242.254
 142  112.1641
 143  -102.9369
 144  -89.09272
 145  18.72931
 146  246.6137
 147  523.8047
 148  685.4352
 149  649.6297
 150  -155.6366
 151  -269.1142
 152  -23.23273
 153  -169.9563
 154  -268.9549
 155  -266.3454
 156  -312.1542
 157  -265.1492
 158  195.0554
 159  -25.41754
 160  -180.5954
 161  350.9444
 162  289.1327
 163  -27.1936
 164  -244.8842
 165  -337.5338
 166  -302.4546
 167  -95.47903
 168  76.43872
 169  376.0334
 170  375.6069
 171  -4.208597
 172  105.551
 173  -455.9361
 174  -431.3327
 175  -318.4561
 176  -97.41782
 177  -333.9367
 178  -146.5811
 179  152.6388
 180  -369.4001
 181  -253.1393
 182  -232.5423
 183  51.56594
 184  -275.2011
 185  82.43712
 186  196.4025
 187  -219.6613
 188  -354.7612
 189  -217.5533
 190  -81.18893
 191  -24.27662
 192  -168.1509
 193  -253.4404
 194  155.486
 195  239.1064
 196  187.854
 197  -114.0396
 198  -179.5977
 199  -291.4906
 200  -305.3201
 201  -110.9093
 202  296.4705
 203  117.4072
 204  81.58711
 205  230.9859
 206  189.2623
 207  117.1728
 208  268.3202
 209  131.6186
 210  78.87141
 211  268.7628
 212  258.673
 213  -34.31394
 214  -350.4902
 215  -336.0172
 216  -426.8862
 217  -296.7303
 218  -134.6159
 219  -158.1228
 220  -166.0677
 221  -329.9223
 222  -371.3139
 223  -380.5647
 224  -458.6057
 225  -373.401
 226  -401.9832
 227  -445.5964
 228  -339.9117
 229  -64.58472
 230  151.1026
 231  276.0095
 232  358.5077
 233  184.4756
 234  378.1226
 235  168.1352
 236  381.7699
 237  830.5022
 238  688.1003
 239  426.9707
 240  216.8007
 241  131.035
 242  -148.1041
 243  -177.3951
 244  46.57403
 245  376.2307
 246  72.04483
 247  59.92832
 248  -47.74702
 249  -314.9771
 250  -168.9054
 251  -2.705292
 252  127.737
 253  -195.6635
 254  -344.3738
 255  -646.2589
 256  -457.9424
 257  -106.5148
 258  -169.8503
 259  119.4004
 260  -61.92871
 261  281.5969
 262  30.36997
 263  -52.93162
 264  -62.48214
 265  -241.6548
 266  -79.28651
 267  115.5748
 268  431.2499
 269  447.7956
 270  310.9154
 271  80.67186
 272  168.5632
 273  71.39005
 274  -187.0291
 275  -353.2243
 276  -44.04575
 277  133.5972
 278  -84.8141
 279  -28.81634
 280  -244.3878
 281  -359.7984
 282  -201.0369
 283  -159.8473
 284  -24.31454
 285  2.904867
 286  36.1613
 287  6.149933
 288  -217.3692
 289  -372.7864
 290  -241.3028
 291  -8.457582
 292  366.9954
 293  56.88142
 294  170.6956
 295  101.7625
 296  253.7925
 297  413.0931
 298  378.9428
 299  62.20178
 300  -161.7956
 301  305.0508
 302  493.9472
 303  338.7954
 304  272.6138
 305  80.12326
 306  -138.2934
 307  -439.5864
 308  -476.6917
 309  -155.6137
 310  -210.242
 311  -316.0734
 312  156.1498
 313  43.22143
 314  -50.25814
 315  -340.3615
 316  -291.1274
 317  -227.591
 318  -160.1161
 319  24.78143
 320  -71.06158
 321  -90.92285
 322  -424.9688
 323  -653.1377
 324  -380.5524
 325  -322.1692
 326  -33.66917
 327  -74.93754
 328  132.7509
 329  21.95492
 330  129.4343
 331  219.3503
 332  -51.64615
 333  -136.0669
 334  -292.6785
 335  -55.40145
 336  -17.78193
 337  191.2376
 338  -152.87
 339  43.39761
 340  -271.1384
 341  -503.511
 342  -318.9317
 343  -267.2387
 344  -208.7997
 345  -233.8833
 346  -163.5913
 347  -147.9472
 348  -537.4761
 349  -563.0706
 350  -467.5109
 351  -560.5677
 352  -739.7314
 353  -167.8784
 354  -126.5985
 355  -98.3802
 356  -188.16
 357  -618.8774
 358  -496.6212
 359  -346.377
 360  138.1329
 361  447.231
 362  89.8334
 363  181.7218
 364  -139.432
 365  84.34016
 366  -78.83322
 367  -185.9258
 368  106.1377
 369  -10.9166
 370  -173.9778
 371  -65.80536
 372  163.4968
 373  96.08128
 374  210.9092
 375  239.6368
 376  370.1437
 377  204.1421
 378  552.9341
 379  1098.402
 380  1487.327
 381  1542.56
 382  1568.549
 383  1403.639
 384  878.9443
 385  341.3389
 386  -13.11762
 387  -107.8677
 388  -106.8368
 389  -166.383
 390  -65.9423
 391  127.5075
 392  2.159531
 393  136.6996
 394  82.43684
 395  419.3237
 396  436.5853
 397  141.7744
 398  331.6009
 399  -19.55113
 400  -136.6992
 401  -513.2346
 402  -258.0005
 403  -276.7655
 404  -141.5915
 405  109.1173
 406  -281.1923
 407  -348.4499
 408  228.2308
 409  -38.24139
 410  -343.2889
 411  -485.4177
 412  -69.79079
 413  16.76266
 414  -303.016
 415  -42.23891
 416  -231.3367
 417  38.79246
 418  -431.9984
 419  -171.1823
 420  76.07755
 421  173.8082
 422  128.1355
 423  -57.60849
 424  -211.9311
 425  -187.9595
 426  186.2209
 427  374.5233
 428  389.996
 429  321.449
 430  143.4297
 431  -121.8659
 432  45.08547
 433  -95.72978
 434  -359.0749
 435  -133.1357
 436  -96.27171
 437  458.568
 438  576.1447
 439  286.8404
 440  -94.9338
 441  191.4441
 442  159.7808
 443  358.5804
 444  644.0341
 445  454.6403
 446  346.5833
 447  -134.8125
 448  -117.3526
 449  29.7069
 450  135.8911
 451  -272.4427
 452  -272.8698
 453  -116.035
 454  -161.0841
 455  -321.5448
 456  -334.3175
 457  179.6804
 458  347.8344
 459  -62.73851
 460  90.68803
 461  252.2873
 462  121.3816
 463  -47.86638
 464  81.23827
 465  294.7949
 466  247.4223
 467  87.41025
 468  -250.1878
 469  -35.96367
 470  -173.0838
 471  30.69537
 472  162.8384
 473  -129.267
 474  83.54231
 475  184.5862
 476  568.6808
 477  364.885
 478  193.0564
 479  339.7373
 480  190.8725
 481  425.4898
 482  650.6855
 483  441.1057
 484  372.1429
 485  392.5897
 486  379.6932
 487  282.7012
 488  360.3867
 489  531.5748
 490  490.2492
 491  258.4419
 492  326.0728
 493  84.69751
 494  105.0057
 495  528.4184
 496  418.4083
 497  184.9668
 498  96.0402
 499  78.93152
 500  -520.3877
 501  -333.2408
 502  -62.3683
 503  -95.85849
 504  2.308053
 505  -104.0435
 506  176.2514
 507  24.92186
 508  442.5322
 509  -39.00318
 510  -136.0044
 511  47.63688
