# Input file       =  1192673223.132615_cleaned.dat
# Candidate        =  PSR_0332+5434
# Telescope        =  AR
# Epoch_topo       =  58048.088450608971
# Epoch_bary       =  N/A
# T_sample         =  0.002
# Data Folded      =  7340032
# Data Avg         =  0.014366770734914
# Data StdDev      =  1.00008246013463 
# Profile Bins     =  512
# Profile Avg      =  205.96498274926  
# Profile StdDev   =  119.742909579065 
# Reduced chi-sqr  =  1.537
# Prob(Noise)      <  6.06e-14   (~7.4 sigma)
# P_topo (ms)      =  714.487407455799  +/- 0.000121
# P'_topo (s/s)    =  -0                +/- 6.39e-11
# P''_topo (s/s^2) =  0                 +/- 2.82e-14
# P_bary (ms)      =  N/A
# P'_bary (s/s)    =  N/A
# P''_bary (s/s^2) =  N/A
# P_orb (s)        =  N/A
# asin(i)/c (s)    =  N/A
# eccentricity     =  N/A
# w (rad)          =  N/A
# T_peri           =  N/A
######################################################
   0  171.7836
   1  209.5208
   2  245.3008
   3  200.2209
   4  92.19799
   5  248.2223
   6  237.7243
   7  158.5029
   8  235.425
   9  258.3105
  10  209.6694
  11  157.306
  12  251.9663
  13  334.9173
  14  317.0072
  15  340.1372
  16  217.7273
  17  35.46264
  18  -6.891795
  19  145.9135
  20  173.0094
  21  83.97037
  22  235.1765
  23  190.9551
  24  269.2403
  25  237.4305
  26  168.692
  27  246.0775
  28  195.8304
  29  105.5136
  30  223.9901
  31  223.9727
  32  84.41885
  33  -37.31338
  34  112.7122
  35  244.3801
  36  106.9802
  37  153.9969
  38  366.8815
  39  268.7531
  40  189.1562
  41  80.90614
  42  244.2479
  43  236.1963
  44  187.1761
  45  213.1101
  46  222.4705
  47  253.9849
  48  272.772
  49  217.1413
  50  181.8759
  51  177.2525
  52  167.8033
  53  188.0929
  54  136.145
  55  176.9383
  56  82.50731
  57  262.9344
  58  386.8453
  59  258.7789
  60  238.0554
  61  133.3036
  62  121.7485
  63  121.1498
  64  138.7234
  65  184.4584
  66  200.3811
  67  241.1379
  68  137.8374
  69  106.72
  70  204.68
  71  193.8413
  72  243.928
  73  199.4759
  74  301.4455
  75  197.3686
  76  212.3484
  77  308.7742
  78  121.4235
  79  162.595
  80  148.0697
  81  149.6638
  82  213.9892
  83  353.8367
  84  271.7011
  85  265.8725
  86  316.9748
  87  157.1167
  88  107.0667
  89  300.7585
  90  231.6875
  91  112.3891
  92  176.3621
  93  140.0835
  94  89.4044
  95  405.9719
  96  336.502
  97  28.65921
  98  83.04022
  99  215.9746
 100  230.7633
 101  264.3961
 102  137.999
 103  242.2039
 104  301.8642
 105  243.2514
 106  114.6113
 107  79.63795
 108  127.4989
 109  150.6984
 110  159.0228
 111  188.5466
 112  57.6429
 113  115.5228
 114  163.213
 115  154.2953
 116  268.9587
 117  360.1086
 118  185.9748
 119  188.132
 120  220.4279
 121  204.1722
 122  276.0121
 123  202.3424
 124  348.6754
 125  263.9678
 126  300.7995
 127  354.1088
 128  185.9003
 129  307.7063
 130  243.537
 131  331.8979
 132  332.9253
 133  213.2234
 134  181.8604
 135  303.4771
 136  236.5418
 137  203.9933
 138  255.405
 139  471.1092
 140  315.0177
 141  143.5148
 142  89.50246
 143  108.5592
 144  213.3437
 145  250.3113
 146  226.2946
 147  143.2122
 148  117.7935
 149  134.3107
 150  121.8921
 151  157.4471
 152  193.4506
 153  282.6313
 154  295.8698
 155  260.4426
 156  315.5462
 157  88.89382
 158  241.5732
 159  346.748
 160  251.0864
 161  176.3409
 162  299.1313
 163  275.0109
 164  275.6017
 165  317.0059
 166  299.4885
 167  443.024
 168  477.6447
 169  690.9155
 170  834.0731
 171  842.7462
 172  885.4019
 173  995.9182
 174  781.2873
 175  449.6721
 176  310.6925
 177  327.591
 178  269.7101
 179  211.7598
 180  94.38288
 181  235.1035
 182  204.7209
 183  171.5729
 184  286.0957
 185  245.1339
 186  284.9391
 187  389.9984
 188  251.493
 189  227.1203
 190  156.7794
 191  160.347
 192  169.814
 193  120.7708
 194  17.69658
 195  207.3741
 196  229.7181
 197  206.8537
 198  133.3484
 199  129.7515
 200  271.7785
 201  157.4711
 202  176.5238
 203  206.7216
 204  96.81324
 205  150.9897
 206  70.48196
 207  207.6728
 208  201.5741
 209  224.4787
 210  322.4746
 211  99.09698
 212  51.68859
 213  179.8509
 214  249.0244
 215  173.2425
 216  176.4036
 217  277.2693
 218  243.6612
 219  147.403
 220  177.4606
 221  132.6039
 222  163.4504
 223  210.4869
 224  303.2407
 225  254.9057
 226  186.5699
 227  211.2962
 228  318.5943
 229  329.7395
 230  289.4467
 231  258.0127
 232  364.7494
 233  244.0907
 234  165.5375
 235  222.8313
 236  135.4723
 237  149.772
 238  196.3702
 239  232.1472
 240  309.0367
 241  177.548
 242  178.0735
 243  162.1028
 244  300.8671
 245  294.6828
 246  337.8186
 247  366.9893
 248  182.5747
 249  48.66555
 250  127.6569
 251  250.8867
 252  247.3369
 253  231.2324
 254  298.4836
 255  148.6094
 256  84.42722
 257  167.3223
 258  147.8331
 259  132.3669
 260  188.9433
 261  203.2755
 262  175.291
 263  233.9552
 264  293.989
 265  158.1117
 266  194.3639
 267  111.8483
 268  16.73944
 269  103.1572
 270  237.9478
 271  212.8421
 272  83.01216
 273  2.636113
 274  199.4697
 275  341.2993
 276  247.6103
 277  248.5865
 278  152.6731
 279  82.86334
 280  89.31612
 281  203.9887
 282  197.1014
 283  145.3111
 284  210.0432
 285  127.8552
 286  234.2619
 287  140.8338
 288  55.45708
 289  87.99439
 290  217.2292
 291  207.8419
 292  111.0008
 293  176.8185
 294  189.1763
 295  167.3616
 296  158.0498
 297  104.1928
 298  127.0746
 299  172.6312
 300  400.1497
 301  202.8749
 302  102.3259
 303  199.2822
 304  208.3908
 305  210.6198
 306  167.335
 307  261.4399
 308  298.9599
 309  295.4752
 310  382.6479
 311  219.493
 312  125.1666
 313  229.7062
 314  217.2874
 315  147.6545
 316  138.4533
 317  201.3854
 318  192.6408
 319  159.0074
 320  186.8631
 321  230.7557
 322  207.458
 323  223.4279
 324  204.2314
 325  173.9235
 326  271.6094
 327  102.1734
 328  195.6055
 329  211.9131
 330  111.4687
 331  246.8424
 332  285.1422
 333  184.2367
 334  91.716
 335  221.7408
 336  300.627
 337  172.4736
 338  51.71801
 339  138.6181
 340  231.4732
 341  171.7344
 342  228.2554
 343  183.6881
 344  90.73946
 345  114.214
 346  307.1741
 347  112.6872
 348  76.0077
 349  140.2819
 350  109.1625
 351  113.4604
 352  47.79416
 353  140.8738
 354  118.9083
 355  83.71609
 356  141.2997
 357  210.1752
 358  178.3849
 359  179.4447
 360  185.663
 361  83.63702
 362  8.427806
 363  146.6908
 364  283.7242
 365  271.4366
 366  140.5079
 367  197.8352
 368  143.6544
 369  146.6092
 370  231.8599
 371  284.0939
 372  251.7828
 373  260.3736
 374  223.2389
 375  147.7979
 376  111.3992
 377  266.6266
 378  266.7651
 379  316.7641
 380  298.5211
 381  334.6009
 382  338.5251
 383  272.3402
 384  246.8922
 385  300.8288
 386  269.3375
 387  199.4413
 388  214.1169
 389  162.6082
 390  154.3919
 391  122.5425
 392  307.2242
 393  237.5972
 394  234.1514
 395  145.8349
 396  189.2825
 397  151.3875
 398  248.89
 399  146.8603
 400  172.1063
 401  225.8079
 402  194.9144
 403  197.7576
 404  132.4019
 405  96.55201
 406  45.83773
 407  108.1703
 408  242.8584
 409  227.9429
 410  178.286
 411  251.1895
 412  17.07017
 413  28.88715
 414  316.702
 415  250.9371
 416  179.3722
 417  132.9469
 418  222.3088
 419  129.8074
 420  89.40863
 421  166.2723
 422  322.2203
 423  319.2174
 424  319.6762
 425  291.5124
 426  287.1469
 427  209.5612
 428  99.79057
 429  77.73212
 430  191.3254
 431  185.2937
 432  190.3102
 433  239.1525
 434  232.3034
 435  211.2274
 436  363.0672
 437  269.2058
 438  173.2583
 439  188.8112
 440  199.3896
 441  248.3791
 442  83.4585
 443  106.4328
 444  124.7768
 445  223.3235
 446  309.4367
 447  143.1518
 448  74.41042
 449  78.77918
 450  71.91514
 451  58.90663
 452  146.8485
 453  257.2725
 454  127.1686
 455  40.90149
 456  184.5389
 457  135.1751
 458  156.747
 459  226.6927
 460  274.562
 461  335.3129
 462  307.3254
 463  246.0808
 464  196.0714
 465  94.85342
 466  76.2515
 467  195.6915
 468  314.0467
 469  310.2923
 470  152.0532
 471  208.3674
 472  208.2225
 473  94.97048
 474  220.0837
 475  247.7981
 476  188.4805
 477  280.2656
 478  133.297
 479  220.1662
 480  221.7195
 481  175.3462
 482  153.2448
 483  225.8683
 484  252.5295
 485  272.0761
 486  117.1453
 487  -24.76414
 488  52.09672
 489  109.7089
 490  111.9877
 491  114.8354
 492  191.6746
 493  253.1328
 494  243.9276
 495  223.2965
 496  157.3416
 497  45.02083
 498  67.34953
 499  192.1978
 500  289.6868
 501  332.5257
 502  327.2896
 503  274.7771
 504  164.515
 505  130.9271
 506  99.77703
 507  115.3921
 508  137.1894
 509  103.0415
 510  66.14317
 511  160.334
