# Input file       =  1192557560.121388_cleaned.dat
# Candidate        =  PSR_0332+5434
# Telescope        =  AR
# Epoch_topo       =  58046.749758349397
# Epoch_bary       =  N/A
# T_sample         =  0.002
# Data Folded      =  7143424
# Data Avg         =  0.193702881684774
# Data StdDev      =  3.78320039892607 
# Profile Bins     =  256
# Profile Avg      =  5404.70034188049 
# Profile StdDev   =  631.964347990734 
# Reduced chi-sqr  =  0.758
# Prob(Noise)      <  0.998   (~0.0 sigma)
# P_topo (ms)      =  714.485970000017  +/- 0.000105
# P'_topo (s/s)    =  -0                +/- 5.7e-11
# P''_topo (s/s^2) =  0                 +/- 2.59e-14
# P_bary (ms)      =  N/A
# P'_bary (s/s)    =  N/A
# P''_bary (s/s^2) =  N/A
# P_orb (s)        =  N/A
# asin(i)/c (s)    =  N/A
# eccentricity     =  N/A
# w (rad)          =  N/A
# T_peri           =  N/A
######################################################
   0  5503.957
   1  5189.858
   2  6056.869
   3  5311.676
   4  4537.804
   5  5010.176
   6  5751.335
   7  5375.092
   8  5125.963
   9  5165.542
  10  5115.953
  11  6027.158
  12  5471.845
  13  5641.274
  14  5565.846
  15  5676.8
  16  5493.935
  17  5517.883
  18  5843.804
  19  5850.797
  20  5039.994
  21  5333.71
  22  5604.703
  23  5710.139
  24  5452.98
  25  5142.65
  26  5079.043
  27  5113.277
  28  4960.867
  29  5103.97
  30  5287.643
  31  5220.141
  32  5746.967
  33  5088.584
  34  4957.968
  35  4614.162
  36  5167.281
  37  5487.104
  38  5088.935
  39  5470.095
  40  5243.43
  41  5326.903
  42  5225.033
  43  6192.073
  44  5207.515
  45  5334.6
  46  5380.737
  47  5160.579
  48  5333.54
  49  5464.035
  50  5390.442
  51  5756.446
  52  5118.4
  53  4588.832
  54  5588.875
  55  5511.773
  56  5634.971
  57  6235.223
  58  5583.139
  59  5724.151
  60  5901.106
  61  5616.959
  62  4686.248
  63  5469.517
  64  6272.488
  65  5947.729
  66  5419.532
  67  5682.124
  68  5811.203
  69  5124.19
  70  5140.226
  71  5123.868
  72  5775.897
  73  5330.224
  74  5240.489
  75  4713.515
  76  5185.577
  77  5317.094
  78  5067.258
  79  5164.485
  80  5167.626
  81  5693.775
  82  5645.218
  83  5365.732
  84  4845.989
  85  5358.856
  86  5232.6
  87  5134.856
  88  5251.319
  89  6039.663
  90  5944.065
  91  5692.999
  92  6075.119
  93  6102.515
  94  5028.793
  95  4635.3
  96  5573.836
  97  6174.646
  98  5689.392
  99  5614.298
 100  5627.638
 101  5821.601
 102  5776.021
 103  4880.866
 104  5738.196
 105  6207.157
 106  5673.74
 107  5676.408
 108  5628.267
 109  5844.605
 110  5326.827
 111  5123.128
 112  5054.642
 113  5546.957
 114  5720.252
 115  5284.536
 116  4933.302
 117  4906.835
 118  5551.423
 119  5616.842
 120  4829.025
 121  5952.745
 122  6176.743
 123  6409.496
 124  6321.399
 125  5762.995
 126  5365.907
 127  5338.245
 128  5224.68
 129  5494.104
 130  5677.305
 131  5298.071
 132  5638.028
 133  5457.832
 134  5939.046
 135  5049.853
 136  4851.842
 137  5448.982
 138  5917.553
 139  5369.157
 140  5623.346
 141  5030.886
 142  5276.991
 143  5440.429
 144  4840.207
 145  5194.647
 146  5654.367
 147  5710.058
 148  5431.818
 149  5048.127
 150  5900.409
 151  5618.06
 152  5073.746
 153  4870.353
 154  5633.606
 155  6414.206
 156  5863.213
 157  5980.388
 158  8253.98
 159  8161.962
 160  6958.443
 161  5400.103
 162  5363.377
 163  5243.696
 164  5087.719
 165  5025.524
 166  5747.769
 167  5617.069
 168  5252.483
 169  4260.805
 170  4873.085
 171  5511.126
 172  5441.073
 173  5389.675
 174  5037.578
 175  5623.961
 176  5585.953
 177  5282.007
 178  5212.963
 179  5067.833
 180  5311.519
 181  4911.057
 182  5326.082
 183  4720.1
 184  5211.824
 185  4893.921
 186  5393.79
 187  4958.318
 188  5654.649
 189  5674.292
 190  5298.658
 191  4943.005
 192  4631.855
 193  5100.437
 194  5248.89
 195  4935.848
 196  5127.802
 197  4877.699
 198  5123.311
 199  4624.282
 200  5346.032
 201  4735.125
 202  5111.937
 203  4772.455
 204  5914.323
 205  5711.697
 206  5099.803
 207  4587.961
 208  5458.773
 209  4634.978
 210  5170.097
 211  4934.458
 212  4908.837
 213  5050.742
 214  4801.713
 215  4938.587
 216  4884.907
 217  5634.501
 218  5473.21
 219  5155.265
 220  5219.641
 221  5762.258
 222  5881.622
 223  5685.641
 224  5397.587
 225  5345.131
 226  5704.746
 227  5028.9
 228  4917.811
 229  5134.724
 230  6059.096
 231  5610.551
 232  4819.877
 233  4884.867
 234  5095.156
 235  5321.5
 236  5399.219
 237  6254.872
 238  5667.989
 239  5478.354
 240  5044.102
 241  5704.424
 242  5205.074
 243  5151.183
 244  4905.853
 245  4970.232
 246  6186.178
 247  5627.6
 248  5628.389
 249  5417.176
 250  5498.887
 251  4695.563
 252  5517.163
 253  5804.716
 254  5421.836
 255  5236.541
