# Input file       =  1192471422.139069_cleaned.dat
# Candidate        =  PSR_0332+5434
# Telescope        =  AR
# Epoch_topo       =  58045.752790961451
# Epoch_bary       =  N/A
# T_sample         =  0.002
# Data Folded      =  7143424
# Data Avg         =  0.0495138658827958
# Data StdDev      =  2.61990556964437 
# Profile Bins     =  1024
# Profile Avg      =  345.40783470875  
# Profile StdDev   =  218.820937371913 
# Reduced chi-sqr  =  1.187
# Prob(Noise)      <  3.06e-05   (~4.0 sigma)
# P_topo (ms)      =  714.485169895326  +/- 0.000239
# P'_topo (s/s)    =  -0                +/- 1.29e-10
# P''_topo (s/s^2) =  0                 +/- 5.87e-14
# P_bary (ms)      =  N/A
# P'_bary (s/s)    =  N/A
# P''_bary (s/s^2) =  N/A
# P_orb (s)        =  N/A
# asin(i)/c (s)    =  N/A
# eccentricity     =  N/A
# w (rad)          =  N/A
# T_peri           =  N/A
######################################################
   0  349.4343
   1  237.5868
   2  112.6297
   3  160.0777
   4  202.049
   5  301.8271
   6  268.7449
   7  315.0866
   8  298.148
   9  311.6015
  10  360.8004
  11  438.1571
  12  475.6582
  13  357.0426
  14  345.54
  15  445.3435
  16  554.3627
  17  568.8814
  18  505.6404
  19  409.2058
  20  327.2673
  21  302.416
  22  428.0755
  23  529.2877
  24  461.3572
  25  487.5472
  26  501.7176
  27  570.9595
  28  502.2338
  29  486.191
  30  394.7131
  31  278.7468
  32  188.3224
  33  225.4977
  34  247.9193
  35  300.2411
  36  405.7518
  37  463.7523
  38  420.7539
  39  320.7228
  40  401.8611
  41  454.0848
  42  491.8947
  43  474.7506
  44  506.9933
  45  480.0905
  46  433.2247
  47  370.5845
  48  358.6079
  49  351.3034
  50  458.986
  51  442.0386
  52  463.7565
  53  349.0754
  54  354.8631
  55  272.1898
  56  282.6611
  57  331.1493
  58  413.1109
  59  397.1678
  60  358.6345
  61  351.9361
  62  415.6925
  63  549.7703
  64  508.7399
  65  474.5762
  66  399.6123
  67  408.3372
  68  386.1952
  69  320.0034
  70  233.8672
  71  348.4888
  72  414.0546
  73  501.5272
  74  276.6566
  75  279.965
  76  230.5903
  77  376.0012
  78  388.2057
  79  438.1756
  80  412.7044
  81  489.6429
  82  514.0001
  83  491.553
  84  324.5085
  85  329.4498
  86  364.9524
  87  491.1177
  88  461.6626
  89  492.5563
  90  526.3381
  91  608.0977
  92  598.9944
  93  560.2757
  94  482.7781
  95  398.0511
  96  334.6061
  97  250.8061
  98  180.6038
  99  156.2119
 100  255.7214
 101  326.2846
 102  392.6707
 103  335.272
 104  339.3018
 105  302.5095
 106  398.6269
 107  416.8647
 108  409.6722
 109  348.9087
 110  335.5918
 111  287.7181
 112  243.6551
 113  206.2949
 114  305.8851
 115  331.4641
 116  375.4926
 117  293.1205
 118  370.6742
 119  408.3107
 120  441.0646
 121  322.4223
 122  184.6929
 123  91.38846
 124  146.6848
 125  324.898
 126  391.8842
 127  223.9978
 128  184.935
 129  197.8582
 130  352.266
 131  279.4341
 132  230.9734
 133  249.1369
 134  268.5095
 135  334.2596
 136  276.0121
 137  378.8119
 138  427.4598
 139  478.8045
 140  399.7481
 141  284.8589
 142  133.8907
 143  98.75964
 144  201.3177
 145  360.9932
 146  312.5559
 147  321.5753
 148  277.368
 149  370.4609
 150  302.1122
 151  367.0631
 152  409.7707
 153  443.1884
 154  454.233
 155  484.4298
 156  504.2031
 157  386.7886
 158  414.6804
 159  415.633
 160  485.7671
 161  419.562
 162  377.5277
 163  219.1053
 164  166.9612
 165  307.3274
 166  372.8297
 167  365.4214
 168  297.9906
 169  336.0609
 170  316.7591
 171  398.1076
 172  391.6328
 173  374.0095
 174  297.8385
 175  372.3035
 176  419.7328
 177  386.9848
 178  368.5982
 179  377.131
 180  438.2685
 181  450.4684
 182  371.3712
 183  343.2603
 184  307.7858
 185  262.0196
 186  194.0997
 187  191.9926
 188  167.7277
 189  265.5833
 190  418.9574
 191  481.9935
 192  418.6555
 193  319.7386
 194  414.4045
 195  585.8064
 196  665.6919
 197  673.1422
 198  619.3447
 199  512.4569
 200  442.2578
 201  401.4828
 202  441.8632
 203  442.7047
 204  426.1265
 205  374.5981
 206  289.2077
 207  300.8863
 208  284.6918
 209  299.4712
 210  238.4073
 211  329.5545
 212  372.7928
 213  423.2707
 214  344.0166
 215  347.4023
 216  263.231
 217  248.07
 218  318.1624
 219  370.4634
 220  416.5906
 221  333.4557
 222  336.1452
 223  328.5852
 224  373.44
 225  409.8734
 226  395.9567
 227  402.6708
 228  379.3788
 229  338.6933
 230  307.5304
 231  306.7678
 232  317.0859
 233  402.11
 234  419.1455
 235  399.0109
 236  340.7343
 237  327.8847
 238  293.2146
 239  239.9907
 240  194.5546
 241  242.3425
 242  262.2517
 243  331.4501
 244  289.2381
 245  231.7471
 246  141.586
 247  278.1792
 248  442.0141
 249  488.7019
 250  380.4431
 251  404.5219
 252  395.8063
 253  496.2143
 254  489.0822
 255  514.8464
 256  445.2123
 257  489.6542
 258  491.0404
 259  444.2894
 260  344.389
 261  300.8155
 262  380.2269
 263  381.777
 264  334.266
 265  250.668
 266  283.8835
 267  311.7308
 268  361.7557
 269  355.4515
 270  387.5121
 271  334.5819
 272  349.2241
 273  440.827
 274  480.7308
 275  435.6762
 276  403.8604
 277  378.3637
 278  312.8029
 279  255.314
 280  251.1151
 281  292.7016
 282  275.4419
 283  295.9721
 284  378.5001
 285  298.0727
 286  345.6995
 287  425.4725
 288  576.118
 289  602.9505
 290  494.4883
 291  498.0878
 292  521.1787
 293  576.8011
 294  475.8188
 295  450.9908
 296  379.5437
 297  461.4749
 298  380.9325
 299  325.0822
 300  219.7953
 301  235.3497
 302  263.6419
 303  377.7488
 304  422.6968
 305  358.2866
 306  226.7722
 307  257.5571
 308  384.7452
 309  324.7431
 310  344.5401
 311  324.4581
 312  349.9543
 313  284.0789
 314  330.2562
 315  316.6426
 316  397.4059
 317  371.3506
 318  465.0235
 319  400.7671
 320  415.8034
 321  343.9189
 322  448.5062
 323  433.2054
 324  463.9178
 325  437.8183
 326  456.1811
 327  343.8236
 328  256.7848
 329  180.7979
 330  160.3867
 331  151.6096
 332  243.2243
 333  375.2268
 334  295.3763
 335  239.7478
 336  349.5166
 337  530.9144
 338  545.174
 339  462.9915
 340  429.3686
 341  403.5588
 342  364.3148
 343  402.8295
 344  422.2614
 345  392.3934
 346  321.5988
 347  399.6891
 348  465.127
 349  481.7325
 350  281.5012
 351  240.4428
 352  247.9172
 353  374.985
 354  407.7098
 355  350.9967
 356  190.3381
 357  210.5393
 358  343.2657
 359  469.6871
 360  395.7247
 361  374.9456
 362  368.2502
 363  217.5753
 364  156.1099
 365  170.6299
 366  368.6114
 367  462.9683
 368  559.9529
 369  471.0063
 370  341.7943
 371  211.5835
 372  201.8247
 373  195.1094
 374  252.2672
 375  228.0854
 376  203.3057
 377  174.659
 378  290.6949
 379  310.6985
 380  297.6885
 381  269.7511
 382  345.4867
 383  365.1299
 384  381.3501
 385  434.7496
 386  388.0708
 387  275.0415
 388  146.8386
 389  156.2151
 390  210.2666
 391  220.5848
 392  289.1446
 393  299.7273
 394  350.4877
 395  385.7527
 396  373.7643
 397  337.4915
 398  283.2005
 399  294.861
 400  384.5052
 401  423.2431
 402  362.282
 403  174.1256
 404  47.97679
 405  86.48081
 406  182.8047
 407  261.542
 408  259.4903
 409  285.4498
 410  295.4872
 411  343.6276
 412  306.5076
 413  272.9492
 414  246.0352
 415  314.0334
 416  414.4218
 417  372.1535
 418  253.8852
 419  222.2292
 420  321.9866
 421  323.2396
 422  212.7493
 423  203.2993
 424  195.9018
 425  187.2632
 426  132.1174
 427  193.8707
 428  293.9333
 429  287.2717
 430  323.8098
 431  285.8102
 432  369.8049
 433  275.5697
 434  297.5306
 435  287.1914
 436  356.3119
 437  413.9927
 438  434.4666
 439  329.1063
 440  322.0043
 441  319.7122
 442  487.461
 443  435.372
 444  395.0338
 445  384.4442
 446  401.89
 447  421.4517
 448  383.621
 449  452.5085
 450  397.1557
 451  475.5312
 452  387.9952
 453  292.2563
 454  172.9217
 455  291.9447
 456  473.9125
 457  468.5438
 458  404.2407
 459  354.3037
 460  286.1598
 461  242.7887
 462  234.3233
 463  312.0684
 464  322.8413
 465  267.8569
 466  302.0645
 467  278.2606
 468  212.2445
 469  213.0802
 470  239.3388
 471  275.48
 472  178.1121
 473  118.6324
 474  110.113
 475  215.355
 476  347.6026
 477  358.091
 478  214.648
 479  157.7635
 480  283.0349
 481  299.3978
 482  252.9287
 483  189.9368
 484  244.4754
 485  220.5629
 486  180.7684
 487  162.0267
 488  186.1583
 489  207.2052
 490  316.2322
 491  394.6209
 492  467.0838
 493  422.9339
 494  394.3526
 495  285.4438
 496  229.2932
 497  286.4259
 498  384.4655
 499  300.2238
 500  131.7501
 501  129.5723
 502  249.6019
 503  350.7759
 504  341.0902
 505  344.3753
 506  366.9497
 507  390.8171
 508  417.927
 509  352.9046
 510  252.2069
 511  368.6374
 512  492.6077
 513  490.2941
 514  349.7484
 515  216.2192
 516  249.4576
 517  120.1684
 518  160.2693
 519  152.2043
 520  169.1085
 521  123.5931
 522  244.5803
 523  326.313
 524  317.9634
 525  310.8921
 526  293.1841
 527  301.2318
 528  184.6697
 529  234.3144
 530  290.8284
 531  288.1579
 532  238.5955
 533  217.5016
 534  239.4908
 535  213.3497
 536  219.787
 537  232.8335
 538  275.018
 539  305.089
 540  337.1429
 541  326.0754
 542  376.8544
 543  423.1671
 544  497.4208
 545  539.7938
 546  506.8246
 547  377.3131
 548  304.9908
 549  271.387
 550  337.3224
 551  330.9658
 552  332.9785
 553  440.7475
 554  459.0214
 555  485.4353
 556  299.1436
 557  227.5056
 558  204.4681
 559  221.6321
 560  245.0599
 561  233.8626
 562  325.2536
 563  342.7502
 564  296.1068
 565  231.8662
 566  247.0699
 567  336.954
 568  367.7981
 569  321.2317
 570  273.8789
 571  270.1829
 572  205.7101
 573  189.8665
 574  220.8015
 575  412.0891
 576  540.0431
 577  571.1572
 578  489.5593
 579  351.2633
 580  267.9932
 581  290.2786
 582  323.9066
 583  312.7914
 584  409.2529
 585  459.3616
 586  461.4312
 587  469.2318
 588  448.3896
 589  498.9887
 590  417.8479
 591  401.8801
 592  265.4274
 593  169.72
 594  225.1514
 595  255.3477
 596  356.348
 597  383.2889
 598  486.0993
 599  462.4704
 600  490.3078
 601  493.4269
 602  423.8784
 603  370.1095
 604  308.5634
 605  398.841
 606  378.9215
 607  319.9214
 608  297.9947
 609  344.3495
 610  404.0304
 611  377.8501
 612  330.3574
 613  388.3279
 614  431.6292
 615  491.4806
 616  463.9189
 617  452.6144
 618  469.0298
 619  471.2705
 620  421.0667
 621  421.0577
 622  489.2701
 623  627.2073
 624  690.3569
 625  644.9645
 626  624.038
 627  632.4575
 628  650.3321
 629  522.9653
 630  599.0937
 631  753.7953
 632  918.6616
 633  1074.757
 634  1180.11
 635  1255.742
 636  1257.022
 637  1326.354
 638  1394.549
 639  1154.676
 640  1020.809
 641  856.8538
 642  816.0493
 643  615.1211
 644  553.7889
 645  444.7461
 646  487.5374
 647  475.0022
 648  438.9573
 649  322.5625
 650  148.0024
 651  194.2185
 652  256.5947
 653  275.4583
 654  281.5854
 655  268.4587
 656  344.3371
 657  333.8118
 658  323.0693
 659  284.7038
 660  319.5242
 661  374.0829
 662  443.2313
 663  435.7151
 664  494.5753
 665  489.002
 666  537.1729
 667  461.6276
 668  434.5422
 669  405.0967
 670  397.3923
 671  347.9494
 672  264.3568
 673  278.4647
 674  261.1759
 675  227.239
 676  252.0872
 677  270.6935
 678  349.4086
 679  358.2463
 680  276.9111
 681  208.5532
 682  173.789
 683  237.7084
 684  251.6038
 685  281.0068
 686  272.7287
 687  272.8157
 688  310.1712
 689  346.4073
 690  305.0315
 691  271.6224
 692  317.2988
 693  385.5099
 694  295.4594
 695  167.086
 696  150.1507
 697  258.3079
 698  388.3698
 699  409.9683
 700  379.0335
 701  259.9442
 702  153.3541
 703  115.4407
 704  163.1726
 705  239.9153
 706  237.6591
 707  259.5933
 708  268.5704
 709  252.9655
 710  320.5315
 711  403.7264
 712  360.1732
 713  314.6021
 714  372.881
 715  404.1044
 716  367.2575
 717  329.6966
 718  321.0326
 719  246.137
 720  241.6083
 721  260.2066
 722  301.4469
 723  237.4242
 724  291.4164
 725  318.2918
 726  311.4177
 727  314.7924
 728  351.668
 729  362.3489
 730  331.677
 731  385.0573
 732  456.022
 733  417.7796
 734  319.618
 735  340.5959
 736  370.9008
 737  443.7113
 738  386.2239
 739  313.0524
 740  209.003
 741  194.1951
 742  368.8143
 743  517.3084
 744  556.3705
 745  395.4408
 746  267.3125
 747  202.1379
 748  277.5818
 749  294.7002
 750  392.6306
 751  421.5423
 752  515.4631
 753  433.7354
 754  388.6343
 755  354.165
 756  400.6308
 757  337.0481
 758  249.8616
 759  197.0599
 760  282.5176
 761  364.9638
 762  388.9654
 763  311.7559
 764  239.7398
 765  200.1738
 766  261.7152
 767  351.6344
 768  281.5716
 769  291.4597
 770  312.9397
 771  389.3867
 772  302.1402
 773  210.8995
 774  177.3435
 775  172.178
 776  113.2047
 777  167.3704
 778  211.0177
 779  373.701
 780  351.2775
 781  270.8609
 782  254.2276
 783  298.6138
 784  402.7251
 785  347.5315
 786  279.1312
 787  308.8336
 788  287.8831
 789  294.5496
 790  313.901
 791  326.1774
 792  365.8545
 793  318.3868
 794  314.0692
 795  318.7131
 796  189.9058
 797  125.2507
 798  145.1343
 799  283.7297
 800  321.7418
 801  249.1794
 802  276.3848
 803  291.3048
 804  357.9004
 805  399.4425
 806  460.2173
 807  332.0757
 808  319.2853
 809  321.4522
 810  460.3792
 811  545.1894
 812  573.751
 813  417.9301
 814  263.7816
 815  280.9349
 816  418.0512
 817  415.6868
 818  307.0119
 819  277.3011
 820  271.3105
 821  198.8722
 822  125.3259
 823  156.5296
 824  248.0122
 825  266.806
 826  326.3927
 827  296.1218
 828  230.8751
 829  225.0962
 830  230.8537
 831  217.5105
 832  250.3192
 833  322.103
 834  430.1859
 835  364.6257
 836  246.1543
 837  233.9432
 838  235.3447
 839  281.2748
 840  321.6039
 841  293.6951
 842  218.9634
 843  182.8908
 844  213.1463
 845  260.5742
 846  218.1091
 847  292.8654
 848  367.0838
 849  373.9034
 850  288.4341
 851  293.3245
 852  371.7074
 853  309.0191
 854  264.4416
 855  233.9784
 856  312.6567
 857  313.847
 858  318.9423
 859  311.838
 860  364.3723
 861  393.7056
 862  465.7745
 863  391.6473
 864  328.4773
 865  294.6105
 866  356.9138
 867  342.3431
 868  266.1755
 869  145.0663
 870  106.4167
 871  119.8614
 872  154.8967
 873  193.5495
 874  225.9258
 875  257.6347
 876  273.7397
 877  284.2475
 878  285.4845
 879  344.6915
 880  371.2237
 881  360.8286
 882  243.0902
 883  234.2057
 884  252.618
 885  237.1746
 886  151.6301
 887  78.55553
 888  99.76556
 889  145.7339
 890  214.0013
 891  262.1017
 892  265.6678
 893  326.0665
 894  364.6328
 895  403.8152
 896  315.897
 897  309.6174
 898  310.867
 899  400.394
 900  360.2065
 901  248.4215
 902  232.8904
 903  277.7533
 904  389.6888
 905  361.1202
 906  425.358
 907  382.0818
 908  387.5374
 909  340.7848
 910  330.6842
 911  201.8457
 912  182.7108
 913  319.126
 914  486.8368
 915  529.1987
 916  528.9273
 917  543.4265
 918  493.95
 919  438.5444
 920  378.0872
 921  400.247
 922  375.2904
 923  367.6136
 924  315.8621
 925  293.3538
 926  394.4365
 927  487.2356
 928  551.1368
 929  284.191
 930  162.1712
 931  202.5255
 932  276.7572
 933  350.7594
 934  391.3327
 935  495.303
 936  423.0171
 937  368.2264
 938  339.5475
 939  280.7964
 940  252.0927
 941  300.8578
 942  421.5198
 943  409.5101
 944  365.0789
 945  349.6317
 946  325.3308
 947  325.0946
 948  320.8779
 949  342.6226
 950  345.2395
 951  322.7553
 952  360.2489
 953  453.7359
 954  421.6609
 955  398.9882
 956  332.1592
 957  381.595
 958  378.5047
 959  381.7559
 960  357.8215
 961  327.3723
 962  411.6289
 963  454.6047
 964  467.2058
 965  241.4987
 966  174.5751
 967  180.3988
 968  311.463
 969  318.5632
 970  356.1397
 971  302.8448
 972  325.1758
 973  235.357
 974  269.5357
 975  308.3478
 976  341.7596
 977  300.4337
 978  310.0536
 979  348.3041
 980  408.7242
 981  383.1624
 982  420.3082
 983  388.1575
 984  319.8921
 985  276.3762
 986  236.7651
 987  230.6407
 988  206.6937
 989  234.8883
 990  250.0421
 991  301.9785
 992  281.7305
 993  259.3742
 994  279.5847
 995  281.4013
 996  364.7811
 997  386.2353
 998  400.2351
 999  352.7361
1000  333.2354
1001  396.3135
1002  253.9624
1003  210.3774
1004  170.4656
1005  273.791
1006  258.5181
1007  218.1217
1008  309.322
1009  393.9556
1010  428.5106
1011  323.7096
1012  249.8843
1013  263.563
1014  288.6028
1015  294.9131
1016  227.2449
1017  207.1223
1018  250.6557
1019  398.9882
1020  541.8857
1021  528.7742
1022  520.0458
1023  427.2021
