# Input file       =  1192658309.141040-PSRB0329-2ms-sampling-dd.dat
# Candidate        =  PSR_0332+5434
# Telescope        =  AR
# Epoch_topo       =  58047.915834965745
# Epoch_bary       =  N/A
# T_sample         =  0.002
# Data Folded      =  7340032
# Data Avg         =  -4.01533793710505e-10
# Data StdDev      =  2.65029840877691 
# Profile Bins     =  512
# Profile Avg      =  -0.0190743590658678
# Profile StdDev   =  317.328275787371 
# Reduced chi-sqr  =  1.307
# Prob(Noise)      <  3.41e-06   (~4.5 sigma)
# P_topo (ms)      =  714.486931639023  +/- 0.000197
# P'_topo (s/s)    =  -0                +/- 1.04e-10
# P''_topo (s/s^2) =  0                 +/- 4.59e-14
# P_bary (ms)      =  N/A
# P'_bary (s/s)    =  N/A
# P''_bary (s/s^2) =  N/A
# P_orb (s)        =  N/A
# asin(i)/c (s)    =  N/A
# eccentricity     =  N/A
# w (rad)          =  N/A
# T_peri           =  N/A
######################################################
   0  -301.2356
   1  -387.5694
   2  -172.4832
   3  -175.8705
   4  -243.8602
   5  -157.3466
   6  -255.4038
   7  -280.1555
   8  -333.8134
   9  -191.8035
  10  -207.5313
  11  -181.6862
  12  -75.27572
  13  -45.1962
  14  -44.13599
  15  342.4016
  16  579.9595
  17  1017.287
  18  1584.888
  19  1830.276
  20  1777.585
  21  1219.529
  22  504.0014
  23  133.6306
  24  91.15128
  25  215.4257
  26  -6.631833
  27  -293.7935
  28  -421.3277
  29  -41.81026
  30  238.0502
  31  144.8329
  32  -9.445114
  33  -82.05105
  34  -268.9359
  35  -394.6328
  36  -335.2797
  37  -127.2093
  38  45.83273
  39  167.6454
  40  77.26339
  41  -146.9563
  42  -183.7126
  43  -397.1246
  44  54.17863
  45  280.3529
  46  240.8027
  47  127.7253
  48  -322.2446
  49  -186.8795
  50  151.4773
  51  34.22032
  52  345.7908
  53  318.401
  54  110.0582
  55  -50.14826
  56  -302.8795
  57  -167.8234
  58  40.99932
  59  150.7981
  60  181.4772
  61  133.1263
  62  16.71284
  63  164.6035
  64  265.6918
  65  127.5618
  66  -12.83387
  67  125.5746
  68  136.0629
  69  183.6954
  70  352.0879
  71  188.0943
  72  310.8416
  73  342.5939
  74  216.7645
  75  385.0941
  76  775.0427
  77  439.7814
  78  451.8488
  79  241.9022
  80  171.336
  81  -27.22943
  82  108.765
  83  -156.6239
  84  -348.8205
  85  -8.939938
  86  -403.55
  87  -370.4191
  88  -274.0541
  89  -138.7115
  90  -216.2473
  91  -83.52427
  92  -5.600156
  93  26.22522
  94  -128.712
  95  116.7547
  96  156.735
  97  -61.66777
  98  -173.5163
  99  -108.5923
 100  11.59529
 101  162.3989
 102  110.1806
 103  175.4209
 104  -25.43786
 105  313.8101
 106  74.26359
 107  -280.4287
 108  -116.4356
 109  247.2031
 110  130.445
 111  300.4794
 112  30.8152
 113  -5.20743
 114  -106.3617
 115  -9.434216
 116  175.6156
 117  46.21647
 118  -33.7625
 119  -177.8387
 120  18.90624
 121  -19.65975
 122  -3.377976
 123  7.078743
 124  219.9609
 125  134.5467
 126  236.7428
 127  129.1775
 128  77.95019
 129  -85.40817
 130  -73.37421
 131  239.6825
 132  386.4448
 133  189.8007
 134  -295.986
 135  -271.0926
 136  47.21014
 137  210.3929
 138  390.3835
 139  232.1636
 140  294.0977
 141  223.0371
 142  -285.9956
 143  -235.6965
 144  -170.2465
 145  -47.93197
 146  -197.6795
 147  -230.2455
 148  -359.3042
 149  32.76633
 150  109.4803
 151  66.79195
 152  82.99287
 153  50.08076
 154  37.15355
 155  -202.3216
 156  195.6647
 157  139.5673
 158  -275.2358
 159  -99.7787
 160  143.7176
 161  112.6276
 162  -77.8729
 163  -17.65584
 164  91.73863
 165  55.39911
 166  135.7912
 167  -18.61474
 168  -18.67207
 169  103.8626
 170  196.792
 171  -12.34764
 172  -116.2095
 173  -14.55675
 174  0.7823079
 175  -113.2514
 176  -46.7872
 177  -13.93659
 178  -67.00423
 179  -108.6068
 180  174.6858
 181  226.617
 182  119.9447
 183  -162.389
 184  -61.67206
 185  30.50664
 186  -11.97258
 187  -8.067681
 188  34.78547
 189  2.765607
 190  -182.6836
 191  -330.0262
 192  -19.71429
 193  -2.803965
 194  59.99544
 195  -198.4244
 196  -188.1543
 197  198.991
 198  197.6248
 199  8.949645
 200  -46.52998
 201  -86.26743
 202  38.33073
 203  -76.0074
 204  -151.4274
 205  -176.8784
 206  -247.9488
 207  -120.9449
 208  56.97664
 209  -102.3836
 210  47.90258
 211  117.098
 212  -155.2175
 213  -75.28188
 214  60.32066
 215  22.70349
 216  289.8316
 217  285.417
 218  49.27763
 219  210.7432
 220  104.8388
 221  121.9856
 222  -86.58952
 223  209.5305
 224  419.8155
 225  -119.5147
 226  82.56646
 227  133.1248
 228  83.35429
 229  330.4803
 230  231.0724
 231  484.087
 232  300.7331
 233  379.1713
 234  231.0466
 235  -177.6255
 236  -207.9163
 237  352.8624
 238  436.0769
 239  161.4551
 240  125.7957
 241  303.3002
 242  36.85223
 243  -56.30723
 244  87.50866
 245  229.7425
 246  299.6699
 247  539.8865
 248  486.8013
 249  463.7629
 250  166.8105
 251  -29.15159
 252  174.856
 253  56.61515
 254  -31.26027
 255  -94.03159
 256  270.7607
 257  423.5754
 258  382.8546
 259  382.9607
 260  604.9809
 261  39.36633
 262  48.04558
 263  0.1290855
 264  307.2376
 265  294.5136
 266  278.3882
 267  275.5624
 268  269.2123
 269  195.8168
 270  125.7609
 271  279.8655
 272  248.1641
 273  326.1409
 274  54.37068
 275  178.1652
 276  109.681
 277  -3.45454
 278  145.3674
 279  -76.53316
 280  -188.5177
 281  -64.8885
 282  213.0163
 283  82.14617
 284  111.1075
 285  96.46931
 286  9.231196
 287  -5.868136
 288  353.0106
 289  282.685
 290  266.3795
 291  229.8301
 292  314.7797
 293  246.7355
 294  157.2029
 295  118.9002
 296  -46.39699
 297  -75.84349
 298  191.5378
 299  -30.41792
 300  159.0811
 301  53.41621
 302  -189.3751
 303  -115.2999
 304  -183.9857
 305  118.7115
 306  108.0876
 307  51.58012
 308  25.53263
 309  -180.7374
 310  -261.4088
 311  -158.4784
 312  -2.847367
 313  -199.4235
 314  -318.6541
 315  -287.0046
 316  0.02103163
 317  -175.221
 318  21.01335
 319  59.01629
 320  47.55392
 321  96.03462
 322  -115.3627
 323  -33.1864
 324  61.35981
 325  -71.45641
 326  -43.02183
 327  -113.8042
 328  74.69466
 329  -360.7557
 330  -281.8849
 331  -1.578761
 332  117.136
 333  34.03691
 334  -206.364
 335  -254.0048
 336  -251.2293
 337  -169.0739
 338  -39.08543
 339  347.93
 340  116.8312
 341  4.460035
 342  44.87508
 343  -123.2463
 344  -266.3157
 345  -221.9861
 346  -320.3932
 347  -128.3495
 348  -87.35647
 349  -106.8365
 350  114.3671
 351  -130.5008
 352  -201.7421
 353  -240.2735
 354  -84.46961
 355  -254.1988
 356  -219.2219
 357  5.082735
 358  106.4982
 359  -55.28328
 360  -67.24454
 361  -33.30225
 362  -53.90398
 363  -347.6885
 364  -248.744
 365  88.13208
 366  162.0869
 367  -351.8365
 368  -369.8136
 369  -206.6851
 370  56.83765
 371  -49.09733
 372  -144.0123
 373  -14.76743
 374  58.99155
 375  -213.126
 376  -374.8344
 377  20.37733
 378  -152.6049
 379  -100.1796
 380  -20.7098
 381  152.2421
 382  37.30427
 383  -455.1359
 384  -228.5501
 385  74.58214
 386  45.98679
 387  -122.1186
 388  -103.8078
 389  -123.7595
 390  54.3345
 391  132.7559
 392  51.53956
 393  55.91238
 394  -206.6871
 395  50.45992
 396  16.57023
 397  275.8422
 398  3.513666
 399  -168.8507
 400  -182.4623
 401  136.3091
 402  -23.18943
 403  -32.05198
 404  -420.872
 405  -128.5084
 406  -135.4452
 407  -154.6505
 408  -97.75208
 409  -253.4209
 410  -177.0614
 411  -324.122
 412  -228.7436
 413  -117.6641
 414  -324.8634
 415  -33.7881
 416  -235.6463
 417  -280.5963
 418  -358.5454
 419  -388.0173
 420  -182.1746
 421  -236.8175
 422  -186.6766
 423  22.13111
 424  -193.2094
 425  -295.9455
 426  -301.5291
 427  -304.0446
 428  -18.85174
 429  -197.9868
 430  -169.4645
 431  -178.0974
 432  -201.3483
 433  -212.7214
 434  -150.9597
 435  120.4385
 436  205.4126
 437  -241.2262
 438  -424.3036
 439  -265.5016
 440  -268.7924
 441  -197.9028
 442  -134.7565
 443  -17.24734
 444  -95.38097
 445  -105.5783
 446  -485.2614
 447  -306.0779
 448  -15.4387
 449  -3.95463
 450  194.2123
 451  13.9608
 452  -155.6129
 453  -116.4594
 454  -469.6859
 455  -351.3507
 456  -385.6535
 457  -191.2126
 458  -138.2362
 459  -330.6499
 460  -512.7132
 461  -605.1702
 462  -597.8312
 463  -397.8121
 464  -325.7922
 465  -41.9352
 466  -289.761
 467  -474.603
 468  -179.5108
 469  -133.7859
 470  51.81768
 471  294.0251
 472  125.6749
 473  -63.22511
 474  -254.6283
 475  -374.4224
 476  -130.1469
 477  -196.8459
 478  -25.42863
 479  -37.69926
 480  -287.7467
 481  -256.5088
 482  -305.5272
 483  -289.3406
 484  71.86671
 485  181.7009
 486  15.88839
 487  118.712
 488  198.8387
 489  -97.52738
 490  67.0285
 491  181.2891
 492  504.2157
 493  592.9177
 494  489.5752
 495  86.33936
 496  -327.5172
 497  -142.6078
 498  -255.8981
 499  -217.8813
 500  77.40471
 501  26.56637
 502  -65.85979
 503  -39.62639
 504  109.06
 505  -46.84954
 506  -128.4961
 507  -295.0629
 508  -180.9691
 509  -398.784
 510  -438.5544
 511  -296.7061
