# Input file       =  1192988327.145844-PSRB0329-2ms-sampling-dd.dat
# Candidate        =  PSR_0332+5434
# Telescope        =  AR
# Epoch_topo       =  58051.735487799124
# Epoch_bary       =  N/A
# T_sample         =  0.002
# Data Folded      =  7208960
# Data Avg         =  3.84464070724619e-10
# Data StdDev      =  4.51062827206351 
# Profile Bins     =  512
# Profile Avg      =  -0.0130389950962437
# Profile StdDev   =  535.227433074053 
# Reduced chi-sqr  =  0.750
# Prob(Noise)      <  1   (~0.0 sigma)
# P_topo (ms)      =  714.490135606336  +/- 0.000109
# P'_topo (s/s)    =  -0                +/- 5.86e-11
# P''_topo (s/s^2) =  0                 +/- 2.63e-14
# P_bary (ms)      =  N/A
# P'_bary (s/s)    =  N/A
# P''_bary (s/s^2) =  N/A
# P_orb (s)        =  N/A
# asin(i)/c (s)    =  N/A
# eccentricity     =  N/A
# w (rad)          =  N/A
# T_peri           =  N/A
######################################################
   0  -154.3156
   1  -390.2169
   2  -528.471
   3  -433.7249
   4  -623.3831
   5  -714.006
   6  -469.1872
   7  -30.02858
   8  4.439909
   9  -116.8979
  10  -521.7231
  11  -404.8752
  12  -521.5749
  13  -382.0527
  14  -136.7101
  15  -40.76905
  16  378.8057
  17  304.9441
  18  -1.654081
  19  -153.1319
  20  135.7049
  21  191.0581
  22  -275.9773
  23  -404.4476
  24  -391.1369
  25  -642.2327
  26  -600.4664
  27  -695.7258
  28  -387.5352
  29  -101.7816
  30  -585.5251
  31  -560.4413
  32  -499.949
  33  -371.8682
  34  2.116781
  35  67.29882
  36  -11.83871
  37  -270.7573
  38  -160.1757
  39  -185.0215
  40  -111.7915
  41  -396.118
  42  -205.842
  43  -159.6528
  44  -297.1981
  45  -418.9834
  46  -255.5023
  47  -176.2118
  48  -373.0197
  49  -357.7654
  50  -245.4823
  51  9.739966
  52  -202.1241
  53  -26.9684
  54  -54.10015
  55  -125.1562
  56  -43.25396
  57  -289.9315
  58  -27.34992
  59  -226.5486
  60  -62.85085
  61  -227.5779
  62  -183.7928
  63  -521.8929
  64  -656.2272
  65  -288.3972
  66  -117.6613
  67  62.80352
  68  -139.5358
  69  -215.299
  70  -337.3969
  71  -368.6967
  72  -263.0397
  73  -422.5201
  74  1.055818
  75  369.1386
  76  183.189
  77  583.431
  78  374.5455
  79  385.2398
  80  335.9868
  81  33.70263
  82  98.72402
  83  472.2142
  84  588.4386
  85  315.294
  86  -41.07236
  87  300.3513
  88  500.5318
  89  297.4342
  90  389.2241
  91  559.6213
  92  939.1987
  93  1298.477
  94  1179.277
  95  1558.099
  96  1218.936
  97  1169.432
  98  996.1807
  99  749.6894
 100  407.1158
 101  69.96018
 102  73.08263
 103  209.472
 104  75.24564
 105  149.385
 106  206.794
 107  388.6299
 108  374.306
 109  65.86986
 110  -38.04562
 111  -173.8201
 112  -16.47309
 113  272.3245
 114  434.1657
 115  230.4597
 116  419.3936
 117  329.6932
 118  9.109782
 119  178.9124
 120  242.6641
 121  558.1884
 122  152.9165
 123  -17.06537
 124  14.09055
 125  -293.2554
 126  -526.4534
 127  49.93952
 128  260.8634
 129  180.2408
 130  -245.2089
 131  -491.0227
 132  -270.1607
 133  146.7003
 134  19.4558
 135  -76.17233
 136  -176.8849
 137  40.52754
 138  -125.0061
 139  -68.22602
 140  20.46364
 141  170.5455
 142  597.5514
 143  -141.0856
 144  -77.17175
 145  1.448812
 146  -245.4117
 147  -312.0638
 148  -36.50967
 149  172.8416
 150  206.035
 151  334.9882
 152  -14.96758
 153  8.262942
 154  -195.4014
 155  -76.93567
 156  -201.5475
 157  -418.3579
 158  -118.5035
 159  37.38567
 160  -86.77728
 161  -249.5592
 162  -78.77972
 163  -245.0305
 164  -347.4963
 165  32.75436
 166  266.8759
 167  120.3372
 168  -193.8017
 169  -53.00962
 170  -85.05933
 171  -133.0031
 172  -347.343
 173  -102.6001
 174  251.433
 175  -108.8789
 176  -159.4723
 177  -164.0289
 178  -87.27339
 179  -132.4282
 180  -180.8011
 181  -61.78063
 182  7.752619
 183  -165.5241
 184  -284.3687
 185  -85.69333
 186  292.0663
 187  638.1948
 188  437.2654
 189  459.9321
 190  461.8573
 191  16.34576
 192  -174.542
 193  312.3811
 194  660.1683
 195  639.0184
 196  598.3556
 197  412.5869
 198  486.0257
 199  47.00675
 200  -43.65669
 201  -158.8463
 202  300.6765
 203  536.4243
 204  211.0106
 205  -25.29024
 206  -11.7907
 207  -17.1384
 208  79.56091
 209  330.8425
 210  336.6286
 211  206.918
 212  131.8076
 213  378.1599
 214  416.5711
 215  549.4657
 216  522.0878
 217  210.8427
 218  -182.6688
 219  -75.41912
 220  714.5173
 221  364.0713
 222  509.8204
 223  301.477
 224  162.7249
 225  33.07938
 226  -281.4599
 227  252.0626
 228  382.1836
 229  190.445
 230  -370.889
 231  -410.0042
 232  -250.5037
 233  -158.8889
 234  51.86669
 235  122.7397
 236  -39.6795
 237  -216.079
 238  -429.1241
 239  -227.4957
 240  182.2065
 241  319.2566
 242  173.1114
 243  122.6054
 244  -282.0802
 245  -642.14
 246  -144.7128
 247  -84.39815
 248  108.6728
 249  464.8826
 250  605.4655
 251  -173.5132
 252  -206.2205
 253  17.55342
 254  -291.3401
 255  -77.2782
 256  225.3793
 257  48.08981
 258  -300.0938
 259  -326.9351
 260  -41.11184
 261  403.4138
 262  821.8532
 263  732.0421
 264  601.796
 265  456.4955
 266  93.6058
 267  139.1826
 268  252.0061
 269  211.8818
 270  518.1857
 271  551.7681
 272  440.3891
 273  133.0914
 274  7.170843
 275  -65.52021
 276  132.1826
 277  105.6525
 278  -24.1995
 279  435.7615
 280  273.9113
 281  16.26645
 282  -186.9883
 283  -72.967
 284  -292.1762
 285  -110.8066
 286  14.69932
 287  24.47341
 288  64.78049
 289  342.0088
 290  110.7576
 291  -98.64994
 292  -158.2095
 293  -178.9634
 294  147.2473
 295  113.7371
 296  302.3446
 297  189.4692
 298  -115.9503
 299  -467.8595
 300  -431.9832
 301  -119.4089
 302  -7.373468
 303  203.9442
 304  143.4272
 305  370.899
 306  375.0239
 307  282.7905
 308  -56.28854
 309  -59.17743
 310  -51.73331
 311  -228.4901
 312  11.12933
 313  47.71508
 314  420.9637
 315  316.0137
 316  280.863
 317  174.7355
 318  227.4928
 319  277.3914
 320  1.026556
 321  244.9682
 322  782.6171
 323  784.5724
 324  474.7635
 325  437.8409
 326  356.6523
 327  79.96332
 328  -78.79106
 329  262.3936
 330  369.4194
 331  291.7388
 332  434.3614
 333  -151.8412
 334  49.24624
 335  33.56301
 336  18.42763
 337  63.47163
 338  -35.91355
 339  187.1254
 340  -25.63983
 341  14.58567
 342  -2.825262
 343  -165.1814
 344  277.3767
 345  -33.88159
 346  -121.4735
 347  30.85932
 348  210.9809
 349  332.6573
 350  540.996
 351  343.0573
 352  -37.73594
 353  111.6093
 354  56.22669
 355  381.7315
 356  798.7761
 357  403.6147
 358  241.5459
 359  260.119
 360  21.89517
 361  219.0044
 362  515.8873
 363  659.5211
 364  555.2449
 365  446.8717
 366  224.1498
 367  -141.675
 368  22.83929
 369  327.4018
 370  524.853
 371  168.1495
 372  -117.393
 373  -246.0877
 374  -238.2807
 375  -271.9398
 376  -87.8133
 377  31.22128
 378  -220.2945
 379  -487.4075
 380  -260.7625
 381  43.15287
 382  -300.2922
 383  -54.68132
 384  66.22375
 385  6.020412
 386  -13.33322
 387  -248.6878
 388  -358.6102
 389  -21.01149
 390  -88.27435
 391  49.54001
 392  59.57542
 393  -7.711856
 394  -3.435641
 395  -229.5663
 396  30.26013
 397  -9.573703
 398  19.90712
 399  293.2947
 400  125.4515
 401  47.15874
 402  -260.5264
 403  -479.7928
 404  -480.4066
 405  -443.1049
 406  -438.5261
 407  -386.3611
 408  -298.706
 409  -388.1168
 410  -480.5348
 411  -381.3232
 412  23.35736
 413  -317.475
 414  -454.6256
 415  -344.5407
 416  -156.6746
 417  -368.2486
 418  -346.2538
 419  -291.5105
 420  -16.04274
 421  -246.8332
 422  191.5353
 423  385.569
 424  112.0183
 425  -36.78998
 426  -573.4208
 427  -594.0037
 428  -476.08
 429  -499.9932
 430  -116.0347
 431  213.3731
 432  211.0159
 433  -74.16941
 434  -559.8268
 435  -604.673
 436  -315.0591
 437  -121.2295
 438  316.8732
 439  367.7507
 440  -54.76043
 441  -279.5114
 442  -491.7906
 443  -704.3149
 444  -318.8791
 445  24.69178
 446  -236.3656
 447  -325.8131
 448  -636.4778
 449  -544.7495
 450  -463.3665
 451  -480.0292
 452  -150.7275
 453  -73.45972
 454  7.200809
 455  -130.4477
 456  -137.6265
 457  -217.0175
 458  -179.8899
 459  -2.365841
 460  40.99405
 461  179.4915
 462  -377.9244
 463  -419.1599
 464  -314.6618
 465  -257.6208
 466  -313.1585
 467  257.5519
 468  218.6187
 469  32.93627
 470  -382.7287
 471  -504.8814
 472  -378.2237
 473  -202.1425
 474  238.9455
 475  299.9955
 476  -49.34207
 477  -437.6061
 478  -209.5839
 479  -424.1904
 480  -298.7375
 481  -14.05618
 482  64.28824
 483  -186.8751
 484  -239.3411
 485  -349.4068
 486  -351.3047
 487  -224.7963
 488  -369.1808
 489  -206.0399
 490  -218.8441
 491  -224.3944
 492  -137.6671
 493  -249.2469
 494  -100.2555
 495  -582.808
 496  -246.296
 497  -85.76138
 498  329.0324
 499  26.07609
 500  36.01213
 501  -93.15367
 502  -546.7737
 503  -211.2644
 504  145.1912
 505  15.3198
 506  -85.41844
 507  -238.4268
 508  -205.2213
 509  -437.8886
 510  -508.4101
 511  -307.4532
