# Input file       =  1192471422.139069-PSRB0329-2ms-sampling-dd.dat
# Candidate        =  PSR_0332+5434
# Telescope        =  AR
# Epoch_topo       =  58045.752790961451
# Epoch_bary       =  N/A
# T_sample         =  0.002
# Data Folded      =  7208960
# Data Avg         =  5.98595298162322e-10
# Data StdDev      =  3.89692542438695 
# Profile Bins     =  512
# Profile Avg      =  0.0803547078641521
# Profile StdDev   =  462.40595898661  
# Reduced chi-sqr  =  1.193
# Prob(Noise)      <  0.00172   (~2.9 sigma)
# P_topo (ms)      =  714.485169897187  +/- 0.000314
# P'_topo (s/s)    =  -0                +/- 1.69e-10
# P''_topo (s/s^2) =  0                 +/- 7.59e-14
# P_bary (ms)      =  N/A
# P'_bary (s/s)    =  N/A
# P''_bary (s/s^2) =  N/A
# P_orb (s)        =  N/A
# asin(i)/c (s)    =  N/A
# eccentricity     =  N/A
# w (rad)          =  N/A
# T_peri           =  N/A
######################################################
   0  166.4293
   1  288.2731
   2  170.5677
   3  104.2491
   4  -126.0636
   5  -90.67127
   6  -130.3713
   7  -324.8351
   8  -211.6197
   9  -299.4287
  10  -286.0563
  11  45.07231
  12  92.68801
  13  150.991
  14  -66.50142
  15  -88.62388
  16  15.68394
  17  95.742
  18  399.6846
  19  440.3231
  20  373.0304
  21  459.3323
  22  301.9261
  23  3.557432
  24  -388.8662
  25  -417.5319
  26  -60.45837
  27  -153.4457
  28  9.825134
  29  15.64983
  30  -238.4267
  31  -541.9793
  32  -608.201
  33  -406.3225
  34  -266.9544
  35  -166.6166
  36  -97.28233
  37  -53.9657
  38  -331.6229
  39  -628.2355
  40  -544.0318
  41  -341.3948
  42  -336.5131
  43  148.2709
  44  63.13039
  45  21.80759
  46  96.20188
  47  -12.40417
  48  34.5619
  49  -131.0111
  50  -443.1672
  51  -173.4021
  52  -383.385
  53  -275.9476
  54  -0.9511822
  55  -167.231
  56  -380.7286
  57  -280.7924
  58  25.06693
  59  -7.130763
  60  -399.0858
  61  -348.6072
  62  -466.522
  63  -429.6584
  64  -253.733
  65  -387.1008
  66  -128.6001
  67  148.3139
  68  -183.3922
  69  -228.389
  70  -180.7078
  71  -15.23337
  72  87.75254
  73  69.4863
  74  132.4728
  75  -49.10653
  76  -724.836
  77  -745.7578
  78  -527.0841
  79  -380.536
  80  -227.7874
  81  -395.7441
  82  -110.6936
  83  -277.9009
  84  -313.3025
  85  -482.8645
  86  -504.5989
  87  -529.3008
  88  -324.4854
  89  -381.6929
  90  -427.165
  91  -446.2135
  92  -473.2202
  93  -54.33439
  94  -290.2099
  95  -39.89637
  96  -78.94901
  97  -121.7605
  98  -76.97385
  99  -154.8319
 100  -32.31286
 101  -300.7537
 102  6.98772
 103  109.6066
 104  -173.8355
 105  -572.5799
 106  -456.5561
 107  -514.7071
 108  -525.5827
 109  -523.3363
 110  -447.693
 111  -619.0211
 112  -195.058
 113  -239.1064
 114  -388.5598
 115  -297.6544
 116  -491.3334
 117  -608.0703
 118  -659.4402
 119  -432.4808
 120  -68.18368
 121  -217.7849
 122  -494.2063
 123  -302.7539
 124  -651.4803
 125  -494.9528
 126  -232.3297
 127  -65.93916
 128  12.31516
 129  -219.6476
 130  83.61427
 131  -86.40997
 132  -619.9696
 133  -761.6
 134  -713.9742
 135  -532.4908
 136  -135.7243
 137  -241.2291
 138  -223.1349
 139  -407.7527
 140  -456.6866
 141  -586.8781
 142  -545.1362
 143  -401.5439
 144  -341.5725
 145  -81.25822
 146  46.87018
 147  229.6126
 148  -228.7944
 149  -302.9099
 150  -192.6766
 151  -26.01719
 152  -120.5441
 153  -566.8275
 154  -372.0394
 155  -181.5371
 156  -147.0152
 157  -325.6139
 158  -179.0322
 159  -286.2039
 160  -207.8063
 161  -116.7973
 162  452.0677
 163  714.5396
 164  204.9813
 165  123.893
 166  276.0924
 167  590.0856
 168  513.8134
 169  438.3178
 170  234.4915
 171  -112.1444
 172  13.25497
 173  184.2353
 174  291.7125
 175  263.2461
 176  225.2739
 177  436.5842
 178  258.2451
 179  320.0536
 180  138.6564
 181  248.711
 182  475.6665
 183  637.3439
 184  744.2377
 185  766.126
 186  1090.193
 187  912.6338
 188  913.1866
 189  691.1138
 190  1129.349
 191  1616.897
 192  1785.048
 193  2001.004
 194  1568.528
 195  1284.24
 196  931.1744
 197  576.2898
 198  435.2953
 199  -12.04095
 200  -147.8813
 201  22.24597
 202  196.4017
 203  445.3697
 204  430.7592
 205  843.1066
 206  970.1662
 207  764.2732
 208  496.4896
 209  540.5001
 210  543.2282
 211  556.0089
 212  616.4723
 213  619.8132
 214  395.5005
 215  -80.18924
 216  51.12954
 217  68.40475
 218  55.98575
 219  60.19349
 220  3.008756
 221  90.34687
 222  -367.64
 223  -82.59962
 224  107.6158
 225  -282.9645
 226  -486.2892
 227  -393.987
 228  -162.2023
 229  2.014487
 230  223.5142
 231  187.9335
 232  141.3077
 233  -182.0562
 234  -281.4497
 235  -90.03963
 236  -13.41452
 237  87.30903
 238  277.189
 239  319.2074
 240  386.2417
 241  139.9686
 242  118.7302
 243  311.8081
 244  -60.23365
 245  -155.7593
 246  388.0566
 247  31.09688
 248  -60.02987
 249  338.6819
 250  509.3679
 251  292.9336
 252  69.63939
 253  -157.2207
 254  -286.4193
 255  -206.4888
 256  -222.6992
 257  -271.927
 258  71.09359
 259  -61.37508
 260  -79.20432
 261  -458.9413
 262  -690.4646
 263  -478.6735
 264  50.37694
 265  -148.8763
 266  65.50616
 267  13.0387
 268  18.581
 269  39.26238
 270  43.53107
 271  35.16827
 272  20.26302
 273  -63.37505
 274  339.9827
 275  417.7955
 276  402.9782
 277  341.4546
 278  221.2078
 279  524.5717
 280  752.6165
 281  248.6289
 282  298.682
 283  185.6549
 284  -102.962
 285  -280.0184
 286  -368.6787
 287  -390.7898
 288  -504.1953
 289  -452.5618
 290  -391.8526
 291  -163.8841
 292  -353.0621
 293  -375.3358
 294  -33.96815
 295  -222.6039
 296  -230.397
 297  -68.54787
 298  -21.38096
 299  -156.2229
 300  -176.4867
 301  -277.3181
 302  -325.7657
 303  -259.0656
 304  -301.7995
 305  -5.683729
 306  -140.9628
 307  -270.1374
 308  -191.5261
 309  -550.5724
 310  -439.7691
 311  -385.4156
 312  -321.1595
 313  -273.6037
 314  -273.6646
 315  -369.2124
 316  -396.7657
 317  -543.9863
 318  -815.9971
 319  -602.3795
 320  -567.2453
 321  -396.6593
 322  -316.9097
 323  -262.0953
 324  -114.3777
 325  -412.6352
 326  -160.6781
 327  -171.7407
 328  -243.9365
 329  -319.952
 330  -413.5285
 331  141.5423
 332  360.0003
 333  328.8223
 334  108.1607
 335  106.04
 336  -42.80101
 337  -61.14388
 338  327.5001
 339  -267.3455
 340  -3.796531
 341  267.9128
 342  404.1575
 343  60.1179
 344  -313.5699
 345  -183.3603
 346  -163.0881
 347  -101.174
 348  -142.2674
 349  -64.64255
 350  43.95997
 351  178.1415
 352  -62.88425
 353  111.4834
 354  231.0842
 355  338.3737
 356  459.512
 357  -3.015536
 358  48.95233
 359  122.7311
 360  298.6795
 361  292.7974
 362  400.3006
 363  345.0786
 364  457.8415
 365  445.3008
 366  315.1836
 367  205.0883
 368  143.5549
 369  299.6405
 370  303.6733
 371  34.61005
 372  76.43884
 373  158.3975
 374  220.1037
 375  83.02115
 376  65.11256
 377  262.5295
 378  173.1872
 379  413.7547
 380  -44.7518
 381  51.06246
 382  97.67366
 383  82.71359
 384  491.81
 385  614.8066
 386  291.7697
 387  -194.158
 388  -83.64275
 389  80.28211
 390  156.6806
 391  132.0663
 392  275.3358
 393  156.2296
 394  436.8104
 395  447.6278
 396  54.63945
 397  177.0752
 398  347.435
 399  395.1142
 400  485.0294
 401  375.6476
 402  17.25843
 403  6.955912
 404  174.1509
 405  74.65752
 406  -29.81272
 407  200.3984
 408  351.2022
 409  284.4426
 410  107.8075
 411  207.5252
 412  222.6439
 413  -6.066404
 414  -178.2619
 415  95.83805
 416  -34.31844
 417  18.16117
 418  294.957
 419  156.6721
 420  -30.69638
 421  -50.91888
 422  216.0048
 423  232.3616
 424  20.52488
 425  204.5615
 426  237.2322
 427  258.701
 428  97.63653
 429  143.3773
 430  517.3079
 431  428.5645
 432  558.8431
 433  264.6337
 434  42.6984
 435  -136.5315
 436  30.00681
 437  289.8062
 438  41.9931
 439  -5.172864
 440  115.68
 441  239.9135
 442  90.30651
 443  182.5065
 444  395.5554
 445  155.4151
 446  271.7145
 447  -309.6631
 448  -559.8486
 449  -125.9508
 450  -289.2679
 451  -36.55796
 452  -284.5355
 453  -297.7152
 454  -348.5689
 455  17.12853
 456  87.4419
 457  -98.77888
 458  -198.5372
 459  125.7508
 460  -41.94252
 461  -163.8689
 462  -107.2144
 463  -13.44826
 464  183.8265
 465  0.8992565
 466  171.6794
 467  -40.62876
 468  -504.5435
 469  -281.0992
 470  -321.6183
 471  -249.0891
 472  -64.7711
 473  -3.348659
 474  46.57209
 475  -12.12107
 476  9.343436
 477  -109.8691
 478  -179.7974
 479  -451.6597
 480  -488.1247
 481  -116.4321
 482  24.90175
 483  -155.8548
 484  250.4228
 485  422.1441
 486  -3.035506
 487  -3.43049
 488  -85.27161
 489  -221.367
 490  -159.6139
 491  -144.7393
 492  133.5847
 493  196.6755
 494  -4.353061
 495  -64.79707
 496  226.4665
 497  219.4007
 498  363.6481
 499  580.1932
 500  754.1329
 501  587.3631
 502  342.3676
 503  232.819
 504  282.704
 505  78.96332
 506  -206.8808
 507  -170.0261
 508  -164.4466
 509  -341.5157
 510  54.78064
 511  268.0397
