# Input file       =  1192759393.134662_cleaned.dat
# Candidate        =  PSR_0332+5434
# Telescope        =  AR
# Epoch_topo       =  58049.085788595621
# Epoch_bary       =  N/A
# T_sample         =  0.002
# Data Folded      =  7340032
# Data Avg         =  0.0524283150620506
# Data StdDev      =  2.6634030484251  
# Profile Bins     =  1024
# Profile Avg      =  375.800749675861 
# Profile StdDev   =  225.494467432452 
# Reduced chi-sqr  =  1.347
# Prob(Noise)      <  6.33e-13   (~7.1 sigma)
# P_topo (ms)      =  714.488234176441  +/- 0.000111
# P'_topo (s/s)    =  -0                +/- 5.88e-11
# P''_topo (s/s^2) =  0                 +/- 2.6e-14
# P_bary (ms)      =  N/A
# P'_bary (s/s)    =  N/A
# P''_bary (s/s^2) =  N/A
# P_orb (s)        =  N/A
# asin(i)/c (s)    =  N/A
# eccentricity     =  N/A
# w (rad)          =  N/A
# T_peri           =  N/A
######################################################
   0  492.0062
   1  495.4743
   2  400.7696
   3  281.8154
   4  235.0816
   5  420.3652
   6  446.0835
   7  546.845
   8  467.8164
   9  465.3908
  10  272.8056
  11  377.9364
  12  448.643
  13  593.7026
  14  626.9835
  15  571.0755
  16  479.3025
  17  444.0538
  18  497.6244
  19  459.6541
  20  394.655
  21  326.3183
  22  217.1407
  23  296.0496
  24  336.0174
  25  429.6271
  26  345.1373
  27  310.2214
  28  277.0231
  29  281.6421
  30  333.9839
  31  343.0572
  32  374.4245
  33  280.3946
  34  347.1446
  35  372.13
  36  465.2119
  37  318.3687
  38  269.1793
  39  286.048
  40  320.7614
  41  281.8879
  42  203.3275
  43  216.3895
  44  243.5925
  45  312.8581
  46  405.9649
  47  444.1345
  48  523.9634
  49  478.1389
  50  432.1486
  51  339.4722
  52  416.1995
  53  391.5172
  54  402.0845
  55  354.5962
  56  313.5071
  57  316.2775
  58  342.6707
  59  421.5499
  60  294.6379
  61  145.9535
  62  201.4069
  63  289.1253
  64  369.4411
  65  438.8893
  66  499.9306
  67  413.9122
  68  236.7073
  69  155.7085
  70  96.84983
  71  142.5612
  72  186.7998
  73  344.6515
  74  415.064
  75  440.8837
  76  363.5025
  77  420.4008
  78  333.7061
  79  424.6093
  80  308.9702
  81  323.9207
  82  200.8294
  83  189.3606
  84  210.2168
  85  226.7513
  86  312.1226
  87  395.4383
  88  417.8029
  89  445.2265
  90  486.1334
  91  439.8184
  92  359.4453
  93  307.7516
  94  368.1814
  95  441.1043
  96  473.4698
  97  467.4805
  98  395.1681
  99  302.2298
 100  283.0653
 101  406.7908
 102  428.5593
 103  415.2952
 104  396.2326
 105  376.8251
 106  237.16
 107  142.9434
 108  150.6288
 109  187.6987
 110  317.2956
 111  359.8481
 112  484.1691
 113  410.8541
 114  391.1701
 115  361.211
 116  504.676
 117  547.7195
 118  546.9404
 119  435.9333
 120  346.7951
 121  364.2536
 122  382.3234
 123  342.955
 124  287.8167
 125  250.2228
 126  289.4863
 127  282.9539
 128  438.8102
 129  539.6993
 130  495.1893
 131  433.8684
 132  227.5156
 133  184.7621
 134  141.4098
 135  184.8157
 136  130.9046
 137  108.9506
 138  164.107
 139  300.7874
 140  329.0688
 141  350.8969
 142  326.1589
 143  383.1116
 144  369.0158
 145  405.6364
 146  399.9823
 147  346.351
 148  216.2813
 149  225.3466
 150  346.7129
 151  330.5207
 152  211.5704
 153  116.2852
 154  177.6219
 155  235.1176
 156  186.7408
 157  149.7943
 158  194.5478
 159  286.3559
 160  329.0561
 161  206.6722
 162  105.4549
 163  3.451103
 164  145.5954
 165  316.6792
 166  388.8285
 167  386.3312
 168  346.7159
 169  300.3937
 170  246.0866
 171  295.8911
 172  413.1009
 173  513.5095
 174  489.7417
 175  514.7664
 176  439.1036
 177  366.8281
 178  350.6906
 179  430.1152
 180  421.618
 181  286.8521
 182  304.1487
 183  401.4829
 184  466.1534
 185  305.7012
 186  289.8421
 187  282.8878
 188  355.2803
 189  300.6625
 190  303.2391
 191  344.1359
 192  292.486
 193  249.0513
 194  301.1737
 195  287.0907
 196  219.5581
 197  133.0538
 198  171.6926
 199  268.7842
 200  231.3628
 201  229.0392
 202  211.1106
 203  164.0578
 204  150.3974
 205  198.0149
 206  289.9999
 207  393.0999
 208  317.473
 209  428.0118
 210  493.9742
 211  607.1111
 212  584.0607
 213  470.3493
 214  443.008
 215  500.6455
 216  574.8716
 217  498.8104
 218  383.8185
 219  325.6934
 220  330.2124
 221  303.7143
 222  272.4772
 223  235.8994
 224  281.5942
 225  244.1822
 226  320.093
 227  370.8629
 228  468.4341
 229  495.3853
 230  489.828
 231  511.7542
 232  548.845
 233  558.3739
 234  573.5288
 235  474.6675
 236  410.8591
 237  318.5251
 238  224.6335
 239  182.7995
 240  278.7898
 241  341.4016
 242  402.6154
 243  363.7081
 244  419.0466
 245  334.6378
 246  228.5265
 247  169.086
 248  256.4322
 249  304.4501
 250  231.9514
 251  194.8862
 252  224.0327
 253  313.2386
 254  290.0106
 255  229.6795
 256  256.4039
 257  341.7906
 258  337.5673
 259  283.1234
 260  235.3115
 261  275.3191
 262  292.0027
 263  260.3263
 264  229.2554
 265  204.5709
 266  263.5399
 267  355.2442
 268  375.2115
 269  381.7292
 270  366.0222
 271  335.2351
 272  307.1728
 273  206.3434
 274  201.8636
 275  168.2809
 276  298.4261
 277  346.4033
 278  317.9612
 279  183.8161
 280  173.7684
 281  182.7891
 282  244.7666
 283  185.2581
 284  210.2191
 285  155.7981
 286  318.1559
 287  380.8035
 288  453.3307
 289  403.2964
 290  251.4904
 291  171.0492
 292  165.1721
 293  314.0938
 294  432.6953
 295  467.0654
 296  414.8208
 297  317.6976
 298  231.1568
 299  284.3672
 300  249.7761
 301  281.5552
 302  263.9631
 303  273.7076
 304  294.1501
 305  331.0168
 306  453.1472
 307  319.796
 308  296.56
 309  279.5613
 310  434.0228
 311  324.5516
 312  200.7341
 313  160.6365
 314  204.363
 315  288.2729
 316  339.2129
 317  372.5608
 318  333.0925
 319  320.7903
 320  328.995
 321  323.9728
 322  434.5538
 323  546.0589
 324  572.2521
 325  507.1982
 326  355.5505
 327  346.2914
 328  334.014
 329  344.2563
 330  454.1568
 331  461.7122
 332  450.0429
 333  314.3446
 334  269.4011
 335  359.0128
 336  559.7618
 337  727.7154
 338  860.7408
 339  720.908
 340  604.3696
 341  363.534
 342  319.226
 343  298.8556
 344  448.2627
 345  455.6322
 346  432.2938
 347  409.2069
 348  473.0844
 349  407.4039
 350  255.8281
 351  221.2091
 352  281.1923
 353  295.9491
 354  326.8744
 355  333.6511
 356  350.1925
 357  334.3092
 358  411.5896
 359  420.8224
 360  403.2294
 361  355.292
 362  328.6271
 363  327.0792
 364  229.0937
 365  212.4191
 366  171.4339
 367  208.5741
 368  201.28
 369  138.4881
 370  208.6472
 371  372.4508
 372  590.4044
 373  641.7408
 374  602.2117
 375  559.0909
 376  447.1895
 377  355.3388
 378  258.5556
 379  270.9137
 380  184.3848
 381  203.278
 382  286.3769
 383  446.219
 384  394.8164
 385  314.0467
 386  301.2447
 387  357.84
 388  395.2509
 389  298.8065
 390  296.7125
 391  359.4637
 392  408.8767
 393  355.4798
 394  274.0651
 395  265.8657
 396  314.0278
 397  269.9725
 398  304.3024
 399  307.8383
 400  379.8026
 401  327.3633
 402  364.4944
 403  367.1906
 404  364.1483
 405  353.0766
 406  416.7805
 407  399.1124
 408  339.5039
 409  241.3614
 410  219.8392
 411  171.3297
 412  231.7364
 413  382.0349
 414  480.8893
 415  450.115
 416  374.4841
 417  386.4098
 418  370.9611
 419  370.3823
 420  334.2532
 421  251.6907
 422  173.3149
 423  134.3419
 424  232.9638
 425  268.6552
 426  183.6683
 427  159.637
 428  247.7937
 429  338.8093
 430  385.5515
 431  473.1145
 432  509.473
 433  453.9546
 434  241.9482
 435  257.294
 436  259.3807
 437  346.4938
 438  292.4267
 439  320.3542
 440  317.2442
 441  396.8091
 442  391.7984
 443  353.302
 444  335.7041
 445  397.7354
 446  445.9724
 447  363.3812
 448  384.0299
 449  496.8788
 450  437.0304
 451  332.0443
 452  320.6351
 453  346.3669
 454  250.3926
 455  153.7494
 456  250.2921
 457  465.5775
 458  460.991
 459  408.8499
 460  282.5889
 461  243.2065
 462  180.4744
 463  100.4496
 464  164.9566
 465  229.2013
 466  296.344
 467  277.4967
 468  226.6499
 469  355.7196
 470  450.0034
 471  480.5432
 472  413.7285
 473  346.7057
 474  325.1699
 475  381.5908
 476  335.1761
 477  321.0362
 478  204.1681
 479  181.7565
 480  158.8343
 481  323.5414
 482  369.2271
 483  271.0993
 484  247.79
 485  319.9826
 486  513.6728
 487  419.229
 488  385.242
 489  332.352
 490  315.0028
 491  289.2585
 492  239.4129
 493  240.8801
 494  221.6424
 495  376.5244
 496  485.5186
 497  524.7513
 498  516.3161
 499  436.4668
 500  473.0896
 501  444.0591
 502  536.6754
 503  554.2543
 504  481.8103
 505  395.015
 506  358.078
 507  419.9059
 508  455.1534
 509  305.9923
 510  357.7061
 511  357.8903
 512  419.0617
 513  323.1009
 514  297.2703
 515  384.0582
 516  403.0186
 517  466.4026
 518  390.7629
 519  387.5825
 520  315.112
 521  324.025
 522  404.135
 523  543.6375
 524  524.3878
 525  433.5932
 526  287.3895
 527  309.5201
 528  284.459
 529  287.8568
 530  318.7198
 531  302.5216
 532  215.6159
 533  15.7017
 534  56.52174
 535  244.3043
 536  344.2139
 537  435.3555
 538  434.4795
 539  511.7384
 540  510.088
 541  461.328
 542  378.2895
 543  299.338
 544  404.726
 545  472.9529
 546  566.2554
 547  430.5904
 548  402.0589
 549  366.8616
 550  448.6569
 551  438.5915
 552  445.2359
 553  505.7433
 554  465.2464
 555  586.4578
 556  534.6109
 557  487.2279
 558  281.2383
 559  308.9404
 560  349.4683
 561  253.6443
 562  100.9862
 563  92.78574
 564  175.9646
 565  232.37
 566  261.5271
 567  404.6223
 568  510.9851
 569  534.6691
 570  410.6882
 571  347.1404
 572  391.8331
 573  330.1983
 574  282.754
 575  297.0053
 576  345.5619
 577  343.4144
 578  282.9902
 579  275.0962
 580  300.4394
 581  342.5731
 582  426.6718
 583  473.9139
 584  391.5362
 585  352.302
 586  317.9334
 587  376.2644
 588  404.7906
 589  459.3122
 590  400.1097
 591  385.6648
 592  391.2099
 593  418.3096
 594  328.5222
 595  236.0263
 596  376.9247
 597  333.2972
 598  193.5092
 599  138.3838
 600  362.8537
 601  498.8372
 602  510.1635
 603  534.2153
 604  540.7411
 605  452.1891
 606  385.5517
 607  465.781
 608  482.3709
 609  367.7078
 610  244.6571
 611  106.9226
 612  140.1112
 613  298.4767
 614  516.0663
 615  586.4746
 616  583.1926
 617  469.7264
 618  458.8983
 619  364.0936
 620  428.9247
 621  590.345
 622  643.5502
 623  522.1735
 624  412.0663
 625  429.9298
 626  368.6023
 627  379.4794
 628  554.2534
 629  677.5385
 630  792.7313
 631  947.0289
 632  1144.008
 633  1114.703
 634  1066.385
 635  1048.59
 636  1115.97
 637  1231.511
 638  1407.667
 639  1376.758
 640  1225.726
 641  954.5706
 642  747.4997
 643  618.4962
 644  629.2508
 645  672.9927
 646  540.5303
 647  349.9615
 648  327.9743
 649  381.5643
 650  529.7198
 651  484.0395
 652  382.3356
 653  291.9857
 654  371.4846
 655  461.4293
 656  425.7945
 657  505.4001
 658  601.8375
 659  658.2089
 660  627.167
 661  620.395
 662  666.7551
 663  554.348
 664  480.8815
 665  400.6057
 666  433.3806
 667  524.1059
 668  583.2371
 669  608.9833
 670  658.905
 671  548.2474
 672  484.7742
 673  477.861
 674  524.391
 675  469.3172
 676  464.8624
 677  468.247
 678  405.9928
 679  290.4136
 680  288.3071
 681  361.2264
 682  389.0356
 683  323.7345
 684  210.5368
 685  274.8792
 686  356.294
 687  529.826
 688  582.2238
 689  667.8466
 690  556.8284
 691  557.7654
 692  566.7779
 693  550.8683
 694  510.456
 695  499.0388
 696  589.052
 697  610.8052
 698  591.8763
 699  439.2116
 700  337.8688
 701  410.5305
 702  563.9468
 703  622.3473
 704  591.1042
 705  487.4447
 706  347.2241
 707  285.9394
 708  300.1122
 709  303.7531
 710  356.9513
 711  368.2834
 712  301.6871
 713  289.9182
 714  378.3987
 715  468.7501
 716  525.8304
 717  565.0618
 718  618.8641
 719  552.4969
 720  512.7762
 721  446.749
 722  408.8891
 723  495.8232
 724  618.6461
 725  540.8488
 726  393.8139
 727  306.6355
 728  455.5271
 729  478.4521
 730  535.3589
 731  473.2716
 732  563.3715
 733  570.9733
 734  555.45
 735  505.3752
 736  462.0867
 737  427.7111
 738  336.1746
 739  260.364
 740  250.9222
 741  280.5268
 742  363.853
 743  372.6451
 744  473.9434
 745  493.0464
 746  523.764
 747  425.8758
 748  368.1705
 749  388.0508
 750  411.9069
 751  392.4689
 752  420.8521
 753  398.8932
 754  359.8045
 755  265.3383
 756  312.835
 757  430.1298
 758  462.433
 759  455.2935
 760  445.7475
 761  384.0836
 762  193.7985
 763  78.117
 764  119.8951
 765  241.9655
 766  352.2099
 767  449.6849
 768  466.1315
 769  451.5986
 770  391.3425
 771  342.2264
 772  333.0752
 773  384.1466
 774  475.4774
 775  460.8564
 776  473.2305
 777  387.2575
 778  385.4328
 779  440.509
 780  460.55
 781  451.3167
 782  403.6215
 783  284.8506
 784  177.039
 785  87.24895
 786  170.9748
 787  289.0351
 788  427.6194
 789  500.976
 790  495.2299
 791  486.3634
 792  480.2002
 793  618.9098
 794  635.8488
 795  598.8713
 796  407.4976
 797  320.0177
 798  320.761
 799  416.5773
 800  422.8833
 801  409.1933
 802  415.1725
 803  470.8942
 804  522.9869
 805  514.3911
 806  536.5081
 807  460.8812
 808  350.7327
 809  188.3596
 810  208.9854
 811  275.0998
 812  331.4374
 813  305.5704
 814  256.6729
 815  354.8137
 816  248.8552
 817  292.776
 818  195.0825
 819  204.6064
 820  104.0979
 821  119.9331
 822  291.213
 823  258.6679
 824  290.8723
 825  213.6971
 826  239.7002
 827  165.6776
 828  214.2548
 829  309.8066
 830  463.0728
 831  507.9427
 832  528.0717
 833  415.412
 834  454.8885
 835  392.4597
 836  444.8566
 837  347.4016
 838  349.3405
 839  388.5835
 840  416.2294
 841  465.6483
 842  467.3307
 843  477.7819
 844  455.4729
 845  362.7342
 846  345.7808
 847  353.9786
 848  351.0835
 849  428.6006
 850  532.572
 851  549.1295
 852  441.0247
 853  385.2526
 854  365.4193
 855  322.7429
 856  256.4987
 857  189.8188
 858  234.8404
 859  247.4296
 860  351.4333
 861  284.2333
 862  243.1533
 863  212.9423
 864  289.814
 865  407.5814
 866  447.8865
 867  422.7749
 868  385.9799
 869  467.1331
 870  438.2689
 871  408.5612
 872  279.6692
 873  343.7469
 874  298.3044
 875  340.8021
 876  294.5115
 877  308.6783
 878  283.4343
 879  288.2147
 880  328.8065
 881  386.4612
 882  470.1675
 883  532.8394
 884  514.0644
 885  447.6871
 886  346.2183
 887  371.3101
 888  379.8909
 889  509.7613
 890  540.2173
 891  557.0557
 892  444.4694
 893  446.6528
 894  383.6526
 895  314.4612
 896  287.2625
 897  282.6508
 898  418.712
 899  498.2024
 900  570.7385
 901  458.0538
 902  350.5199
 903  292.5845
 904  302.122
 905  316.1371
 906  409.9249
 907  542.724
 908  600.3175
 909  392.4796
 910  299.9034
 911  307.6817
 912  392.3311
 913  201.299
 914  144.2888
 915  165.9042
 916  311.2113
 917  249.9279
 918  239.676
 919  380.8176
 920  516.7717
 921  510.4515
 922  398.9203
 923  356.9228
 924  460.7089
 925  480.9447
 926  473.6579
 927  252.9831
 928  73.64544
 929  106.0464
 930  301.3506
 931  528.1198
 932  547.1974
 933  545.2551
 934  505.235
 935  401.4089
 936  314.5612
 937  300.0977
 938  375.3116
 939  401.863
 940  482.3907
 941  480.0261
 942  474.2311
 943  412.4544
 944  458.7522
 945  434.5949
 946  437.9873
 947  380.4531
 948  374.317
 949  346.1225
 950  298.1251
 951  267.2832
 952  218.6157
 953  282.6074
 954  296.0652
 955  349.1787
 956  302.5555
 957  300.303
 958  358.6585
 959  369.4196
 960  472.9746
 961  492.0688
 962  531.8669
 963  380.435
 964  318.6296
 965  345.4428
 966  396.2633
 967  447.8985
 968  511.0337
 969  536.6782
 970  489.4089
 971  387.3322
 972  363.7406
 973  327.2693
 974  289.0659
 975  327.1707
 976  325.9184
 977  323.3815
 978  253.0854
 979  371.7328
 980  307.1889
 981  350.4623
 982  352.89
 983  460.4816
 984  425.9753
 985  341.6664
 986  311.377
 987  312.3007
 988  448.5159
 989  412.573
 990  386.2234
 991  214.0286
 992  293.7335
 993  327.5375
 994  418.6975
 995  390.8068
 996  358.1964
 997  312.6495
 998  398.845
 999  384.0943
1000  353.8886
1001  298.003
1002  401.725
1003  515.6061
1004  605.9072
1005  533.2701
1006  295.6645
1007  32.79695
1008  73.10834
1009  241.2778
1010  347.9584
1011  274.1393
1012  301.3916
1013  300.0189
1014  382.1971
1015  361.1667
1016  321.2424
1017  334.0305
1018  406.5493
1019  494.7327
1020  512.1126
1021  532.9106
1022  553.0383
1023  504.7659
