# Input file       =  1192212944.130537_cleaned.dat
# Candidate        =  PSR_0332+5434
# Telescope        =  AR
# Epoch_topo       =  58042.761147344179
# Epoch_bary       =  N/A
# T_sample         =  0.002
# Data Folded      =  7405568
# Data Avg         =  0.0291545109991232
# Data StdDev      =  0.999961880153663
# Profile Bins     =  512
# Profile Avg      =  421.560773622687 
# Profile StdDev   =  120.2617864914   
# Reduced chi-sqr  =  1.376
# Prob(Noise)      <  3.2e-08   (~5.4 sigma)
# P_topo (ms)      =  714.482843372717  +/- 0.000162
# P'_topo (s/s)    =  -0                +/- 8.47e-11
# P''_topo (s/s^2) =  0                 +/- 3.71e-14
# P_bary (ms)      =  N/A
# P'_bary (s/s)    =  N/A
# P''_bary (s/s^2) =  N/A
# P_orb (s)        =  N/A
# asin(i)/c (s)    =  N/A
# eccentricity     =  N/A
# w (rad)          =  N/A
# T_peri           =  N/A
######################################################
   0  1255.046
   1  1031.337
   2  857.8869
   3  644.9639
   4  397.7225
   5  441.064
   6  472.4558
   7  321.7185
   8  428.5489
   9  343.7531
  10  310.0803
  11  254.2766
  12  428.9928
  13  341.9695
  14  446.0229
  15  489.6485
  16  296.1201
  17  402.4121
  18  441.9484
  19  403.3826
  20  374.523
  21  475.1792
  22  358.4646
  23  419.2407
  24  489.166
  25  525.8992
  26  472.2827
  27  532.2351
  28  401.5722
  29  316.2401
  30  366.3728
  31  360.0381
  32  494.587
  33  599.9573
  34  530.1392
  35  490.1833
  36  431.955
  37  517.2806
  38  453.6923
  39  452.0279
  40  536.1031
  41  550.4739
  42  298.9409
  43  344.6931
  44  448.2261
  45  592.9923
  46  382.5424
  47  367.4126
  48  457.0011
  49  494.3325
  50  583.9213
  51  476.1064
  52  288.3737
  53  283.0785
  54  421.8091
  55  385.9854
  56  390.6364
  57  468.7679
  58  326.5121
  59  314.6873
  60  452.3682
  61  455.0199
  62  322.2701
  63  366.8377
  64  379.3136
  65  263.3422
  66  174.6737
  67  266.3158
  68  405.8426
  69  385.2086
  70  444.2306
  71  503.5338
  72  360.6426
  73  518.5846
  74  500.9028
  75  423.9083
  76  412.1329
  77  395.9791
  78  508.8968
  79  445.7302
  80  348.5794
  81  397.6233
  82  327.355
  83  314.2942
  84  349.8254
  85  395.2439
  86  498.4074
  87  473.4728
  88  477.2591
  89  462.4213
  90  397.2128
  91  358.9135
  92  344.5921
  93  270.2834
  94  359.0231
  95  469.5046
  96  543.3728
  97  505.2055
  98  395.0432
  99  428.1594
 100  364.5138
 101  445.9335
 102  420.5533
 103  348.1677
 104  423.2869
 105  506.9856
 106  425.0106
 107  309.9324
 108  329.0688
 109  511.7693
 110  477.3681
 111  443.4963
 112  379.4213
 113  429.5601
 114  330.7645
 115  355.8571
 116  340.8268
 117  416.7475
 118  484.7284
 119  407.3603
 120  396.8892
 121  431.9308
 122  343.3558
 123  264.9685
 124  231.7224
 125  419.9403
 126  477.8077
 127  299.2991
 128  327.4578
 129  381.0439
 130  370.6661
 131  314.0296
 132  352.5064
 133  339.0437
 134  329.5746
 135  383.1113
 136  358.087
 137  376.1883
 138  433.5636
 139  400.5403
 140  323.1012
 141  434.8896
 142  470.1986
 143  494.1537
 144  441.5039
 145  411.8083
 146  388.031
 147  406.91
 148  292.4376
 149  424.6277
 150  626.9811
 151  621.4556
 152  553.3806
 153  455.5238
 154  508.3933
 155  381.1273
 156  455.8267
 157  398.0753
 158  509.0383
 159  541.3277
 160  395.6059
 161  332.0683
 162  362.7231
 163  558.0446
 164  493.6513
 165  336.1207
 166  351.6988
 167  392.9923
 168  452.0978
 169  335.3492
 170  458.1254
 171  471.7937
 172  578.2166
 173  475.6856
 174  562.0738
 175  605.5527
 176  461.6234
 177  474.1405
 178  546.3729
 179  329.3706
 180  274.4146
 181  420.7552
 182  349.036
 183  342.2648
 184  421.8253
 185  431.454
 186  287.8224
 187  251.0248
 188  304.8118
 189  440.1545
 190  324.5348
 191  357.3497
 192  402.679
 193  438.9953
 194  539.0229
 195  395.0421
 196  398.0087
 197  457.8219
 198  449.1922
 199  393.9388
 200  377.9809
 201  435.6616
 202  483.6385
 203  441.0695
 204  501.7009
 205  460.6719
 206  392.9894
 207  433.0939
 208  334.188
 209  244.2581
 210  322.6909
 211  405.835
 212  275.172
 213  290.5264
 214  490.3183
 215  449.9212
 216  542.5968
 217  468.0412
 218  341.8584
 219  387.193
 220  431.1866
 221  424.7768
 222  406.3967
 223  494.937
 224  516.0023
 225  485.564
 226  526.3174
 227  506.4521
 228  503.1925
 229  482.9362
 230  437.1898
 231  507.8776
 232  481.3088
 233  376.1411
 234  464.2313
 235  483.1417
 236  492.9398
 237  536.6976
 238  547.725
 239  422.9285
 240  495.6173
 241  492.5301
 242  422.5081
 243  593.9087
 244  642.9541
 245  558.4657
 246  442.7184
 247  494.7608
 248  519.4043
 249  484.0741
 250  363.1514
 251  400.6747
 252  429.0737
 253  430.3966
 254  398.0996
 255  461.9303
 256  426.7174
 257  352.6461
 258  416.6758
 259  473.2784
 260  602.5364
 261  513.4582
 262  471.8325
 263  281.5159
 264  286.6947
 265  455.838
 266  465.2488
 267  471.8313
 268  561.4727
 269  553.5189
 270  349.3528
 271  327.7184
 272  276.8407
 273  432.4702
 274  447.639
 275  402.6671
 276  372.3073
 277  374.7145
 278  435.5872
 279  387.7156
 280  284.2794
 281  407.5087
 282  377.5821
 283  444.5851
 284  282.7566
 285  155.6658
 286  239.2434
 287  276.6235
 288  403.0819
 289  417.982
 290  420.7874
 291  345.1778
 292  250.9313
 293  281.7885
 294  324.6592
 295  297.1255
 296  260.1162
 297  257.9019
 298  409.4632
 299  555.5509
 300  443.5665
 301  562.5126
 302  527.5482
 303  438.1842
 304  491.3569
 305  477.4916
 306  355.3875
 307  331.4453
 308  401.7448
 309  440.469
 310  455.3819
 311  425.8129
 312  385.6169
 313  386.2778
 314  348.2084
 315  264.9333
 316  351.3977
 317  441.1689
 318  428.5175
 319  408.5703
 320  476.421
 321  492.982
 322  446.6795
 323  496.814
 324  479.2228
 325  409.891
 326  408.7161
 327  362.0858
 328  460.3923
 329  516.9918
 330  430.2959
 331  344.772
 332  407.4026
 333  392.7222
 334  409.7945
 335  450.9457
 336  479.4963
 337  458.095
 338  368.2311
 339  260.2156
 340  386.6018
 341  453.4095
 342  463.6072
 343  423.9406
 344  476.3633
 345  498.1612
 346  447.9236
 347  481.6456
 348  319.4732
 349  316.3051
 350  483.9245
 351  373.9226
 352  322.752
 353  379.3317
 354  316.1489
 355  466.5565
 356  465.6069
 357  495.7811
 358  433.0871
 359  387.6594
 360  525.3943
 361  527.4587
 362  469.319
 363  357.7351
 364  377.4544
 365  370.5435
 366  396.1418
 367  444.2773
 368  414.8226
 369  473.4567
 370  295.0135
 371  360.5302
 372  321.8227
 373  245.3101
 374  276.8563
 375  347.1947
 376  325.723
 377  327.0837
 378  379.4324
 379  487.2706
 380  381.962
 381  376.6559
 382  362.6437
 383  510.2038
 384  519.2508
 385  552.8321
 386  404.0735
 387  373.8944
 388  396.8803
 389  423.552
 390  292.5113
 391  433.9409
 392  462.0273
 393  494.5872
 394  531.3274
 395  508.3805
 396  467.2887
 397  378.036
 398  407.9547
 399  580.4381
 400  584.4648
 401  478.269
 402  383.1806
 403  334.8775
 404  334.7091
 405  416.6019
 406  348.6389
 407  240.1991
 408  345.6719
 409  400.9151
 410  326.2641
 411  201.0098
 412  288.475
 413  431.7746
 414  393.7984
 415  406.7046
 416  278.8018
 417  376.0265
 418  329.5291
 419  397.027
 420  453.8089
 421  307.4451
 422  344.797
 423  387.5593
 424  411.7256
 425  414.0033
 426  497.2035
 427  318.1591
 428  358.1151
 429  481.5996
 430  425.756
 431  416.567
 432  436.7364
 433  362.4241
 434  438.0292
 435  552.2994
 436  502.1042
 437  350.5077
 438  398.0882
 439  535.8504
 440  508.7084
 441  444.5735
 442  379.629
 443  366.0143
 444  382.2156
 445  459.6032
 446  364.3474
 447  437.9606
 448  509.5986
 449  426.0599
 450  371.2035
 451  324.7719
 452  325.2846
 453  283.536
 454  429.8462
 455  482.9077
 456  512.2963
 457  392.3963
 458  387.9595
 459  316.1477
 460  307.1102
 461  327.6741
 462  318.5407
 463  332.713
 464  275.2588
 465  362.206
 466  565.2595
 467  503.7657
 468  327.0289
 469  386.513
 470  448.041
 471  511.3902
 472  400.503
 473  472.1049
 474  493.3595
 475  565.8915
 476  500.3669
 477  508.0461
 478  433.6935
 479  511.2973
 480  488.4982
 481  352.0341
 482  481.8938
 483  511.3767
 484  502.1966
 485  417.2676
 486  356.2443
 487  316.0762
 488  352.8953
 489  391.787
 490  465.6894
 491  447.6212
 492  457.2319
 493  417.4025
 494  507.6727
 495  377.5148
 496  361.4371
 497  349.4737
 498  442.2138
 499  495.2193
 500  262.364
 501  338.1746
 502  417.5675
 503  392.1751
 504  367.4955
 505  401.7748
 506  426.7054
 507  514.897
 508  542.9627
 509  652.6521
 510  892.0406
 511  1071.236
