# Input file       =  1192931700.156139_cleaned.dat
# Candidate        =  PSR_0332+5434
# Telescope        =  AR
# Epoch_topo       =  58051.080082825683
# Epoch_bary       =  N/A
# T_sample         =  0.002
# Data Folded      =  7340032
# Data Avg         =  0.016192716851165
# Data StdDev      =  1.00004703609549 
# Profile Bins     =  512
# Profile Avg      =  232.153652839172 
# Profile StdDev   =  119.738668151299 
# Reduced chi-sqr  =  1.408
# Prob(Noise)      <  2.9e-09   (~5.8 sigma)
# P_topo (ms)      =  714.489918197784  +/- 0.000143
# P'_topo (s/s)    =  -0                +/- 7.54e-11
# P''_topo (s/s^2) =  0                 +/- 3.33e-14
# P_bary (ms)      =  N/A
# P'_bary (s/s)    =  N/A
# P''_bary (s/s^2) =  N/A
# P_orb (s)        =  N/A
# asin(i)/c (s)    =  N/A
# eccentricity     =  N/A
# w (rad)          =  N/A
# T_peri           =  N/A
######################################################
   0  268.8731
   1  204.7798
   2  86.68874
   3  80.96487
   4  227.6404
   5  243.5697
   6  193.8635
   7  176.6447
   8  269.7421
   9  125.3116
  10  216.6285
  11  116.2584
  12  173.6275
  13  232.0756
  14  265.7343
  15  281.5846
  16  275.1266
  17  250.3856
  18  192.9324
  19  161.1055
  20  326.6298
  21  386.6379
  22  255.9074
  23  303.7303
  24  267.9323
  25  129.1927
  26  300.4484
  27  288.1793
  28  193.599
  29  128.9691
  30  308.5986
  31  469.3347
  32  386.705
  33  216.6348
  34  122.071
  35  87.96001
  36  56.11703
  37  28.57454
  38  160.3177
  39  268.9156
  40  159.8246
  41  331.4476
  42  228.8192
  43  213.2808
  44  295.6818
  45  294.431
  46  238.7338
  47  123.9226
  48  112.0004
  49  148.7866
  50  169.9644
  51  136.8012
  52  165.9163
  53  148.2557
  54  338.378
  55  225.0281
  56  203.158
  57  322.1545
  58  212.0387
  59  200.3855
  60  251.838
  61  120.9071
  62  168.0618
  63  266.6034
  64  179.3499
  65  129.5864
  66  144.7482
  67  247.709
  68  252.6115
  69  260.0101
  70  199.3056
  71  240.9452
  72  248.2074
  73  237.8427
  74  174.0663
  75  156.9505
  76  211.3931
  77  220.1576
  78  405.1618
  79  219.5377
  80  134.9573
  81  189.8857
  82  169.888
  83  302.2568
  84  193.5021
  85  196.2216
  86  330.065
  87  218.269
  88  63.23964
  89  130.7364
  90  351.1041
  91  430.3731
  92  223.5289
  93  97.66407
  94  181.5089
  95  203.2891
  96  83.46765
  97  178.1849
  98  264.4923
  99  239.8528
 100  254.8015
 101  226.701
 102  155.6945
 103  97.66106
 104  81.64217
 105  122.6997
 106  210.1876
 107  85.31814
 108  39.73082
 109  147.146
 110  282.9649
 111  320.2272
 112  342.7049
 113  195.2131
 114  57.83205
 115  -0.2259655
 116  86.27621
 117  189.5197
 118  297.6314
 119  328.9546
 120  186.7455
 121  108.509
 122  194.5356
 123  219.4221
 124  222.3153
 125  263.3901
 126  268.9801
 127  341.2517
 128  331.1006
 129  305.5669
 130  383.3312
 131  399.3753
 132  350.8378
 133  337.7746
 134  305.4183
 135  373.4195
 136  614.8227
 137  824.1308
 138  918.2856
 139  990.2331
 140  1023.172
 141  597.5386
 142  351.1565
 143  356.6633
 144  288.5146
 145  206.524
 146  179.8949
 147  239.1551
 148  356.3623
 149  437.2516
 150  335.5649
 151  268.8765
 152  220.3142
 153  283.52
 154  318.7318
 155  229.3647
 156  185.2707
 157  202.1523
 158  124.1772
 159  134.7515
 160  179.5027
 161  275.9879
 162  349.1649
 163  219.6122
 164  218.9399
 165  196.4678
 166  39.52077
 167  213.3405
 168  198.0207
 169  183.9879
 170  121.9358
 171  144.0971
 172  275.3173
 173  172.1599
 174  164.916
 175  201.0375
 176  175.7843
 177  187.5191
 178  225.3685
 179  317.2434
 180  274.3257
 181  261.6931
 182  242.1901
 183  279.6804
 184  222.765
 185  180.2426
 186  137.6782
 187  234.5568
 188  373.4102
 189  316.6315
 190  239.8586
 191  145.4733
 192  256.3926
 193  181.883
 194  193.4699
 195  272.8009
 196  334.2553
 197  252.4348
 198  283.7447
 199  307.2783
 200  306.564
 201  229.5405
 202  298.8264
 203  285.5431
 204  187.8177
 205  341.0422
 206  257.2651
 207  221.2423
 208  256.2638
 209  248.4838
 210  201.0148
 211  121.38
 212  61.98868
 213  154.5378
 214  157.035
 215  157.1745
 216  292.4272
 217  313.6793
 218  288.2816
 219  217.1818
 220  310.5241
 221  293.5804
 222  240.319
 223  143.8202
 224  237.7843
 225  204.3374
 226  255.2224
 227  183.4582
 228  157.8572
 229  193.7924
 230  273.3875
 231  286.1514
 232  221.1401
 233  202.6828
 234  147.2321
 235  92.09244
 236  187.1279
 237  99.4516
 238  151.7125
 239  202.1037
 240  220.6149
 241  245.5375
 242  58.23978
 243  174.9027
 244  329.6235
 245  439.1361
 246  259.3997
 247  162.7392
 248  263.4266
 249  346.2061
 250  231.7338
 251  192.5309
 252  150.3267
 253  193.2469
 254  288.7549
 255  165.026
 256  157.2556
 257  104.0578
 258  239.5444
 259  220.2713
 260  184.1343
 261  191.993
 262  182.1575
 263  279.981
 264  197.7541
 265  284.5103
 266  309.1418
 267  271.8385
 268  265.996
 269  266.3082
 270  250.4629
 271  261.67
 272  290.1381
 273  267.5499
 274  204.7591
 275  45.36106
 276  36.32039
 277  33.34218
 278  141.2797
 279  243.7849
 280  439.0517
 281  375.7505
 282  260.2516
 283  230.8689
 284  307.4545
 285  288.4407
 286  261.7158
 287  301.5682
 288  305.1934
 289  235.2814
 290  288.6238
 291  264.3354
 292  195.6211
 293  266.0488
 294  251.7846
 295  265.1459
 296  313.6622
 297  225.6966
 298  139.8622
 299  257.0306
 300  272.9479
 301  216.2245
 302  203.8006
 303  246.3302
 304  303.6959
 305  201.7729
 306  144.8374
 307  124.3198
 308  171.4154
 309  256.5894
 310  197.8457
 311  214.0516
 312  129.474
 313  244.65
 314  254.1568
 315  200.8022
 316  229.6705
 317  252.6108
 318  264.5523
 319  147.6066
 320  226.0063
 321  240.5818
 322  266.9264
 323  312.422
 324  223.2309
 325  162.2724
 326  157.1318
 327  104.4018
 328  134.394
 329  287.1248
 330  262.2345
 331  263.095
 332  301.1199
 333  200.0045
 334  140.2677
 335  231.1356
 336  210.6922
 337  320.5525
 338  330.7058
 339  257.5864
 340  134.3312
 341  140.9278
 342  189.4685
 343  177.391
 344  245.0341
 345  234.8632
 346  273.4931
 347  303.6383
 348  151.0549
 349  294.5773
 350  393.3774
 351  274.2219
 352  363.5396
 353  276.9545
 354  258.7999
 355  132.4786
 356  97.79588
 357  179.8601
 358  329.9127
 359  345.1921
 360  238.1407
 361  301.8421
 362  246.3125
 363  247.7914
 364  186.839
 365  175.517
 366  277.9343
 367  211.8299
 368  124.8593
 369  265.6656
 370  332.6931
 371  311.0507
 372  196.4019
 373  155.5351
 374  139.5618
 375  94.78362
 376  179.0449
 377  248.6601
 378  245.0536
 379  209.899
 380  133.2412
 381  178.6591
 382  206.3103
 383  238.211
 384  182.6637
 385  147.6878
 386  205.3267
 387  206.5496
 388  167.9593
 389  179.6889
 390  71.19527
 391  133.1156
 392  305.9873
 393  314.7797
 394  266.6602
 395  304.7101
 396  265.5453
 397  337.3998
 398  243.3993
 399  171.9109
 400  133.3513
 401  279.2094
 402  166.2762
 403  163.6549
 404  76.57425
 405  235.7259
 406  347.8163
 407  229.2577
 408  85.94362
 409  222.1578
 410  258.8171
 411  208.8525
 412  143.0545
 413  312.7072
 414  306.5158
 415  245.1278
 416  313.229
 417  292.553
 418  220.7843
 419  237.3909
 420  183.3959
 421  292.9357
 422  339.4579
 423  323.6075
 424  292.3213
 425  239.664
 426  198.972
 427  156.6908
 428  364.4093
 429  219.9538
 430  170.4171
 431  173.8521
 432  224.4194
 433  361.9635
 434  305.444
 435  305.5172
 436  278.5887
 437  229.0674
 438  170.4056
 439  166.2472
 440  302.9615
 441  422.2055
 442  368.0473
 443  294.1419
 444  219.4427
 445  230.6652
 446  277.7417
 447  316.6806
 448  214.2956
 449  148.5789
 450  61.06646
 451  139.8525
 452  172.7464
 453  335.1935
 454  316.2143
 455  271.3051
 456  230.8695
 457  248.4851
 458  118.5768
 459  229.6525
 460  255.8205
 461  329.9481
 462  227.7721
 463  202.8476
 464  200.6364
 465  137.9599
 466  94.12832
 467  118.9855
 468  3.136652
 469  181.2155
 470  228.3529
 471  296.1028
 472  233.3689
 473  290.5565
 474  348.1253
 475  294.8873
 476  135.1535
 477  215.075
 478  281.9985
 479  177.0572
 480  371.0809
 481  329.6014
 482  268.0095
 483  226.0812
 484  131.1159
 485  226.2138
 486  272.7968
 487  181.6087
 488  197.9267
 489  210.1334
 490  227.5016
 491  204.7323
 492  273.84
 493  267.5046
 494  242.364
 495  153.0209
 496  188.4115
 497  223.903
 498  146.0903
 499  232.1213
 500  278.4528
 501  168.9975
 502  140.8078
 503  151.2022
 504  255.5831
 505  293.0413
 506  131.8449
 507  92.99435
 508  121.7273
 509  175.7531
 510  144.7161
 511  154.9739
