# Input file       =  1192557560.121388-PSRB0329-2ms-sampling-dd.dat
# Candidate        =  PSR_0332+5434
# Telescope        =  AR
# Epoch_topo       =  58046.749758349397
# Epoch_bary       =  N/A
# T_sample         =  0.002
# Data Folded      =  7208960
# Data Avg         =  3.93645796436e-11
# Data StdDev      =  4.77334148717701 
# Profile Bins     =  512
# Profile Avg      =  -0.107862034108878
# Profile StdDev   =  566.40076664949  
# Reduced chi-sqr  =  0.752
# Prob(Noise)      <  1   (~0.0 sigma)
# P_topo (ms)      =  714.485969843672  +/- 0.000163
# P'_topo (s/s)    =  -0                +/- 8.74e-11
# P''_topo (s/s^2) =  0                 +/- 3.93e-14
# P_bary (ms)      =  N/A
# P'_bary (s/s)    =  N/A
# P''_bary (s/s^2) =  N/A
# P_orb (s)        =  N/A
# asin(i)/c (s)    =  N/A
# eccentricity     =  N/A
# w (rad)          =  N/A
# T_peri           =  N/A
######################################################
   0  72.43298
   1  -34.51418
   2  -76.14043
   3  -94.00162
   4  -120.1272
   5  -58.81641
   6  173.1355
   7  228.8962
   8  -214.9953
   9  -112.2745
  10  -219.0113
  11  -255.2716
  12  -538.8206
  13  -818.8292
  14  -671.4088
  15  -716.668
  16  -600.3696
  17  -317.4329
  18  -72.99734
  19  -124.0686
  20  -290.3855
  21  -342.703
  22  -282.2002
  23  -620.9586
  24  -199.2842
  25  -109.0774
  26  -199.6112
  27  -96.55081
  28  -32.80882
  29  -308.691
  30  -576.922
  31  -303.3614
  32  -419.2903
  33  -343.4714
  34  -279.993
  35  -235.7092
  36  -389.7485
  37  -666.3783
  38  -593.0062
  39  -460.8612
  40  -526.1732
  41  -797.1459
  42  -859.8406
  43  -366.4339
  44  -247.927
  45  -311.2335
  46  -196.1047
  47  3.490059
  48  -337.8687
  49  -614.3858
  50  -441.7469
  51  -60.97466
  52  -156.2486
  53  -192.406
  54  72.98779
  55  -435.5875
  56  -638.8026
  57  -724.5801
  58  -741.213
  59  -678.0958
  60  -460.1476
  61  -328.4111
  62  -513.5924
  63  -489.9828
  64  -468.311
  65  -438.4791
  66  -511.6223
  67  -408.7567
  68  -428.0829
  69  -583.4241
  70  -578.5996
  71  -271.3576
  72  -268.2081
  73  -663.2162
  74  -701.1459
  75  -361.5364
  76  -564.4525
  77  -854.4719
  78  -584.6527
  79  -341.8456
  80  -665.3061
  81  -651.4055
  82  -573.6594
  83  -163.4209
  84  139.956
  85  -117.9371
  86  -250.8565
  87  -379.314
  88  -585.8596
  89  -721.4925
  90  -586.0414
  91  -254.9647
  92  -403.4049
  93  -569.2556
  94  -693.8021
  95  -353.1927
  96  -410.4418
  97  -663.9319
  98  -645.9402
  99  -581.1042
 100  -222.6374
 101  -288.9915
 102  -516.7352
 103  -367.9843
 104  -699.053
 105  -520.5158
 106  -761.0229
 107  -853.8022
 108  -267.8565
 109  -226.2667
 110  -218.1553
 111  -185.7093
 112  -103.6295
 113  -265.9455
 114  -364.2371
 115  -242.4976
 116  294.4087
 117  174.7974
 118  126.8241
 119  163.456
 120  98.33851
 121  240.597
 122  -13.35608
 123  51.66266
 124  -54.68266
 125  -138.1088
 126  -15.94501
 127  -45.57173
 128  -132.3893
 129  -230.1356
 130  -224.5293
 131  -219.865
 132  63.34583
 133  -197.8877
 134  -56.58551
 135  442.1572
 136  270.9172
 137  230.6519
 138  241.7772
 139  -231.4371
 140  -351.1432
 141  -299.4795
 142  -304.6785
 143  -98.96114
 144  -147.6383
 145  91.84837
 146  205.6005
 147  65.3209
 148  589.5401
 149  674.6613
 150  475.8411
 151  285.0221
 152  356.0286
 153  590.3404
 154  174.3389
 155  42.09673
 156  160.7431
 157  550.1466
 158  -22.5222
 159  -161.4102
 160  -221.6208
 161  -298.2972
 162  -166.4726
 163  83.02805
 164  -26.43874
 165  16.40334
 166  231.4994
 167  475.619
 168  197.2976
 169  60.10232
 170  184.8985
 171  310.762
 172  322.0703
 173  -35.99274
 174  90.32491
 175  21.60834
 176  -282.9089
 177  -124.3919
 178  -129.1699
 179  435.474
 180  175.387
 181  431.9364
 182  235.6466
 183  15.80502
 184  162.2368
 185  23.83623
 186  222.5027
 187  323.7905
 188  355.7587
 189  102.829
 190  203.2142
 191  523.5345
 192  432.8128
 193  68.79722
 194  224.2418
 195  -236.5756
 196  -511.4796
 197  -116.855
 198  278.6689
 199  199.9429
 200  132.429
 201  140.1544
 202  34.28898
 203  -38.66479
 204  120.6736
 205  -42.51657
 206  -94.61298
 207  -91.78889
 208  59.83805
 209  587.355
 210  337.9413
 211  55.32942
 212  94.94529
 213  217.4837
 214  54.04593
 215  177.8621
 216  438.723
 217  364.4695
 218  459.1434
 219  466.2928
 220  -32.57288
 221  309.9761
 222  380.2427
 223  528.4523
 224  757.5138
 225  460.3987
 226  207.1708
 227  -81.71725
 228  10.59626
 229  187.8743
 230  120.7298
 231  369.6205
 232  466.4811
 233  341.1449
 234  382.5795
 235  358.2596
 236  183.1388
 237  138.0966
 238  -76.13566
 239  27.18966
 240  42.37514
 241  -188.0651
 242  -372.4627
 243  -258.5683
 244  -437.4769
 245  25.69371
 246  47.18079
 247  173.3462
 248  236.8293
 249  -70.30014
 250  -104.0048
 251  340.9784
 252  528.1082
 253  361.0995
 254  -64.86896
 255  57.12139
 256  139.7067
 257  -120.8583
 258  37.57649
 259  180.4223
 260  63.99811
 261  496.2615
 262  56.51075
 263  -175.8975
 264  119.6591
 265  80.98898
 266  120.1638
 267  -90.35747
 268  -105.9703
 269  -87.25452
 270  -46.775
 271  -88.84504
 272  223.3454
 273  445.2019
 274  7.988608
 275  -193.5105
 276  -208.5175
 277  49.66597
 278  154.1195
 279  442.111
 280  278.8471
 281  59.03938
 282  248.0401
 283  85.17498
 284  -107.7612
 285  228.3779
 286  457.5297
 287  185.5852
 288  231.7236
 289  470.8875
 290  374.5807
 291  229.6741
 292  -144.3345
 293  -263.3027
 294  -191.8729
 295  57.56983
 296  -17.68526
 297  191.952
 298  454.3352
 299  432.3643
 300  424.8103
 301  390.7288
 302  119.4553
 303  6.243202
 304  347.6877
 305  416.0515
 306  150.5555
 307  184.8844
 308  370.3017
 309  133.2638
 310  -141.5175
 311  -468.758
 312  85.93382
 313  215.3949
 314  268.5149
 315  659.8067
 316  533.7983
 317  324.873
 318  131.9187
 319  0.7556264
 320  49.90857
 321  266.1368
 322  364.4459
 323  498.2606
 324  -1.503994
 325  -424.8773
 326  -408.7942
 327  -426.5474
 328  59.09252
 329  -146.4788
 330  -135.7874
 331  210.0748
 332  4.545262
 333  -124.6128
 334  -230.1444
 335  -147.7919
 336  -375.5347
 337  -628.6973
 338  -260.7363
 339  -126.5934
 340  -242.7755
 341  -249.302
 342  -147.0126
 343  -326.0694
 344  -116.7296
 345  -68.43599
 346  -340.9461
 347  -216.1548
 348  -53.51987
 349  77.38877
 350  -0.9769285
 351  66.99493
 352  150.7394
 353  11.90247
 354  -268.3042
 355  -159.1757
 356  -210.3483
 357  -201.4165
 358  54.9876
 359  45.89187
 360  -155.5224
 361  -268.8776
 362  -277.7506
 363  -163.0999
 364  136.451
 365  213.7438
 366  751.6869
 367  244.457
 368  150.3268
 369  121.5906
 370  19.84641
 371  337.1997
 372  55.60723
 373  495.7002
 374  649.6228
 375  20.55572
 376  -218.8933
 377  -532.7499
 378  -476.2151
 379  -77.12936
 380  448.8471
 381  773.8555
 382  601.4171
 383  319.4026
 384  83.34856
 385  -175.4943
 386  -196.2606
 387  102.3408
 388  529.7706
 389  513.0532
 390  102.6111
 391  114.9118
 392  -66.68176
 393  -211.071
 394  -176.6615
 395  298.0512
 396  377.8755
 397  725.9537
 398  610.0192
 399  126.2319
 400  279.7627
 401  265.8503
 402  135.567
 403  219.9426
 404  415.4046
 405  556.6554
 406  449.8185
 407  284.8053
 408  -113.2408
 409  -13.5209
 410  97.31059
 411  -40.25129
 412  48.13722
 413  45.80232
 414  272.4214
 415  333.5167
 416  275.2545
 417  5.224878
 418  -109.9265
 419  -339.4934
 420  -503.0539
 421  -504.5675
 422  35.31919
 423  -24.99661
 424  -401.6765
 425  -132.1254
 426  20.985
 427  -365.1823
 428  -278.3824
 429  120.1095
 430  271.9535
 431  333.1686
 432  461.763
 433  481.7961
 434  588.4443
 435  478.4897
 436  464.2362
 437  153.7676
 438  324.0103
 439  -114.4749
 440  -253.0379
 441  -33.65732
 442  155.7763
 443  20.52289
 444  71.93509
 445  109.1201
 446  -9.494826
 447  92.24
 448  450.8395
 449  -13.03264
 450  59.72267
 451  184.3049
 452  -52.3465
 453  -264.0843
 454  -19.48621
 455  62.89967
 456  156.8932
 457  -316.7531
 458  -145.5902
 459  -99.81429
 460  -386.6409
 461  45.57539
 462  373.0651
 463  657.0007
 464  641.8135
 465  389.0334
 466  160.8818
 467  298.7256
 468  -64.70372
 469  -16.13209
 470  -241.502
 471  47.39565
 472  430.7264
 473  169.978
 474  17.763
 475  -257.776
 476  -175.7767
 477  -224.9776
 478  -199.3358
 479  46.72879
 480  209.4038
 481  206.8337
 482  4.570989
 483  96.1065
 484  -71.44065
 485  -243.7614
 486  7.253487
 487  295.9045
 488  185.0729
 489  58.6536
 490  -97.53077
 491  -177.5486
 492  -287.2934
 493  -329.1933
 494  -174.0625
 495  48.78257
 496  248.5496
 497  526.1693
 498  458.2195
 499  254.2267
 500  375.8835
 501  81.91658
 502  892.5455
 503  1496.846
 504  1654.783
 505  1444.71
 506  1270.157
 507  906.2258
 508  333.5338
 509  197.6821
 510  512.704
 511  373.0311
