# Input file       =  1192916781.138746-PSRB0329-2ms-sampling-dd.dat
# Candidate        =  PSR_0332+5434
# Telescope        =  AR
# Epoch_topo       =  58050.907409013264
# Epoch_bary       =  N/A
# T_sample         =  0.002
# Data Folded      =  7340032
# Data Avg         =  -6.68249197220699e-10
# Data StdDev      =  5.16809601697152 
# Profile Bins     =  512
# Profile Avg      =  0.06370171310337 
# Profile StdDev   =  618.791828398671 
# Reduced chi-sqr  =  0.916
# Prob(Noise)      <  0.914   (~0.0 sigma)
# P_topo (ms)      =  714.489437089079  +/- 0.000449
# P'_topo (s/s)    =  -0                +/- 2.37e-10
# P''_topo (s/s^2) =  0                 +/- 1.05e-13
# P_bary (ms)      =  N/A
# P'_bary (s/s)    =  N/A
# P''_bary (s/s^2) =  N/A
# P_orb (s)        =  N/A
# asin(i)/c (s)    =  N/A
# eccentricity     =  N/A
# w (rad)          =  N/A
# T_peri           =  N/A
######################################################
   0  -87.59781
   1  216.4822
   2  165.2408
   3  121.638
   4  -45.8345
   5  67.46266
   6  307.9661
   7  147.4535
   8  156.4254
   9  -107.3129
  10  114.8751
  11  -7.449807
  12  44.52078
  13  446.8515
  14  365.8455
  15  -243.7952
  16  -460.0543
  17  -69.47182
  18  -209.7538
  19  -173.81
  20  249.1478
  21  150.6824
  22  163.1539
  23  -190.5371
  24  -382.2951
  25  -403.1462
  26  -235.7611
  27  -17.38131
  28  -326.8748
  29  -83.75918
  30  104.2572
  31  -236.4137
  32  -171.9728
  33  232.1153
  34  136.2
  35  -303.2635
  36  -174.0904
  37  -130.0607
  38  201.987
  39  371.2845
  40  502.7051
  41  609.3586
  42  30.25508
  43  -82.38691
  44  15.04142
  45  -30.98104
  46  75.27109
  47  209.1149
  48  295.5422
  49  162.9912
  50  -15.73831
  51  114.4794
  52  76.13933
  53  -140.7338
  54  -67.03385
  55  67.13796
  56  -83.14996
  57  7.443663
  58  -53.28173
  59  231.1599
  60  142.2914
  61  -301.0369
  62  -257.9941
  63  -162.9133
  64  214.6141
  65  74.0725
  66  -249.4682
  67  -294.3434
  68  -336.4239
  69  -373.3095
  70  -230.0335
  71  -124.1309
  72  -41.36604
  73  154.2558
  74  84.18598
  75  78.02927
  76  59.52321
  77  107.6189
  78  -41.64515
  79  157.0092
  80  -131.7878
  81  7.888548
  82  -31.9332
  83  138.4658
  84  195.6871
  85  -5.390766
  86  -62.71121
  87  56.32483
  88  -52.08773
  89  179.7227
  90  -21.18784
  91  -43.95724
  92  -51.19236
  93  -302.926
  94  -138.7039
  95  118.2664
  96  208.9856
  97  2.574557
  98  34.47854
  99  24.36354
 100  -52.78173
 101  -212.3899
 102  -280.1521
 103  -182.9221
 104  -67.805
 105  -69.03291
 106  17.48082
 107  -445.4206
 108  -519.7574
 109  -204.8171
 110  15.22944
 111  151.8588
 112  297.2681
 113  232.659
 114  -83.77844
 115  -114.6758
 116  211.1722
 117  -51.34856
 118  -357.6363
 119  -315.9602
 120  90.72884
 121  179.8125
 122  276.6773
 123  286.321
 124  99.42119
 125  30.49551
 126  -22.93554
 127  -209.6948
 128  -285.865
 129  -166.8413
 130  72.44574
 131  -123.1391
 132  116.7542
 133  -262.438
 134  -268.1371
 135  -404.8206
 136  3.841819
 137  182.848
 138  27.33208
 139  -69.06429
 140  -57.10873
 141  -22.15206
 142  24.30969
 143  -92.32166
 144  296.7562
 145  -42.23346
 146  -322.6048
 147  -131.283
 148  -57.38147
 149  -47.54311
 150  -33.00572
 151  -272.0897
 152  -368.8677
 153  -437.6318
 154  -564.9955
 155  -414.4039
 156  -274.2653
 157  -336.0542
 158  -306.7249
 159  -685.3492
 160  -619.4201
 161  -557.6307
 162  -435.2728
 163  -336.6894
 164  -457.0634
 165  -302.2122
 166  -197.2068
 167  -489.4702
 168  -624.6015
 169  -306.9008
 170  -167.5698
 171  -174.3432
 172  -93.34129
 173  19.71354
 174  83.61665
 175  80.52341
 176  -33.36708
 177  108.515
 178  -63.54721
 179  183.2869
 180  165.4104
 181  216.001
 182  -57.26661
 183  -189.6867
 184  -342.6526
 185  -568.3477
 186  -184.4381
 187  -150.2994
 188  -337.718
 189  -352.6781
 190  -110.5322
 191  138.732
 192  -111.9634
 193  -161.0217
 194  -180.0252
 195  93.04496
 196  -149.3411
 197  -194.5525
 198  -103.3995
 199  -365.3882
 200  -401.8781
 201  -99.22487
 202  -186.4706
 203  -442.478
 204  -332.6018
 205  -242.1722
 206  79.77898
 207  -127.0201
 208  -180.2393
 209  -47.04477
 210  -30.0819
 211  23.91087
 212  264.9324
 213  309.0943
 214  55.54494
 215  -0.8466396
 216  92.91416
 217  103.4483
 218  -48.56483
 219  169.3674
 220  185.4137
 221  -128.8355
 222  122.6052
 223  -155.6687
 224  55.32136
 225  151.4178
 226  147.6269
 227  -8.158494
 228  138.9812
 229  198.8644
 230  220.5528
 231  286.0547
 232  175.5566
 233  89.3849
 234  -196.7728
 235  -193.7832
 236  -149.7966
 237  231.14
 238  168.4171
 239  -46.87815
 240  387.9759
 241  122.7764
 242  32.01256
 243  -109.2368
 244  -20.05001
 245  135.6943
 246  212.5152
 247  396.2419
 248  214.0774
 249  73.21746
 250  -249.77
 251  90.91613
 252  21.17621
 253  197.0045
 254  -124.1125
 255  33.31478
 256  81.54177
 257  -38.82843
 258  110.8838
 259  16.41951
 260  -183.903
 261  -341.6004
 262  -28.52026
 263  75.85389
 264  60.65658
 265  -310.2643
 266  -293.1212
 267  133.698
 268  -64.47035
 269  251.2431
 270  -77.58928
 271  -382.2783
 272  50.82839
 273  145.3069
 274  70.49846
 275  169.7601
 276  -162.717
 277  -6.648586
 278  158.3241
 279  75.26345
 280  60.87492
 281  -32.13869
 282  306.2037
 283  220.7854
 284  174.3955
 285  -147.2306
 286  -99.55074
 287  -187.3551
 288  -156.0259
 289  16.31239
 290  123.774
 291  221.3123
 292  237.1353
 293  272.9455
 294  147.4753
 295  -49.82771
 296  -297.8403
 297  -313.8872
 298  -57.02011
 299  326.2074
 300  155.188
 301  -101.4825
 302  -96.08117
 303  -97.84445
 304  -294.246
 305  -169.9287
 306  -181.6914
 307  -6.587002
 308  129.9622
 309  61.54185
 310  -16.38662
 311  273.2011
 312  304.9719
 313  86.22298
 314  -168.4204
 315  -59.22333
 316  -154.2043
 317  -316.5515
 318  -207.4
 319  -18.93233
 320  27.37182
 321  39.09928
 322  198.0037
 323  -64.54219
 324  -405.5434
 325  -140.1596
 326  -95.6021
 327  194.407
 328  56.44832
 329  -4.379737
 330  199.598
 331  -7.647186
 332  -4.286095
 333  258.2861
 334  342.7793
 335  -41.93394
 336  32.33146
 337  -67.91553
 338  -137.124
 339  -13.34321
 340  -160.8744
 341  82.91806
 342  165.4951
 343  254.415
 344  -17.03228
 345  -422.4936
 346  -165.1807
 347  -225.0977
 348  33.70325
 349  61.44137
 350  -138.3119
 351  -236.4281
 352  -342.4098
 353  -300.4308
 354  -180.9778
 355  -143.4245
 356  69.67928
 357  -106.9945
 358  -196.5905
 359  -407.9924
 360  -117.6761
 361  5.093708
 362  146.302
 363  136.0914
 364  64.22806
 365  85.83953
 366  -476.1866
 367  -525.9122
 368  -300.9827
 369  -38.4906
 370  12.83369
 371  -296.4554
 372  -5.127214
 373  -320.9491
 374  141.707
 375  363.5126
 376  -482.9724
 377  3929.454
 378  6525.503
 379  4.465163
 380  -2.520163
 381  235.6352
 382  249.1272
 383  163.2687
 384  -33.12907
 385  14.46296
 386  -97.43987
 387  -292.4826
 388  -151.5902
 389  -86.58809
 390  31.77705
 391  30.4987
 392  -5.410271
 393  -90.77075
 394  -33.46889
 395  2.73701
 396  -168.8063
 397  -200.2764
 398  -283.1938
 399  -86.95134
 400  -68.94928
 401  -233.6778
 402  -141.231
 403  -32.59558
 404  -145.3644
 405  -98.36147
 406  -69.55733
 407  -389.8911
 408  -385.0049
 409  -175.9355
 410  -80.3129
 411  7.515845
 412  -24.91138
 413  -284.3435
 414  -211.1356
 415  -412.2456
 416  -215.0775
 417  -247.3596
 418  -355.0832
 419  -160.3898
 420  -225.8708
 421  45.65592
 422  -107.5087
 423  -43.19069
 424  -255.921
 425  -225.9652
 426  -22.16696
 427  108.1153
 428  117.7156
 429  99.51935
 430  -32.03822
 431  74.67199
 432  334.2673
 433  235.2492
 434  119.7638
 435  58.46161
 436  166.071
 437  174.1432
 438  234.0918
 439  113.8203
 440  255.4003
 441  136.1855
 442  -262.9918
 443  -164.5931
 444  -27.74158
 445  59.80696
 446  -367.6337
 447  -444.17
 448  -193.9444
 449  -257.8032
 450  -344.3853
 451  -254.1059
 452  -61.69466
 453  -203.3445
 454  -89.71896
 455  -247.2767
 456  -153.8636
 457  -96.1637
 458  97.96883
 459  80.67158
 460  16.26132
 461  -170.0585
 462  -37.60899
 463  -328.335
 464  -337.59
 465  -137.3187
 466  -48.0065
 467  95.89429
 468  -9.728106
 469  181.1783
 470  290.0774
 471  180.0994
 472  331.4266
 473  298.5282
 474  525.7863
 475  716.5659
 476  1236.6
 477  1968.27
 478  1777.14
 479  1653.348
 480  1192.427
 481  652.0026
 482  287.4597
 483  414.0049
 484  320.335
 485  217.4253
 486  285.0092
 487  130.8195
 488  143.3303
 489  273.8277
 490  381.0719
 491  105.6284
 492  368.6627
 493  39.32857
 494  -422.9843
 495  -360.3106
 496  -111.7918
 497  59.60518
 498  -42.21188
 499  -147.8206
 500  -395.0837
 501  -354.6446
 502  41.86558
 503  15.67692
 504  112.2063
 505  -3.485688
 506  100.719
 507  144.1085
 508  35.05847
 509  -55.50332
 510  39.04505
 511  102.7748
