# Input file       =  1192988327.145844_cleaned.dat
# Candidate        =  PSR_0332+5434
# Telescope        =  AR
# Epoch_topo       =  58051.735487799124
# Epoch_bary       =  N/A
# T_sample         =  0.002
# Data Folded      =  7208960
# Data Avg         =  0.0123916297054971
# Data StdDev      =  1.00025049340865 
# Profile Bins     =  512
# Profile Avg      =  174.461340667071 
# Profile StdDev   =  118.688899134942 
# Reduced chi-sqr  =  1.582
# Prob(Noise)      <  8.58e-16   (~8.0 sigma)
# P_topo (ms)      =  714.490135606336  +/- 0.000163
# P'_topo (s/s)    =  -0                +/- 8.75e-11
# P''_topo (s/s^2) =  0                 +/- 3.93e-14
# P_bary (ms)      =  N/A
# P'_bary (s/s)    =  N/A
# P''_bary (s/s^2) =  N/A
# P_orb (s)        =  N/A
# asin(i)/c (s)    =  N/A
# eccentricity     =  N/A
# w (rad)          =  N/A
# T_peri           =  N/A
######################################################
   0  244.1772
   1  107.9907
   2  110.2265
   3  222.8838
   4  169.8703
   5  40.5571
   6  98.53384
   7  217.6266
   8  155.8039
   9  114.991
  10  29.82281
  11  35.02301
  12  -34.76651
  13  13.89871
  14  127.5121
  15  165.0992
  16  323.2782
  17  336.0558
  18  145.9029
  19  34.56225
  20  178.7411
  21  234.1637
  22  105.4219
  23  101.7581
  24  130.176
  25  100.6023
  26  82.51651
  27  35.94933
  28  86.53273
  29  233.9368
  30  102.0694
  31  54.23761
  32  52.99915
  33  87.70721
  34  250.5044
  35  281.3253
  36  341.3648
  37  248.8972
  38  185.4939
  39  207.4918
  40  120.0688
  41  112.9553
  42  211.8971
  43  149.4011
  44  71.25363
  45  69.93723
  46  147.4142
  47  141.6933
  48  76.36426
  49  89.5527
  50  62.31419
  51  157.9484
  52  80.36403
  53  134.3565
  54  217.3633
  55  222.5383
  56  255.9097
  57  141.1025
  58  133.8343
  59  47.04408
  60  145.3513
  61  158.9297
  62  197.7541
  63  123.6418
  64  55.6948
  65  159.7226
  66  258.3499
  67  205.4851
  68  158.9223
  69  183.5986
  70  148.7618
  71  250.0012
  72  151.3148
  73  53.90778
  74  158.8745
  75  329.4593
  76  232.925
  77  266.6326
  78  259.3578
  79  268.8324
  80  223.5643
  81  184.8844
  82  136.3738
  83  198.2119
  84  211.4732
  85  188.8571
  86  87.84955
  87  237.2294
  88  327.8882
  89  356.0756
  90  377.8395
  91  400.8471
  92  482.8751
  93  770.6212
  94  766.6816
  95  935.3455
  96  897.5615
  97  756.4934
  98  596.5998
  99  384.5001
 100  229.9156
 101  185.4763
 102  245.9809
 103  285.0301
 104  187.63
 105  130.3467
 106  199.2867
 107  240.3945
 108  341.0096
 109  281.1276
 110  259.9222
 111  173.5526
 112  215.1022
 113  274.5595
 114  301.826
 115  230.9114
 116  312.6566
 117  288.7838
 118  184.1944
 119  214.3395
 120  219.7173
 121  307.6164
 122  207.3997
 123  124.8081
 124  131.7599
 125  36.04967
 126  -66.79057
 127  143.1491
 128  258.8399
 129  281.8003
 130  151.7206
 131  1.653406
 132  36.76805
 133  211.8931
 134  209.9967
 135  177.4138
 136  219.6867
 137  335.6521
 138  235.1264
 139  172.561
 140  140.9916
 141  186.9855
 142  279.9492
 143  121.2497
 144  159.9474
 145  249.5344
 146  153.3392
 147  81.12738
 148  124.046
 149  116.4487
 150  215.8547
 151  361.7287
 152  173.9234
 153  108.9499
 154  110.5577
 155  260.1599
 156  175.1294
 157  25.76228
 158  62.74662
 159  121.9675
 160  113.2495
 161  115.9233
 162  211.7594
 163  108.9655
 164  52.71296
 165  155.0889
 166  282.904
 167  259.3152
 168  102.5629
 169  149.8063
 170  143.4289
 171  196.8446
 172  115.432
 173  175.1221
 174  240.522
 175  124.1687
 176  169.2215
 177  185.0728
 178  216.5235
 179  198.6138
 180  114.0959
 181  179.3466
 182  226.6944
 183  136.109
 184  51.02324
 185  144.5563
 186  271.2806
 187  376.4065
 188  237.9031
 189  262.1471
 190  204.8287
 191  99.81311
 192  86.04531
 193  217.5873
 194  302.4398
 195  224.915
 196  300.7493
 197  236.5204
 198  355.55
 199  232.5494
 200  188.2495
 201  75.11681
 202  214.7687
 203  319.2404
 204  197.9053
 205  72.68296
 206  49.12895
 207  55.5892
 208  50.17039
 209  200.2333
 210  270.5204
 211  208.7302
 212  139.622
 213  164.7077
 214  173.2414
 215  215.028
 216  213.7337
 217  181.4498
 218  14.79416
 219  73.42487
 220  346.6047
 221  174.3798
 222  141.9844
 223  100.609
 224  181.557
 225  176.4064
 226  3.308134
 227  160.0721
 228  280.4861
 229  152.7083
 230  46.9531
 231  54.578
 232  112.6557
 233  155.8502
 234  148.4373
 235  152.3644
 236  89.88705
 237  95.4999
 238  151.0304
 239  202.8807
 240  273.3109
 241  265.2141
 242  223.2455
 243  181.2084
 244  116.8675
 245  59.77115
 246  264.4545
 247  187.6716
 248  160.2562
 249  282.6072
 250  337.2613
 251  110.2542
 252  161.4705
 253  300.215
 254  112.3245
 255  144.1048
 256  192.7621
 257  127.5888
 258  75.46564
 259  64.36998
 260  192.3751
 261  260.16
 262  317.3021
 263  332.3324
 264  335.7717
 265  342.9141
 266  247.7639
 267  254.1653
 268  194.3322
 269  118.1503
 270  197.9588
 271  232.9426
 272  244.2617
 273  158.7786
 274  123.4153
 275  170.0351
 276  157.7284
 277  211.1895
 278  76.36932
 279  296.7647
 280  266.0894
 281  196.9641
 282  127.618
 283  163.5953
 284  107.7437
 285  119.017
 286  184.8423
 287  110.8796
 288  87.79251
 289  198.9456
 290  235.8835
 291  181.7912
 292  122.1919
 293  128.2828
 294  221.5601
 295  187.4813
 296  161.6993
 297  155.1067
 298  110.4981
 299  -13.86877
 300  34.07494
 301  57.64292
 302  109.9042
 303  95.19946
 304  115.5888
 305  183.3236
 306  185.8539
 307  138.1515
 308  28.80211
 309  11.73294
 310  102.7368
 311  146.4713
 312  30.06009
 313  108.1806
 314  234.0135
 315  146.5114
 316  206.6616
 317  293.6544
 318  248.664
 319  191.2261
 320  125.9264
 321  179.7652
 322  369.8632
 323  391.1029
 324  217.4403
 325  173.6184
 326  169.8434
 327  150.9036
 328  145.6426
 329  204.5325
 330  182.0847
 331  120.8661
 332  174.9307
 333  54.55957
 334  183.2382
 335  185.011
 336  176.6025
 337  95.67428
 338  -4.338666
 339  77.54702
 340  92.18045
 341  127.0593
 342  150.631
 343  31.05792
 344  152.1019
 345  8.756657
 346  -21.99934
 347  108.0511
 348  92.72896
 349  160.1785
 350  190.0589
 351  100.3469
 352  -20.56725
 353  47.67696
 354  17.28415
 355  84.89645
 356  236.8437
 357  205.6426
 358  113.5584
 359  57.10043
 360  8.653793
 361  69.92992
 362  261.1038
 363  282.4109
 364  158.9042
 365  192.888
 366  203.8661
 367  135.0044
 368  134.9842
 369  250.9602
 370  331.1077
 371  234.4563
 372  54.39411
 373  46.4584
 374  107.9563
 375  158.1831
 376  261.5804
 377  165.0351
 378  77.88578
 379  39.31654
 380  108.5595
 381  188.3302
 382  38.06383
 383  158.4865
 384  241.0978
 385  194.1957
 386  134.7183
 387  48.87503
 388  19.84411
 389  169.4807
 390  113.1175
 391  141.9155
 392  152.9487
 393  93.84983
 394  136.3981
 395  120.8321
 396  288.3714
 397  194.3602
 398  206.8735
 399  319.0724
 400  238.8478
 401  213.3683
 402  149.7454
 403  151.8466
 404  110.9012
 405  46.62614
 406  56.64735
 407  103.8709
 408  130.2232
 409  114.9726
 410  136.672
 411  167.3946
 412  299.6784
 413  131.3147
 414  79.28533
 415  109.0359
 416  129.2489
 417  39.82648
 418  153.1336
 419  204.9981
 420  235.0249
 421  133.7881
 422  248.9631
 423  291.9792
 424  147.8366
 425  198.2643
 426  91.08563
 427  57.69997
 428  151.2029
 429  84.75354
 430  135.2444
 431  194.0271
 432  219.6479
 433  193.9153
 434  33.37885
 435  13.16976
 436  106.8829
 437  100.5159
 438  204.1642
 439  233.6891
 440  227.2824
 441  247.3281
 442  209.5191
 443  108.4648
 444  132.2228
 445  215.2152
 446  178.6894
 447  117.8957
 448  42.29041
 449  149.2111
 450  174.6207
 451  179.1436
 452  256.6287
 453  222.3573
 454  273.4057
 455  176.8305
 456  114.5714
 457  83.39966
 458  66.9693
 459  149.8176
 460  99.69312
 461  216.4312
 462  110.4198
 463  122.6879
 464  81.18067
 465  59.09019
 466  113.6939
 467  351.8688
 468  317.7087
 469  239.7059
 470  151.788
 471  56.3119
 472  142.9276
 473  286.0348
 474  352.4398
 475  286.155
 476  131.7907
 477  83.03979
 478  216.2471
 479  179.7988
 480  204.1316
 481  243.2205
 482  239.4499
 483  148.051
 484  129.1931
 485  116.1954
 486  184.3127
 487  188.7738
 488  103.0135
 489  95.48943
 490  9.915527
 491  34.28218
 492  151.6014
 493  189.3712
 494  260.2692
 495  58.54999
 496  136.0034
 497  118.7166
 498  274.7009
 499  229.3425
 500  228.0689
 501  231.9877
 502  76.20114
 503  230.8646
 504  323.7927
 505  209.7408
 506  211.77
 507  167.4874
 508  225.2193
 509  163.878
 510  101.3875
 511  203.7047
