# Input file       =  1192328641.147617_cleaned.dat
# Candidate        =  PSR_0332+5434
# Telescope        =  AR
# Epoch_topo       =  58044.100233190016
# Epoch_bary       =  N/A
# T_sample         =  0.002
# Data Folded      =  7340032
# Data Avg         =  0.0165233653650388
# Data StdDev      =  1.00003099806936 
# Profile Bins     =  512
# Profile Avg      =  236.897606188455 
# Profile StdDev   =  119.736747869732 
# Reduced chi-sqr  =  1.487
# Prob(Noise)      <  5.01e-12   (~6.8 sigma)
# P_topo (ms)      =  714.484218090413  +/- 0.000218
# P'_topo (s/s)    =  -0                +/- 1.15e-10
# P''_topo (s/s^2) =  0                 +/- 5.09e-14
# P_bary (ms)      =  N/A
# P'_bary (s/s)    =  N/A
# P''_bary (s/s^2) =  N/A
# P_orb (s)        =  N/A
# asin(i)/c (s)    =  N/A
# eccentricity     =  N/A
# w (rad)          =  N/A
# T_peri           =  N/A
######################################################
   0  999.6054
   1  917.1846
   2  719.1915
   3  589.6832
   4  260.0969
   5  150.4343
   6  199.369
   7  214.0918
   8  307.6476
   9  209.1336
  10  247.8972
  11  455.6935
  12  429.7915
  13  436.2952
  14  354.1123
  15  218.1373
  16  116.0122
  17  196.2643
  18  220.8624
  19  203.2419
  20  188.3175
  21  202.8519
  22  213.1033
  23  207.5393
  24  156.8026
  25  224.6359
  26  305.1621
  27  149.8812
  28  105.9475
  29  123.2041
  30  356.6107
  31  405.4074
  32  204.4584
  33  293.9129
  34  380.7056
  35  410.1417
  36  417.1443
  37  225.6846
  38  251.0995
  39  330.7344
  40  318.9039
  41  349.6947
  42  251.7764
  43  144.7556
  44  267.2101
  45  303.4576
  46  305.2671
  47  283.2099
  48  157.8178
  49  154.3246
  50  158.5219
  51  238.4216
  52  185.365
  53  119.6055
  54  136.551
  55  218.6554
  56  123.335
  57  204.1884
  58  380.417
  59  309.5158
  60  242.6414
  61  253.6364
  62  251.4394
  63  190.1192
  64  132.2156
  65  186.2428
  66  130.1498
  67  40.32019
  68  170.0958
  69  299.821
  70  192.0344
  71  73.60992
  72  244.3102
  73  337.2745
  74  389.2749
  75  423.4646
  76  256.4885
  77  115.5653
  78  154.2782
  79  237.2897
  80  347.8127
  81  147.4385
  82  62.17011
  83  256.9297
  84  320.7529
  85  380.0359
  86  305.6059
  87  305.5027
  88  255.1982
  89  274.7027
  90  329.9355
  91  337.4246
  92  320.3966
  93  366.0949
  94  335.1912
  95  126.0597
  96  265.5443
  97  286.5575
  98  173.5699
  99  135.6117
 100  243.4648
 101  276.7535
 102  188.3114
 103  282.1232
 104  362.6729
 105  247.7545
 106  227.6183
 107  285.6426
 108  318.2908
 109  283.0024
 110  188.5654
 111  170.8735
 112  84.05068
 113  131.4798
 114  199.0337
 115  52.12041
 116  -51.14664
 117  109.7342
 118  205.7908
 119  295.621
 120  130.5147
 121  136.0128
 122  204.2784
 123  264.2738
 124  217.2346
 125  248.1946
 126  90.62788
 127  67.86302
 128  139.7712
 129  256.2615
 130  152.6043
 131  84.8867
 132  301.424
 133  272.2274
 134  316.6562
 135  438.951
 136  226.0425
 137  252.5387
 138  281.5462
 139  289.7013
 140  380.3271
 141  298.5956
 142  187.8956
 143  271.8936
 144  170.4714
 145  116.4908
 146  196.5949
 147  194.8627
 148  400.5474
 149  312.4985
 150  282.9133
 151  282.2783
 152  280.1078
 153  311.4206
 154  313.8571
 155  236.1328
 156  95.96545
 157  241.5688
 158  282.4738
 159  214.8904
 160  271.1437
 161  323.5011
 162  221.6918
 163  161.036
 164  260.5751
 165  156.4961
 166  226.8744
 167  110.3071
 168  149.0783
 169  194.8203
 170  200.5785
 171  226.1015
 172  156.2731
 173  99.71371
 174  258.3714
 175  431.4163
 176  426.6547
 177  272.9525
 178  110.9213
 179  57.48907
 180  217.6771
 181  236.9234
 182  223.1993
 183  375.6459
 184  327.3363
 185  258.4342
 186  170.8479
 187  133.8597
 188  232.231
 189  286.8466
 190  204.3778
 191  185.5523
 192  216.7396
 193  238.1987
 194  193.9638
 195  193.5107
 196  332.0806
 197  435.1512
 198  254.051
 199  258.2906
 200  120.8582
 201  101.9854
 202  96.32476
 203  84.26588
 204  140.3409
 205  206.0933
 206  145.0656
 207  85.41412
 208  101.7805
 209  167.859
 210  250.7174
 211  199.9094
 212  305.3842
 213  137.4413
 214  257.4799
 215  185.5774
 216  243.3632
 217  172.744
 218  214.6589
 219  275.8287
 220  252.5769
 221  299.9133
 222  197.9424
 223  281.8269
 224  326.3545
 225  209.0454
 226  154.6294
 227  176.1814
 228  205.2219
 229  236.9805
 230  255.8206
 231  221.8836
 232  93.21891
 233  279.6344
 234  295.2472
 235  191.4024
 236  157.4869
 237  192.5292
 238  165.6466
 239  261.592
 240  342.3543
 241  338.4619
 242  327.869
 243  165.244
 244  258.0539
 245  289.1081
 246  184.111
 247  320.0187
 248  222.4962
 249  221.9592
 250  333.6983
 251  304.0251
 252  340.0941
 253  272.4289
 254  311.9551
 255  407.9344
 256  330.7718
 257  237.2971
 258  171.1973
 259  239.8704
 260  354.3252
 261  274.7213
 262  167.5758
 263  223.7993
 264  205.7368
 265  277.2616
 266  259.9801
 267  171.7283
 268  259.9911
 269  252.3503
 270  244.5069
 271  321.0875
 272  297.4699
 273  98.6045
 274  134.934
 275  291.3363
 276  198.942
 277  245.5171
 278  203.5872
 279  178.6637
 280  170.9567
 281  118.4238
 282  98.9717
 283  218.2203
 284  257.4514
 285  222.0754
 286  242.5099
 287  288.6277
 288  210.5538
 289  185.0691
 290  224.3737
 291  258.3416
 292  189.5103
 293  229.2151
 294  167.8738
 295  131.3531
 296  114.5035
 297  186.6807
 298  272.7957
 299  268.038
 300  151.7813
 301  168.7695
 302  258.4015
 303  180.3186
 304  275.3581
 305  148.5459
 306  191.4942
 307  302.4286
 308  323.0009
 309  315.6222
 310  299.3396
 311  234.6998
 312  190.3684
 313  251.3286
 314  329.5197
 315  129.768
 316  152.5752
 317  292.8113
 318  306.9655
 319  162.4301
 320  170.5767
 321  68.991
 322  76.81659
 323  89.10085
 324  200.1833
 325  314.8931
 326  251.3258
 327  140.8094
 328  182.7043
 329  346.8611
 330  275.8581
 331  258.1334
 332  324.5604
 333  284.3105
 334  288.9695
 335  321.0901
 336  185.0244
 337  223.7989
 338  39.58714
 339  129.8185
 340  252.9148
 341  338.7509
 342  380.588
 343  364.8158
 344  361.2937
 345  309.9537
 346  114.7701
 347  238.7098
 348  352.2161
 349  324.8785
 350  341.4818
 351  244.5516
 352  182.0929
 353  83.43575
 354  198.4017
 355  259.7383
 356  200.7983
 357  209.1101
 358  186.9481
 359  227.6089
 360  230.156
 361  239.6995
 362  315.8954
 363  238.9572
 364  232.744
 365  269.913
 366  262.3381
 367  263.2888
 368  245.7072
 369  207.8891
 370  289.621
 371  296.238
 372  321.2835
 373  282.1144
 374  203.5922
 375  263.1171
 376  354.8742
 377  329.9335
 378  107.0244
 379  118.1775
 380  199.4806
 381  87.75455
 382  143.2704
 383  256.4414
 384  303.9857
 385  214.2987
 386  258.386
 387  378.548
 388  257.3347
 389  184.6663
 390  186.2828
 391  249.9145
 392  232.5392
 393  204.2431
 394  279.791
 395  214.122
 396  147.6128
 397  235.7724
 398  328.9717
 399  273.216
 400  223.461
 401  186.0374
 402  204.0788
 403  250.3629
 404  274.6277
 405  254.2981
 406  155.2859
 407  117.4063
 408  132.704
 409  137.9487
 410  294.812
 411  335.9157
 412  202.257
 413  199.2424
 414  256.5065
 415  301.2127
 416  260.4123
 417  164.2298
 418  216.7249
 419  254.4158
 420  161.0863
 421  82.8251
 422  141.7779
 423  308.523
 424  219.336
 425  149.9853
 426  131.2594
 427  214.5964
 428  154.4806
 429  174.1639
 430  249.9555
 431  316.0722
 432  333.192
 433  330.981
 434  208.7337
 435  149.0345
 436  117.1892
 437  171.5005
 438  209.5719
 439  105.0068
 440  156.3035
 441  163.1109
 442  186.5711
 443  245.3829
 444  251.922
 445  124.4601
 446  134.3983
 447  146.5802
 448  270.0331
 449  288.6099
 450  171.043
 451  183.4143
 452  275.5471
 453  245.2157
 454  285.1189
 455  183.0458
 456  114.7309
 457  196.2248
 458  169.9289
 459  231.8533
 460  232.3931
 461  215.3514
 462  300.9181
 463  210.6124
 464  82.31752
 465  69.09103
 466  124.7207
 467  292.9523
 468  199.0979
 469  88.34212
 470  219.4037
 471  130.8493
 472  196.3184
 473  263.4926
 474  241.3965
 475  251.435
 476  272.6266
 477  246.6776
 478  232.7819
 479  173.628
 480  268.7875
 481  186.4933
 482  130.6763
 483  257.5614
 484  198.6231
 485  187.9339
 486  102.1467
 487  190.8036
 488  204.1987
 489  143.8859
 490  149.0936
 491  360.6525
 492  277.9345
 493  418.1098
 494  347.8163
 495  256.838
 496  278.0106
 497  270.1714
 498  126.3003
 499  111.8591
 500  48.81782
 501  125.9149
 502  185.3812
 503  300.4864
 504  360.3607
 505  350.8274
 506  386.3985
 507  405.7468
 508  327.5537
 509  439.7502
 510  807.033
 511  962.3017
