# Input file       =  1192744465.139344_cleaned.dat
# Candidate        =  PSR_0332+5434
# Telescope        =  AR
# Epoch_topo       =  58048.913010872035
# Epoch_bary       =  N/A
# T_sample         =  0.002
# Data Folded      =  7340032
# Data Avg         =  0.0131456833064944
# Data StdDev      =  1.00000513937853 
# Profile Bins     =  512
# Profile Avg      =  188.456726796758 
# Profile StdDev   =  119.733651730162 
# Reduced chi-sqr  =  1.753
# Prob(Noise)      <  1.77e-23   (~9.9 sigma)
# P_topo (ms)      =  714.487756124095  +/- 0.000161
# P'_topo (s/s)    =  -0                +/- 8.51e-11
# P''_topo (s/s^2) =  0                 +/- 3.75e-14
# P_bary (ms)      =  N/A
# P'_bary (s/s)    =  N/A
# P''_bary (s/s^2) =  N/A
# P_orb (s)        =  N/A
# asin(i)/c (s)    =  N/A
# eccentricity     =  N/A
# w (rad)          =  N/A
# T_peri           =  N/A
######################################################
   0  42.17073
   1  48.69469
   2  12.31555
   3  64.91534
   4  191.6738
   5  139.3166
   6  159.1016
   7  177.7286
   8  122.9751
   9  162.0829
  10  218.6619
  11  141.053
  12  129.2871
  13  146.5482
  14  94.07507
  15  117.7466
  16  91.2924
  17  114.4923
  18  140.6759
  19  13.42185
  20  73.48656
  21  120.0416
  22  244.6986
  23  147.0614
  24  171.9109
  25  155.6635
  26  -0.6848364
  27  60.89892
  28  160.8216
  29  246.6665
  30  137.347
  31  87.28625
  32  41.93671
  33  -48.13865
  34  144.0378
  35  286.3998
  36  157.1483
  37  112.1158
  38  73.0456
  39  1.513032
  40  119.1507
  41  271.1171
  42  241.59
  43  259.8145
  44  146.6403
  45  138.1172
  46  161.5334
  47  -22.4571
  48  103.8341
  49  144.5188
  50  151.3031
  51  167.7464
  52  68.92996
  53  52.10714
  54  58.83144
  55  248.5011
  56  204.3588
  57  116.7918
  58  105.1597
  59  134.3613
  60  174.7505
  61  61.31227
  62  122.5253
  63  176.4143
  64  168.9946
  65  184.6667
  66  164.6755
  67  165.9748
  68  247.0098
  69  170.8164
  70  162.6862
  71  172.4799
  72  155.5657
  73  138.5169
  74  172.573
  75  154.0781
  76  131.7522
  77  158.4372
  78  127.1786
  79  316.977
  80  295.0502
  81  250.5897
  82  254.9363
  83  58.52268
  84  103.0068
  85  118.1592
  86  123.3678
  87  151.9269
  88  209.4359
  89  221.5538
  90  124.8733
  91  124.4042
  92  63.46944
  93  187.4591
  94  271.8265
  95  272.5251
  96  262.1455
  97  293.9122
  98  279.6755
  99  238.7723
 100  241.48
 101  85.06567
 102  152.0003
 103  178.2864
 104  153.3895
 105  131.8793
 106  268.4633
 107  197.6893
 108  61.67569
 109  111.7486
 110  186.9787
 111  348.6585
 112  422.6488
 113  362.235
 114  337.6674
 115  281.1353
 116  284.1965
 117  354.6727
 118  314.538
 119  312.6811
 120  255.9412
 121  186.7968
 122  178.3858
 123  59.77264
 124  85.39484
 125  146.3273
 126  164.6443
 127  306.7893
 128  308.4968
 129  284.3931
 130  250.9733
 131  156.8216
 132  251.9943
 133  88.62687
 134  155.1162
 135  183.7643
 136  122.0646
 137  218.3699
 138  274.5637
 139  288.2644
 140  192.0601
 141  210.3964
 142  80.82437
 143  139.586
 144  203.2561
 145  170.0717
 146  322.3853
 147  313.629
 148  217.3572
 149  272.8326
 150  296.176
 151  268.9589
 152  210.5695
 153  217.4637
 154  377.1502
 155  251.7804
 156  179.52
 157  192.9051
 158  155.7911
 159  208.104
 160  328.7284
 161  357.4023
 162  281.6401
 163  179.0062
 164  221.5898
 165  272.0966
 166  386.9281
 167  307.5387
 168  212.7181
 169  333.1071
 170  350.3393
 171  280.4565
 172  53.80817
 173  44.34476
 174  174.4384
 175  175.4033
 176  239.0254
 177  291.5026
 178  213.4336
 179  225.5793
 180  191.1954
 181  99.22977
 182  78.16299
 183  248.1805
 184  285.0971
 185  292.1649
 186  219.2624
 187  232.9334
 188  275.6912
 189  206.0682
 190  122.9509
 191  104.8826
 192  127.8694
 193  319.5082
 194  392.4494
 195  228.4631
 196  125.6334
 197  171.4253
 198  234.1383
 199  237.4861
 200  306.8881
 201  315.9954
 202  309.7794
 203  219.1908
 204  284.4064
 205  242.6942
 206  213.7563
 207  218.0643
 208  180.4073
 209  296.3263
 210  266.7372
 211  224.8094
 212  317.2302
 213  170.2905
 214  119.5939
 215  41.1197
 216  87.11654
 217  67.06267
 218  167.9441
 219  354.4876
 220  268.0631
 221  152.8381
 222  190.4467
 223  284.4962
 224  160.0251
 225  173.4246
 226  141.4051
 227  216.6946
 228  136.7464
 229  57.86621
 230  116.9147
 231  173.6232
 232  261.9467
 233  240.0198
 234  121.8214
 235  46.85563
 236  110.8607
 237  148.8922
 238  275.6164
 239  328.299
 240  336.4452
 241  270.126
 242  275.8464
 243  267.1318
 244  25.43651
 245  108.2237
 246  214.2386
 247  198.3041
 248  190.0349
 249  190.79
 250  144.6569
 251  44.46521
 252  223.3768
 253  248.0105
 254  134.1413
 255  185.8397
 256  309.019
 257  233.321
 258  86.06618
 259  -31.08264
 260  215.5064
 261  211.5312
 262  224.2702
 263  276.9342
 264  348.4643
 265  394.9557
 266  185.8995
 267  286.7992
 268  325.9314
 269  196.1876
 270  206.1491
 271  191.8524
 272  206.6638
 273  177.0345
 274  125.5819
 275  69.7315
 276  179.0149
 277  232.0613
 278  243.3649
 279  176.1884
 280  228.2215
 281  298.986
 282  289.9867
 283  226.0821
 284  161.6378
 285  163.4991
 286  202.5222
 287  249.1968
 288  239.1314
 289  123.1734
 290  76.07956
 291  206.5213
 292  161.6277
 293  208.8294
 294  172.1312
 295  126.4951
 296  115.3452
 297  74.99197
 298  198.7358
 299  134.8817
 300  162.0542
 301  365.7485
 302  197.5215
 303  72.73225
 304  141.8425
 305  203.2999
 306  117.7316
 307  96.27801
 308  305.5352
 309  325.7097
 310  310.9253
 311  259.7428
 312  116.5795
 313  77.8045
 314  263.6401
 315  289.77
 316  189.721
 317  219.7491
 318  236.1454
 319  136.3595
 320  88.12016
 321  154.9181
 322  56.62202
 323  101.116
 324  184.8318
 325  44.81419
 326  147.5504
 327  219.7326
 328  178.1307
 329  72.51036
 330  103.3444
 331  95.08195
 332  121.8542
 333  72.38725
 334  120.5781
 335  53.81556
 336  208.3864
 337  267.3553
 338  136.9507
 339  268.2481
 340  187.7297
 341  193.9158
 342  324.1553
 343  403.0922
 344  316.3921
 345  197.0353
 346  271.3089
 347  93.9584
 348  71.75529
 349  10.51086
 350  42.65819
 351  74.87888
 352  95.02823
 353  196.4188
 354  225.1404
 355  278.2664
 356  258.3769
 357  227.5077
 358  219.0532
 359  102.7628
 360  31.41867
 361  52.27137
 362  30.56409
 363  318.9686
 364  360.1638
 365  253.7065
 366  272.3391
 367  406.373
 368  438.1109
 369  381.9112
 370  447.537
 371  715.5786
 372  914.9684
 373  858.3734
 374  905.6793
 375  896.4832
 376  718.7421
 377  356.5952
 378  262.7959
 379  213.6671
 380  51.81719
 381  173.9223
 382  259.847
 383  238.4475
 384  241.7274
 385  216.9652
 386  166.6813
 387  196.2009
 388  404.3771
 389  360.2424
 390  253.4555
 391  215.8547
 392  299.1552
 393  99.83225
 394  169.6912
 395  186.3598
 396  206.9389
 397  203.8081
 398  169.1004
 399  137.7585
 400  231.1076
 401  154.8275
 402  131.0312
 403  248.2397
 404  270.2153
 405  184.3223
 406  214.8079
 407  257.6347
 408  142.1566
 409  171.8399
 410  199.1047
 411  174.6195
 412  166.5621
 413  114.1409
 414  56.86093
 415  156.4241
 416  180.3828
 417  197.0408
 418  223.3127
 419  312.2676
 420  264.2909
 421  185.9104
 422  90.89037
 423  41.01645
 424  122.4166
 425  278.5228
 426  210.045
 427  171.7291
 428  146.7894
 429  -19.88144
 430  55.50678
 431  111.5073
 432  181.7406
 433  180.2366
 434  145.0497
 435  207.6206
 436  122.3123
 437  198.9175
 438  246.4546
 439  246.9614
 440  53.61857
 441  -19.36689
 442  43.02291
 443  127.6318
 444  104.5879
 445  193.8681
 446  207.5558
 447  183.9877
 448  121.0812
 449  247.1968
 450  251.3288
 451  22.47383
 452  81.7595
 453  152.4948
 454  128.2706
 455  -25.76988
 456  15.88801
 457  169.7032
 458  101.6068
 459  44.93896
 460  167.3916
 461  127.6179
 462  82.80013
 463  145.2006
 464  92.49966
 465  172.0271
 466  164.0236
 467  156.8068
 468  161.9783
 469  199.3746
 470  155.5599
 471  161.6009
 472  180.4141
 473  234.029
 474  119.1601
 475  -9.552777
 476  29.43723
 477  287.6139
 478  222.3333
 479  148.3377
 480  184.0133
 481  182.2751
 482  99.39428
 483  108.3013
 484  153.2068
 485  152.6721
 486  112.6554
 487  294.7856
 488  246.398
 489  147.4447
 490  213.468
 491  185.9539
 492  82.91753
 493  155.4198
 494  6.912393
 495  -26.53157
 496  140.4008
 497  121.1035
 498  122.2249
 499  192.4722
 500  184.1491
 501  109.4639
 502  -48.94471
 503  41.08683
 504  -76.13528
 505  5.041434
 506  46.19417
 507  117.8154
 508  260.9654
 509  102.4414
 510  32.63491
 511  35.49517
