# Input file       =  1192399868.133724_cleaned.dat
# Candidate        =  PSR_0332+5434
# Telescope        =  AR
# Epoch_topo       =  58044.924619603284
# Epoch_bary       =  N/A
# T_sample         =  0.002
# Data Folded      =  7340032
# Data Avg         =  0.036552577729578
# Data StdDev      =  2.35319528038249 
# Profile Bins     =  512
# Profile Avg      =  524.036495363134 
# Profile StdDev   =  281.755216107671 
# Reduced chi-sqr  =  1.395
# Prob(Noise)      <  8.11e-09   (~5.6 sigma)
# P_topo (ms)      =  714.484527810652  +/- 0.000234
# P'_topo (s/s)    =  -0                +/- 1.24e-10
# P''_topo (s/s^2) =  0                 +/- 5.46e-14
# P_bary (ms)      =  N/A
# P'_bary (s/s)    =  N/A
# P''_bary (s/s^2) =  N/A
# P_orb (s)        =  N/A
# asin(i)/c (s)    =  N/A
# eccentricity     =  N/A
# w (rad)          =  N/A
# T_peri           =  N/A
######################################################
   0  322.4203
   1  372.4212
   2  202.8232
   3  559.2996
   4  473.5729
   5  319.3968
   6  338.6155
   7  381.588
   8  837.5825
   9  727.0339
  10  562.3482
  11  600.5184
  12  272.6868
  13  460.8797
  14  693.8348
  15  782.4001
  16  615.0985
  17  730.4791
  18  536.8262
  19  640.9944
  20  561.3351
  21  562.478
  22  280.8961
  23  471.717
  24  504.086
  25  916.7841
  26  816.7865
  27  510.237
  28  492.1653
  29  420.8038
  30  556.1793
  31  589.8248
  32  606.6406
  33  474.5701
  34  580.2943
  35  663.3682
  36  625.0734
  37  700.9615
  38  602.1834
  39  578.5822
  40  749.4076
  41  675.0025
  42  722.3856
  43  665.9077
  44  696.0806
  45  514.5526
  46  252.0609
  47  428.7863
  48  677.7339
  49  681.7334
  50  750.3502
  51  644.2022
  52  412.3891
  53  654.6993
  54  698.4557
  55  636.0515
  56  472.9839
  57  375.0913
  58  602.2712
  59  447.4566
  60  540.7589
  61  660.493
  62  738.4301
  63  818.0411
  64  763.4934
  65  492.5132
  66  874.0068
  67  661.3522
  68  435.8293
  69  261.3571
  70  483.777
  71  482.2415
  72  367.556
  73  425.9506
  74  243.6184
  75  354.3998
  76  529.7895
  77  593.7455
  78  677.3729
  79  504.8709
  80  475.3296
  81  582.7734
  82  551.7101
  83  450.0113
  84  591.4766
  85  677.8832
  86  698.8439
  87  396.325
  88  368.1522
  89  859.01
  90  465.3415
  91  487.7875
  92  688.3321
  93  393.5303
  94  520.6995
  95  587.6376
  96  786.6254
  97  526.819
  98  429.4049
  99  657.1616
 100  732.3069
 101  678.1867
 102  386.7981
 103  326.3219
 104  388.672
 105  582.1368
 106  426.2397
 107  487.1652
 108  405.4847
 109  391.7189
 110  317.6644
 111  213.4548
 112  112.3237
 113  759.8741
 114  691.6085
 115  400.1506
 116  288.7402
 117  137.1568
 118  261.5406
 119  727.0573
 120  367.8134
 121  337.6907
 122  616.411
 123  627.0414
 124  512.1067
 125  272.7681
 126  623.0653
 127  553.6053
 128  419.6714
 129  714.4371
 130  422.7541
 131  557.4199
 132  690.913
 133  451.0028
 134  673.6749
 135  658.1175
 136  888.0107
 137  426.1104
 138  317.5726
 139  476.1842
 140  674.515
 141  623.3116
 142  513.24
 143  695.344
 144  811.2775
 145  667.3079
 146  660.9037
 147  587.7023
 148  624.9492
 149  469.9978
 150  628.1996
 151  366.9694
 152  465.7614
 153  373.0871
 154  673.3949
 155  555.0487
 156  335.8918
 157  571.9074
 158  650.6389
 159  508.6696
 160  636.915
 161  605.2306
 162  504.0497
 163  680.2354
 164  626.6826
 165  687.106
 166  412.437
 167  505.5847
 168  335.9534
 169  305.4692
 170  336.5695
 171  73.19031
 172  678.5549
 173  904.5402
 174  834.2729
 175  705.4647
 176  538.5395
 177  491.2996
 178  439.2873
 179  584.8983
 180  624.6783
 181  406.9545
 182  436.1573
 183  504.6981
 184  393.0757
 185  498.2416
 186  415.3313
 187  535.6371
 188  546.1987
 189  675.9385
 190  371.7087
 191  515.5652
 192  419.7311
 193  426.1522
 194  485.0659
 195  139.4409
 196  313.3786
 197  381.2697
 198  364.016
 199  324.0665
 200  250.6837
 201  304.4407
 202  334.6808
 203  313.9486
 204  347.6782
 205  270.2038
 206  250.3409
 207  340.7037
 208  597.5712
 209  546.2717
 210  363.3852
 211  181.2633
 212  472.3746
 213  530.3774
 214  352.128
 215  593.165
 216  617.6933
 217  470.0252
 218  627.1867
 219  505.042
 220  404.697
 221  238.5381
 222  589.798
 223  295.4366
 224  357.0124
 225  635.5815
 226  751.9243
 227  683.2249
 228  468.0131
 229  572.9802
 230  375.7826
 231  705.8699
 232  621.1163
 233  387.0579
 234  352.5471
 235  212.5873
 236  202.5455
 237  493.0609
 238  652.217
 239  619.3599
 240  675.4517
 241  462.0204
 242  357.8745
 243  306.7991
 244  199.0585
 245  291.0863
 246  241.3389
 247  501.0374
 248  567.5341
 249  343.2101
 250  324.4039
 251  571.3806
 252  617.853
 253  728.0958
 254  643.4494
 255  424.309
 256  351.0143
 257  206.0786
 258  483.2182
 259  523.7183
 260  664.8809
 261  774.3402
 262  529.075
 263  376.8503
 264  403.8936
 265  503.943
 266  490.674
 267  249.3635
 268  322.5852
 269  805.6693
 270  862.3563
 271  507.2614
 272  474.9552
 273  751.5905
 274  579.1818
 275  656.8118
 276  314.7163
 277  179.2131
 278  175.2232
 279  300.4081
 280  644.9985
 281  401.5498
 282  463.3303
 283  618.2707
 284  617.4825
 285  535.5203
 286  233.0324
 287  414.9401
 288  692.5662
 289  741.9713
 290  504.2138
 291  505.5768
 292  723.2036
 293  395.5943
 294  211.9854
 295  537.9
 296  629.1501
 297  808.0797
 298  712.2039
 299  528.7706
 300  668.6687
 301  710.7946
 302  489.8005
 303  721.2588
 304  843.8041
 305  450.7941
 306  242.1106
 307  597.2639
 308  489.58
 309  505.6176
 310  539.6202
 311  375.2693
 312  892.3913
 313  1170.083
 314  1116.728
 315  1532.061
 316  2021.48
 317  2294.455
 318  2166.799
 319  2091.436
 320  2095.1
 321  1262.204
 322  532.3089
 323  435.6478
 324  732.8873
 325  810.4069
 326  455.4935
 327  176.3381
 328  599.2816
 329  785.1074
 330  494.3773
 331  416.6179
 332  451.0138
 333  625.6424
 334  769.845
 335  555.8433
 336  297.3609
 337  353.2904
 338  474.8877
 339  593.8773
 340  359.9706
 341  444.0699
 342  599.8729
 343  323.4069
 344  360.4573
 345  626.5395
 346  578.4684
 347  432.1581
 348  379.0838
 349  325.7547
 350  526.852
 351  355.7674
 352  226.5886
 353  423.9662
 354  712.9496
 355  624.162
 356  635.3675
 357  750.7638
 358  376.7743
 359  447.1413
 360  435.4475
 361  545.8624
 362  665.054
 363  366.5682
 364  68.93498
 365  396.0602
 366  458.1247
 367  253.0024
 368  568.8511
 369  381.3125
 370  362.9759
 371  101.1436
 372  466.5124
 373  518.4788
 374  217.772
 375  385.2835
 376  489.9105
 377  491.4189
 378  577.549
 379  696.306
 380  714.8412
 381  584.9277
 382  501.1965
 383  304.8636
 384  394.0121
 385  405.7187
 386  235.0725
 387  217.3393
 388  320.2004
 389  317.0826
 390  506.3668
 391  543.084
 392  334.1962
 393  396.5974
 394  568.2909
 395  706.0188
 396  533.3025
 397  661.9731
 398  428.8142
 399  343.9729
 400  294.9741
 401  605.4656
 402  717.7539
 403  528.1754
 404  658.448
 405  552.3672
 406  526.0175
 407  465.025
 408  552.8315
 409  409.9944
 410  221.9595
 411  356.7868
 412  652.1388
 413  452.5808
 414  790.1592
 415  635.6
 416  505.5979
 417  342.098
 418  385.5104
 419  650.3824
 420  751.035
 421  440.2038
 422  208.2284
 423  345.3031
 424  533.1579
 425  591.2885
 426  588.5234
 427  551.5505
 428  550.2148
 429  522.3096
 430  462.4142
 431  353.7695
 432  426.8896
 433  520.3233
 434  522.6162
 435  282.6507
 436  392.1324
 437  298.0133
 438  529.0677
 439  698.002
 440  795.4055
 441  521.1373
 442  551.9473
 443  538.2834
 444  433.7397
 445  634.0384
 446  742.9244
 447  627.2466
 448  254.4957
 449  600.357
 450  813.3641
 451  596.0781
 452  120.7212
 453  230.8244
 454  331.3985
 455  506.5259
 456  717.4752
 457  460.641
 458  313.1135
 459  559.1577
 460  571.9893
 461  442.8495
 462  581.4296
 463  449.4733
 464  679.0757
 465  772.5892
 466  466.8702
 467  287.5017
 468  434.7403
 469  279.3309
 470  386.0529
 471  362.0572
 472  608.3642
 473  496.6237
 474  564.615
 475  627.6022
 476  331.369
 477  351.7972
 478  379.6353
 479  364.9222
 480  487.3515
 481  650.5008
 482  703.6421
 483  616.0959
 484  371.4232
 485  265.5063
 486  172.744
 487  356.849
 488  284.4566
 489  503.3809
 490  123.7664
 491  309.7382
 492  296.4096
 493  849.0677
 494  853.6017
 495  618.9863
 496  60.8971
 497  217.3627
 498  420.0372
 499  539.5977
 500  612.1404
 501  479.6431
 502  411.2696
 503  326.5156
 504  593.778
 505  605.2875
 506  653.0928
 507  960.9425
 508  579.5104
 509  519.7656
 510  250.1436
 511  340.4592
