# Input file       =  1192399868.133724_cleaned.dat
# Candidate        =  PSR_0332+5434
# Telescope        =  AR
# Epoch_topo       =  58044.924619603284
# Epoch_bary       =  N/A
# T_sample         =  0.002
# Data Folded      =  7340032
# Data Avg         =  0.036552577729578
# Data StdDev      =  2.35319528038249 
# Profile Bins     =  256
# Profile Avg      =  1048.07299072627 
# Profile StdDev   =  398.462047888831 
# Reduced chi-sqr  =  1.651
# Prob(Noise)      <  2.8e-10   (~6.2 sigma)
# P_topo (ms)      =  714.484527810652  +/- 0.000307
# P'_topo (s/s)    =  -0                +/- 1.62e-10
# P''_topo (s/s^2) =  0                 +/- 7.15e-14
# P_bary (ms)      =  N/A
# P'_bary (s/s)    =  N/A
# P''_bary (s/s^2) =  N/A
# P_orb (s)        =  N/A
# asin(i)/c (s)    =  N/A
# eccentricity     =  N/A
# w (rad)          =  N/A
# T_peri           =  N/A
######################################################
   0  694.8416
   1  762.1228
   2  792.9697
   3  720.2036
   4  1564.616
   5  1162.867
   6  733.5665
   7  1476.235
   8  1345.578
   9  1177.821
  10  1123.813
  11  752.6131
  12  1420.87
  13  1327.023
  14  912.9691
  15  1146.004
  16  1081.211
  17  1243.662
  18  1326.035
  19  1180.766
  20  1424.41
  21  1388.293
  22  1210.633
  23  680.8472
  24  1359.467
  25  1394.552
  26  1067.088
  27  1334.507
  28  848.0752
  29  1049.728
  30  1201.252
  31  1556.471
  32  1256.006
  33  1535.359
  34  697.1864
  35  966.0186
  36  793.5066
  37  598.0182
  38  1123.535
  39  1182.244
  40  1058.103
  41  1001.721
  42  1269.36
  43  1095.169
  44  1227.162
  45  953.129
  46  1081.862
  47  1108.337
  48  1313.444
  49  1086.567
  50  1410.494
  51  713.1199
  52  970.8088
  53  913.4048
  54  797.2036
  55  531.1191
  56  872.1978
  57  1091.759
  58  425.897
  59  988.5978
  60  705.504
  61  1243.452
  62  784.8748
  63  1176.671
  64  1134.109
  65  980.174
  66  1141.916
  67  1331.792
  68  1314.121
  69  793.7568
  70  1297.827
  71  1208.584
  72  1478.585
  73  1248.606
  74  1094.947
  75  995.1689
  76  838.8485
  77  1228.444
  78  907.7992
  79  1159.309
  80  1242.146
  81  1184.285
  82  1313.789
  83  918.0217
  84  641.4226
  85  409.7598
  86  1583.095
  87  1539.738
  88  1029.839
  89  1024.186
  90  1031.633
  91  940.8553
  92  891.3173
  93  950.9684
  94  1222.137
  95  887.2739
  96  845.8833
  97  624.5069
  98  694.6483
  99  688.0825
 100  555.1244
 101  648.6294
 102  617.8819
 103  591.0446
 104  1143.843
 105  544.6485
 106  1002.752
 107  945.293
 108  1087.719
 109  1132.229
 110  643.235
 111  885.2346
 112  992.5939
 113  1435.149
 114  1040.993
 115  1081.652
 116  1008.174
 117  565.1344
 118  695.6064
 119  1271.577
 120  1137.472
 121  664.6736
 122  490.1448
 123  742.3764
 124  910.7443
 125  895.7845
 126  1345.949
 127  1067.758
 128  557.0929
 129  1006.936
 130  1439.221
 131  905.9254
 132  907.8367
 133  740.0375
 134  1128.254
 135  1369.618
 136  1226.546
 137  1235.994
 138  493.9294
 139  475.6313
 140  1046.548
 141  1081.601
 142  1153.003
 143  647.9725
 144  1434.537
 145  1009.791
 146  1118.798
 147  749.8854
 148  1437.23
 149  1240.974
 150  1379.463
 151  1211.059
 152  1294.598
 153  839.3745
 154  995.1976
 155  914.8895
 156  2062.474
 157  2648.789
 158  4315.935
 159  4258.235
 160  3357.304
 161  967.9567
 162  1543.294
 163  631.8316
 164  1384.389
 165  910.9951
 166  1076.656
 167  1325.688
 168  650.6514
 169  1068.765
 170  804.0405
 171  923.2798
 172  986.9968
 173  1010.627
 174  704.8386
 175  882.6194
 176  650.5549
 177  1337.112
 178  1386.131
 179  823.9156
 180  981.3099
 181  1031.622
 182  464.9952
 183  711.1271
 184  950.1635
 185  464.1196
 186  984.9911
 187  603.0555
 188  981.3294
 189  1273.855
 190  1299.769
 191  806.0601
 192  799.7308
 193  452.4119
 194  637.283
 195  1049.451
 196  730.7936
 197  1274.31
 198  1195.276
 199  772.7871
 200  900.4398
 201  1245.929
 202  1210.815
 203  991.0425
 204  962.826
 205  578.7463
 206  1104.72
 207  1425.759
 208  847.6959
 209  1035.893
 210  1191.239
 211  553.5315
 212  1124.446
 213  1140.074
 214  1072.524
 215  816.1837
 216  947.213
 217  805.2668
 218  690.1458
 219  1227.07
 220  1316.543
 221  1090.231
 222  1067.778
 223  1370.171
 224  854.8527
 225  1409.442
 226  351.5456
 227  837.9244
 228  1178.116
 229  872.2712
 230  1014.839
 231  1030.903
 232  1451.665
 233  754.3719
 234  714.0712
 235  748.1102
 236  1104.988
 237  1192.217
 238  683.1662
 239  744.5574
 240  1137.852
 241  1319.738
 242  636.9295
 243  529.593
 244  787.8375
 245  433.5046
 246  1145.477
 247  1472.588
 248  278.2598
 249  959.6349
 250  1091.783
 251  737.7852
 252  1199.065
 253  1614.035
 254  1099.276
 255  590.6027
