# Input file       =  1192830597.138417_cleaned.dat
# Candidate        =  PSR_0332+5434
# Telescope        =  AR
# Epoch_topo       =  58049.909909009453
# Epoch_bary       =  N/A
# T_sample         =  0.002
# Data Folded      =  7340032
# Data Avg         =  0.018760006308033
# Data StdDev      =  1.00004463257329 
# Profile Bins     =  512
# Profile Avg      =  268.904620063311 
# Profile StdDev   =  119.738380370287 
# Reduced chi-sqr  =  1.423
# Prob(Noise)      <  9.02e-10   (~6.0 sigma)
# P_topo (ms)      =  714.488589418239  +/- 0.000216
# P'_topo (s/s)    =  -0                +/- 1.14e-10
# P''_topo (s/s^2) =  0                 +/- 5.04e-14
# P_bary (ms)      =  N/A
# P'_bary (s/s)    =  N/A
# P''_bary (s/s^2) =  N/A
# P_orb (s)        =  N/A
# asin(i)/c (s)    =  N/A
# eccentricity     =  N/A
# w (rad)          =  N/A
# T_peri           =  N/A
######################################################
   0  926.3842
   1  830.5506
   2  734.4631
   3  491.5241
   4  250.6201
   5  159.5385
   6  280.9279
   7  319.6718
   8  196.205
   9  131.0943
  10  114.6372
  11  137.5901
  12  137.8643
  13  324.83
  14  325.4358
  15  310.1004
  16  174.8047
  17  232.6259
  18  353.9551
  19  283.9201
  20  182.3089
  21  123.9747
  22  227.249
  23  210.6404
  24  176.3212
  25  207.1181
  26  176.6362
  27  191.6113
  28  236.4654
  29  185.0461
  30  87.14909
  31  161.7153
  32  254.161
  33  318.4183
  34  321.9048
  35  215.8679
  36  220.3746
  37  241.1302
  38  180.3205
  39  219.1883
  40  220.3295
  41  263.0672
  42  178.1869
  43  236.6189
  44  258.2279
  45  182.0603
  46  211.1714
  47  422.4538
  48  298.4089
  49  376.3009
  50  283.4102
  51  251.2556
  52  183.3642
  53  216.4442
  54  438.2016
  55  341.7729
  56  202.0054
  57  152.8567
  58  239.7912
  59  264.1653
  60  248.3668
  61  184.1151
  62  109.7858
  63  248.9903
  64  264.5184
  65  300.4872
  66  308.4215
  67  341.9728
  68  340.7389
  69  224.8512
  70  261.6733
  71  200.0117
  72  223.2292
  73  180.9598
  74  343.3169
  75  314.0224
  76  288.8582
  77  286.0365
  78  202.9309
  79  163.3079
  80  240.2713
  81  255.5198
  82  241.1905
  83  286.7278
  84  326.2829
  85  328.1332
  86  228.05
  87  113.3897
  88  157.027
  89  261.223
  90  190.1363
  91  75.51714
  92  109.1961
  93  146.3979
  94  171.5823
  95  290.0469
  96  275.9628
  97  258.3761
  98  249.6269
  99  207.0867
 100  243.8531
 101  372.6781
 102  329.5539
 103  242.1693
 104  168.718
 105  181.4883
 106  80.55793
 107  91.24771
 108  208.7138
 109  261.9383
 110  300.1472
 111  261.7889
 112  295.3375
 113  313.9312
 114  228.1473
 115  297.2678
 116  337.2179
 117  422.2061
 118  278.985
 119  222.7791
 120  266.3736
 121  374.7156
 122  337.1459
 123  254.4766
 124  242.2957
 125  276.2256
 126  299.2401
 127  323.9337
 128  210.604
 129  320.1176
 130  315.2921
 131  234.9546
 132  172.1176
 133  209.0613
 134  282.0436
 135  274.5414
 136  193.6979
 137  200.2844
 138  280.9289
 139  247.3869
 140  326.0467
 141  356.6285
 142  251.4026
 143  186.7746
 144  183.5131
 145  217.8735
 146  213.3971
 147  200.4185
 148  119.4856
 149  186.6093
 150  428.9708
 151  258.0051
 152  201.0726
 153  193.9022
 154  154.6107
 155  226.305
 156  206.9655
 157  288.1044
 158  311.6117
 159  351.5981
 160  260.3308
 161  198.1047
 162  283.1227
 163  281.0011
 164  324.1117
 165  462.5571
 166  330.5935
 167  287.1856
 168  246.8656
 169  241.631
 170  274.9593
 171  287.7696
 172  267.9816
 173  287.2971
 174  347.5646
 175  334.9916
 176  368.0538
 177  342.9572
 178  309.2282
 179  325.9317
 180  409.3096
 181  344.3459
 182  332.4093
 183  476.2087
 184  403.737
 185  324.0048
 186  219.5561
 187  196.3421
 188  368.7166
 189  338.8781
 190  268.0352
 191  298.2759
 192  363.2274
 193  301.8082
 194  355.1216
 195  336.1829
 196  295.902
 197  344.4341
 198  294.3975
 199  336.5711
 200  312.3755
 201  226.5622
 202  163.1542
 203  296.073
 204  323.2544
 205  357.6532
 206  323.0833
 207  231.0272
 208  165.2482
 209  129.5851
 210  226.7812
 211  222.686
 212  376.2215
 213  389.3029
 214  222.3235
 215  266.1314
 216  194.7754
 217  199.3357
 218  487.1681
 219  480.1277
 220  356.5728
 221  360.3327
 222  362.4709
 223  363.4453
 224  336.2278
 225  384.0139
 226  387.5779
 227  309.186
 228  248.049
 229  270.1365
 230  185.2621
 231  225.7851
 232  128.0556
 233  205.42
 234  330.3162
 235  301.3232
 236  249.7158
 237  129.2067
 238  208.9086
 239  202.742
 240  224.395
 241  257.4417
 242  410.6065
 243  404.9277
 244  330.3454
 245  290.1384
 246  325.39
 247  270.9185
 248  390.7134
 249  326.6912
 250  230.8886
 251  247.9697
 252  258.5493
 253  202.7273
 254  190.1023
 255  307.4417
 256  358.5663
 257  470.3998
 258  354.0479
 259  263.8575
 260  261.7679
 261  223.8419
 262  135.4805
 263  138.0103
 264  175.7334
 265  245.4724
 266  223.7594
 267  182.7385
 268  281.3273
 269  320.8238
 270  240.3204
 271  273.164
 272  296.4919
 273  401.859
 274  390.6975
 275  314.3363
 276  448.2859
 277  298.2448
 278  257.5518
 279  334.5135
 280  229.6022
 281  337.6091
 282  380.4542
 283  247.9792
 284  157.4
 285  165.8212
 286  175.5152
 287  213.2781
 288  240.8056
 289  209.4077
 290  217.604
 291  368.6418
 292  369.8106
 293  293.0618
 294  283.5042
 295  340.5167
 296  339.4725
 297  246.1575
 298  411.9346
 299  340.131
 300  265.5008
 301  251.6775
 302  275.5072
 303  274.2919
 304  228.6388
 305  284.5587
 306  350.1169
 307  259.4175
 308  316.0165
 309  272.2268
 310  350.2144
 311  272.1995
 312  210.1585
 313  80.65279
 314  175.6193
 315  269.2534
 316  247.6796
 317  256.3599
 318  245.3355
 319  329.1662
 320  214.3878
 321  93.36128
 322  283.3704
 323  468.4061
 324  477.809
 325  231.3817
 326  163.7692
 327  201.6503
 328  222.2543
 329  96.97518
 330  218.9524
 331  393.5536
 332  385.6159
 333  341.7282
 334  233.9331
 335  307.3697
 336  406.1569
 337  324.6775
 338  158.006
 339  339.3059
 340  496.351
 341  282.7177
 342  264.0862
 343  316.0843
 344  193.1077
 345  193.3186
 346  246.3722
 347  205.5607
 348  318.2936
 349  220.2918
 350  230.186
 351  267.9786
 352  174.8296
 353  244.7552
 354  288.5994
 355  272.6895
 356  391.0457
 357  300.403
 358  218.8822
 359  261.0866
 360  276.0993
 361  218.6971
 362  273.6249
 363  331.0113
 364  280.7335
 365  160.3497
 366  176.2707
 367  311.7653
 368  305.1472
 369  352.4299
 370  248.9393
 371  214.3005
 372  357.0037
 373  264.5446
 374  209.3105
 375  239.203
 376  114.7782
 377  64.39645
 378  169.9476
 379  112.868
 380  154.0589
 381  226.3755
 382  312.8733
 383  350.5195
 384  251.7787
 385  280.6379
 386  328.8305
 387  299.9154
 388  330.8601
 389  260.9835
 390  187.5646
 391  259.9968
 392  292.6277
 393  215.2969
 394  215.5809
 395  348.9167
 396  332.1673
 397  270.8931
 398  244.6758
 399  164.9238
 400  170.917
 401  268.3933
 402  239.931
 403  220.39
 404  115.8083
 405  223.8944
 406  205.3223
 407  314.0968
 408  137.9728
 409  156.944
 410  292.0319
 411  257.3597
 412  173.9327
 413  132.252
 414  47.33505
 415  21.72545
 416  174.8396
 417  201.7238
 418  349.7435
 419  271.3443
 420  249.2309
 421  236.1063
 422  136.0323
 423  218.7527
 424  315.3697
 425  349.5165
 426  287.1398
 427  90.93712
 428  218.7379
 429  257.104
 430  187.7919
 431  138.4185
 432  166.8473
 433  195.0363
 434  142.8248
 435  131.6836
 436  185.0963
 437  285.957
 438  288.2024
 439  348.9836
 440  206.1866
 441  188.8795
 442  177.5104
 443  180.6856
 444  261.3154
 445  319.32
 446  205.742
 447  163.0515
 448  285.7997
 449  262.0613
 450  282.32
 451  286.5135
 452  264.3532
 453  286.2779
 454  296.5619
 455  247.9013
 456  257.9061
 457  185.8365
 458  236.6081
 459  440.4627
 460  482.3134
 461  344.2098
 462  216.8216
 463  294.0967
 464  328.117
 465  262.703
 466  307.7472
 467  277.2742
 468  304.279
 469  258.0003
 470  150.2584
 471  199.5337
 472  158.7314
 473  96.71951
 474  99.60831
 475  50.85999
 476  77.57375
 477  227.659
 478  92.42201
 479  165.719
 480  364.1929
 481  459.0771
 482  361.5407
 483  357.0139
 484  352.8147
 485  354.897
 486  281.0169
 487  266.8411
 488  339.6225
 489  236.7725
 490  240.0319
 491  318.324
 492  412.2685
 493  398.5641
 494  355.7799
 495  306.5857
 496  333.0021
 497  294.3716
 498  189.8324
 499  265.5883
 500  263.8637
 501  325.1284
 502  378.2297
 503  283.9132
 504  288.6635
 505  335.1957
 506  366.6805
 507  284.2563
 508  329.0132
 509  679.9637
 510  840.3107
 511  1028.546
