# Input file       =  1192385205.116898_cleaned.dat
# Candidate        =  PSR_0332+5434
# Telescope        =  AR
# Epoch_topo       =  58044.754908760391
# Epoch_bary       =  N/A
# T_sample         =  0.002
# Data Folded      =  7208960
# Data Avg         =  0.0320864946623349
# Data StdDev      =  1.00010063539099 
# Profile Bins     =  512
# Profile Avg      =  451.820649904647 
# Profile StdDev   =  118.671117106081 
# Reduced chi-sqr  =  1.340
# Prob(Noise)      <  4.02e-07   (~4.9 sigma)
# P_topo (ms)      =  714.484381245572  +/- 0.000104
# P'_topo (s/s)    =  -0                +/- 5.59e-11
# P''_topo (s/s^2) =  0                 +/- 2.51e-14
# P_bary (ms)      =  N/A
# P'_bary (s/s)    =  N/A
# P''_bary (s/s^2) =  N/A
# P_orb (s)        =  N/A
# asin(i)/c (s)    =  N/A
# eccentricity     =  N/A
# w (rad)          =  N/A
# T_peri           =  N/A
######################################################
   0  1085.99
   1  1145.815
   2  909.9059
   3  599.137
   4  441.8786
   5  473.577
   6  450.155
   7  457.8668
   8  627.7396
   9  618.5732
  10  472.227
  11  542.8885
  12  551.0262
  13  513.5084
  14  479.1985
  15  460.2855
  16  636.0552
  17  515.666
  18  628.7711
  19  622.5504
  20  374.0807
  21  277.8361
  22  479.5277
  23  565.5359
  24  490.6056
  25  432.1234
  26  400.8923
  27  526.5002
  28  374.9238
  29  454.4892
  30  493.0551
  31  349.3764
  32  403.4185
  33  538.9192
  34  451.6062
  35  445.8312
  36  351.157
  37  448.459
  38  395.8987
  39  410.6299
  40  419.5143
  41  384.7187
  42  312.5218
  43  222.1984
  44  322.8938
  45  382.6603
  46  453.3791
  47  432.273
  48  383.8404
  49  433.7707
  50  371.186
  51  461.598
  52  555.7504
  53  472.8148
  54  361.8484
  55  467.0051
  56  497.1898
  57  388.6152
  58  320.8671
  59  335.0658
  60  429.0233
  61  305.5506
  62  376.0656
  63  337.1624
  64  345.858
  65  354.9225
  66  376.6792
  67  443.2937
  68  406.0191
  69  410.9254
  70  392.3436
  71  435.4303
  72  418.4732
  73  374.2618
  74  412.5011
  75  323.3878
  76  302.6141
  77  533.0344
  78  495.8818
  79  571.0973
  80  471.6141
  81  365.2621
  82  202.6649
  83  407.7036
  84  260.9338
  85  405.1743
  86  417.2125
  87  420.3757
  88  525.8986
  89  460.7369
  90  552.8608
  91  476.2376
  92  484.2459
  93  584.3525
  94  573.193
  95  591.5118
  96  453.0165
  97  426.5367
  98  617.2964
  99  467.119
 100  467.2887
 101  392.8921
 102  448.7032
 103  322.5479
 104  224.9874
 105  406.7724
 106  460.6937
 107  436.587
 108  538.2382
 109  454.0315
 110  495.6773
 111  520.4326
 112  619.2286
 113  484.7004
 114  453.5687
 115  535.9905
 116  538.4122
 117  605.5696
 118  511.5559
 119  454.2628
 120  420.0855
 121  551.8473
 122  560.9052
 123  450.2815
 124  491.5158
 125  557.9901
 126  552.8014
 127  479.8268
 128  441.7378
 129  466.8889
 130  422.4646
 131  505.0219
 132  536.6202
 133  545.4906
 134  452.0176
 135  424.3122
 136  367.2589
 137  386.6018
 138  459.8782
 139  450.3239
 140  530.9232
 141  591.6326
 142  485.8048
 143  406.5085
 144  344.4917
 145  536.4066
 146  489.4961
 147  402.0716
 148  422.2915
 149  381.4657
 150  495.4565
 151  488.105
 152  521.3375
 153  501.3279
 154  318.4936
 155  424.0565
 156  424.4393
 157  494.4342
 158  548.3916
 159  572.8141
 160  500.8836
 161  481.9647
 162  566.9313
 163  531.9358
 164  347.1936
 165  355.1918
 166  494.2382
 167  536.0583
 168  332.6909
 169  388.1389
 170  479.9275
 171  555.766
 172  496.5233
 173  486.2588
 174  449.2136
 175  470.654
 176  403.4471
 177  459.5085
 178  503.6112
 179  392.8216
 180  370.8122
 181  353.0052
 182  395.1275
 183  332.6744
 184  484.3197
 185  525.0734
 186  498.3317
 187  512.5959
 188  464.3242
 189  507.767
 190  405.5219
 191  427.5563
 192  510.0452
 193  433.7752
 194  461.1655
 195  435.9971
 196  363.7048
 197  326.8266
 198  504.2614
 199  450.1776
 200  343.4976
 201  511.0283
 202  405.022
 203  341.5631
 204  329.4326
 205  500.5669
 206  481.313
 207  343.0946
 208  346.2278
 209  382.5001
 210  501.8319
 211  429.1201
 212  366.0334
 213  440.0414
 214  331.9956
 215  319.4642
 216  444.889
 217  317.2415
 218  336.9948
 219  464.1846
 220  483.6415
 221  479.6714
 222  442.9253
 223  483.8136
 224  350.5649
 225  303.5031
 226  424.0714
 227  581.5146
 228  480.1553
 229  397.6548
 230  407.4782
 231  412.1639
 232  423.6811
 233  381.7318
 234  376.8832
 235  379.6416
 236  429.9221
 237  461.8143
 238  587.8243
 239  449.3037
 240  449.2827
 241  402.0133
 242  457.2879
 243  465.2826
 244  431.4521
 245  474.6347
 246  411.3813
 247  431.2116
 248  489.6608
 249  378.5077
 250  423.6722
 251  442.9872
 252  519.1001
 253  435.7787
 254  363.58
 255  488.3659
 256  575.7113
 257  343.0533
 258  424.0829
 259  571.0341
 260  485.6515
 261  384.972
 262  355.1396
 263  351.3618
 264  307.686
 265  418.0525
 266  374.2226
 267  463.5963
 268  520.7125
 269  480.8262
 270  397.4944
 271  352.897
 272  431.4167
 273  514.7396
 274  543.0477
 275  530.5369
 276  523.15
 277  359.3425
 278  330.7862
 279  418.2187
 280  492.6626
 281  468.1245
 282  506.1924
 283  561.4537
 284  661.5947
 285  516.8895
 286  467.7221
 287  383.8061
 288  447.9501
 289  386.9012
 290  273.987
 291  394.0589
 292  394.6588
 293  468.0294
 294  510.055
 295  515.3504
 296  540.5205
 297  546.5494
 298  506.9889
 299  529.528
 300  495.8032
 301  437.2111
 302  523.2307
 303  547.6598
 304  499.9804
 305  578.9824
 306  542.7569
 307  389.9091
 308  426.2965
 309  472.7434
 310  534.5133
 311  371.6996
 312  373.0649
 313  286.3453
 314  154.5301
 315  158.4791
 316  264.702
 317  335.4688
 318  379.0846
 319  344.4445
 320  354.299
 321  477.0637
 322  505.9367
 323  434.9427
 324  455.1328
 325  394.4306
 326  368.4855
 327  458.9541
 328  373.3925
 329  473.1001
 330  365.8812
 331  481.154
 332  480.9323
 333  456.8113
 334  463.6685
 335  470.4322
 336  462.2356
 337  426.9223
 338  373.6098
 339  365.8712
 340  412.6131
 341  518.1284
 342  620.3458
 343  452.7514
 344  469.3139
 345  404.1716
 346  382.7953
 347  251.1005
 348  310.7615
 349  370.5838
 350  411.4402
 351  549.52
 352  401.1549
 353  297.6634
 354  341.8375
 355  386.8956
 356  412.5046
 357  346.1906
 358  340.7711
 359  351.5543
 360  476.4935
 361  433.2857
 362  321.2652
 363  391.6642
 364  352.4749
 365  471.5872
 366  422.019
 367  447.4338
 368  391.8058
 369  422.1195
 370  505.9312
 371  519.1981
 372  456.6094
 373  364.8046
 374  402.3247
 375  480.6554
 376  364.6512
 377  459.3939
 378  526.964
 379  505.6198
 380  472.9793
 381  545.6833
 382  614.0449
 383  562.993
 384  503.2157
 385  407.4412
 386  338.1918
 387  392.5634
 388  414.1662
 389  439.5121
 390  330.8113
 391  386.4236
 392  326.5879
 393  401.7857
 394  395.3941
 395  517.6717
 396  482.3762
 397  423.5897
 398  535.82
 399  526.1671
 400  372.2359
 401  327.7092
 402  421.0492
 403  501.7777
 404  474.7149
 405  488.6807
 406  528.8911
 407  493.6913
 408  517.0068
 409  570.6131
 410  473.1654
 411  336.0477
 412  265.3877
 413  336.3461
 414  492.4846
 415  517.9344
 416  364.5519
 417  476.8546
 418  530.5389
 419  486.031
 420  441.7645
 421  405.9562
 422  459.1655
 423  456.5887
 424  420.1955
 425  539.6534
 426  326.5035
 427  351.1177
 428  389.1563
 429  383.8571
 430  455.8459
 431  390.6159
 432  474.6187
 433  535.1388
 434  593.3439
 435  433.3599
 436  508.5917
 437  568.1249
 438  576.4655
 439  528.2374
 440  458.5364
 441  437.4094
 442  415.7857
 443  440.8501
 444  379.7222
 445  466.2899
 446  473.5018
 447  546.5112
 448  438.5959
 449  411.7366
 450  450.645
 451  448.8113
 452  522.3851
 453  496.2755
 454  434.381
 455  473.7114
 456  496.1611
 457  500.641
 458  495.3163
 459  519.4128
 460  441.4216
 461  321.8885
 462  428.51
 463  461.29
 464  426.6487
 465  470.5369
 466  506.0775
 467  459.8746
 468  238.2086
 469  251.9618
 470  342.6482
 471  437.7027
 472  513.1398
 473  454.596
 474  551.8131
 475  528.2609
 476  468.0931
 477  425.0098
 478  364.3639
 479  289.3736
 480  370.0006
 481  427.2071
 482  480.7344
 483  467.7362
 484  520.8237
 485  548.4889
 486  484.4747
 487  360.0595
 488  393.1813
 489  326.129
 490  416.9757
 491  424.1592
 492  525.7055
 493  528.4843
 494  495.7022
 495  461.312
 496  474.6003
 497  405.8634
 498  461.8767
 499  681.0527
 500  674.3558
 501  495.7514
 502  406.1021
 503  465.7216
 504  545.9932
 505  548.4786
 506  556.4457
 507  589.7357
 508  576.546
 509  765.9471
 510  895.7329
 511  1001.901
