# Input file       =  1192572168.134948_cleaned.dat
# Candidate        =  PSR_0332+5434
# Telescope        =  AR
# Epoch_topo       =  58046.918832580413
# Epoch_bary       =  N/A
# T_sample         =  0.002
# Data Folded      =  7340032
# Data Avg         =  0.0306173798578259
# Data StdDev      =  2.0184544513815  
# Profile Bins     =  256
# Profile Avg      =  877.813965188528 
# Profile StdDev   =  341.781024708273 
# Reduced chi-sqr  =  2.161
# Prob(Noise)      <  7.11e-24   (~10.0 sigma)
# P_topo (ms)      =  714.48611890176   +/- 0.000278
# P'_topo (s/s)    =  -0                +/- 1.47e-10
# P''_topo (s/s^2) =  0                 +/- 6.47e-14
# P_bary (ms)      =  N/A
# P'_bary (s/s)    =  N/A
# P''_bary (s/s^2) =  N/A
# P_orb (s)        =  N/A
# asin(i)/c (s)    =  N/A
# eccentricity     =  N/A
# w (rad)          =  N/A
# T_peri           =  N/A
######################################################
   0  1150.784
   1  1107.724
   2  744.7316
   3  1247.294
   4  1416.988
   5  1641.621
   6  777.7653
   7  923.7466
   8  629.7342
   9  731.8373
  10  680.7125
  11  705.9862
  12  1045.355
  13  1118.323
  14  1012.87
  15  1364.939
  16  948.9542
  17  1007.301
  18  745.9864
  19  1020.592
  20  644.0491
  21  784.3403
  22  730.6699
  23  941.1996
  24  585.1169
  25  342.3844
  26  464.3054
  27  542.7252
  28  802.2705
  29  720.2573
  30  739.0732
  31  840.9236
  32  865.5179
  33  1024.366
  34  615.2807
  35  478.6019
  36  1222.526
  37  885.3622
  38  934.5577
  39  749.7103
  40  478.4152
  41  588.5783
  42  1292.328
  43  746.3387
  44  782.1703
  45  910.1243
  46  1053.887
  47  912.41
  48  1031.899
  49  1278.687
  50  865.6858
  51  661.1863
  52  385.802
  53  504.2349
  54  350.7517
  55  701.9789
  56  991.5999
  57  701.0414
  58  821.8009
  59  1286.179
  60  949.4557
  61  1408.606
  62  901.9539
  63  755.6804
  64  893.9459
  65  1273.672
  66  1261.801
  67  839.1481
  68  181.8723
  69  294.0324
  70  538.3751
  71  321.8411
  72  462.127
  73  496.0422
  74  860.8751
  75  901.4498
  76  990.0974
  77  1126.445
  78  691.3308
  79  697.2114
  80  343.959
  81  940.6087
  82  852.3185
  83  263.9204
  84  438.039
  85  471.5071
  86  581.3088
  87  939.0605
  88  663.7036
  89  1073.596
  90  931.8678
  91  684.9887
  92  736.3186
  93  878.5118
  94  357.3768
  95  851.7435
  96  734.0554
  97  758.1766
  98  603.602
  99  869.023
 100  707.8061
 101  122.6234
 102  820.6846
 103  882.2462
 104  819.6472
 105  959.9553
 106  858.8018
 107  467.2983
 108  499.5175
 109  787.7984
 110  897.3298
 111  500.2361
 112  1216.573
 113  764.2878
 114  900.6418
 115  753.9986
 116  820.3799
 117  742.0825
 118  992.0092
 119  522.0233
 120  1406.254
 121  1005.119
 122  1050.035
 123  696.447
 124  385.8586
 125  363.3714
 126  678.3787
 127  333.3976
 128  632.1977
 129  330.1713
 130  364.7427
 131  769.3068
 132  729.146
 133  597.1224
 134  401.6568
 135  1003.745
 136  1020.051
 137  195.6689
 138  418.7248
 139  790.9655
 140  594.3109
 141  423.4399
 142  674.9982
 143  1253.55
 144  708.3732
 145  901.4934
 146  990.9714
 147  1045.017
 148  791.8653
 149  1138.111
 150  1121.666
 151  815.1127
 152  1237.947
 153  926.8433
 154  903.2023
 155  1394.033
 156  1841.667
 157  2119.743
 158  3592.411
 159  4400.16
 160  3029.956
 161  1109.307
 162  924.6238
 163  929.6426
 164  950.3235
 165  1010.083
 166  922.1532
 167  1456.997
 168  727.3079
 169  1151.337
 170  1385.681
 171  1140.4
 172  1191.008
 173  1363.797
 174  1048.626
 175  1034.367
 176  1095.501
 177  1189.362
 178  1058.033
 179  883.045
 180  1112.931
 181  541.696
 182  69.8601
 183  512.7493
 184  913.7368
 185  909.9672
 186  866.9041
 187  762.4372
 188  1111.33
 189  429.1169
 190  562.5057
 191  562.4403
 192  1042.536
 193  1349.424
 194  739.5117
 195  963.0188
 196  905.6677
 197  883.9973
 198  720.9344
 199  910.5881
 200  999.8771
 201  948.9913
 202  443.1479
 203  461.4734
 204  733.8726
 205  256.7508
 206  987.2902
 207  1073.358
 208  1083.003
 209  640.5302
 210  571.2607
 211  1244.468
 212  1012.821
 213  449.0326
 214  731.6906
 215  779.8822
 216  642.0576
 217  1305.182
 218  1107.118
 219  735.9784
 220  1049.746
 221  1158.399
 222  1089.413
 223  610.0844
 224  510.5663
 225  851.4054
 226  1226.644
 227  569.1794
 228  962.0852
 229  906.4254
 230  645.3988
 231  620.0313
 232  1024.747
 233  1205.107
 234  1859.809
 235  1144.125
 236  1210.254
 237  718.8556
 238  951.4446
 239  1388.001
 240  785.1536
 241  841.142
 242  954.4352
 243  909.0034
 244  498.3312
 245  708.5905
 246  875.3743
 247  770.8718
 248  738.1138
 249  627.2653
 250  916.5786
 251  1340.889
 252  839.3719
 253  746.4663
 254  499.1727
 255  1102.756
