# Input file       =  1192744465.139344_cleaned.dat
# Candidate        =  PSR_0332+5434
# Telescope        =  AR
# Epoch_topo       =  58048.913010872035
# Epoch_bary       =  N/A
# T_sample         =  0.002
# Data Folded      =  7340032
# Data Avg         =  0.029962400517044
# Data StdDev      =  2.22338576901566 
# Profile Bins     =  512
# Profile Avg      =  429.541416913506 
# Profile StdDev   =  266.212729161136 
# Reduced chi-sqr  =  1.717
# Prob(Noise)      <  9.08e-22   (~9.5 sigma)
# P_topo (ms)      =  714.487756124095  +/- 0.000161
# P'_topo (s/s)    =  -0                +/- 8.47e-11
# P''_topo (s/s^2) =  0                 +/- 3.74e-14
# P_bary (ms)      =  N/A
# P'_bary (s/s)    =  N/A
# P''_bary (s/s^2) =  N/A
# P_orb (s)        =  N/A
# asin(i)/c (s)    =  N/A
# eccentricity     =  N/A
# w (rad)          =  N/A
# T_peri           =  N/A
######################################################
   0  118.9645
   1  151.9819
   2  26.91841
   3  156.7579
   4  415.6267
   5  272.5062
   6  309.9364
   7  411.8521
   8  221.2599
   9  308.0912
  10  493.5958
  11  324.0375
  12  295.871
  13  299.6003
  14  163.8728
  15  248.2582
  16  210.2401
  17  223.4262
  18  269.9916
  19  13.19929
  20  174.7183
  21  280.1122
  22  557.5836
  23  362.6573
  24  388.9427
  25  320.4053
  26  20.76138
  27  168.2884
  28  377.084
  29  537.3817
  30  337.1748
  31  240.705
  32  79.75635
  33  -80.55444
  34  365.3059
  35  625.1097
  36  349.3713
  37  252.2509
  38  191.6144
  39  26.18682
  40  259.6143
  41  597.4514
  42  530.2479
  43  566.4184
  44  350.3585
  45  375.9432
  46  418.9924
  47  -48.31188
  48  239.6316
  49  308.0423
  50  346.2847
  51  397.1555
  52  158.3811
  53  150.9296
  54  148.5835
  55  564.1428
  56  516.184
  57  285.6107
  58  252.3698
  59  277.3077
  60  370.9974
  61  123.5237
  62  257.8623
  63  414.1669
  64  418.5518
  65  432.4515
  66  369.8641
  67  362.9003
  68  532.7269
  69  372.088
  70  401.9326
  71  409.1444
  72  356.807
  73  339.6925
  74  373.133
  75  357.4683
  76  262.4435
  77  378.8387
  78  322.9597
  79  719.3372
  80  645.6589
  81  543.4168
  82  577.3523
  83  124.9241
  84  216.7208
  85  237.0912
  86  283.5121
  87  304.9293
  88  474.7833
  89  496.5343
  90  279.5676
  91  255.575
  92  90.4171
  93  397.3544
  94  585.0284
  95  563.4203
  96  588.3623
  97  688.2177
  98  651.9153
  99  516.317
 100  470.7272
 101  184.4886
 102  323.8586
 103  383.6072
 104  333.0829
 105  332.5558
 106  590.5155
 107  445.1119
 108  191.9344
 109  278.9121
 110  394.0707
 111  761.7039
 112  940.8423
 113  832.827
 114  787.9678
 115  665.9767
 116  608.8008
 117  752.279
 118  645.2325
 119  652.868
 120  624.4988
 121  494.3305
 122  437.2986
 123  161.8294
 124  248.8525
 125  335.4813
 126  386.2102
 127  737.2084
 128  738.4063
 129  648.532
 130  569.7194
 131  404.4514
 132  613.732
 133  256.7513
 134  390.9582
 135  442.0422
 136  321.7365
 137  497.1133
 138  627.1121
 139  644.7487
 140  428.8371
 141  457.6483
 142  191.003
 143  359.73
 144  497.9453
 145  392.8763
 146  732.1643
 147  719.5751
 148  514.6544
 149  631.7704
 150  646.2802
 151  600.5133
 152  470.6319
 153  473.7075
 154  843.6154
 155  609.185
 156  444.8397
 157  451.2658
 158  346.5721
 159  473.0603
 160  726.6022
 161  807.2158
 162  709.2585
 163  451.9914
 164  502.439
 165  617.4116
 166  854.7678
 167  701.5554
 168  489.5963
 169  729.3192
 170  791.3725
 171  664.3065
 172  140.6568
 173  87.54032
 174  410.6898
 175  448.397
 176  564.8571
 177  695.3157
 178  515.8566
 179  534.3652
 180  440.9755
 181  264.0869
 182  204.7411
 183  547.1555
 184  667.2576
 185  709.2926
 186  545.5493
 187  575.347
 188  637.101
 189  479.2501
 190  330.499
 191  265.6587
 192  286.5615
 193  766.034
 194  926.6584
 195  556.7606
 196  336.4503
 197  399.9654
 198  527.3829
 199  513.9843
 200  675.1135
 201  697.5894
 202  714.9915
 203  503.1227
 204  626.3876
 205  485.3084
 206  450.3841
 207  470.2605
 208  400.3693
 209  654.1022
 210  606.504
 211  517.2856
 212  739.5774
 213  397.7463
 214  271.4456
 215  113.9614
 216  229.955
 217  159.1989
 218  399.6836
 219  810.3831
 220  615.7607
 221  336.8072
 222  427.9971
 223  615.9772
 224  358.6616
 225  380.9612
 226  349.8489
 227  541.5398
 228  397.8369
 229  173.8716
 230  276.3979
 231  433.7966
 232  588.5048
 233  567.9465
 234  347.4415
 235  116.5819
 236  246.8047
 237  340.2469
 238  608.2118
 239  715.2871
 240  755.6483
 241  664.6663
 242  644.0164
 243  602.2642
 244  72.62348
 245  270.8787
 246  491.5035
 247  441.6298
 248  433.9968
 249  466.1699
 250  333.3432
 251  74.73002
 252  479.4585
 253  529.3863
 254  269.2098
 255  395.7328
 256  666.3438
 257  520.3724
 258  148.6455
 259  -39.83694
 260  556.9545
 261  539.3892
 262  553.3221
 263  662.3253
 264  766.5211
 265  851.4397
 266  422.7604
 267  673.7627
 268  764.2015
 269  464.5877
 270  497.2468
 271  464.1108
 272  519.236
 273  434.0374
 274  324.844
 275  213.7025
 276  412.0755
 277  532.7139
 278  572.9116
 279  437.7144
 280  517.8458
 281  683.7158
 282  657.7415
 283  529.8998
 284  402.7797
 285  396.7102
 286  462.3334
 287  550.9341
 288  523.1545
 289  319.7186
 290  231.9054
 291  494.1453
 292  413.7762
 293  512.5419
 294  403.651
 295  266.6359
 296  275.9085
 297  198.0017
 298  394.7027
 299  265.7188
 300  340.4454
 301  802.0059
 302  471.8735
 303  214.1497
 304  363.483
 305  490.6457
 306  278.8789
 307  234.7087
 308  707.6453
 309  772.0987
 310  724.7426
 311  622.3871
 312  314.2355
 313  199.8391
 314  624.1584
 315  676.897
 316  416.581
 317  460.3741
 318  526.9422
 319  328.1763
 320  223.0649
 321  328.0549
 322  136.1385
 323  231.7334
 324  415.303
 325  101.0859
 326  342.4039
 327  504.7567
 328  378.1262
 329  115.3157
 330  200.4655
 331  202.8764
 332  263.0405
 333  141.1615
 334  287.7221
 335  121.6634
 336  442.4055
 337  589.1042
 338  318.476
 339  581.4662
 340  419.8881
 341  465.3528
 342  757.2789
 343  876.1171
 344  672.6196
 345  483.0344
 346  649.5203
 347  252.4698
 348  200.5686
 349  55.82448
 350  81.82252
 351  158.7319
 352  220.9229
 353  421.7382
 354  467.0885
 355  570.6578
 356  601.2293
 357  526.1932
 358  481.4613
 359  223.0928
 360  81.81428
 361  144.3147
 362  101.7072
 363  722.8035
 364  812.3603
 365  569.7286
 366  566.5511
 367  861.9598
 368  936.5945
 369  845.1442
 370  1004.563
 371  1535.062
 372  1944.037
 373  1825.269
 374  1971.768
 375  1994.442
 376  1579.828
 377  813.8207
 378  579.1855
 379  448.0193
 380  88.93204
 381  352.8541
 382  578.0468
 383  554.3019
 384  558.6387
 385  457.2379
 386  290.6693
 387  393.0864
 388  837.5768
 389  818.7955
 390  592.1644
 391  499.9184
 392  733.0697
 393  260.7708
 394  403.8462
 395  446.9826
 396  462.2238
 397  490.7387
 398  414.0369
 399  363.0664
 400  544.006
 401  347.9355
 402  288.7946
 403  546.7659
 404  582.2116
 405  402.5793
 406  463.291
 407  562.3874
 408  297.5367
 409  398.0943
 410  485.2848
 411  400.6404
 412  362.1541
 413  241.6521
 414  115.638
 415  335.3759
 416  428.3374
 417  483.067
 418  526.4182
 419  725.9709
 420  608.8311
 421  394.9352
 422  173.9207
 423  139.3473
 424  316.45
 425  621.6575
 426  456.3037
 427  346.9343
 428  343.5012
 429  -56.70857
 430  153.7796
 431  304.6808
 432  419.928
 433  385.9132
 434  314.6851
 435  484.0836
 436  306.1207
 437  484.1947
 438  526.4052
 439  529.6326
 440  123.6564
 441  -32.97462
 442  92.07182
 443  277.0229
 444  246.0177
 445  413.3856
 446  450.8997
 447  423.097
 448  305.816
 449  578.2559
 450  602.1225
 451  142.3683
 452  232.9739
 453  310.9659
 454  253.779
 455  -75.92159
 456  19.48923
 457  376.8467
 458  270.2021
 459  89.59327
 460  326.91
 461  269.4708
 462  176.4934
 463  297.0923
 464  227.6095
 465  410.4392
 466  378.1697
 467  350.2858
 468  364.2889
 469  458.9395
 470  368.1587
 471  359.3601
 472  419.2547
 473  550.6532
 474  293.3616
 475  18.5752
 476  130.9149
 477  689.7098
 478  545.0389
 479  350.8229
 480  397.4119
 481  440.3233
 482  279.7622
 483  255.1115
 484  357.2526
 485  342.6459
 486  274.2503
 487  643.2449
 488  567.5208
 489  338.6241
 490  481.7018
 491  458.4851
 492  237.5425
 493  325.989
 494  -45.49464
 495  -101.7845
 496  297.8122
 497  254.1469
 498  287.2569
 499  417.2086
 500  375.4774
 501  212.5916
 502  -128.0811
 503  63.84458
 504  -223.7291
 505  -23.36264
 506  109.2844
 507  283.0609
 508  551.105
 509  222.4419
 510  48.27904
 511  108.1944
