# Input file       =  1192414777.133384_cleaned.dat
# Candidate        =  PSR_0332+5434
# Telescope        =  AR
# Epoch_topo       =  58045.097177469725
# Epoch_bary       =  N/A
# T_sample         =  0.002
# Data Folded      =  7340032
# Data Avg         =  0.00398118755827605
# Data StdDev      =  1.00008459920653 
# Profile Bins     =  512
# Profile Avg      =  57.0999235537674 
# Profile StdDev   =  119.743165696639 
# Reduced chi-sqr  =  1.657
# Prob(Noise)      <  5e-19   (~8.8 sigma)
# P_topo (ms)      =  714.484996687708  +/- 0.000174
# P'_topo (s/s)    =  -0                +/- 9.2e-11
# P''_topo (s/s^2) =  0                 +/- 4.06e-14
# P_bary (ms)      =  N/A
# P'_bary (s/s)    =  N/A
# P''_bary (s/s^2) =  N/A
# P_orb (s)        =  N/A
# asin(i)/c (s)    =  N/A
# eccentricity     =  N/A
# w (rad)          =  N/A
# T_peri           =  N/A
######################################################
   0  835.6247
   1  825.7027
   2  403.9024
   3  200.2796
   4  104.5555
   5  150.1723
   6  136.0137
   7  127.9524
   8  87.08038
   9  92.95317
  10  20.11083
  11  -33.69155
  12  55.72182
  13  118.9809
  14  21.54437
  15  10.26847
  16  188.8911
  17  177.5463
  18  166.5313
  19  44.16173
  20  -70.87273
  21  69.09795
  22  63.55673
  23  8.75338
  24  -7.42434
  25  14.49741
  26  22.01016
  27  -13.80091
  28  -57.23748
  29  -73.2006
  30  -93.18604
  31  -114.6725
  32  -97.13023
  33  -11.6175
  34  33.42223
  35  35.11919
  36  -56.47401
  37  -54.78315
  38  124.5604
  39  140.9162
  40  -0.909868
  41  51.07206
  42  33.77792
  43  76.93634
  44  36.17233
  45  27.87673
  46  6.669471
  47  11.31931
  48  13.89049
  49  73.02174
  50  11.9535
  51  39.05202
  52  4.241794
  53  -90.75584
  54  134.2477
  55  243.6493
  56  154.0246
  57  165.9523
  58  24.58146
  59  54.22825
  60  17.01712
  61  -31.38194
  62  115.8674
  63  133.7546
  64  105.851
  65  125.5336
  66  42.13271
  67  74.91409
  68  124.9689
  69  109.573
  70  20.18835
  71  64.67799
  72  215.2842
  73  102.0027
  74  17.23779
  75  69.71841
  76  112.974
  77  -37.77839
  78  29.71263
  79  -75.58139
  80  -96.99585
  81  -23.92572
  82  84.30995
  83  82.89873
  84  19.76701
  85  7.282475
  86  47.37933
  87  144.7489
  88  54.36446
  89  -51.55753
  90  -77.6695
  91  37.52007
  92  53.13267
  93  -0.615671
  94  -26.75886
  95  -60.80591
  96  -46.34942
  97  53.03629
  98  236.1082
  99  271.9308
 100  37.66811
 101  17.07715
 102  145.0973
 103  92.28779
 104  77.20162
 105  68.30459
 106  72.02003
 107  -54.45435
 108  -135.9314
 109  -58.51922
 110  -17.93251
 111  1.181918
 112  82.0599
 113  36.24865
 114  26.5398
 115  17.36037
 116  20.10331
 117  109.4291
 118  -15.48678
 119  -26.95075
 120  51.53167
 121  -10.74056
 122  -11.04268
 123  -103.9942
 124  74.01743
 125  138.9284
 126  151.4645
 127  38.68054
 128  34.95492
 129  -25.81517
 130  -102.4408
 131  -66.75738
 132  -63.65009
 133  18.35181
 134  129.1168
 135  14.41299
 136  -17.25303
 137  11.8838
 138  39.75724
 139  185.8548
 140  118.1457
 141  -51.02121
 142  4.403099
 143  126.7573
 144  41.79269
 145  -113.3852
 146  -41.43704
 147  52.87305
 148  38.24385
 149  104.0662
 150  12.56313
 151  123.3308
 152  118.8816
 153  124.7894
 154  103.4166
 155  155.9697
 156  172.152
 157  119.0073
 158  184.8726
 159  -29.46992
 160  -155.054
 161  -77.78905
 162  -102.0444
 163  -45.78067
 164  152.8585
 165  178.7802
 166  164.9633
 167  51.29703
 168  41.14128
 169  3.121738
 170  76.28582
 171  173.9888
 172  111.051
 173  107.2815
 174  -32.33737
 175  -197.1849
 176  -128.9119
 177  -6.413106
 178  80.46697
 179  112.951
 180  96.19193
 181  -22.45146
 182  42.18367
 183  38.64518
 184  5.826818
 185  -25.84496
 186  -23.13982
 187  58.34132
 188  54.06991
 189  24.50648
 190  -12.15107
 191  -6.4646
 192  37.56358
 193  -55.95392
 194  -132.0725
 195  -75.30478
 196  -11.74008
 197  43.67944
 198  122.5726
 199  107.2613
 200  69.46329
 201  -59.1421
 202  39.08078
 203  49.41956
 204  141.292
 205  20.72689
 206  -17.78654
 207  -39.64183
 208  105.198
 209  189.2353
 210  21.64393
 211  39.5123
 212  114.3589
 213  109.5421
 214  169.3072
 215  207.3998
 216  181.72
 217  52.62442
 218  -7.931106
 219  1.296683
 220  -0.198045
 221  -39.07969
 222  18.44754
 223  50.07656
 224  91.74605
 225  42.03016
 226  -54.37903
 227  67.97421
 228  35.88484
 229  -56.06467
 230  107.4119
 231  81.8393
 232  -79.60067
 233  32.59073
 234  47.69876
 235  -42.56694
 236  -115.7642
 237  40.07006
 238  19.39338
 239  -30.15202
 240  210.0888
 241  231.5863
 242  129.965
 243  44.82642
 244  112.6849
 245  63.33133
 246  -9.345251
 247  65.64691
 248  31.60026
 249  36.02556
 250  93.41511
 251  113.9196
 252  65.48358
 253  -19.66878
 254  -36.35582
 255  31.26612
 256  40.42308
 257  39.84785
 258  -31.36857
 259  -35.18138
 260  0.1429632
 261  99.62093
 262  136.7917
 263  137.1111
 264  23.64726
 265  85.63483
 266  -9.669246
 267  -13.28539
 268  57.09531
 269  147.4841
 270  154.1407
 271  134.1151
 272  79.76971
 273  7.15561
 274  -3.451186
 275  8.335241
 276  152.3165
 277  53.30013
 278  109.3638
 279  226.1357
 280  159.6301
 281  3.805852
 282  -3.841064
 283  117.2783
 284  131.4423
 285  27.91023
 286  91.67223
 287  222.8792
 288  154.6308
 289  107.8032
 290  -5.628303
 291  204.5381
 292  238.0328
 293  254.2659
 294  363.4345
 295  218.7374
 296  83.67924
 297  26.45893
 298  44.20592
 299  118.341
 300  -19.44218
 301  52.82641
 302  58.72702
 303  20.62221
 304  -22.36753
 305  61.98572
 306  35.54558
 307  11.89288
 308  77.00215
 309  204.8016
 310  244.8106
 311  49.83537
 312  96.65234
 313  74.20116
 314  26.95994
 315  87.50883
 316  31.99307
 317  57.79413
 318  -47.81
 319  -4.026488
 320  -14.78869
 321  182.0473
 322  201.9689
 323  55.54958
 324  -79.90827
 325  16.25197
 326  13.84492
 327  -132.5944
 328  -170.2457
 329  -48.20989
 330  -39.53625
 331  38.0195
 332  84.53706
 333  55.89845
 334  62.55149
 335  -37.95744
 336  -53.31176
 337  -11.19081
 338  -78.34818
 339  -40.3729
 340  -29.91987
 341  -44.47046
 342  89.8054
 343  19.44688
 344  -125.0037
 345  11.10777
 346  -20.11559
 347  -19.23188
 348  -117.5688
 349  -71.98589
 350  17.50146
 351  9.467813
 352  57.23644
 353  2.500196
 354  70.55045
 355  24.55096
 356  90.98889
 357  113.7942
 358  94.87815
 359  -33.14046
 360  -54.41853
 361  -98.39436
 362  48.47185
 363  96.92484
 364  24.55096
 365  50.9115
 366  220.2696
 367  134.6952
 368  -21.61158
 369  -99.332
 370  73.47112
 371  92.20832
 372  93.70652
 373  228.9607
 374  222.2968
 375  87.20167
 376  -117.9554
 377  -105.66
 378  -5.046031
 379  8.195474
 380  20.29208
 381  20.24407
 382  68.74011
 383  56.8404
 384  115.9865
 385  79.92804
 386  66.29549
 387  91.14179
 388  16.01865
 389  -14.05996
 390  87.56335
 391  33.0152
 392  -7.257726
 393  91.02508
 394  93.82399
 395  160.4504
 396  59.40477
 397  53.12664
 398  157.5127
 399  36.37273
 400  -161.199
 401  -8.312954
 402  -35.63678
 403  27.86535
 404  90.58894
 405  -5.516906
 406  61.34193
 407  104.1236
 408  79.02191
 409  89.04198
 410  7.315295
 411  -5.928436
 412  170.9579
 413  144.3703
 414  166.7379
 415  98.99379
 416  -72.47349
 417  15.7621
 418  -81.19612
 419  130.406
 420  245.5193
 421  71.17826
 422  86.95374
 423  -0.261787
 424  -62.48657
 425  74.01968
 426  10.10386
 427  -74.60118
 428  22.10536
 429  117.6934
 430  113.6651
 431  111.0783
 432  61.96878
 433  223.7998
 434  64.35744
 435  95.252
 436  69.91684
 437  87.15718
 438  118.5473
 439  30.75396
 440  21.02501
 441  28.05947
 442  2.929311
 443  -43.71914
 444  -29.11143
 445  90.03323
 446  61.38156
 447  65.39828
 448  95.12404
 449  -65.13842
 450  -12.55155
 451  -23.08031
 452  7.379601
 453  138.76
 454  231.4249
 455  102.482
 456  -24.80792
 457  -102.413
 458  -27.96183
 459  -0.7895511
 460  56.92271
 461  104.7738
 462  59.80507
 463  -70.17322
 464  23.86328
 465  152.4617
 466  133.7931
 467  261.97
 468  239.9008
 469  109.0648
 470  -48.59095
 471  -76.83378
 472  -40.23177
 473  -82.42482
 474  58.1367
 475  84.13628
 476  98.738
 477  130.0608
 478  44.83833
 479  -58.25463
 480  -28.24339
 481  59.1562
 482  141.2696
 483  163.3101
 484  -12.28718
 485  -75.09494
 486  12.11731
 487  141.641
 488  100.1601
 489  -7.246846
 490  51.18539
 491  138.6464
 492  138.8084
 493  74.16522
 494  141.052
 495  148.9999
 496  5.362105
 497  162.1177
 498  164.5112
 499  15.95925
 500  103.647
 501  85.70275
 502  80.65298
 503  226.4005
 504  157.107
 505  218.5452
 506  175.3357
 507  40.16007
 508  302.3139
 509  540.6995
 510  799.5853
 511  819.9229
