# Input file       =  1192243009.129_cleaned.dat
# Candidate        =  PSR_0332+5434
# Telescope        =  AR
# Epoch_topo       =  58043.109121863425
# Epoch_bary       =  N/A
# T_sample         =  0.002
# Data Folded      =  7340032
# Data Avg         =  0.0132303562789482
# Data StdDev      =  1.00001153783747 
# Profile Bins     =  512
# Profile Avg      =  189.659004664435 
# Profile StdDev   =  119.734417837079 
# Reduced chi-sqr  =  1.138
# Prob(Noise)      <  0.0167   (~2.1 sigma)
# P_topo (ms)      =  714.483471025633  +/- 0.000278
# P'_topo (s/s)    =  -0                +/- 1.47e-10
# P''_topo (s/s^2) =  0                 +/- 6.47e-14
# P_bary (ms)      =  N/A
# P'_bary (s/s)    =  N/A
# P''_bary (s/s^2) =  N/A
# P_orb (s)        =  N/A
# asin(i)/c (s)    =  N/A
# eccentricity     =  N/A
# w (rad)          =  N/A
# T_peri           =  N/A
######################################################
   0  283.9522
   1  283.5429
   2  223.6881
   3  244.1029
   4  230.4617
   5  225.63
   6  83.10757
   7  110.3042
   8  198.645
   9  193.2513
  10  140.567
  11  153.1294
  12  173.4357
  13  59.14268
  14  110.5747
  15  92.09743
  16  183.575
  17  84.655
  18  130.0043
  19  141.2582
  20  132.5442
  21  98.12692
  22  125.3186
  23  166.0282
  24  136.1585
  25  92.27512
  26  67.24487
  27  172.8354
  28  166.4643
  29  171.3357
  30  167.1951
  31  143.2116
  32  187.3529
  33  132.9972
  34  247.0657
  35  221.3671
  36  98.27093
  37  114.0787
  38  148.2303
  39  184.2079
  40  201.92
  41  273.0872
  42  249.8348
  43  197.8128
  44  256.8296
  45  247.3799
  46  232.6156
  47  325.3186
  48  316.1337
  49  314.8998
  50  327.8543
  51  328.8683
  52  207.8472
  53  162.3004
  54  239.3254
  55  319.0866
  56  265.997
  57  186.6885
  58  273.9056
  59  246.7841
  60  218.0236
  61  340.8224
  62  248.6275
  63  158.0751
  64  209.7109
  65  158.2831
  66  245.6148
  67  192.9951
  68  128.4425
  69  89.3744
  70  288.0878
  71  264.9072
  72  261.9901
  73  282.7638
  74  229.3211
  75  234.1538
  76  250.6779
  77  397.7685
  78  329.2596
  79  235.3208
  80  273.6037
  81  249.2289
  82  224.5809
  83  221.0268
  84  268.0776
  85  207.6225
  86  226.3494
  87  259.265
  88  271.2674
  89  201.8602
  90  160.497
  91  215.2679
  92  265.2609
  93  254.4113
  94  157.0537
  95  175.0582
  96  274.7622
  97  295.4017
  98  285.0528
  99  319.1212
 100  301.8454
 101  247.0672
 102  211.7673
 103  203.8766
 104  242.9996
 105  242.9715
 106  255.6001
 107  213.256
 108  124.0034
 109  233.9379
 110  228.1728
 111  336.1436
 112  267.839
 113  255.82
 114  206.1335
 115  323.2791
 116  356.2988
 117  233.751
 118  149.1306
 119  112.3772
 120  149.8781
 121  107.2921
 122  69.94582
 123  166.5408
 124  145.865
 125  323.8812
 126  288.1708
 127  179.7125
 128  318.8403
 129  249.1549
 130  186.1521
 131  153.1107
 132  291.9033
 133  305.1836
 134  267.9404
 135  240.237
 136  299.3044
 137  265.1713
 138  312.9048
 139  320.1945
 140  197.6843
 141  190.2539
 142  196.7954
 143  141.3797
 144  267.0618
 145  206.3781
 146  178.4343
 147  222.7115
 148  214.1699
 149  174.8556
 150  163.1371
 151  162.7023
 152  109.2482
 153  220.0818
 154  319.1461
 155  345.7059
 156  188.5499
 157  82.31121
 158  75.29242
 159  243.1862
 160  243.5052
 161  181.0639
 162  213.3656
 163  301.3506
 164  287.8722
 165  150.1924
 166  153.1451
 167  116.9453
 168  240.1002
 169  236.3019
 170  284.1099
 171  282.5153
 172  202.7233
 173  165.7925
 174  206.7002
 175  145.8975
 176  176.5555
 177  240.4181
 178  102.794
 179  128.897
 180  139.8197
 181  171.6265
 182  162.0981
 183  183.7011
 184  367.1407
 185  447.5359
 186  318.7045
 187  209.3914
 188  95.77889
 189  131.6763
 190  185.459
 191  151.5446
 192  166.0587
 193  159.387
 194  84.87546
 195  160.8673
 196  182.0796
 197  239.0668
 198  235.8601
 199  323.5352
 200  287.7303
 201  263.5889
 202  281.5817
 203  226.1633
 204  300.1639
 205  326.8441
 206  263.3738
 207  227.2392
 208  319.0932
 209  232.5828
 210  93.36952
 211  115.769
 212  200.9597
 213  205.3826
 214  141.2283
 215  174.4611
 216  128.0161
 217  222.2065
 218  196.428
 219  184.8587
 220  260.8204
 221  153.0611
 222  59.52203
 223  103.9175
 224  125.1404
 225  162.1609
 226  229.2267
 227  251.8614
 228  191.8295
 229  69.67885
 230  87.21467
 231  80.734
 232  293.9547
 233  372.561
 234  267.337
 235  137.0174
 236  113.8269
 237  207.3488
 238  171.1042
 239  153.3317
 240  129.1124
 241  120.6694
 242  168.5275
 243  120.1703
 244  91.97984
 245  10.47469
 246  129.1008
 247  166.4648
 248  165.3462
 249  67.66331
 250  61.70626
 251  154.3302
 252  54.6674
 253  133.7326
 254  76.94759
 255  113.3961
 256  61.25962
 257  82.92188
 258  48.00797
 259  53.30056
 260  149.8067
 261  213.246
 262  161.0331
 263  114.467
 264  166.9596
 265  173.7928
 266  129.4855
 267  91.13109
 268  36.34351
 269  322.1782
 270  243.6167
 271  165.0969
 272  117.6044
 273  199.8458
 274  71.43007
 275  78.20528
 276  48.25623
 277  82.34122
 278  144.0015
 279  169.7884
 280  101.3336
 281  90.6353
 282  128.841
 283  227.989
 284  162.0455
 285  120.5989
 286  119.2005
 287  61.65672
 288  36.98994
 289  39.60926
 290  66.24106
 291  187.5719
 292  181.8244
 293  56.69218
 294  65.88436
 295  109.1431
 296  243.408
 297  201.9056
 298  191.6858
 299  284.2033
 300  166.6124
 301  151.7848
 302  227.7908
 303  247.1336
 304  336.7926
 305  374.5217
 306  271.9904
 307  71.45654
 308  184.648
 309  171.0642
 310  115.2492
 311  145.7543
 312  282.6429
 313  287.9732
 314  328.2948
 315  351.9009
 316  260.7596
 317  238.7366
 318  282.8939
 319  421.0182
 320  520.765
 321  771.8409
 322  736.3527
 323  714.2771
 324  615.1046
 325  348.5233
 326  201.4394
 327  123.1962
 328  92.53342
 329  74.69334
 330  131.7027
 331  156.0262
 332  131.4805
 333  335.6682
 334  290.4537
 335  263.4879
 336  214.2994
 337  260.8802
 338  266.2625
 339  187.9083
 340  168.2819
 341  151.3015
 342  275.0211
 343  238.8159
 344  275.9698
 345  317.5148
 346  170.7003
 347  160.9238
 348  195.6226
 349  240.9891
 350  106.6988
 351  187.8278
 352  250.1929
 353  167.6314
 354  59.49709
 355  130.5764
 356  163.2196
 357  179.8759
 358  160.5861
 359  143.1521
 360  118.3954
 361  63.79631
 362  86.73518
 363  262.2752
 364  140.804
 365  134.3857
 366  128.7645
 367  145.1275
 368  145.7566
 369  202.2969
 370  296.2914
 371  201.2233
 372  139.4447
 373  134.0784
 374  134.2352
 375  104.3368
 376  142.3243
 377  182.8173
 378  149.5958
 379  55.41734
 380  128.7367
 381  18.85381
 382  94.67476
 383  85.37373
 384  77.02226
 385  107.2543
 386  151.3984
 387  249.8228
 388  192.8647
 389  247.9311
 390  180.1124
 391  166.5531
 392  159.8573
 393  135.0461
 394  164.4424
 395  139.2078
 396  193.6245
 397  87.17918
 398  102.7813
 399  105.8506
 400  36.72785
 401  39.52638
 402  239.8951
 403  308.2784
 404  299.9817
 405  221.8686
 406  243.2512
 407  178.5368
 408  187.3455
 409  165.6983
 410  139.5434
 411  195.7571
 412  230.0641
 413  231.2796
 414  188.6202
 415  173.1694
 416  135.0944
 417  232.3864
 418  115.8801
 419  188.1453
 420  216.262
 421  121.6323
 422  163.1575
 423  188.115
 424  215.7492
 425  133.1595
 426  59.39339
 427  103.7378
 428  126.1087
 429  169.7935
 430  112.0482
 431  140.2529
 432  203.4518
 433  186.4756
 434  116.2213
 435  97.44866
 436  59.15827
 437  221.7077
 438  199.3889
 439  135.9701
 440  182.8086
 441  234.1313
 442  183.7317
 443  173.4956
 444  233.0131
 445  251.2312
 446  125.4139
 447  125.7869
 448  63.84337
 449  71.81126
 450  116.4101
 451  101.0125
 452  167.4227
 453  75.81692
 454  55.68189
 455  89.82848
 456  63.02942
 457  86.75184
 458  141.1112
 459  142.5315
 460  211.3029
 461  86.0722
 462  -8.671837
 463  -19.92968
 464  147.4091
 465  128.0349
 466  177.655
 467  122.6765
 468  42.99036
 469  -6.819995
 470  -5.309672
 471  55.53128
 472  119.7449
 473  163.1343
 474  226.7792
 475  245.8829
 476  234.679
 477  163.2255
 478  152.6886
 479  265.6321
 480  283.8662
 481  222.5291
 482  148.9356
 483  136.2867
 484  163.7222
 485  198.95
 486  304.6861
 487  173.1622
 488  161.6635
 489  228.9613
 490  281.8827
 491  203.3177
 492  190.8454
 493  180.9386
 494  130.8682
 495  63.62047
 496  28.0514
 497  246.7991
 498  239.2426
 499  150.0907
 500  226.881
 501  147.6698
 502  123.6716
 503  237.5893
 504  309.0132
 505  120.4277
 506  186.1935
 507  248.4473
 508  171.4494
 509  284.8368
 510  306.7
 511  266.5925
