# Input file       =  1192500920.129434_cleaned.dat
# Candidate        =  PSR_0332+5434
# Telescope        =  AR
# Epoch_topo       =  58046.094202886969
# Epoch_bary       =  N/A
# T_sample         =  0.002
# Data Folded      =  7340032
# Data Avg         =  0.0143982859980836
# Data StdDev      =  1.00004904158493 
# Profile Bins     =  512
# Profile Avg      =  206.459053687448 
# Profile StdDev   =  119.738908274638 
# Reduced chi-sqr  =  1.855
# Prob(Noise)      <  1.49e-28   (~11.0 sigma)
# P_topo (ms)      =  714.485787833171  +/- 0.000264
# P'_topo (s/s)    =  -0                +/- 1.39e-10
# P''_topo (s/s^2) =  0                 +/- 6.14e-14
# P_bary (ms)      =  N/A
# P'_bary (s/s)    =  N/A
# P''_bary (s/s^2) =  N/A
# P_orb (s)        =  N/A
# asin(i)/c (s)    =  N/A
# eccentricity     =  N/A
# w (rad)          =  N/A
# T_peri           =  N/A
######################################################
   0  1127.066
   1  908.3873
   2  658.6088
   3  455.697
   4  356.0345
   5  136.6425
   6  331.0775
   7  377.0844
   8  328.5022
   9  419.4121
  10  291.1509
  11  285.8988
  12  349.3568
  13  314.2682
  14  196.1819
  15  272.4232
  16  243.4494
  17  183.7648
  18  321.2925
  19  221.9235
  20  86.25427
  21  186.3137
  22  359.119
  23  302.2939
  24  198.1875
  25  228.0073
  26  234.8294
  27  171.0658
  28  192.7961
  29  152.9741
  30  132.2501
  31  180.3444
  32  213.116
  33  184.8323
  34  209.7007
  35  205.805
  36  281.2739
  37  148.8191
  38  137.1022
  39  214.4951
  40  225.7641
  41  192.6549
  42  73.55621
  43  180.7341
  44  334.3177
  45  184.7324
  46  251.454
  47  157.6484
  48  155.2845
  49  171.1294
  50  143.3689
  51  111.497
  52  151.4641
  53  111.2594
  54  205.2779
  55  279.5197
  56  253.3112
  57  163.954
  58  126.4872
  59  149.7537
  60  232.0712
  61  179.2521
  62  102.133
  63  135.5387
  64  80.08508
  65  304.0776
  66  302.3719
  67  220.3805
  68  186.7792
  69  198.2179
  70  179.15
  71  97.97087
  72  112.9968
  73  285.2373
  74  348.8225
  75  320.6803
  76  306.4055
  77  234.7607
  78  257.8623
  79  190.099
  80  152.2271
  81  148.9431
  82  307.4554
  83  261.021
  84  216.8352
  85  209.8263
  86  322.7518
  87  288.5942
  88  17.50472
  89  191.114
  90  203.5596
  91  185.7098
  92  250.9363
  93  205.4066
  94  170.4975
  95  141.6405
  96  319.8279
  97  339.8618
  98  149.8451
  99  164.0701
 100  229.8696
 101  186.3934
 102  155.6269
 103  65.07973
 104  182.0229
 105  141.6652
 106  310.8889
 107  262.7502
 108  201.3118
 109  286.1162
 110  209.7965
 111  329.1104
 112  358.6003
 113  337.8175
 114  209.905
 115  150.6835
 116  267.8731
 117  244.6763
 118  219.2984
 119  319.7744
 120  346.5453
 121  300.9671
 122  187.9926
 123  239.6257
 124  288.9149
 125  217.6045
 126  227.2697
 127  374.3553
 128  186.8345
 129  38.96678
 130  129.4859
 131  49.04387
 132  15.32315
 133  66.90192
 134  115.1945
 135  8.364139
 136  144.7356
 137  118.1505
 138  146.3202
 139  98.84984
 140  200.563
 141  226.3143
 142  118.3005
 143  8.395374
 144  53.2497
 145  91.20354
 146  179.7728
 147  141.2835
 148  225.2086
 149  251.7883
 150  205.3491
 151  238.6666
 152  236.1808
 153  212.9416
 154  132.8423
 155  125.9454
 156  75.74098
 157  96.27406
 158  147.2486
 159  63.30632
 160  107.0867
 161  185.865
 162  202.5885
 163  178.9825
 164  145.3432
 165  173.2024
 166  229.9945
 167  255.0424
 168  300.4348
 169  301.5863
 170  230.0982
 171  168.6508
 172  170.4958
 173  231.2747
 174  110.9841
 175  149.0225
 176  115.6584
 177  165.9856
 178  249.854
 179  277.049
 180  206.6519
 181  175.2621
 182  155.2539
 183  232.166
 184  190.5685
 185  68.29581
 186  302.8025
 187  244.8889
 188  240.8549
 189  222.4634
 190  121.3137
 191  98.26264
 192  214.3088
 193  239.5831
 194  248.3934
 195  302.0049
 196  171.2849
 197  47.56494
 198  201.3954
 199  147.4402
 200  128.2715
 201  23.13675
 202  11.4019
 203  71.49095
 204  151.5452
 205  335.1016
 206  438.8783
 207  267.1335
 208  154.1719
 209  244.4295
 210  172.3539
 211  152.7771
 212  98.33218
 213  234.9243
 214  322.2272
 215  78.12225
 216  140.996
 217  74.57995
 218  62.56008
 219  4.419842
 220  159.9136
 221  199.7509
 222  107.9062
 223  43.78046
 224  29.51359
 225  131.9568
 226  219.948
 227  141.7978
 228  174.5311
 229  238.6302
 230  107.1002
 231  29.07728
 232  15.82912
 233  42.31273
 234  88.66839
 235  127.3263
 236  171.9198
 237  225.329
 238  282.5856
 239  182.1352
 240  151.4935
 241  185.2796
 242  181.8807
 243  248.8925
 244  219.3672
 245  176.7854
 246  272.6652
 247  280.003
 248  111.5455
 249  38.30789
 250  147.7425
 251  71.69547
 252  112.4067
 253  242.3517
 254  100.7756
 255  99.1881
 256  266.9634
 257  167.1257
 258  75.47366
 259  95.78815
 260  89.91227
 261  170.81
 262  203.986
 263  70.55151
 264  112.4829
 265  151.0676
 266  243.4202
 267  199.4136
 268  172.5786
 269  214.5221
 270  227.1797
 271  302.2673
 272  312.9732
 273  122.0212
 274  309.6333
 275  226.4971
 276  196.84
 277  245.699
 278  343.3943
 279  308.2637
 280  224.5295
 281  306.3356
 282  123.0013
 283  82.879
 284  201.7846
 285  300.9887
 286  284.5285
 287  370.7504
 288  323.2919
 289  217.0214
 290  249.2966
 291  281.2575
 292  273.9929
 293  295.426
 294  169.8606
 295  315.2176
 296  215.6052
 297  116.9085
 298  143.6274
 299  8.645976
 300  14.39545
 301  58.09
 302  149.8472
 303  222.1496
 304  303.9607
 305  307.5304
 306  230.624
 307  120.3017
 308  281.7414
 309  310.6189
 310  307.8267
 311  235.1796
 312  261.986
 313  199.1348
 314  81.00183
 315  140.1322
 316  263.9677
 317  288.9866
 318  274.4406
 319  296.1004
 320  76.59867
 321  46.58135
 322  119.6751
 323  298.5497
 324  350.4746
 325  188.5822
 326  214.5506
 327  209.6732
 328  136.682
 329  266.9212
 330  164.1594
 331  252.7481
 332  347.4748
 333  363.7477
 334  255.648
 335  216.0953
 336  240.873
 337  262.2719
 338  243.2069
 339  108.1273
 340  154.2322
 341  199.4603
 342  223.5035
 343  157.9506
 344  133.7495
 345  83.59096
 346  82.71346
 347  117.5282
 348  145.8087
 349  266.4376
 350  220.9859
 351  144.5327
 352  205.3456
 353  283.2125
 354  274.2354
 355  213.2393
 356  255.6218
 357  264.9624
 358  220.5396
 359  98.64211
 360  300.6565
 361  287.4575
 362  215.7341
 363  185.4487
 364  300.1923
 365  233.6581
 366  319.8213
 367  305.4217
 368  240.5454
 369  61.95018
 370  141.4859
 371  371.8465
 372  220.3262
 373  12.88874
 374  142.4278
 375  45.49448
 376  61.24689
 377  254.0022
 378  252.5427
 379  252.6644
 380  167.2381
 381  113.1059
 382  147.1657
 383  62.72524
 384  40.9795
 385  85.85848
 386  201.2825
 387  291.1847
 388  307.2368
 389  315.6219
 390  375.2827
 391  364.1109
 392  385.913
 393  282.1314
 394  100.3489
 395  246.6746
 396  201.1518
 397  117.2964
 398  197.8825
 399  271.5176
 400  97.46111
 401  133.0726
 402  91.18005
 403  271.5186
 404  247.5306
 405  323.8453
 406  189.7772
 407  119.5084
 408  224.9585
 409  146.5568
 410  115.2607
 411  134.4513
 412  182.8725
 413  280.0693
 414  83.55119
 415  155.3057
 416  284.8296
 417  326.4698
 418  185.5112
 419  220.824
 420  257.115
 421  245.2163
 422  333.7463
 423  223.8275
 424  167.6934
 425  35.81105
 426  170.4224
 427  212.479
 428  152.8773
 429  111.5843
 430  86.61243
 431  136.9676
 432  211.4112
 433  249.7017
 434  205.5921
 435  206.6914
 436  257.8361
 437  256.3486
 438  296.8547
 439  173.2135
 440  168.9106
 441  223.4079
 442  216.443
 443  80.52473
 444  41.15065
 445  119.6043
 446  206.9468
 447  190.4974
 448  158.7775
 449  154.6337
 450  74.16057
 451  120.2742
 452  240.784
 453  226.3323
 454  34.57317
 455  41.70048
 456  31.93695
 457  73.19072
 458  62.90093
 459  205.7501
 460  305.2444
 461  302.4213
 462  334.005
 463  110.9032
 464  47.09179
 465  47.88144
 466  122.0177
 467  233.4666
 468  164.6498
 469  92.78556
 470  149.7562
 471  235.4924
 472  188.548
 473  126.3011
 474  95.73315
 475  203.4781
 476  242.5511
 477  175.3558
 478  168.6936
 479  232.4478
 480  277.9187
 481  209.3006
 482  176.4876
 483  131.0047
 484  56.31492
 485  242.9644
 486  59.55136
 487  117.3851
 488  367.9781
 489  257.3585
 490  176.7865
 491  244.7352
 492  332.8643
 493  217.9357
 494  237.7318
 495  370.887
 496  463.0113
 497  287.4035
 498  215.9943
 499  242.5807
 500  277.7751
 501  188.5916
 502  98.69117
 503  253.3955
 504  369.6624
 505  347.4828
 506  341.4961
 507  348.355
 508  486.0231
 509  733.988
 510  913.2476
 511  1080.99
