# Input file       =  1192328641.147617_cleaned.dat
# Candidate        =  PSR_0332+5434
# Telescope        =  AR
# Epoch_topo       =  58044.100233190016
# Epoch_bary       =  N/A
# T_sample         =  0.002
# Data Folded      =  7340032
# Data Avg         =  0.0458132527980654
# Data StdDev      =  2.6299228986011  
# Profile Bins     =  256
# Profile Avg      =  1313.63538610878 
# Profile StdDev   =  445.319805246249 
# Reduced chi-sqr  =  1.557
# Prob(Noise)      <  2.82e-08   (~5.4 sigma)
# P_topo (ms)      =  714.484219254112  +/- 0.00025
# P'_topo (s/s)    =  -0                +/- 1.32e-10
# P''_topo (s/s^2) =  0                 +/- 5.83e-14
# P_bary (ms)      =  N/A
# P'_bary (s/s)    =  N/A
# P''_bary (s/s^2) =  N/A
# P_orb (s)        =  N/A
# asin(i)/c (s)    =  N/A
# eccentricity     =  N/A
# w (rad)          =  N/A
# T_peri           =  N/A
######################################################
   0  1143.328
   1  1782.401
   2  1606.37
   3  968.7416
   4  701.4738
   5  788.1802
   6  1048.255
   7  557.3574
   8  1277.27
   9  1366.34
  10  1250.05
  11  1195.052
  12  1169.098
  13  1409.808
  14  1250.994
  15  1617.252
  16  970.511
  17  1150.255
  18  1423.041
  19  945.3063
  20  1534.116
  21  1061.004
  22  1016.098
  23  1893.792
  24  1689.672
  25  1360.74
  26  1374.07
  27  1424.648
  28  1501.008
  29  1820.858
  30  1791.18
  31  1684.56
  32  1211.932
  33  1815.614
  34  1099.908
  35  1244.279
  36  1339.382
  37  1109.225
  38  1463.073
  39  1511.915
  40  804.9142
  41  1250.526
  42  1099.429
  43  745.1823
  44  755.8427
  45  1325.393
  46  1287.503
  47  1376.188
  48  1170.477
  49  1120.078
  50  1023.78
  51  675.6171
  52  1384.552
  53  1053.223
  54  1354.069
  55  1458.643
  56  1091
  57  1697.24
  58  1590.399
  59  1131.488
  60  1367.088
  61  882.4629
  62  1577.24
  63  878.2341
  64  433.2824
  65  1062.299
  66  1459.591
  67  974.7945
  68  1511.009
  69  1694.151
  70  1701.934
  71  1354.324
  72  682.1325
  73  1358.361
  74  1850.883
  75  1749.818
  76  1005.412
  77  1794.775
  78  1790.189
  79  965.1088
  80  859.4567
  81  1121.491
  82  1095.37
  83  1289.298
  84  1445.963
  85  1130.708
  86  1476.071
  87  1499.219
  88  1497.88
  89  1699.852
  90  1247.52
  91  1750.557
  92  882.8696
  93  788.9555
  94  667.3459
  95  1565.337
  96  1281.148
  97  1423.916
  98  961.0142
  99  1165.351
 100  1290.156
 101  774.6597
 102  1597.248
 103  1210.862
 104  1095.37
 105  1430.293
 106  795.9244
 107  696.3834
 108  1143.046
 109  1177.215
 110  1233.391
 111  1330.228
 112  1011.557
 113  812.099
 114  682.5984
 115  1267.535
 116  855.2209
 117  1038.615
 118  1246.861
 119  1884.93
 120  1419.795
 121  798.6484
 122  1077.355
 123  898.8727
 124  1117.526
 125  1255.201
 126  771.856
 127  1464.55
 128  1049.531
 129  1179.623
 130  1360.471
 131  894.6051
 132  1000.8
 133  1348.29
 134  1535.669
 135  839.3751
 136  768.8857
 137  1272.662
 138  1125.81
 139  1068.481
 140  1273.198
 141  1358.947
 142  1414.841
 143  1398.338
 144  859.38
 145  1214.47
 146  767.5027
 147  1112.543
 148  922.6693
 149  1760.294
 150  1868.515
 151  1379.291
 152  895.4616
 153  358.7833
 154  950.8745
 155  1773.127
 156  1858.328
 157  1828.908
 158  3808.12
 159  5022.714
 160  3778.061
 161  1777.963
 162  989.1446
 163  1502.276
 164  1341.905
 165  2265.505
 166  1972.628
 167  1100.738
 168  1298.356
 169  1206.115
 170  1419.839
 171  1145.425
 172  1638.843
 173  848.4408
 174  1775.595
 175  1709.095
 176  2099.602
 177  2265.876
 178  1305.963
 179  1717.048
 180  1553.001
 181  1356.072
 182  1611.136
 183  1121.383
 184  1001.843
 185  1227.734
 186  1021.061
 187  877.9355
 188  1667.943
 189  1436.454
 190  1383.648
 191  943.8859
 192  845.0753
 193  977.2951
 194  1176.166
 195  1268.574
 196  2113.855
 197  1530.749
 198  747.7561
 199  1601.882
 200  793.7432
 201  1728.289
 202  1947.178
 203  1560.779
 204  1766.126
 205  1794.166
 206  1740.594
 207  1237.035
 208  1090.857
 209  1191.388
 210  1227.029
 211  1775.317
 212  1441.097
 213  1744.536
 214  1241.145
 215  740.7325
 216  1022.072
 217  138.3257
 218  1170.554
 219  972.0814
 220  1157.367
 221  1351.861
 222  804.0206
 223  866.2495
 224  1089.896
 225  1295.446
 226  1578.25
 227  1538.995
 228  1701.411
 229  1931.579
 230  1246.216
 231  1140.75
 232  1047.997
 233  1785.136
 234  1541.739
 235  1551.638
 236  1894.206
 237  1022.953
 238  1676.218
 239  1526.122
 240  1454.189
 241  1331.933
 242  1047.712
 243  729.6675
 244  1180.908
 245  983.3235
 246  1279.835
 247  2238.424
 248  896.7349
 249  1076.488
 250  1320.641
 251  1791.542
 252  1019.403
 253  1190.883
 254  1235.925
 255  1265.47
