# Input file       =  1192243009.129_cleaned.dat
# Candidate        =  PSR_0332+5434
# Telescope        =  AR
# Epoch_topo       =  58043.109121863425
# Epoch_bary       =  N/A
# T_sample         =  0.002
# Data Folded      =  7340032
# Data Avg         =  0.038134125956276
# Data StdDev      =  3.0525490028585  
# Profile Bins     =  256
# Profile Avg      =  1093.32707436647 
# Profile StdDev   =  516.882273689714 
# Reduced chi-sqr  =  1.191
# Prob(Noise)      <  0.0197   (~2.1 sigma)
# P_topo (ms)      =  714.483470988234  +/- 0.000322
# P'_topo (s/s)    =  -0                +/- 1.7e-10
# P''_topo (s/s^2) =  0                 +/- 7.49e-14
# P_bary (ms)      =  N/A
# P'_bary (s/s)    =  N/A
# P''_bary (s/s^2) =  N/A
# P_orb (s)        =  N/A
# asin(i)/c (s)    =  N/A
# eccentricity     =  N/A
# w (rad)          =  N/A
# T_peri           =  N/A
######################################################
   0  1357.396
   1  563.4668
   2  1102.179
   3  760.3961
   4  708.1156
   5  394.0885
   6  851.129
   7  971.4667
   8  836.6352
   9  924.8834
  10  673.6763
  11  786.9952
  12  1046.908
  13  911.0342
  14  958.1918
  15  1277.858
  16  691.1769
  17  961.8622
  18  1423.55
  19  1582.001
  20  1516.157
  21  1533.837
  22  1835.849
  23  1995.022
  24  1054.948
  25  1552.824
  26  1572.144
  27  1567.138
  28  1571.668
  29  1258.481
  30  926.1184
  31  1251.006
  32  752.8422
  33  1586.301
  34  1381.884
  35  1345.738
  36  1739.647
  37  1545.7
  38  1446.016
  39  1300.511
  40  1346.76
  41  1307.609
  42  1450.346
  43  1051.24
  44  1479.336
  45  962.9676
  46  1656.435
  47  1849.367
  48  1700.291
  49  1192.785
  50  1203.799
  51  1347.176
  52  1130.863
  53  1669.031
  54  1478.377
  55  1433.103
  56  1574.333
  57  795.9243
  58  897.7535
  59  599.6276
  60  1147.853
  61  1522.068
  62  1429.202
  63  1142.333
  64  1579.539
  65  1482.109
  66  1605.423
  67  1804.769
  68  1155.757
  69  993.1778
  70  1458.757
  71  1116.417
  72  1216.748
  73  924.6683
  74  968.046
  75  1787.19
  76  766.9328
  77  989.4186
  78  1213.045
  79  1478.359
  80  1524.319
  81  905.3157
  82  1358.88
  83  1443.184
  84  1087.663
  85  1265.5
  86  1321.887
  87  768.3696
  88  903.1232
  89  897.7526
  90  2225.173
  91  1625.789
  92  727.3525
  93  922.8344
  94  920.3808
  95  535.558
  96  1098.921
  97  1492.525
  98  1627.976
  99  1431.528
 100  1799.213
 101  1415.202
 102  1684.541
 103  462.8606
 104  1086.925
 105  1031.455
 106  921.4412
 107  1084.859
 108  1156.375
 109  585.8422
 110  833.7728
 111  1299.329
 112  732.6153
 113  471.4388
 114  1617.402
 115  1363.056
 116  843.3307
 117  1001.697
 118  660.5722
 119  995.7132
 120  361.7271
 121  830.119
 122  687.0403
 123  501.1165
 124  582.1174
 125  531.2584
 126  483.5074
 127  155.2355
 128  972.2234
 129  847.8306
 130  1088.267
 131  651.6614
 132  740.4111
 133  1138.42
 134  648.4285
 135  521.4145
 136  389.4062
 137  729.5209
 138  637.4602
 139  1047.741
 140  707.7105
 141  453.8034
 142  107.5739
 143  597.533
 144  705.131
 145  473.4244
 146  1252.229
 147  1370.947
 148  1047.096
 149  1313.834
 150  1981.769
 151  1062.809
 152  1077.836
 153  878.9763
 154  1683.395
 155  2026.328
 156  1327.937
 157  1790.355
 158  3415.683
 159  4130.061
 160  2854.963
 161  816.0416
 162  501.8817
 163  797.7762
 164  1203.887
 165  1582.765
 166  1381.003
 167  1597.16
 168  847.7952
 169  1302.396
 170  1760.365
 171  1037.956
 172  1361.671
 173  812.127
 174  1251.227
 175  488.5033
 176  1088.161
 177  781.0593
 178  542.1874
 179  1114.203
 180  1085.96
 181  901.8113
 182  989.1136
 183  1592.518
 184  963.4694
 185  666.6893
 186  745.9679
 187  786.7704
 188  619.6956
 189  536.6208
 190  451.3224
 191  1170.035
 192  1309.3
 193  1015.194
 194  877.973
 195  829.403
 196  789.847
 197  576.7843
 198  117.2505
 199  1441.56
 200  1647.081
 201  1363.222
 202  915.8928
 203  904.39
 204  1363.094
 205  1103.778
 206  999.4625
 207  886.1309
 208  1144.095
 209  1038.382
 210  1049.683
 211  494.0081
 212  792.4901
 213  689.6661
 214  1068.222
 215  685.5283
 216  689.2038
 217  1106.375
 218  1163.855
 219  921.8051
 220  1384.422
 221  1036.278
 222  340.5202
 223  565.8414
 224  588.8624
 225  399.4126
 226  311.6443
 227  645.0891
 228  927.8243
 229  -195.2572
 230  977.1865
 231  748.8552
 232  108.0505
 233  96.80024
 234  934.8019
 235  1298.503
 236  1144.962
 237  983.8362
 238  1391.508
 239  672.037
 240  894.675
 241  1469.729
 242  1116.183
 243  1479.175
 244  1032.262
 245  590.1812
 246  689.3156
 247  1307.943
 248  1082.934
 249  919.0309
 250  1441.36
 251  1180.574
 252  1282.515
 253  1673.624
 254  1721.934
 255  1525.548
