# Input file       =  1192328641.147617_cleaned.dat
# Candidate        =  PSR_0332+5434
# Telescope        =  AR
# Epoch_topo       =  58044.100233190016
# Epoch_bary       =  N/A
# T_sample         =  0.002
# Data Folded      =  7340032
# Data Avg         =  0.0458132527980654
# Data StdDev      =  2.6299228986011  
# Profile Bins     =  1024
# Profile Avg      =  328.408846475886 
# Profile StdDev   =  222.659902623124 
# Reduced chi-sqr  =  1.255
# Prob(Noise)      <  4.51e-08   (~5.3 sigma)
# P_topo (ms)      =  714.484219437298  +/- 0.000238
# P'_topo (s/s)    =  -0                +/- 1.26e-10
# P''_topo (s/s^2) =  0                 +/- 5.55e-14
# P_bary (ms)      =  N/A
# P'_bary (s/s)    =  N/A
# P''_bary (s/s^2) =  N/A
# P_orb (s)        =  N/A
# asin(i)/c (s)    =  N/A
# eccentricity     =  N/A
# w (rad)          =  N/A
# T_peri           =  N/A
######################################################
   0  326.9746
   1  281.0504
   2  239.3315
   3  254.1823
   4  347.5147
   5  404.0306
   6  577.7771
   7  631.0721
   8  490.0498
   9  345.0352
  10  272.5139
  11  369.3503
  12  279.6493
  13  207.8062
  14  211.29
  15  158.0112
  16  193.3078
  17  176.495
  18  200.7257
  19  148.8153
  20  117.0594
  21  145.2677
  22  277.1688
  23  325.1355
  24  329.817
  25  243.099
  26  214.2598
  27  146.8251
  28  101.5806
  29  143.9489
  30  157.9783
  31  207.733
  32  306.8633
  33  403.6129
  34  332.1472
  35  303.3913
  36  324.743
  37  429.7793
  38  331.4393
  39  226.3027
  40  249.5889
  41  381.9542
  42  346.5876
  43  291.9987
  44  228.1358
  45  358.7029
  46  338.7555
  47  271.1147
  48  199.2636
  49  300.1905
  50  344.7647
  51  392.8845
  52  356.459
  53  349.0308
  54  314.921
  55  372.4017
  56  331.6496
  57  284.4758
  58  287.701
  59  364.2402
  60  456.2543
  61  414.5044
  62  401.6837
  63  264.6443
  64  222.7747
  65  234.3247
  66  253.1658
  67  272.6067
  68  248.9912
  69  296.6894
  70  321.7373
  71  307.7024
  72  330.6225
  73  325.7184
  74  430.4693
  75  335.0378
  76  250.5818
  77  113.9248
  78  251.4874
  79  379.5961
  80  398.2467
  81  393.373
  82  353.0458
  83  344.2938
  84  280.3409
  85  280.8827
  86  206.4551
  87  291.6816
  88  239.3667
  89  265.7006
  90  215.1064
  91  330.8667
  92  484.3284
  93  514.1578
  94  478.0842
  95  475.2037
  96  474.7697
  97  467.048
  98  376.745
  99  217.1204
 100  243.2371
 101  287.4067
 102  490.8194
 103  470.1104
 104  344.8535
 105  257.334
 106  330.2163
 107  430.1003
 108  468.0916
 109  340.4779
 110  284.3487
 111  262.42
 112  334.9246
 113  432.8857
 114  382.5919
 115  398.2555
 116  421.4848
 117  493.1169
 118  498.1351
 119  438.1084
 120  406.8092
 121  432.1066
 122  464.9614
 123  531.8335
 124  502.7079
 125  419.6557
 126  347.3286
 127  288.7702
 128  307.5473
 129  290.7159
 130  303.7347
 131  332.4823
 132  390.3624
 133  488.0126
 134  536.8654
 135  451.5534
 136  290.3418
 137  208.9108
 138  222.4015
 139  315.8873
 140  298.5244
 141  306.6046
 142  305.3521
 143  370.5757
 144  429.9646
 145  371.2177
 146  262.1203
 147  172.2803
 148  206.7123
 149  330.9755
 150  326.9625
 151  369.8709
 152  363.9439
 153  372.049
 154  327.7389
 155  373.9932
 156  464.1752
 157  433.167
 158  320.5222
 159  188.3018
 160  98.0515
 161  150.4901
 162  267.3806
 163  404.5017
 164  358.6723
 165  263.2365
 166  251.8362
 167  343.5401
 168  320.4182
 169  275.0132
 170  231.809
 171  217.28
 172  212.7835
 173  180.2368
 174  171.4418
 175  141.1942
 176  161.1136
 177  166.4065
 178  225.4587
 179  281.0957
 180  342.7242
 181  348.5778
 182  325.4035
 183  288.1912
 184  307.0316
 185  313.0886
 186  355.1246
 187  380.298
 188  454.8448
 189  359.7527
 190  256.8955
 191  243.2702
 192  283.7325
 193  246.1795
 194  350.5402
 195  328.4314
 196  331.0206
 197  209.9622
 198  233.2179
 199  305.8159
 200  272.5375
 201  263.8712
 202  251.0187
 203  172.7871
 204  189.1184
 205  108.2476
 206  197.5812
 207  246.3464
 208  287.3305
 209  349.6991
 210  429.4847
 211  366.6025
 212  333.1683
 213  229.4823
 214  212.1407
 215  206.4256
 216  320.3355
 217  371.6994
 218  407.2398
 219  263.5049
 220  374.2776
 221  398.7002
 222  425.6802
 223  252.2029
 224  189.6849
 225  222.9413
 226  363.0078
 227  392.1446
 228  433.8433
 229  393.3277
 230  456.5439
 231  441.0969
 232  411.1579
 233  359.0207
 234  428.6894
 235  316.0547
 236  333.0175
 237  243.4956
 238  264.9305
 239  262.7571
 240  357.9983
 241  439.0809
 242  352.2973
 243  195.3405
 244  104.203
 245  198.5194
 246  299.7217
 247  385.1913
 248  478.4184
 249  451.7565
 250  345.842
 251  205.2004
 252  283.2114
 253  274.1345
 254  185.1265
 255  81.60329
 256  122.6208
 257  84.02119
 258  135.4675
 259  128.2309
 260  188.9392
 261  240.1566
 262  334.0429
 263  434.1878
 264  468.8357
 265  369.1269
 266  273.4646
 267  223.791
 268  167.1014
 269  204.2547
 270  294.0226
 271  439.7611
 272  441.055
 273  368.2794
 274  323.0636
 275  314.1531
 276  399.6558
 277  458.3664
 278  460.0896
 279  436.8097
 280  403.3578
 281  382.1142
 282  461.238
 283  471.0129
 284  410.6483
 285  264.726
 286  288.3516
 287  325.0345
 288  277.8054
 289  98.02965
 290  77.1871
 291  168.9986
 292  298.8299
 293  355.2209
 294  379.6126
 295  424.981
 296  430.4508
 297  487.1082
 298  465.6604
 299  496.86
 300  409.1863
 301  452.4311
 302  433.4191
 303  451.2134
 304  302.0362
 305  188.2411
 306  162.0524
 307  286.1548
 308  420.3283
 309  500.5302
 310  491.4474
 311  439.9554
 312  421.6629
 313  473.8679
 314  482.111
 315  363.2259
 316  275.1384
 317  236.849
 318  216.8281
 319  102.2584
 320  113.2226
 321  241.7776
 322  289.7307
 323  330.9854
 324  321.5587
 325  259.5983
 326  242.538
 327  295.1678
 328  312.4025
 329  257.0397
 330  220.614
 331  306.7019
 332  307.9118
 333  323.1425
 334  321.3965
 335  342.9744
 336  341.1512
 337  375.8335
 338  383.841
 339  320.5437
 340  220.448
 341  226.2921
 342  361.6519
 343  342.8706
 344  370.9171
 345  317.363
 346  432.5973
 347  364.4511
 348  441.3128
 349  370.3765
 350  354.8247
 351  282.3904
 352  328.6768
 353  408.9192
 354  416.2281
 355  432.2624
 356  383.1469
 357  458.8405
 358  428.4568
 359  414.4242
 360  330.8251
 361  287.0198
 362  295.5583
 363  319.0363
 364  407.0472
 365  421.0342
 366  513.6251
 367  461.1642
 368  403.8119
 369  170.8252
 370  56.99753
 371  83.99799
 372  192.5251
 373  258.6519
 374  214.5192
 375  94.67196
 376  106.5832
 377  129.8142
 378  233.873
 379  323.6368
 380  382.9351
 381  418.7802
 382  408.5275
 383  310.857
 384  208.8309
 385  269.6998
 386  417.9662
 387  520.4473
 388  396.4806
 389  336.4432
 390  316.0168
 391  230.3367
 392  211.5412
 393  195.6334
 394  275.6041
 395  343.3197
 396  340.0145
 397  300.8388
 398  244.3925
 399  240.4638
 400  288.1525
 401  343.7962
 402  371.915
 403  240.9573
 404  198.9218
 405  124.616
 406  232.3304
 407  268.9206
 408  369.8765
 409  431.6211
 410  442.6479
 411  388.0805
 412  331.8474
 413  273.9023
 414  291.8507
 415  270.8325
 416  226.6357
 417  236.2249
 418  337.5304
 419  319.4705
 420  349.9616
 421  347.9574
 422  392.8875
 423  323.341
 424  288.3345
 425  183.3649
 426  144.37
 427  109.8062
 428  210.7652
 429  216.9297
 430  149.4556
 431  123.0116
 432  216.7961
 433  293.7907
 434  379.5806
 435  369.1378
 436  396.6271
 437  290.1649
 438  201.591
 439  230.6731
 440  229.6117
 441  314.2207
 442  355.5232
 443  390.2221
 444  386.5398
 445  331.5529
 446  290.3768
 447  232.4832
 448  175.2762
 449  261.4066
 450  294.9652
 451  331.9749
 452  274.9828
 453  209.4229
 454  137.9453
 455  68.7085
 456  73.4395
 457  125.8822
 458  277.5875
 459  363.2531
 460  377.3563
 461  279.9981
 462  289.8552
 463  257.7952
 464  139.1176
 465  163.5092
 466  245.1787
 467  360.5944
 468  264.0013
 469  258.2862
 470  205.2063
 471  264.5562
 472  285.7193
 473  303.0172
 474  349.5726
 475  385.3618
 476  495.5106
 477  442.906
 478  483.3543
 479  490.7467
 480  469.2843
 481  333.8612
 482  249.6771
 483  233.0325
 484  224.0368
 485  199.8471
 486  178.1195
 487  219.0503
 488  270.8298
 489  311.1918
 490  271.9084
 491  187.4173
 492  143.7328
 493  205.464
 494  322.094
 495  263.8575
 496  260.1992
 497  237.3965
 498  339.8574
 499  306.4532
 500  359.7805
 501  340.6333
 502  288.1981
 503  178.7007
 504  129.4335
 505  216.8001
 506  245.7275
 507  239.3583
 508  263.3606
 509  380.9303
 510  462.894
 511  418.3441
 512  331.4222
 513  229.0352
 514  195.0777
 515  211.9818
 516  248.3286
 517  328.7823
 518  330.8264
 519  317.1868
 520  321.0085
 521  361.9879
 522  385.4702
 523  269.3625
 524  181.0282
 525  201.0404
 526  228.8489
 527  327.553
 528  273.255
 529  248.8352
 530  183.8942
 531  271.7441
 532  363.3633
 533  385.3237
 534  302.5462
 535  288.0963
 536  343.1067
 537  417.781
 538  427.5947
 539  386.1408
 540  248.3208
 541  199.7684
 542  130.8633
 543  174.164
 544  66.45287
 545  119.3598
 546  315.6908
 547  408.2354
 548  400.4788
 549  297.2764
 550  272.2383
 551  191.5459
 552  224.9912
 553  318.6302
 554  333.528
 555  229.1183
 556  157.0913
 557  275.1968
 558  349.1276
 559  363.0992
 560  365.4672
 561  346.9626
 562  262.9906
 563  295.5179
 564  327.0433
 565  425.0058
 566  262.4343
 567  355.1089
 568  384.5753
 569  428.9514
 570  308.1702
 571  270.7943
 572  350.4283
 573  378.2219
 574  385.8394
 575  255.9858
 576  201.9393
 577  142.3842
 578  224.5466
 579  351.6091
 580  356.894
 581  294.9114
 582  237.7982
 583  240.529
 584  181.8044
 585  126.0938
 586  196.4124
 587  296.5544
 588  258.1819
 589  302.5874
 590  258.5364
 591  242.9503
 592  96.55108
 593  128.7323
 594  355.5248
 595  504.1496
 596  466.2942
 597  362.5854
 598  402.7317
 599  545.2643
 600  528.3677
 601  473.7896
 602  402.7481
 603  380.598
 604  314.5975
 605  332.7371
 606  363.8569
 607  349.8816
 608  312.6526
 609  179.1738
 610  168.9303
 611  137.4871
 612  148.755
 613  43.63626
 614  46.20479
 615  124.2093
 616  205.1319
 617  234.6446
 618  268.3312
 619  369.0279
 620  484.7022
 621  490.3007
 622  410.9103
 623  396.6959
 624  462.0511
 625  486.7181
 626  471.4596
 627  473.7816
 628  564.1482
 629  412.3673
 630  425.5646
 631  415.482
 632  770.9227
 633  926.4761
 634  1228.523
 635  1278.411
 636  1272.29
 637  1267.461
 638  1254.993
 639  1171.816
 640  1032.565
 641  876.5837
 642  876.6741
 643  796.9164
 644  676.2085
 645  419.3467
 646  222.5737
 647  170.1091
 648  235.4995
 649  293.3764
 650  236.1274
 651  254.3355
 652  365.8174
 653  475.3227
 654  368.2707
 655  315.6743
 656  245.2165
 657  280.5054
 658  424.7756
 659  567.7343
 660  635.3071
 661  547.032
 662  522.1399
 663  504.5242
 664  582.7435
 665  527.5568
 666  424.2969
 667  369.8304
 668  340.4935
 669  232.4565
 670  204.0094
 671  275.7393
 672  370.9432
 673  330.3451
 674  307.1234
 675  307.7483
 676  274.9887
 677  297.266
 678  308.4652
 679  339.6416
 680  336.2135
 681  356.5378
 682  355.5452
 683  362.3658
 684  324.6815
 685  292.9189
 686  227.7947
 687  294.4308
 688  407.9702
 689  470.6322
 690  438.8404
 691  264.5958
 692  275.8912
 693  164.5069
 694  213.8591
 695  166.7215
 696  296.0148
 697  454.0042
 698  601.1969
 699  654.5952
 700  539.0594
 701  371.9743
 702  302.8684
 703  399.4161
 704  548.2657
 705  573.1195
 706  503.0791
 707  529.4463
 708  634.757
 709  635.3549
 710  530.4896
 711  343.6125
 712  258.5276
 713  278.1539
 714  389.1853
 715  449.354
 716  417.7209
 717  413.7484
 718  437.9256
 719  442.1165
 720  450.1899
 721  413.3204
 722  347.0773
 723  233.8901
 724  254.6946
 725  353.4641
 726  421.7087
 727  422.736
 728  378.845
 729  434.2011
 730  386.4876
 731  435.7343
 732  342.1665
 733  271.3846
 734  189.5711
 735  208.2591
 736  247.2225
 737  215.5574
 738  267.0379
 739  353.5051
 740  377.3235
 741  294.1444
 742  249.2359
 743  218.5707
 744  210.4034
 745  226.3486
 746  299.2877
 747  344.7009
 748  279.6867
 749  164.1831
 750  184.2617
 751  213.2552
 752  364.426
 753  462.1835
 754  486.681
 755  416.5618
 756  335.311
 757  341.1823
 758  390.8745
 759  341.678
 760  358.3298
 761  324.1277
 762  357.4617
 763  319.8473
 764  252.5593
 765  177.6851
 766  238.0584
 767  242.5304
 768  305.7448
 769  184.0865
 770  183.4945
 771  86.38633
 772  112.8262
 773  242.4485
 774  385.3489
 775  439.1696
 776  373.3865
 777  316.5854
 778  202.0266
 779  127.2326
 780  201.9385
 781  322.2692
 782  447.5568
 783  456.3323
 784  517.1561
 785  563.6856
 786  542.249
 787  541.6357
 788  568.1678
 789  403.8426
 790  232.8062
 791  126.812
 792  163.1164
 793  185.7587
 794  214.0747
 795  247.5108
 796  391.1528
 797  424.7356
 798  487.3471
 799  292.6171
 800  189.8571
 801  100.1002
 802  243.5554
 803  295.0161
 804  395.3502
 805  405.5948
 806  475.508
 807  571.5823
 808  558.8625
 809  487.4673
 810  397.9953
 811  434.2347
 812  419.2894
 813  363.3247
 814  329.0736
 815  416.4701
 816  398.094
 817  451.279
 818  492.9449
 819  483.1716
 820  443.9491
 821  420.5824
 822  448.2039
 823  479.1626
 824  480.6152
 825  541.3806
 826  355.6019
 827  251.4372
 828  156.4592
 829  357.4062
 830  381.169
 831  415.444
 832  310.2664
 833  311.0851
 834  168.2228
 835  211.9225
 836  242.8471
 837  303.978
 838  342.1485
 839  377.1687
 840  364.7688
 841  260.2763
 842  243.3181
 843  327.5254
 844  474.5728
 845  477.1846
 846  478.0396
 847  371.8236
 848  306.1138
 849  337.5193
 850  391.268
 851  417.132
 852  417.431
 853  437.7912
 854  462.1
 855  435.6912
 856  346.8643
 857  280.0782
 858  261.103
 859  264.1624
 860  203.5022
 861  164.3069
 862  150.8945
 863  191.6188
 864  252.1373
 865  269.0107
 866  318.2298
 867  121.8177
 868  59.73063
 869  -51.9688
 870  33.34212
 871  144.245
 872  275.6204
 873  267.5761
 874  349.1228
 875  411.5125
 876  391.2751
 877  206.8025
 878  101.5613
 879  165.619
 880  226.6346
 881  260.1247
 882  381.5575
 883  368.6315
 884  368.9677
 885  273.4293
 886  355.7368
 887  358.2735
 888  317.6494
 889  172.8445
 890  73.86917
 891  96.09968
 892  179.2527
 893  219.823
 894  265.5224
 895  312.8355
 896  404.2383
 897  288.4577
 898  180.9868
 899  107.7127
 900  253.9119
 901  384.1578
 902  418.9161
 903  368.217
 904  288.9174
 905  364.4462
 906  469.3216
 907  567.2842
 908  563.8286
 909  337.5433
 910  224.4246
 911  310.1094
 912  499.4357
 913  481.3451
 914  342.9048
 915  400.6192
 916  491.4454
 917  500.074
 918  497.4366
 919  390.9497
 920  349.5476
 921  227.1081
 922  321.4217
 923  393.1505
 924  388.7915
 925  289.513
 926  173.0464
 927  171.9264
 928  204.2644
 929  315.4029
 930  299.7993
 931  265.5557
 932  358.1068
 933  547.5002
 934  534.2532
 935  422.2245
 936  306.0332
 937  397.0823
 938  424.8515
 939  397.3222
 940  405.0056
 941  377.4049
 942  387.9701
 943  418.1083
 944  552.3291
 945  505.7808
 946  409.9191
 947  406.3452
 948  314.9552
 949  204.172
 950  163.5795
 951  304.6693
 952  453.5771
 953  442.6985
 954  446.7749
 955  333.9062
 956  281.3872
 957  370.1882
 958  450.6192
 959  487.1859
 960  463.1894
 961  365.1556
 962  288.6695
 963  232.1071
 964  345.1272
 965  422.1421
 966  331.0667
 967  227.2991
 968  290.1841
 969  310.2444
 970  274.2692
 971  109.6452
 972  138.3577
 973  199.2453
 974  229.5143
 975  257.551
 976  271.2054
 977  287.1621
 978  331.9787
 979  287.2156
 980  314.4383
 981  219.6252
 982  230.2402
 983  133.3075
 984  194.6362
 985  279.5019
 986  467.5722
 987  573.8805
 988  623.1925
 989  613.2023
 990  474.205
 991  431.7726
 992  321.129
 993  252.0961
 994  97.63564
 995  75.43124
 996  156.1583
 997  310.7084
 998  367.527
 999  359.2298
1000  256.8662
1001  266.56
1002  383.2037
1003  520.9835
1004  522.506
1005  428.1638
1006  390.6263
1007  339.3663
1008  339.5115
1009  252.6085
1010  191.6604
1011  160.3396
1012  220.8833
1013  302.5326
1014  373.5128
1015  408.9242
1016  321.8978
1017  311.1212
1018  255.2345
1019  315.2577
1020  296.2686
1021  325.7032
1022  317.4342
1023  325.8774
