# Input file       =  1192299056.166723_cleaned.dat
# Candidate        =  PSR_0332+5434
# Telescope        =  AR
# Epoch_topo       =  58043.757814429664
# Epoch_bary       =  N/A
# T_sample         =  0.002
# Data Folded      =  7208960
# Data Avg         =  0.0282677861179979
# Data StdDev      =  1.00020414913626 
# Profile Bins     =  512
# Profile Avg      =  398.003346194755 
# Profile StdDev   =  118.683399961778 
# Reduced chi-sqr  =  1.483
# Prob(Noise)      <  7.01e-12   (~6.8 sigma)
# P_topo (ms)      =  714.483605900366  +/- 0.000202
# P'_topo (s/s)    =  -0                +/- 1.09e-10
# P''_topo (s/s^2) =  0                 +/- 4.88e-14
# P_bary (ms)      =  N/A
# P'_bary (s/s)    =  N/A
# P''_bary (s/s^2) =  N/A
# P_orb (s)        =  N/A
# asin(i)/c (s)    =  N/A
# eccentricity     =  N/A
# w (rad)          =  N/A
# T_peri           =  N/A
######################################################
   0  1221.171
   1  1052.921
   2  758.9754
   3  483.8152
   4  376.6961
   5  465.981
   6  492.595
   7  543.8044
   8  488.4545
   9  395.7156
  10  461.8698
  11  546.388
  12  586.6039
  13  569.5747
  14  579.2709
  15  493.7039
  16  425.9602
  17  484.6328
  18  530.11
  19  308.4686
  20  302.6102
  21  349.1241
  22  295.0209
  23  220.134
  24  217.8779
  25  290.2755
  26  395.334
  27  367.0622
  28  418.0803
  29  224.9998
  30  306.4663
  31  341.0146
  32  365.7566
  33  288.4239
  34  350.8425
  35  362.9744
  36  324.4677
  37  381.0888
  38  499.5591
  39  432.6712
  40  308.1125
  41  329.9572
  42  388.9255
  43  311.2547
  44  311.0849
  45  394.6005
  46  446.3041
  47  408.162
  48  477.9878
  49  377.6494
  50  401.7907
  51  348.5083
  52  373.1773
  53  408.8666
  54  406.5452
  55  522.3351
  56  347.2023
  57  444.5414
  58  454.9736
  59  347.671
  60  331.8497
  61  409.0988
  62  430.0851
  63  438.0345
  64  427.1187
  65  343.0027
  66  334.3647
  67  292.7051
  68  422.857
  69  433.2696
  70  385.3523
  71  397.5605
  72  314.454
  73  387.4536
  74  461.5454
  75  439.6848
  76  338.2664
  77  361.2208
  78  438.5675
  79  520.4515
  80  297.5722
  81  240.1443
  82  331.6516
  83  585.9997
  84  521.6227
  85  391.0247
  86  356.5008
  87  364.5986
  88  404.284
  89  389.8551
  90  486.7407
  91  487.7151
  92  428.4922
  93  344.8377
  94  372.502
  95  497.7555
  96  509.7021
  97  371.1371
  98  375.2829
  99  435.2437
 100  530.2806
 101  423.5551
 102  396.8749
 103  430.0767
 104  401.9393
 105  414.0356
 106  337.5447
 107  458.8211
 108  465.0609
 109  379.3199
 110  359.9792
 111  429.0935
 112  488.6884
 113  413.7099
 114  293.642
 115  286.0245
 116  436.7672
 117  363.4059
 118  328.6394
 119  493.1308
 120  345.0273
 121  500.1841
 122  482.4586
 123  333.0882
 124  280.0349
 125  297.3919
 126  188.5089
 127  266.1572
 128  306.868
 129  320.2297
 130  294.4002
 131  338.4353
 132  257.4981
 133  279.656
 134  327.8369
 135  325.5454
 136  304.2052
 137  434.5764
 138  369.5374
 139  412.0875
 140  338.9672
 141  264.2206
 142  345.8433
 143  411.0061
 144  440.1634
 145  317.8357
 146  386.0231
 147  343.4316
 148  340.0858
 149  456.5193
 150  348.4007
 151  351.5298
 152  378.1367
 153  281.107
 154  417.0106
 155  467.8312
 156  359.3961
 157  303.2006
 158  282.629
 159  366.0635
 160  409.56
 161  376.8735
 162  327.2808
 163  349.09
 164  514.3268
 165  527.9823
 166  435.4646
 167  462.487
 168  420.3336
 169  436.1435
 170  533.746
 171  518.087
 172  423.6487
 173  401.1412
 174  445.603
 175  522.735
 176  452.369
 177  323.3059
 178  360.6202
 179  364.1936
 180  444.6208
 181  409.7335
 182  333.9855
 183  403.2173
 184  418.5604
 185  395.8635
 186  447.2552
 187  427.184
 188  419.5817
 189  467.2663
 190  414.1552
 191  332.137
 192  330.7312
 193  502.1797
 194  507.9563
 195  461.1855
 196  371.6397
 197  414.0429
 198  395.1233
 199  410.4934
 200  451.237
 201  430.2613
 202  403.6679
 203  440.7315
 204  543.6271
 205  383.8684
 206  348.3959
 207  392.5053
 208  449.8258
 209  471.0464
 210  368.2479
 211  333.325
 212  166.6125
 213  270.7408
 214  348.814
 215  289.4141
 216  284.5988
 217  350.8556
 218  396.4512
 219  380.3965
 220  361.2685
 221  378.977
 222  344.7954
 223  392.968
 224  304.6028
 225  266.667
 226  346.2292
 227  273.2567
 228  271.853
 229  385.2701
 230  305.4051
 231  198.1519
 232  297.0052
 233  319.1088
 234  344.2346
 235  439.4051
 236  458.3295
 237  392.4715
 238  231.1773
 239  249.6261
 240  228.5503
 241  355.7881
 242  413.0941
 243  531.0556
 244  457.4132
 245  277.1584
 246  340.339
 247  400.3437
 248  455.5464
 249  382.1124
 250  368.4329
 251  335.7064
 252  285.3213
 253  279.4273
 254  345.8475
 255  347.0631
 256  335.4481
 257  331.5662
 258  320.324
 259  259.4708
 260  266.658
 261  387.4806
 262  429.8349
 263  329.7435
 264  358.131
 265  436.5829
 266  407.1608
 267  345.4265
 268  394.6412
 269  331.1165
 270  302.6339
 271  326.9813
 272  369.1033
 273  288.7634
 274  279.6185
 275  487.5496
 276  516.355
 277  485.6452
 278  435.0503
 279  417.451
 280  325.5954
 281  274.2677
 282  402.8488
 283  468.8515
 284  327.4289
 285  301.8109
 286  340.9991
 287  358.3282
 288  348.7317
 289  391.3391
 290  429.9255
 291  347.0113
 292  279.5664
 293  359.1016
 294  433.5239
 295  431.78
 296  295.8104
 297  316.9205
 298  481
 299  398.4162
 300  374.1455
 301  391.9704
 302  415.1295
 303  400.8081
 304  409.5728
 305  390.7303
 306  489.2154
 307  457.3304
 308  525.9781
 309  386.2706
 310  419.5439
 311  298.9379
 312  407.154
 313  455.4855
 314  301.5634
 315  370.4066
 316  348.555
 317  395.2811
 318  372.059
 319  367.884
 320  359.4016
 321  407.6771
 322  510.7027
 323  484.8956
 324  291.637
 325  258.6901
 326  225.2809
 327  305.9664
 328  365.0013
 329  399.1835
 330  355.7576
 331  322.14
 332  303.0527
 333  292.9462
 334  317.1786
 335  304.6025
 336  412.3509
 337  378.1873
 338  371.6411
 339  369.7843
 340  386.3169
 341  386.0502
 342  404.5034
 343  449.5556
 344  387.149
 345  331.5806
 346  318.0257
 347  403.2282
 348  530.2017
 349  380.1346
 350  261.4638
 351  314.5223
 352  354.9589
 353  364.4955
 354  398.2095
 355  370.1601
 356  485.6081
 357  473.2479
 358  339.039
 359  252.8542
 360  258.8729
 361  374.3232
 362  390.5301
 363  322.8365
 364  389.0667
 365  407.8732
 366  405.1465
 367  397.502
 368  319.0182
 369  350.2058
 370  423.5098
 371  473.0997
 372  515.0068
 373  425.7396
 374  410.889
 375  353.4096
 376  288.6617
 377  275.1645
 378  353.0055
 379  525.5805
 380  512.7801
 381  478.8289
 382  414.2988
 383  455.4702
 384  442.383
 385  467.0959
 386  466.061
 387  355.1845
 388  380.389
 389  420.4776
 390  440.5267
 391  495.9534
 392  547.4904
 393  526.2249
 394  375.9893
 395  427.4999
 396  409.4954
 397  382.8261
 398  467.7321
 399  397.7172
 400  315.714
 401  372.1407
 402  398.5379
 403  256.2186
 404  289.6075
 405  356.2513
 406  452.2899
 407  471.9676
 408  423.9684
 409  398.0948
 410  311.416
 411  434.8419
 412  443.5739
 413  377.9745
 414  463.359
 415  428.6868
 416  375.5235
 417  448.7454
 418  437.8282
 419  580.5298
 420  448.642
 421  256.7602
 422  313.9647
 423  366.9963
 424  363.9447
 425  380.8365
 426  511.3485
 427  471.2847
 428  469.6704
 429  420.9078
 430  388.3374
 431  327.6852
 432  367.9888
 433  401.8992
 434  265.6
 435  390.383
 436  429.9248
 437  414.705
 438  421.5586
 439  377.812
 440  284.3826
 441  290.374
 442  317.2728
 443  254.9937
 444  293.0936
 445  486.4674
 446  531.5814
 447  468.848
 448  420.1177
 449  323.4175
 450  481.8277
 451  577.6061
 452  472.9162
 453  465.805
 454  384.4185
 455  447.9431
 456  283.2874
 457  342.8972
 458  306.3288
 459  350.4788
 460  398.6562
 461  353.2219
 462  418.9539
 463  411.9957
 464  536.8995
 465  380.5856
 466  415.8482
 467  524.4591
 468  438.3586
 469  317.8503
 470  382.6711
 471  468.0643
 472  364.1566
 473  434.1455
 474  436.6798
 475  447.6353
 476  311.3731
 477  376.5542
 478  388.3077
 479  350.6034
 480  431.2288
 481  319.8208
 482  369.1751
 483  512.627
 484  424.667
 485  406.8054
 486  426.6487
 487  369.686
 488  387.3097
 489  305.3043
 490  302.9501
 491  385.8522
 492  410.4599
 493  412.5393
 494  550.0954
 495  569.1375
 496  405.8836
 497  337.4931
 498  404.1827
 499  444.1257
 500  484.7583
 501  485.7092
 502  411.4452
 503  505.3039
 504  472.5507
 505  580.0173
 506  489.3194
 507  515.3124
 508  767.8192
 509  906.0229
 510  1044.729
 511  1200.873
