# Input file       =  1192916781.138746_cleaned.dat
# Candidate        =  PSR_0332+5434
# Telescope        =  AR
# Epoch_topo       =  58050.907409013264
# Epoch_bary       =  N/A
# T_sample         =  0.002
# Data Folded      =  7340032
# Data Avg         =  0.0476509759817938
# Data StdDev      =  2.40012852933315 
# Profile Bins     =  1024
# Profile Avg      =  341.595178858425 
# Profile StdDev   =  203.204582502615 
# Reduced chi-sqr  =  1.338
# Prob(Noise)      <  2.03e-12   (~6.9 sigma)
# P_topo (ms)      =  714.489437089079  +/- 0.000274
# P'_topo (s/s)    =  -0                +/- 1.44e-10
# P''_topo (s/s^2) =  0                 +/- 6.37e-14
# P_bary (ms)      =  N/A
# P'_bary (s/s)    =  N/A
# P''_bary (s/s^2) =  N/A
# P_orb (s)        =  N/A
# asin(i)/c (s)    =  N/A
# eccentricity     =  N/A
# w (rad)          =  N/A
# T_peri           =  N/A
######################################################
   0  71.11981
   1  38.61913
   2  67.27427
   3  132.6137
   4  183.0909
   5  231.2108
   6  247.1855
   7  199.6663
   8  146.3383
   9  223.5753
  10  283.5466
  11  317.6762
  12  314.6035
  13  258.4308
  14  132.8272
  15  70.15608
  16  116.1576
  17  233.043
  18  271.7768
  19  290.2077
  20  286.9334
  21  273.1749
  22  232.4113
  23  222.9817
  24  360.993
  25  348.2883
  26  374.774
  27  344.6244
  28  443.8351
  29  381.8561
  30  373.8684
  31  300.188
  32  351.5388
  33  400.5008
  34  435.54
  35  378.966
  36  297.6646
  37  401.3578
  38  422.3394
  39  416.0198
  40  356.6571
  41  382.6965
  42  487.1034
  43  330.583
  44  305.0212
  45  228.8375
  46  362.7182
  47  254.9286
  48  186.1249
  49  89.24786
  50  192.8465
  51  252.4924
  52  305.3787
  53  328.3041
  54  281.0796
  55  255.6821
  56  275.9468
  57  197.9726
  58  268.6179
  59  272.1466
  60  402.5738
  61  494.4475
  62  398.1138
  63  315.7701
  64  267.9281
  65  238.8405
  66  274.9274
  67  208.8253
  68  339.6812
  69  396.1426
  70  458.1795
  71  362.117
  72  229.4119
  73  187.4294
  74  329.5699
  75  348.5003
  76  240.5388
  77  204.5639
  78  179.7591
  79  203.0467
  80  271.4029
  81  342.9019
  82  407.2195
  83  356.7291
  84  308.3688
  85  189.3222
  86  153.9571
  87  160.0384
  88  154.2063
  89  177.7866
  90  274.7625
  91  393.891
  92  387.2968
  93  315.6242
  94  233.673
  95  266.5526
  96  313.7167
  97  365.0487
  98  347.4855
  99  369.8559
 100  324.7255
 101  339.5579
 102  394.4606
 103  433.8962
 104  508.4131
 105  455.6413
 106  397.0849
 107  264.4045
 108  300.6459
 109  332.5311
 110  343.5279
 111  356.8876
 112  398.2465
 113  384.0689
 114  315.0363
 115  274.392
 116  304.0852
 117  351.9932
 118  426.803
 119  422.8246
 120  324.0996
 121  163.0526
 122  198.9637
 123  337.8014
 124  345.246
 125  170.7543
 126  241.2676
 127  288.9221
 128  352.9169
 129  360.4834
 130  418.953
 131  427.6045
 132  354.3831
 133  312.0319
 134  308.6835
 135  337.3351
 136  363.5645
 137  390.5389
 138  396.0417
 139  384.1127
 140  353.4563
 141  395.7861
 142  426.9386
 143  397.9991
 144  349.6573
 145  385.4497
 146  338.0045
 147  319.4119
 148  224.9193
 149  270.9399
 150  257.028
 151  260.1026
 152  311.1044
 153  399.3743
 154  454.8245
 155  402.8206
 156  274.4087
 157  195.3718
 158  279.063
 159  456.5496
 160  498.32
 161  405.3932
 162  347.4991
 163  376.571
 164  306.3814
 165  260.4531
 166  288.7117
 167  326.8904
 168  356.1123
 169  389.4594
 170  392.3435
 171  369.2795
 172  411.4494
 173  503.4115
 174  510.972
 175  453.5503
 176  406.125
 177  425.4682
 178  236.3376
 179  160.4095
 180  164.1429
 181  314.5481
 182  324.1076
 183  280.252
 184  353.281
 185  426.6471
 186  383.4751
 187  267.799
 188  236.9958
 189  268.1715
 190  322.5104
 191  308.6222
 192  332.9705
 193  282.565
 194  293.406
 195  349.437
 196  376.0982
 197  353.8305
 198  320.3206
 199  273.7685
 200  187.9327
 201  134.5826
 202  154.5197
 203  220.6777
 204  318.4749
 205  369.548
 206  370.1126
 207  399.3492
 208  329.86
 209  289.5743
 210  180.1851
 211  205.2849
 212  282.7158
 213  380.5354
 214  478.8607
 215  330.4077
 216  354.9284
 217  460.8477
 218  518.5163
 219  404.2549
 220  186.1414
 221  199.2817
 222  233.4222
 223  375.5998
 224  449.4721
 225  464.0434
 226  394.9456
 227  370.657
 228  403.3438
 229  441.4384
 230  355.5199
 231  249.0815
 232  276.5734
 233  347.4727
 234  432.2593
 235  482.8119
 236  536.2852
 237  447.3917
 238  413.6606
 239  430.0384
 240  427.1018
 241  370.4188
 242  368.36
 243  505.2567
 244  528.0267
 245  466.2165
 246  498.5042
 247  512.0277
 248  472.0434
 249  336.7019
 250  315.2827
 251  326.5279
 252  344.8314
 253  296.469
 254  317.1308
 255  275.5358
 256  314.5842
 257  333.1115
 258  409.7507
 259  417.5819
 260  482.4888
 261  510.9442
 262  542.6128
 263  517.9844
 264  516.8928
 265  501.3848
 266  555.0034
 267  480.1166
 268  470.5732
 269  363.1922
 270  335.6947
 271  284.166
 272  245.3465
 273  243.6854
 274  207.1427
 275  265.3517
 276  375.3997
 277  467.0662
 278  592.0827
 279  508.6887
 280  423.8311
 281  315.4373
 282  350.6421
 283  282.3848
 284  298.6815
 285  274.4267
 286  317.7447
 287  229.579
 288  258.1617
 289  228.0987
 290  303.4307
 291  243.9755
 292  309.6322
 293  395.3891
 294  357.0432
 295  406.7845
 296  420.4515
 297  464.6535
 298  364.1009
 299  283.3212
 300  377.513
 301  421.4761
 302  470.1785
 303  418.5491
 304  395.0758
 305  331.6225
 306  303.1559
 307  266.0935
 308  272.2042
 309  379.3638
 310  409.4852
 311  389.5818
 312  278.0679
 313  221.7514
 314  151.7235
 315  149.3425
 316  210.8429
 317  264.4767
 318  292.2806
 319  309.2711
 320  342.7607
 321  331.329
 322  370.712
 323  453.0239
 324  485.9754
 325  446.0154
 326  369.0179
 327  256.2771
 328  270.7826
 329  308.7073
 330  339.2072
 331  229.9482
 332  296.0823
 333  398.2458
 334  448.7795
 335  359.4737
 336  263.5885
 337  259.0083
 338  371.0382
 339  413.7451
 340  438.3713
 341  396.2879
 342  413.6107
 343  399.3708
 344  384.55
 345  464.4207
 346  500.6885
 347  527.874
 348  381.4498
 349  249.6241
 350  183.7023
 351  244.0052
 352  345.8174
 353  334.0879
 354  278.4233
 355  293.4288
 356  348.9805
 357  419.8536
 358  387.8268
 359  320.8788
 360  288.1129
 361  345.6564
 362  436.0005
 363  413.1101
 364  404.2362
 365  479.9799
 366  529.8063
 367  465.7843
 368  255.5162
 369  162.992
 370  209.9535
 371  314.8137
 372  343.1999
 373  247.6175
 374  215.5382
 375  308.923
 376  464.1299
 377  476.4024
 378  361.3301
 379  343.4576
 380  313.031
 381  333.1876
 382  185.2822
 383  194.3811
 384  200.6615
 385  237.5682
 386  228.0875
 387  267.7542
 388  277.4279
 389  259.9968
 390  306.0456
 391  383.5204
 392  363.0078
 393  217.9506
 394  288.9875
 395  294.2824
 396  285.7347
 397  208.2024
 398  248.0561
 399  306.8514
 400  354.1115
 401  392.2422
 402  451.5667
 403  474.7136
 404  484.5909
 405  419.452
 406  306.6357
 407  337.2581
 408  396.3022
 409  495.0377
 410  435.1301
 411  235.5056
 412  159.5493
 413  121.0563
 414  269.1038
 415  266.6758
 416  304.9952
 417  286.3282
 418  364.191
 419  392.9984
 420  374.6232
 421  290.3439
 422  259.9786
 423  356.3283
 424  357.052
 425  307.189
 426  304.2519
 427  405.6161
 428  486.4445
 429  490.1905
 430  387.7644
 431  316.3043
 432  196.6205
 433  127.1158
 434  138.0974
 435  230.8656
 436  220.1667
 437  212.2305
 438  180.3398
 439  263.7556
 440  303.463
 441  400.7867
 442  354.6698
 443  271.3441
 444  260.2263
 445  344.7379
 446  391.8211
 447  334.6726
 448  311.0067
 449  282.2126
 450  373.1392
 451  387.1536
 452  356.7335
 453  236.1416
 454  203.0697
 455  214.2634
 456  257.336
 457  241.7721
 458  271.7477
 459  297.191
 460  432.3676
 461  390.6518
 462  367.7237
 463  355.3175
 464  380.6528
 465  310.4847
 466  294.1395
 467  327.8297
 468  378.0968
 469  409.92
 470  385.3471
 471  325.972
 472  280.335
 473  299.4575
 474  312.0045
 475  306.1922
 476  230.0176
 477  292.0861
 478  361.0258
 479  426.1427
 480  337.6813
 481  265.7465
 482  240.8778
 483  278.1439
 484  310.342
 485  342.8273
 486  348.3466
 487  248.065
 488  256.1456
 489  281.1419
 490  324.7633
 491  321.1169
 492  255.964
 493  212.8805
 494  114.2604
 495  133.7851
 496  269.5068
 497  298.901
 498  355.0771
 499  366.3028
 500  423.7603
 501  366.876
 502  302.2513
 503  359.8521
 504  320.7996
 505  254.2532
 506  225.5143
 507  280.2893
 508  288.1837
 509  221.5518
 510  204.8978
 511  323.663
 512  373.0781
 513  352.2835
 514  304.97
 515  215.6835
 516  314.2516
 517  323.8334
 518  383.9771
 519  215.719
 520  310.6033
 521  382.6916
 522  439.0002
 523  321.9407
 524  301.389
 525  361.5932
 526  369.4955
 527  318.0839
 528  167.4555
 529  194.8761
 530  275.8284
 531  307.3947
 532  347.141
 533  370.0388
 534  385.9173
 535  328.4633
 536  373.735
 537  310.9887
 538  299.1696
 539  201.1449
 540  237.1356
 541  271.8422
 542  402.4565
 543  454.8129
 544  395.8068
 545  318.2513
 546  344.8202
 547  307.4066
 548  290.5643
 549  249.1093
 550  278.6355
 551  322.4281
 552  327.0189
 553  341.6064
 554  298.0963
 555  331.1088
 556  367.2937
 557  314.5879
 558  252.5985
 559  224.7693
 560  379.0581
 561  423.459
 562  324.491
 563  208.7721
 564  198.2113
 565  157.3055
 566  231.0021
 567  268.4095
 568  363.0379
 569  396.733
 570  356.0079
 571  245.2857
 572  171.3938
 573  138.71
 574  201.6094
 575  219.7767
 576  316.255
 577  306.5805
 578  266.0906
 579  235.077
 580  225.6639
 581  240.6864
 582  274.1933
 583  318.0951
 584  336.1009
 585  308.7219
 586  299.802
 587  390.6245
 588  367.0583
 589  299.3389
 590  293.4976
 591  327.274
 592  374.5792
 593  343.0351
 594  343.0178
 595  391.046
 596  407.967
 597  358.5127
 598  356.5862
 599  321.9587
 600  313.7592
 601  255.5699
 602  319.2915
 603  352.9242
 604  332.6977
 605  252.3602
 606  182.729
 607  191.7642
 608  285.4995
 609  317.7661
 610  353.4586
 611  337.3904
 612  437.9007
 613  398.7603
 614  435.8539
 615  378.4945
 616  392.1591
 617  423.4111
 618  527.2134
 619  517.915
 620  474.5972
 621  409.0203
 622  457.0134
 623  524.7745
 624  544.1086
 625  528.6786
 626  462.6993
 627  573.5803
 628  644.7382
 629  709.4063
 630  680.463
 631  827.7307
 632  1096.343
 633  1309.039
 634  1343.736
 635  1284.255
 636  1229.851
 637  1236.49
 638  1129.248
 639  1035.23
 640  876.1907
 641  798.3306
 642  701.3205
 643  581.9844
 644  571.3386
 645  552.375
 646  561.7968
 647  540.254
 648  454.472
 649  472.6956
 650  493.4317
 651  565.7702
 652  446.4664
 653  412.4548
 654  373.6662
 655  419.9288
 656  359.5114
 657  396.652
 658  451.9542
 659  517.8502
 660  451.3651
 661  368.0274
 662  407.6024
 663  498.027
 664  519.5117
 665  443.5305
 666  339.3258
 667  234.8678
 668  164.6851
 669  190.4331
 670  256.3087
 671  307.934
 672  354.9508
 673  383.2364
 674  419.3112
 675  371.6564
 676  351.2702
 677  353.9596
 678  286.0589
 679  230.7315
 680  197.8309
 681  231.2061
 682  261.706
 683  363.0319
 684  473.6176
 685  437.1437
 686  429.5288
 687  468.8389
 688  474.4267
 689  390.994
 690  349.4315
 691  435.192
 692  483.1495
 693  488.9824
 694  508.9928
 695  454.3814
 696  338.5586
 697  325.8629
 698  376.8558
 699  447.9001
 700  465.7599
 701  541.9904
 702  415.1327
 703  395.2364
 704  313.593
 705  461.3897
 706  461.2817
 707  457.4132
 708  434.99
 709  446.6436
 710  478.0607
 711  392.2663
 712  408.4904
 713  402.3973
 714  545.4226
 715  619.1367
 716  605.0165
 717  471.2441
 718  493.5424
 719  526.8181
 720  482.5781
 721  390.3846
 722  366.7451
 723  451.0647
 724  374.6823
 725  381.8775
 726  326.6032
 727  382.6437
 728  381.4037
 729  580.8486
 730  641.8586
 731  623.4415
 732  448.8228
 733  372.0965
 734  224.1488
 735  193.5489
 736  243.5199
 737  326.0632
 738  401.8307
 739  310.1957
 740  227.2925
 741  246.0381
 742  322.9406
 743  495.2007
 744  542.1803
 745  489.459
 746  409.4392
 747  452.5327
 748  539.0258
 749  465.6956
 750  296.0576
 751  211.2903
 752  229.7986
 753  174.6544
 754  150.2828
 755  163.3716
 756  372.0536
 757  473.2267
 758  465.1196
 759  335.4496
 760  277.8001
 761  324.4919
 762  494.339
 763  490.7611
 764  408.3784
 765  274.4326
 766  164.2727
 767  175.8193
 768  264.8849
 769  397.0923
 770  441.282
 771  423.0885
 772  351.3593
 773  213.9319
 774  152.9358
 775  240.4837
 776  320.2188
 777  370.3087
 778  328.1644
 779  366.1125
 780  411.426
 781  390.4197
 782  381.412
 783  355.0424
 784  467.3783
 785  476.2767
 786  472.5332
 787  319.5025
 788  220.5124
 789  203.2473
 790  327.5646
 791  311.5264
 792  305.5383
 793  266.828
 794  363.7294
 795  352.0043
 796  346.497
 797  351.8524
 798  419.0234
 799  405.0139
 800  423.4598
 801  361.9181
 802  307.1187
 803  267.8347
 804  249.5379
 805  372.0322
 806  368.9282
 807  408.0389
 808  358.2554
 809  336.121
 810  316.8824
 811  303.3634
 812  430.1769
 813  433.4297
 814  368.8051
 815  313.1189
 816  325.4566
 817  411.792
 818  351.209
 819  318.8365
 820  312.1108
 821  433.4057
 822  452.2329
 823  459.3206
 824  310.8208
 825  200.2989
 826  127.4
 827  233.8448
 828  201.3813
 829  243.5857
 830  251.8012
 831  436.6432
 832  494.7051
 833  414.5311
 834  283.605
 835  195.1019
 836  194.1399
 837  177.341
 838  127.1555
 839  124.5566
 840  130.9952
 841  102.3468
 842  155.0648
 843  218.7822
 844  268.6866
 845  305.9232
 846  260.8377
 847  298.2606
 848  310.6779
 849  387.7952
 850  447.3577
 851  360.3468
 852  351.549
 853  375.6373
 854  383.2756
 855  396.0859
 856  434.1452
 857  433.7436
 858  367.284
 859  288.8784
 860  281.9804
 861  408.6147
 862  338.1277
 863  270.6849
 864  178.9803
 865  232.6915
 866  246.8549
 867  209.1599
 868  281.132
 869  284.3412
 870  369.3447
 871  341.4219
 872  332.4395
 873  307.3691
 874  296.1647
 875  277.022
 876  274.923
 877  329.2183
 878  326.5778
 879  261.0903
 880  299.2415
 881  417.7949
 882  361.9244
 883  279.6743
 884  219.2367
 885  231.0579
 886  233.918
 887  263.8261
 888  224.6157
 889  167.038
 890  161.549
 891  253.5572
 892  305.7796
 893  375.2508
 894  412.8665
 895  450.8846
 896  408.8436
 897  340.3903
 898  282.2861
 899  305.294
 900  371.3246
 901  384.6496
 902  350.9541
 903  337.26
 904  321.9058
 905  299.7331
 906  190.8504
 907  182.175
 908  207.958
 909  218.7086
 910  224.7831
 911  251.5422
 912  291.4086
 913  276.7188
 914  346.0479
 915  400.1034
 916  338.1369
 917  179.4153
 918  92.16229
 919  76.46206
 920  35.71484
 921  178.631
 922  228.8726
 923  329.4396
 924  228.0011
 925  281.8339
 926  326.669
 927  377.8398
 928  451.3927
 929  430.6989
 930  346.8563
 931  275.4073
 932  229.7113
 933  229.6525
 934  288.7882
 935  383.4361
 936  415.0923
 937  332.7126
 938  229.6211
 939  176.7907
 940  83.50337
 941  130.516
 942  257.002
 943  396.2447
 944  447.1058
 945  447.6689
 946  473.6864
 947  489.2237
 948  495.862
 949  485.5103
 950  492.0678
 951  391.6033
 952  371.8946
 953  327.3728
 954  393.5877
 955  415.7673
 956  365.5349
 957  340.2616
 958  253.9707
 959  257.1848
 960  243.9011
 961  266.7273
 962  309.9115
 963  366.1683
 964  338.5312
 965  242.1387
 966  292.3221
 967  413.1771
 968  422.6814
 969  271.4164
 970  211.1517
 971  266.5747
 972  272.353
 973  230.2424
 974  271.2731
 975  421.1006
 976  517.3377
 977  503.6824
 978  471.4737
 979  430.6526
 980  413.4266
 981  349.7451
 982  329.2001
 983  319.4473
 984  351.527
 985  348.1202
 986  399.8248
 987  358.3711
 988  376.8197
 989  303.1485
 990  350.0427
 991  447.2641
 992  529.6801
 993  409.5829
 994  271.6509
 995  241.0203
 996  267.0667
 997  259.3317
 998  309.7857
 999  337.1913
1000  328.4628
1001  332.2217
1002  369.0576
1003  361.3371
1004  349.5972
1005  299.548
1006  204.3318
1007  224.4824
1008  242.0665
1009  222.8794
1010  130.8322
1011  88.05582
1012  127.6433
1013  177.449
1014  223.0688
1015  314.8434
1016  281.7881
1017  262.8467
1018  233.9954
1019  247.1508
1020  245.8916
1021  104.966
1022  53.24617
1023  34.92037
