# Input file       =  1192243009.129000-PSRB0329-2ms-sampling-dd.dat
# Candidate        =  PSR_0332+5434
# Telescope        =  AR
# Epoch_topo       =  58043.109121863425
# Epoch_bary       =  N/A
# T_sample         =  0.002
# Data Folded      =  7340032
# Data Avg         =  1.82309935562605e-09
# Data StdDev      =  5.40972576920414 
# Profile Bins     =  512
# Profile Avg      =  -0.0459388732034216
# Profile StdDev   =  647.722892312449 
# Reduced chi-sqr  =  0.693
# Prob(Noise)      <  1   (~0.0 sigma)
# P_topo (ms)      =  714.483471025633  +/- 0.000114
# P'_topo (s/s)    =  -0                +/- 6.03e-11
# P''_topo (s/s^2) =  0                 +/- 2.66e-14
# P_bary (ms)      =  N/A
# P'_bary (s/s)    =  N/A
# P''_bary (s/s^2) =  N/A
# P_orb (s)        =  N/A
# asin(i)/c (s)    =  N/A
# eccentricity     =  N/A
# w (rad)          =  N/A
# T_peri           =  N/A
######################################################
   0  197.6977
   1  120.114
   2  -76.80089
   3  236.8621
   4  106.2835
   5  -244.0961
   6  -570.4833
   7  -591.1376
   8  57.79262
   9  272.9197
  10  50.13784
  11  -74.37792
  12  -327.338
  13  -744.5002
  14  -720.7505
  15  -635.4002
  16  -118.5829
  17  -212.8306
  18  -325.9021
  19  -131.6704
  20  -361.0279
  21  -634.5883
  22  -628.8935
  23  -436.6778
  24  -206.212
  25  -366.0026
  26  -264.3141
  27  148.9919
  28  -42.6598
  29  -351.2556
  30  -244.9579
  31  -610.9496
  32  -345.6202
  33  -500.1846
  34  59.70448
  35  -148.0671
  36  -482.0526
  37  -376.0243
  38  -376.5176
  39  -474.508
  40  -7.570603
  41  506.7872
  42  331.8757
  43  207.2982
  44  172.0793
  45  89.6865
  46  -467.3397
  47  -130.3058
  48  70.32276
  49  286.92
  50  527.751
  51  366.0804
  52  -152.9406
  53  -476.8074
  54  -205.7169
  55  63.22425
  56  -16.06115
  57  -204.1855
  58  89.47787
  59  166.7854
  60  132.0365
  61  628.2347
  62  488.9013
  63  73.75133
  64  -0.9715896
  65  -175.8087
  66  -102.1799
  67  -452.2148
  68  -428.486
  69  -463.8369
  70  139.9344
  71  -142.394
  72  -204.2278
  73  -145.6997
  74  -307.4745
  75  34.91566
  76  117.7683
  77  540.0933
  78  322.4108
  79  -19.5266
  80  -79.4052
  81  -102.3899
  82  261.7308
  83  420.526
  84  360.4045
  85  24.73135
  86  240.906
  87  361.9295
  88  332.8984
  89  361.8851
  90  250.9934
  91  598.0568
  92  669.6424
  93  502.4397
  94  157.0677
  95  290.2918
  96  496.8272
  97  455.8107
  98  279.3251
  99  209.9768
 100  291.8944
 101  334.1553
 102  478.6698
 103  455.6866
 104  388.2216
 105  120.3606
 106  160.2095
 107  139.39
 108  -259.6519
 109  156.8078
 110  369.0804
 111  634.5548
 112  229.428
 113  33.75932
 114  -122.8715
 115  115.0227
 116  388.2757
 117  536.7257
 118  333.0745
 119  377.7214
 120  316.3033
 121  10.10163
 122  -234.5139
 123  155.2348
 124  -107.3991
 125  161.2323
 126  449.1159
 127  247.7981
 128  672.6067
 129  398.7913
 130  283.1336
 131  108.7623
 132  341.3244
 133  340.3093
 134  17.32954
 135  43.47231
 136  261.274
 137  526.647
 138  448.5482
 139  204.0804
 140  -151.2055
 141  -251.5693
 142  -199.2599
 143  -173.5154
 144  432.3119
 145  -33.20257
 146  -344.1993
 147  -310.0792
 148  16.18139
 149  106.6443
 150  -218.8901
 151  -42.87025
 152  -129.5492
 153  190.2021
 154  204.1472
 155  326.794
 156  187.1234
 157  -222.8673
 158  -333.5998
 159  297.5677
 160  342.4988
 161  127.136
 162  81.24843
 163  207.2805
 164  -2.597837
 165  -358.5528
 166  -420.9376
 167  -480.8211
 168  222.5382
 169  366.8292
 170  539.2585
 171  239.4373
 172  81.11378
 173  -134.201
 174  -35.74186
 175  -338.5926
 176  188.1984
 177  424.8951
 178  41.27688
 179  -101.4617
 180  -441.4663
 181  -467.2513
 182  -458.6392
 183  -110.2683
 184  602.913
 185  1028.007
 186  747.5322
 187  145.892
 188  -269.1409
 189  -118.3448
 190  129.0473
 191  -3.79373
 192  -144.3939
 193  168.9946
 194  -74.57182
 195  -4.946725
 196  -297.2918
 197  32.52029
 198  32.40364
 199  218.1212
 200  216.7512
 201  301.7446
 202  559.9771
 203  299.8595
 204  489.0981
 205  638.1318
 206  230.333
 207  -77.08564
 208  20.74753
 209  -289.5255
 210  -295.5424
 211  -32.83729
 212  46.71814
 213  -19.19133
 214  -237.0935
 215  -172.7751
 216  -273.093
 217  131.0866
 218  336.6143
 219  219.4064
 220  189.7206
 221  -168.059
 222  -414.0249
 223  -313.3687
 224  -41.82119
 225  -58.18794
 226  94.87602
 227  314.9784
 228  -24.77997
 229  -521.8849
 230  -422.2622
 231  -412.9165
 232  188.6623
 233  318.1539
 234  77.68413
 235  50.12671
 236  -346.6591
 237  -63.29709
 238  -52.12374
 239  103.0398
 240  -8.90951
 241  -143.9043
 242  279.5921
 243  20.395
 244  145.1606
 245  -479.2852
 246  -274.3455
 247  -281.334
 248  -514.6981
 249  -636.9595
 250  -479.9029
 251  -284.4604
 252  -378.7079
 253  -175.7325
 254  -384.4764
 255  -245.2333
 256  -414.4998
 257  -393.1799
 258  -383.9529
 259  -142.4053
 260  146.2901
 261  138.4461
 262  25.24091
 263  -208.5617
 264  -70.80325
 265  123.5442
 266  -196.9212
 267  -180.0539
 268  -350.6068
 269  578.903
 270  293.7349
 271  -99.89285
 272  -186.1768
 273  189.8383
 274  -135.4062
 275  -359.3072
 276  -74.36024
 277  81.88658
 278  68.94627
 279  33.85898
 280  -86.1759
 281  20.92931
 282  -29.63296
 283  306.7019
 284  303.2659
 285  277.901
 286  133.1395
 287  -293.0246
 288  -229.9868
 289  -134.065
 290  24.00506
 291  1167.351
 292  1142.806
 293  610.6351
 294  126.8202
 295  -273.433
 296  43.44446
 297  431.3385
 298  829.8859
 299  1256.727
 300  1047.706
 301  1046.847
 302  907.8651
 303  365.1538
 304  650.4148
 305  923.9161
 306  950.9431
 307  398.8116
 308  423.5776
 309  187.6656
 310  -54.15185
 311  355.2912
 312  286.1622
 313  701.8207
 314  845.5941
 315  605.5158
 316  138.34
 317  -3.947181
 318  316.0853
 319  457.8131
 320  901.3898
 321  1736.539
 322  1772.752
 323  1608.285
 324  1316.911
 325  713.7804
 326  116.7377
 327  -287.972
 328  -401.0072
 329  -265.2284
 330  122.2764
 331  108.9198
 332  -52.51
 333  255.3298
 334  161.3744
 335  105.8985
 336  -103.8928
 337  105.385
 338  307.959
 339  281.8861
 340  235.6092
 341  162.5462
 342  204.6838
 343  218.5118
 344  302.7726
 345  576.8478
 346  93.72974
 347  20.91434
 348  18.98494
 349  11.77582
 350  -263.6085
 351  -138.05
 352  140.2987
 353  -151.9991
 354  -439.4171
 355  -372.8536
 356  -93.30556
 357  -236.3506
 358  -156.5867
 359  -178.576
 360  -198.82
 361  -471.7791
 362  -386.0463
 363  151.3042
 364  -6.240356
 365  -72.33898
 366  3.974744
 367  -134.5206
 368  -561.7387
 369  -493.9106
 370  213.0172
 371  328.6211
 372  237.3353
 373  424.5223
 374  172.4184
 375  -253.1902
 376  -581.856
 377  -317.845
 378  -23.82219
 379  -91.47113
 380  425.4837
 381  174.324
 382  14.34998
 383  -279.0797
 384  -635.5171
 385  -553.595
 386  -288.7795
 387  307.3896
 388  299.4962
 389  547.8599
 390  253.8786
 391  133.6412
 392  -243.3322
 393  -421.0988
 394  -246.8882
 395  -286.5294
 396  -48.31195
 397  -117.6542
 398  -94.32621
 399  -231.5489
 400  -604.7386
 401  -804.3853
 402  -300.5745
 403  90.46911
 404  385.2593
 405  385.5512
 406  409.061
 407  310.8304
 408  35.70153
 409  -321.6121
 410  -417.7686
 411  -158.2512
 412  373.6637
 413  436.9161
 414  298.174
 415  130.0452
 416  -440.2349
 417  -399.8466
 418  -551.2825
 419  -98.18978
 420  139.3648
 421  56.94067
 422  55.08915
 423  46.99811
 424  -72.42668
 425  -166.4633
 426  -490.8791
 427  -411.3046
 428  -223.0591
 429  -311.8444
 430  -626.4173
 431  -492.6018
 432  -266.5589
 433  -340.758
 434  -545.7781
 435  -678.0555
 436  -765.5484
 437  -287.5863
 438  19.5539
 439  -55.75893
 440  158.3128
 441  45.09161
 442  -364.769
 443  -525.9393
 444  -168.2073
 445  148.9797
 446  57.95084
 447  188.9334
 448  -229.0302
 449  -454.363
 450  -592.7466
 451  -941.553
 452  -849.1373
 453  -571.9629
 454  -336.0547
 455  -134.9295
 456  -49.22724
 457  -231.6172
 458  -544.9561
 459  -638.4261
 460  -586.6159
 461  -841.0265
 462  -1051.813
 463  -686.3972
 464  -8.419668
 465  -266.5717
 466  -125.0932
 467  -459.5176
 468  -759.6134
 469  -953.7079
 470  -462.0119
 471  -305.7737
 472  -180.0914
 473  55.41022
 474  -85.8745
 475  -370.6056
 476  -377.2254
 477  -183.5017
 478  63.80716
 479  520.6237
 480  607.6142
 481  151.9695
 482  -407.5482
 483  -615.7614
 484  -667.9689
 485  -440.8862
 486  113.0972
 487  272.7691
 488  364.356
 489  107.1708
 490  8.614181
 491  -330.9289
 492  -603.1364
 493  -521.5041
 494  -380.3708
 495  -341.7075
 496  -515.1058
 497  -170.1866
 498  -130.0857
 499  -521.3781
 500  -189.8443
 501  -358.3611
 502  -231.5766
 503  106.2481
 504  245.2083
 505  -191.2337
 506  -96.02115
 507  35.13141
 508  -169.7802
 509  75.88635
 510  123.6143
 511  51.73712
