# Input file       =  1192643699.13104_cleaned.dat
# Candidate        =  PSR_0332+5434
# Telescope        =  AR
# Epoch_topo       =  58047.746737627778
# Epoch_bary       =  N/A
# T_sample         =  0.002
# Data Folded      =  7143424
# Data Avg         =  0.0267488856804581
# Data StdDev      =  1.00003686943597 
# Profile Bins     =  512
# Profile Avg      =  373.202296452833 
# Profile StdDev   =  118.122939447455 
# Reduced chi-sqr  =  1.452
# Prob(Noise)      <  8.88e-11   (~6.4 sigma)
# P_topo (ms)      =  714.486780281652  +/- 0.000261
# P'_topo (s/s)    =  -0                +/- 1.41e-10
# P''_topo (s/s^2) =  0                 +/- 6.41e-14
# P_bary (ms)      =  N/A
# P'_bary (s/s)    =  N/A
# P''_bary (s/s^2) =  N/A
# P_orb (s)        =  N/A
# asin(i)/c (s)    =  N/A
# eccentricity     =  N/A
# w (rad)          =  N/A
# T_peri           =  N/A
######################################################
   0  1115.431
   1  1039.092
   2  798.8602
   3  708.5146
   4  502.5735
   5  342.5693
   6  228.8258
   7  253.6505
   8  271.7576
   9  306.628
  10  397.6642
  11  457.2866
  12  439.3987
  13  434.17
  14  468.4731
  15  335.979
  16  357.3966
  17  287.1829
  18  353.8963
  19  306.1741
  20  234.1296
  21  272.8231
  22  239.4532
  23  399.4968
  24  411.2925
  25  411.1385
  26  382.3706
  27  343.339
  28  328.5017
  29  442.1578
  30  344.8171
  31  406.3256
  32  363.0432
  33  393.5235
  34  367.0121
  35  415.9155
  36  428.2559
  37  264.9967
  38  252.3748
  39  258.3372
  40  298.6842
  41  269.7672
  42  192.2459
  43  267.7935
  44  195.9158
  45  362.9783
  46  395.3047
  47  273.9189
  48  283.1948
  49  307.1396
  50  269.2716
  51  405.5195
  52  368.0464
  53  385.1848
  54  432.8744
  55  333.1504
  56  319.7687
  57  278.492
  58  349.0939
  59  379.9053
  60  356.2265
  61  483.9109
  62  327.9658
  63  236.9282
  64  241.4361
  65  177.0421
  66  327.9581
  67  424.5777
  68  378.912
  69  332.5618
  70  349.1021
  71  396.5373
  72  365.1129
  73  350.4256
  74  356.7636
  75  387.6061
  76  368.605
  77  523.5599
  78  455.3283
  79  403.5424
  80  369.1371
  81  457.5354
  82  476.2418
  83  421.9948
  84  454.9102
  85  367.6033
  86  290.1246
  87  273.1779
  88  384.1868
  89  488.1367
  90  393.8334
  91  297.3225
  92  331.6482
  93  312.1686
  94  318.1586
  95  424.1538
  96  352.2519
  97  303.6828
  98  352.5972
  99  359.4012
 100  405.4112
 101  415.0178
 102  438.9677
 103  397.4744
 104  299.9402
 105  417.7552
 106  370.6145
 107  403.9675
 108  380.1114
 109  369.7265
 110  486.0463
 111  450.5764
 112  319.3788
 113  381.5343
 114  260.8878
 115  343.8206
 116  378.631
 117  285.5637
 118  294.8997
 119  218.4932
 120  355.0489
 121  300.6717
 122  219.0133
 123  303.2046
 124  473.1336
 125  453.8469
 126  288.4359
 127  347.9485
 128  253.7141
 129  228.5246
 130  291.0457
 131  444.4144
 132  311.9723
 133  366.7184
 134  443.8505
 135  293.2904
 136  283.5946
 137  401.8203
 138  436.1394
 139  387.5497
 140  351.6316
 141  292.8006
 142  307.2136
 143  361.6183
 144  407.9491
 145  285.692
 146  355.812
 147  351.5445
 148  327.1346
 149  306.2953
 150  232.6306
 151  296.3957
 152  389.1454
 153  271.1059
 154  217.942
 155  224.6155
 156  377.9198
 157  316.9945
 158  365.2118
 159  424.8322
 160  438.9135
 161  460.5555
 162  459.1032
 163  385.3753
 164  322.7799
 165  393.1341
 166  309.7949
 167  292.8042
 168  374.0602
 169  319.0774
 170  247.7537
 171  261.0078
 172  360.5959
 173  353.0753
 174  488.32
 175  510.7693
 176  409.0529
 177  279.8822
 178  365.5091
 179  513.1425
 180  458.9227
 181  452.2405
 182  459.1638
 183  296.9591
 184  307.7894
 185  526.1871
 186  429.1783
 187  419.7468
 188  415.4859
 189  461.7412
 190  557.0738
 191  408.8344
 192  303.837
 193  302.342
 194  429.4513
 195  536.9276
 196  507.5063
 197  541.8937
 198  444.4221
 199  475.1407
 200  421.6304
 201  261.5764
 202  330.3123
 203  289.842
 204  408.9667
 205  490.8178
 206  405.8139
 207  367.7651
 208  336.8369
 209  322.4103
 210  315.4575
 211  368.4483
 212  418.0341
 213  379.1128
 214  517.5212
 215  425.3179
 216  300.8863
 217  330.3246
 218  273.5576
 219  210.7338
 220  385.8975
 221  454.2224
 222  433.9972
 223  291.7308
 224  364.0715
 225  353.7441
 226  298.8487
 227  330.7015
 228  271.9515
 229  162.1606
 230  198.7779
 231  124.6349
 232  210.1121
 233  167.7419
 234  440.0056
 235  442.7423
 236  344.2258
 237  253.6496
 238  248.8941
 239  392.1398
 240  378.2978
 241  397.9323
 242  403.366
 243  339.2852
 244  386.2826
 245  346.4209
 246  241.6653
 247  174.7608
 248  219.1588
 249  357.9475
 250  324.2845
 251  318.9579
 252  331.7536
 253  338.1102
 254  355.907
 255  390.0697
 256  517.9767
 257  362.6085
 258  320.891
 259  368.7647
 260  271.9852
 261  473.515
 262  429.4006
 263  337.7907
 264  230.0529
 265  347.5952
 266  442.0112
 267  347.6735
 268  446.3241
 269  356.6906
 270  372.3006
 271  398.6749
 272  404.4482
 273  326.0121
 274  352.1594
 275  430.4414
 276  419.2885
 277  408.666
 278  393.506
 279  373.8865
 280  374.0028
 281  277.8071
 282  100.6397
 283  293.0616
 284  341.4509
 285  363.5667
 286  300.9314
 287  329.7553
 288  309.8905
 289  342.4883
 290  311.5451
 291  351.9083
 292  487.8236
 293  429.1685
 294  305.7325
 295  361.4509
 296  371.6147
 297  293.0709
 298  264.8323
 299  268.886
 300  278.4892
 301  290.1523
 302  311.0951
 303  378.0298
 304  351.9323
 305  513.9647
 306  563.0782
 307  483.5238
 308  345.7696
 309  312.0276
 310  321.3677
 311  306.8639
 312  299.8149
 313  372.1383
 314  373.4308
 315  263.5295
 316  303.575
 317  281.7749
 318  333.2296
 319  470.0865
 320  354.8168
 321  311.5904
 322  278.4523
 323  282.0846
 324  395.0508
 325  465.3134
 326  426.8959
 327  335.9803
 328  366.7448
 329  405.3739
 330  419.8957
 331  408.4137
 332  439.8344
 333  403.4823
 334  383.1566
 335  302.2287
 336  459.4157
 337  558.1953
 338  362.139
 339  379.5149
 340  459.3348
 341  558.1778
 342  531.311
 343  359.772
 344  185.2083
 345  337.1626
 346  493.9409
 347  502.1719
 348  440.5131
 349  470.8196
 350  388.8457
 351  311.0181
 352  361.1218
 353  341.1078
 354  369.921
 355  364.8759
 356  440.2248
 357  462.702
 358  358.4176
 359  359.7402
 360  372.2139
 361  275.5446
 362  235.9921
 363  332.9206
 364  401.5222
 365  330.4093
 366  322.4684
 367  371.5371
 368  270.3483
 369  378.7782
 370  471.295
 371  495.8183
 372  317.1086
 373  411.093
 374  394.9539
 375  374.7847
 376  499.0255
 377  244.1486
 378  305.0323
 379  225.1807
 380  313.1187
 381  393.7182
 382  380.5658
 383  404.1054
 384  276.9742
 385  211.3748
 386  236.983
 387  341.8898
 388  242.853
 389  342.9837
 390  449.0731
 391  429.0182
 392  492.7951
 393  351.1938
 394  423.0488
 395  373.0814
 396  342.2708
 397  380.8315
 398  319.7168
 399  248.3931
 400  331.2918
 401  389.7591
 402  332.6414
 403  316.8883
 404  357.3528
 405  431.2072
 406  415.7404
 407  346.6622
 408  463.5471
 409  522.2426
 410  491.198
 411  465.883
 412  333.0895
 413  325.1319
 414  443.4709
 415  385.019
 416  318.7834
 417  395.5802
 418  222.2419
 419  352.8242
 420  242.5448
 421  238.0621
 422  273.9436
 423  311.3211
 424  313.2853
 425  289.8929
 426  353.1315
 427  495.3824
 428  325.544
 429  354.7747
 430  325.8283
 431  277.5833
 432  328.6278
 433  419.4928
 434  324.9121
 435  267.422
 436  306.2484
 437  401.7383
 438  439.9846
 439  332.825
 440  257.1346
 441  288.7
 442  388.1472
 443  304.5877
 444  311.2754
 445  463.2068
 446  541.0138
 447  487.7982
 448  404.2568
 449  447.1707
 450  435.0308
 451  343.1177
 452  357.3012
 453  434.538
 454  496.4937
 455  371.5707
 456  370.5871
 457  495.0631
 458  420.2833
 459  323.435
 460  315.9228
 461  440.4572
 462  329.1178
 463  381.8975
 464  515.1982
 465  534.1035
 466  497.7128
 467  416.9192
 468  429.715
 469  529.9983
 470  451.5234
 471  443.6141
 472  352.7142
 473  410.6148
 474  515.1738
 475  465.4281
 476  436.5471
 477  334.2248
 478  347.8462
 479  473.9229
 480  404.0866
 481  283.5024
 482  243.6686
 483  318.2065
 484  292.3785
 485  369.816
 486  503.0331
 487  518.5511
 488  348.5751
 489  471.8338
 490  424.6663
 491  476.5857
 492  384.358
 493  396.6554
 494  440.6781
 495  395.7241
 496  374.8618
 497  357.2379
 498  506.8502
 499  514.408
 500  422.1223
 501  442.7812
 502  383.336
 503  484.9497
 504  452.7655
 505  391.904
 506  372.8135
 507  523.5923
 508  599.5839
 509  596.9728
 510  862.695
 511  1106.571
