# Input file       =  1192658309.14104_cleaned.dat
# Candidate        =  PSR_0332+5434
# Telescope        =  AR
# Epoch_topo       =  58047.915834965745
# Epoch_bary       =  N/A
# T_sample         =  0.002
# Data Folded      =  7340032
# Data Avg         =  0.0258240400871728
# Data StdDev      =  2.03832293666647 
# Profile Bins     =  512
# Profile Avg      =  370.184850889868 
# Profile StdDev   =  244.054594323483 
# Reduced chi-sqr  =  1.764
# Prob(Noise)      <  5.03e-24   (~10.0 sigma)
# P_topo (ms)      =  714.486931639023  +/- 0.000199
# P'_topo (s/s)    =  -0                +/- 1.05e-10
# P''_topo (s/s^2) =  0                 +/- 4.63e-14
# P_bary (ms)      =  N/A
# P'_bary (s/s)    =  N/A
# P''_bary (s/s^2) =  N/A
# P_orb (s)        =  N/A
# asin(i)/c (s)    =  N/A
# eccentricity     =  N/A
# w (rad)          =  N/A
# T_peri           =  N/A
######################################################
   0  348.5011
   1  191.7061
   2  359.7149
   3  428.0132
   4  394.0772
   5  504.1195
   6  403.7809
   7  308.2871
   8  198.0138
   9  273.3847
  10  352.7659
  11  386.345
  12  562.0706
  13  671.5792
  14  613.3071
  15  861.5842
  16  1093.656
  17  1555.555
  18  2101.025
  19  2410.937
  20  2355.993
  21  1825.999
  22  1013.641
  23  502.4131
  24  435.5248
  25  578.5837
  26  477.2799
  27  219.1505
  28  105.0586
  29  411.4667
  30  649.3076
  31  506.4527
  32  481.7684
  33  472.7471
  34  307.6501
  35  182.3746
  36  246.8427
  37  377.1618
  38  383.4019
  39  450.5121
  40  432.4698
  41  309.9927
  42  285.7548
  43  -4.96055
  44  294.7233
  45  464.4542
  46  442.6319
  47  399.7265
  48  38.98456
  49  199.5139
  50  501.0636
  51  406.8013
  52  525.3553
  53  480.6383
  54  299.1468
  55  222.9982
  56  4.006037
  57  103.8689
  58  214.0552
  59  278.1487
  60  329.5353
  61  324.5783
  62  327.589
  63  543.4872
  64  636.8916
  65  475.3708
  66  230.5271
  67  362.8427
  68  359.5527
  69  238.4746
  70  377.378
  71  197.0828
  72  233.9619
  73  411.3935
  74  250.8061
  75  517.1471
  76  441.7646
  77  214.8982
  78  375.4079
  79  256.6601
  80  354.2252
  81  130.3359
  82  270.1421
  83  214.9649
  84  73.31408
  85  313.3817
  86  -82.19399
  87  -128.5547
  88  -17.19325
  89  182.8626
  90  50.06449
  91  270.7569
  92  405.9125
  93  410.3132
  94  217.1093
  95  344.8777
  96  347.2138
  97  109.5995
  98  4.756925
  99  118.5125
 100  323.1686
 101  450.0628
 102  374.8068
 103  335.1078
 104  88.48528
 105  406.3456
 106  261.2705
 107  36.44331
 108  200.6383
 109  474.3255
 110  329.4685
 111  522.087
 112  277.4188
 113  171.3108
 114  54.71008
 115  156.8451
 116  380.9811
 117  313.5278
 118  269.8371
 119  102.995
 120  238.4055
 121  190.6355
 122  216.1096
 123  236.09
 124  354.114
 125  297.3959
 126  393.0432
 127  328.9102
 128  228.4209
 129  135.7774
 130  46.73177
 131  266.6826
 132  429.7177
 133  383.3325
 134  3.40908
 135  -0.2284418
 136  317.6742
 137  472.7598
 138  580.6879
 139  340.2239
 140  477.0407
 141  513.5659
 142  119.7072
 143  211.458
 144  189.3031
 145  271.647
 146  138.7829
 147  122.6925
 148  47.28362
 149  487.0776
 150  600.7316
 151  497.8183
 152  471.5894
 153  390.7259
 154  319.397
 155  143.8037
 156  546.0099
 157  494.8011
 158  100.8795
 159  295.2518
 160  470.6145
 161  406.3101
 162  229.1914
 163  303.7713
 164  438.9933
 165  427.8545
 166  510.7826
 167  258.954
 168  322.2079
 169  460.4416
 170  522.1207
 171  261.1912
 172  150.5617
 173  239.3444
 174  273.4339
 175  247.4767
 176  266.9498
 177  357.6388
 178  255.032
 179  251.7855
 180  476.5356
 181  517.3904
 182  467.1631
 183  197.1768
 184  361.6214
 185  446.0255
 186  389.0414
 187  397.7969
 188  402.2637
 189  333.2296
 190  226.5095
 191  188.2159
 192  448.2538
 193  427.7697
 194  413.405
 195  125.1328
 196  121.9539
 197  534.9722
 198  583.3851
 199  370.7336
 200  317.0377
 201  269.6293
 202  412.8022
 203  318.1203
 204  198.8974
 205  128.2304
 206  108.5819
 207  181.5907
 208  281.5982
 209  164.614
 210  345.3972
 211  469.2293
 212  238.892
 213  287.8983
 214  365.0791
 215  224.5902
 216  503.6293
 217  575.3136
 218  297.1003
 219  498.064
 220  404.5469
 221  297.6528
 222  49.10529
 223  321.9944
 224  556.0426
 225  106.6979
 226  289.3436
 227  391.725
 228  349.245
 229  591.0777
 230  471.1552
 231  658.0703
 232  451.4433
 233  526.2945
 234  419.4022
 235  75.68239
 236  74.83814
 237  531.9257
 238  612.9126
 239  345.3426
 240  302.0165
 241  552.4548
 242  388.0271
 243  284.7019
 244  413.9572
 245  485.5158
 246  490.4882
 247  752.8076
 248  742.7275
 249  704.8469
 250  414.3069
 251  164.0078
 252  301.5132
 253  149.7222
 254  159.487
 255  91.34695
 256  358.5309
 257  441.9247
 258  482.2496
 259  566.9619
 260  838.9331
 261  342.659
 262  415.7124
 263  332.2373
 264  567.4166
 265  587.9156
 266  559.212
 267  622.7676
 268  485.4086
 269  477.8205
 270  400.1468
 271  459.9988
 272  471.119
 273  584.1105
 274  282.6105
 275  437.1486
 276  363.5321
 277  270.286
 278  432.2194
 279  215.7529
 280  64.20495
 281  243.817
 282  534.0897
 283  456.5934
 284  469.1383
 285  370.3902
 286  321.6896
 287  253.7078
 288  613.4368
 289  504.5417
 290  492.1663
 291  483.0703
 292  510.1042
 293  446.7912
 294  411.2803
 295  418.2596
 296  189.5103
 297  173.2133
 298  404.6144
 299  213.8024
 300  355.5573
 301  363.3206
 302  170.7104
 303  265.0437
 304  188.9749
 305  466.1202
 306  406.618
 307  320.4893
 308  385.9977
 309  268.9818
 310  236.1855
 311  270.422
 312  351.6042
 313  219.9456
 314  109.1019
 315  155.0973
 316  434.6892
 317  330.8291
 318  480.7812
 319  458.0818
 320  537.3825
 321  586.4622
 322  347.1538
 323  370.2662
 324  567.3627
 325  431.1208
 326  440.957
 327  337.1565
 328  465.0567
 329  159.8278
 330  204.2932
 331  489.7084
 332  511.7144
 333  489.8479
 334  285.9012
 335  179.4682
 336  134.0642
 337  230.0442
 338  392.4339
 339  726.524
 340  473.7224
 341  341.0132
 342  427.0408
 343  286.4261
 344  225.2562
 345  212.1184
 346  196.8163
 347  344.9668
 348  275.9662
 349  272.662
 350  559.6205
 351  389.1302
 352  248.4648
 353  269.7292
 354  384.6589
 355  126.6502
 356  104.4389
 357  376.1458
 358  473.315
 359  296.9359
 360  418.115
 361  441.2021
 362  414.0959
 363  155.3143
 364  189.9501
 365  520.0016
 366  568.0381
 367  162.5487
 368  146.7453
 369  270.6004
 370  496.5117
 371  383.2911
 372  273.7682
 373  403.1634
 374  497.377
 375  239.2138
 376  66.18788
 377  419.5487
 378  233.5269
 379  322.3017
 380  418.851
 381  651.2026
 382  576.7661
 383  118.206
 384  211.2232
 385  461.7076
 386  378.0023
 387  303.2071
 388  365.8321
 389  347.4091
 390  422.2396
 391  425.133
 392  333.9524
 393  383.1785
 394  216.913
 395  504.8876
 396  500.4185
 397  657.2466
 398  354.513
 399  210.9949
 400  152.6226
 401  596.425
 402  460.6137
 403  492.0944
 404  65.55046
 405  368.0089
 406  282.3327
 407  309.3214
 408  402.0059
 409  250.3445
 410  332.3226
 411  134.8347
 412  254.6848
 413  302.4748
 414  61.11143
 415  458.7316
 416  319.5222
 417  341.9619
 418  187.5741
 419  131.9668
 420  318.1832
 421  205.2788
 422  247.7157
 423  489.4664
 424  390.4141
 425  291.8287
 426  221.5854
 427  237.9703
 428  564.3079
 429  369.3952
 430  377.3307
 431  332.5118
 432  258.729
 433  254.0401
 434  235.753
 435  386.6116
 436  569.1812
 437  197.4665
 438  105.5364
 439  255.2379
 440  293.1477
 441  334.7757
 442  376.6195
 443  479.3093
 444  448.5563
 445  487.3214
 446  223.6996
 447  425.8517
 448  632.7435
 449  562.3711
 450  687.3228
 451  464.0516
 452  377.8474
 453  543.4045
 454  226.5682
 455  190.6865
 456  114.5581
 457  329.4159
 458  440.6046
 459  349.3087
 460  158.212
 461  86.58544
 462  127.8489
 463  247.161
 464  302.8142
 465  588.0344
 466  399.9158
 467  178.6493
 468  452.6106
 469  479.9581
 470  590.7562
 471  799.9152
 472  640.9543
 473  567.5865
 474  368.2706
 475  250.5565
 476  433.515
 477  361.4875
 478  537.3847
 479  584.7861
 480  328.7396
 481  350.6975
 482  249.2738
 483  270.8438
 484  534.8439
 485  435.2652
 486  331.69
 487  463.8973
 488  515.1845
 489  384.7609
 490  498.3654
 491  501.975
 492  591.6837
 493  671.5881
 494  717.7025
 495  416.0246
 496  219.8817
 497  493.7555
 498  278.5502
 499  242.5395
 500  507.529
 501  552.063
 502  555.3273
 503  560.3651
 504  646.6434
 505  504.3982
 506  373.6235
 507  233.2975
 508  374.8434
 509  169.3966
 510  201.4461
 511  337.251
