# Input file       =  1192931700.156139_cleaned.dat
# Candidate        =  PSR_0332+5434
# Telescope        =  AR
# Epoch_topo       =  58051.080082825683
# Epoch_bary       =  N/A
# T_sample         =  0.002
# Data Folded      =  7340032
# Data Avg         =  0.0442181480871763
# Data StdDev      =  2.58419716782106 
# Profile Bins     =  512
# Profile Avg      =  633.940862342412 
# Profile StdDev   =  309.413773499455 
# Reduced chi-sqr  =  1.295
# Prob(Noise)      <  7.22e-06   (~4.3 sigma)
# P_topo (ms)      =  714.489918197784  +/- 0.000147
# P'_topo (s/s)    =  -0                +/- 7.75e-11
# P''_topo (s/s^2) =  0                 +/- 3.42e-14
# P_bary (ms)      =  N/A
# P'_bary (s/s)    =  N/A
# P''_bary (s/s^2) =  N/A
# P_orb (s)        =  N/A
# asin(i)/c (s)    =  N/A
# eccentricity     =  N/A
# w (rad)          =  N/A
# T_peri           =  N/A
######################################################
   0  690.9913
   1  591.9152
   2  398.4238
   3  303.3454
   4  585.6476
   5  698.8178
   6  606.751
   7  540.5156
   8  759.9557
   9  379.5613
  10  624.7587
  11  353.0067
  12  464.1144
  13  577.4077
  14  680.7354
  15  691.5183
  16  741.6342
  17  645.4666
  18  502.5569
  19  454.6198
  20  788.3615
  21  946.6329
  22  675.7823
  23  819.7985
  24  800.9019
  25  412.6909
  26  877.0271
  27  804.3112
  28  489.0857
  29  364.5523
  30  805.4405
  31  1260.696
  32  1048.95
  33  594.1465
  34  350.5341
  35  178.9231
  36  125.9999
  37  142.9595
  38  455.7577
  39  716.0583
  40  421.6815
  41  780.2928
  42  623.8703
  43  559.4908
  44  794.5947
  45  887.0533
  46  802.123
  47  491.146
  48  378.5885
  49  392.8896
  50  456.3424
  51  408.1686
  52  489.8737
  53  477.3396
  54  935.4714
  55  648.8398
  56  579.6868
  57  785.9387
  58  529.7262
  59  514.7974
  60  643.392
  61  440.7313
  62  536.3992
  63  744.9843
  64  518.4158
  65  435.3573
  66  421.6735
  67  614.6802
  68  700.5824
  69  757.027
  70  548.7154
  71  657.567
  72  707.548
  73  651.0178
  74  485.7693
  75  439.6056
  76  570.8303
  77  575.561
  78  1059.252
  79  625.539
  80  448.5065
  81  535.7415
  82  481.1842
  83  793.9843
  84  517.3215
  85  629.8712
  86  887.6317
  87  654.9098
  88  301.7595
  89  465.5605
  90  987.4272
  91  1119.274
  92  628.6152
  93  291.9688
  94  465.106
  95  569.4612
  96  224.1835
  97  452.7539
  98  691.8517
  99  615.6569
 100  663.6396
 101  622.1833
 102  438.6667
 103  270.9781
 104  258.5624
 105  369.4725
 106  585.7684
 107  303.1337
 108  202.3316
 109  397.4341
 110  732.173
 111  836.0095
 112  906.3176
 113  527.5186
 114  210.8851
 115  74.01043
 116  274.4981
 117  550.4913
 118  890.8718
 119  937.1786
 120  571.5813
 121  350.669
 122  551.2979
 123  575.0933
 124  556.0949
 125  680.5116
 126  761.2803
 127  962.2101
 128  867.739
 129  798.0496
 130  953.9858
 131  1017.758
 132  935.1112
 133  878.9932
 134  812.6323
 135  982.2931
 136  1565.689
 137  2081.896
 138  2319.598
 139  2460.448
 140  2521.65
 141  1563.421
 142  999.8652
 143  1009.209
 144  750.8411
 145  554.9758
 146  475.9685
 147  653.8041
 148  947.6578
 149  1113.499
 150  851.8821
 151  678.2431
 152  557.9174
 153  692.178
 154  806.9027
 155  611.1939
 156  496.5056
 157  549.4713
 158  350.0909
 159  353.2936
 160  509.0871
 161  748.9183
 162  913.6284
 163  589.628
 164  545.7849
 165  486.9516
 166  107.1422
 167  524.1551
 168  502.4573
 169  454.9066
 170  338.503
 171  428.3225
 172  763.2099
 173  534.8408
 174  470.2888
 175  608.2557
 176  504.584
 177  471.5936
 178  646.1055
 179  844.3384
 180  725.3184
 181  648.8436
 182  695.5258
 183  853.636
 184  702.1186
 185  536.0579
 186  411.4762
 187  663.28
 188  960.6669
 189  858.3239
 190  718.054
 191  449.2991
 192  735.8766
 193  535.0132
 194  560.6636
 195  794.5867
 196  889.04
 197  694.5341
 198  801.4177
 199  816.736
 200  815.0131
 201  689.5634
 202  854.0088
 203  789.0914
 204  612.9109
 205  908.6208
 206  638.8884
 207  550.6219
 208  726.1077
 209  688.7695
 210  516.3926
 211  256.0562
 212  131.892
 213  459.8815
 214  503.3872
 215  506.9791
 216  818.8047
 217  788.328
 218  792.137
 219  620.4191
 220  792.0896
 221  739.3473
 222  608.352
 223  435.1137
 224  588.5084
 225  542.2764
 226  653.4248
 227  497.252
 228  472.2479
 229  593.2755
 230  758.3033
 231  730.4631
 232  577.2556
 233  573.4316
 234  448.2562
 235  260.3486
 236  459.3925
 237  322.7671
 238  411.8987
 239  578.0224
 240  665.6318
 241  715.9576
 242  189.9693
 243  471.2636
 244  828.3766
 245  1057.915
 246  630.246
 247  394.9106
 248  698.4609
 249  890.7461
 250  605.3196
 251  506.2756
 252  451.544
 253  605.2643
 254  799.7768
 255  503.1486
 256  452.1686
 257  271.2935
 258  626.0329
 259  536.6891
 260  458.5624
 261  511.8617
 262  476.3104
 263  751.5189
 264  524.3853
 265  692.8915
 266  847.9185
 267  711.5392
 268  658.6123
 269  680.6725
 270  739.4141
 271  756.2921
 272  794.1882
 273  755.5734
 274  583.5184
 275  180.8603
 276  131.8206
 277  203.1048
 278  445.8608
 279  735.6113
 280  1182.144
 281  962.6857
 282  756.1638
 283  711.7603
 284  832.774
 285  725.0746
 286  651.324
 287  807.7278
 288  801.5978
 289  607.2245
 290  747.491
 291  672.705
 292  515.1708
 293  733.765
 294  676.247
 295  684.5753
 296  815.0643
 297  642.2517
 298  465.0583
 299  753.9806
 300  798.3701
 301  540.3174
 302  491.481
 303  638.1138
 304  799.6927
 305  520.7953
 306  435.3189
 307  399.343
 308  486.0009
 309  696.175
 310  509.7695
 311  509.4175
 312  311.5935
 313  630.2518
 314  686.2352
 315  561.3861
 316  593.5862
 317  622.257
 318  670.149
 319  422.8506
 320  608.7733
 321  683.6474
 322  779.4203
 323  822.2471
 324  658.587
 325  434.4765
 326  351.9079
 327  279.6413
 328  348.6602
 329  795.2423
 330  689.4944
 331  714.8487
 332  815.286
 333  559.1155
 334  413.4716
 335  620.9631
 336  624.2783
 337  888.8525
 338  923.3304
 339  696.1996
 340  379.9118
 341  374.0872
 342  536.7639
 343  537.1687
 344  652.2177
 345  609.6647
 346  734.467
 347  769.9407
 348  440.8212
 349  850.8511
 350  1090.737
 351  734.0218
 352  971.683
 353  767.1646
 354  731.6317
 355  417.2636
 356  314.6583
 357  516.9261
 358  933.4213
 359  908.6396
 360  628.5302
 361  768.8029
 362  642.5748
 363  640.1371
 364  603.6451
 365  603.1152
 366  750.2639
 367  599.4384
 368  319.6431
 369  620.4059
 370  840.2581
 371  845.2917
 372  568.2324
 373  408.9321
 374  405.9848
 375  280.9017
 376  532.0119
 377  704.3824
 378  647.6282
 379  588.0121
 380  424.8436
 381  537.125
 382  617.2343
 383  674.8069
 384  522.5347
 385  407.1378
 386  570.6785
 387  558.5302
 388  440.2831
 389  477.1055
 390  201.5728
 391  322.7203
 392  794.4776
 393  886.1774
 394  778.8912
 395  848.2697
 396  714.5007
 397  911.7385
 398  692.5491
 399  519.0582
 400  425.595
 401  764.2475
 402  499.0606
 403  505.0503
 404  205.7461
 405  614.0541
 406  897.9351
 407  577.6791
 408  277.7624
 409  619.1563
 410  658.2513
 411  525.6436
 412  416.061
 413  877.7292
 414  879.6494
 415  685.7646
 416  790.3278
 417  743.9868
 418  654.7987
 419  685.8422
 420  523.8207
 421  767.9106
 422  921.2021
 423  921.0772
 424  770.4063
 425  618.9821
 426  538.9531
 427  444.7056
 428  913.5031
 429  571.4526
 430  478.2291
 431  510.4176
 432  656.6613
 433  1000.039
 434  821.9872
 435  792.1327
 436  749.4968
 437  599.478
 438  459.4157
 439  418.3057
 440  801.5959
 441  1127.074
 442  936.0746
 443  752.1451
 444  542.4817
 445  601.0266
 446  740.2502
 447  869.2775
 448  601.6801
 449  379.9649
 450  171.2292
 451  383.6948
 452  476.778
 453  844.2303
 454  816.8003
 455  705.0424
 456  630.7963
 457  685.205
 458  339.1378
 459  600.8307
 460  609.8246
 461  829.6255
 462  612.4528
 463  528.2036
 464  557.7919
 465  411.2791
 466  378.7773
 467  445.2136
 468  90.37682
 469  505.4832
 470  578.9214
 471  717.8116
 472  598.2709
 473  791.774
 474  909.2934
 475  688.7733
 476  340.873
 477  631.2177
 478  763.6559
 479  500.329
 480  1040.572
 481  934.0119
 482  727.0307
 483  604.1167
 484  337.5335
 485  629.0641
 486  814.8351
 487  544.543
 488  594.7306
 489  604.6017
 490  628.6699
 491  544.2595
 492  718.1911
 493  751.7253
 494  749.3458
 495  529.7418
 496  565.7377
 497  548.4563
 498  319.8922
 499  590.2681
 500  762.3536
 501  555.2898
 502  403.5344
 503  396.9211
 504  694.921
 505  736.9017
 506  364.2347
 507  305.5335
 508  462.5996
 509  608.8531
 510  478.4987
 511  432.2822
