# Input file       =  1192744465.139344_cleaned.dat
# Candidate        =  PSR_0332+5434
# Telescope        =  AR
# Epoch_topo       =  58048.913010872035
# Epoch_bary       =  N/A
# T_sample         =  0.002
# Data Folded      =  7340032
# Data Avg         =  0.029962400517044
# Data StdDev      =  2.22338576901566 
# Profile Bins     =  256
# Profile Avg      =  859.082833824993 
# Profile StdDev   =  376.481652056034 
# Reduced chi-sqr  =  2.073
# Prob(Noise)      <  2.85e-21   (~9.4 sigma)
# P_topo (ms)      =  714.487756126243  +/- 0.000174
# P'_topo (s/s)    =  -0                +/- 9.2e-11
# P''_topo (s/s^2) =  0                 +/- 4.06e-14
# P_bary (ms)      =  N/A
# P'_bary (s/s)    =  N/A
# P''_bary (s/s^2) =  N/A
# P_orb (s)        =  N/A
# asin(i)/c (s)    =  N/A
# eccentricity     =  N/A
# w (rad)          =  N/A
# T_peri           =  N/A
######################################################
   0  984.1067
   1  516.1389
   2  604.7285
   3  499.6097
   4  859.2148
   5  724.4193
   6  933.1328
   7  785.3483
   8  727.2403
   9  755.9666
  10  638.3428
  11  866.7693
  12  1256.19
  13  930.3593
  14  396.9841
  15  554.4281
  16  908.7099
  17  615.243
  18  319.9196
  19  1151.724
  20  1231.705
  21  1241.662
  22  819.6393
  23  627.2422
  24  642.1618
  25  1051.005
  26  487.7841
  27  935.2397
  28  1808.859
  29  1529.093
  30  1314.816
  31  1339.59
  32  1161.555
  33  712.9598
  34  516.2767
  35  975.0419
  36  1417.438
  37  1059.143
  38  983.8355
  39  766.8149
  40  753.256
  41  1275.774
  42  954.5312
  43  498.5732
  44  909.1378
  45  1394.383
  46  1098.212
  47  1267.663
  48  925.0255
  49  1498.102
  50  930.0396
  51  778.2692
  52  1404.217
  53  1338.818
  54  1032.926
  55  1571.208
  56  1146.081
  57  1566.776
  58  391.1687
  59  757.5529
  60  1151.841
  61  1088.186
  62  800.8965
  63  615.896
  64  1376.496
  65  1155.684
  66  1208.361
  67  669.6116
  68  761.8542
  69  1695.203
  70  719.2618
  71  998.6051
  72  1302.629
  73  1320.413
  74  1111.987
  75  902.894
  76  945.3442
  77  1175.532
  78  1263.08
  79  458.8556
  80  379.1389
  81  913.9626
  82  1192.969
  83  933.0008
  84  831.5421
  85  819.5748
  86  730.5406
  87  559.9984
  88  1159.651
  89  624.2385
  90  464.1344
  91  1159.147
  92  1443.524
  93  1356.263
  94  359.6921
  95  885.3527
  96  882.2595
  97  576.2941
  98  910.7181
  99  629.3331
 100  1208.441
 101  248.5542
 102  944.2513
 103  1142.182
 104  1604.793
 105  1067.216
 106  1379.073
 107  940.7596
 108  1016.414
 109  583.9679
 110  785.7947
 111  1082.843
 112  1099.722
 113  1281.021
 114  832.0755
 115  950.4337
 116  964.0431
 117  583.4404
 118  910.1659
 119  792.2836
 120  500.6716
 121  713.0706
 122  862.2632
 123  945.2724
 124  730.588
 125  574.2084
 126  1292.181
 127  1433.796
 128  614.6719
 129  1183.002
 130  917.7596
 131  950.6976
 132  526.5464
 133  351.0377
 134  620.0049
 135  670.5765
 136  670.5721
 137  346.9993
 138  408.3579
 139  450.8347
 140  891.2923
 141  872.2896
 142  887.8255
 143  1516.136
 144  1289.46
 145  1061.69
 146  294.1174
 147  204.9549
 148  479.4458
 149  984.4663
 150  1194.936
 151  870.1507
 152  206.7841
 153  498.1137
 154  1529.529
 155  1251.707
 156  1829.319
 157  2176.931
 158  3777.724
 159  3875.238
 160  2919.656
 161  1171.495
 162  367.4792
 163  1096.99
 164  1092.622
 165  629.9768
 166  1569.277
 167  1134.186
 168  1153.1
 169  767.8865
 170  946.5274
 171  791.4423
 172  987.1183
 173  695.372
 174  1061.029
 175  958.772
 176  719.8594
 177  907.1091
 178  668.311
 179  389.8358
 180  884.7786
 181  1135.35
 182  1154.491
 183  393.167
 184  735.692
 185  907.0509
 186  471.3837
 187  293.848
 188  829.2214
 189  736.3777
 190  774.6257
 191  1057.886
 192  287.5616
 193  256.3046
 194  612.2849
 195  891.1859
 196  755.4958
 197  998.1395
 198  450.2349
 199  366.0038
 200  169.6006
 201  479.4947
 202  543.2874
 203  480.3438
 204  540.8374
 205  772.9818
 206  812.4675
 207  731.9871
 208  888.6461
 209  538.9527
 210  497.6114
 211  1074.661
 212  770.7231
 213  609.9733
 214  707.7219
 215  741.4032
 216  1024.347
 217  959.3473
 218  584.4017
 219  -35.20303
 220  500.9717
 221  604.2315
 222  725.1606
 223  -34.7226
 224  -291.7906
 225  281.0054
 226  885.3505
 227  166.9714
 228  274.1111
 229  117.3522
 230  717.7616
 231  657.5585
 232  504.8026
 233  852.0212
 234  599.1168
 235  393.3975
 236  453.9251
 237  368.9824
 238  316.166
 239  967.4487
 240  759.1479
 241  166.162
 242  821.8229
 243  711.8237
 244  93.80159
 245  733.2416
 246  732.4865
 247  311.0833
 248  643.4323
 249  1112.173
 250  743.9441
 251  572.9343
 252  406.3361
 253  727.6144
 254  392.0349
 255  475.8174
