# Input file       =  1192328641.147617_cleaned.dat
# Candidate        =  PSR_0332+5434
# Telescope        =  AR
# Epoch_topo       =  58044.100233190016
# Epoch_bary       =  N/A
# T_sample         =  0.002
# Data Folded      =  7340032
# Data Avg         =  0.0165233653650388
# Data StdDev      =  1.00003099806936 
# Profile Bins     =  512
# Profile Avg      =  236.897628241696 
# Profile StdDev   =  119.736747869732 
# Reduced chi-sqr  =  1.483
# Prob(Noise)      <  6.75e-12   (~6.8 sigma)
# P_topo (ms)      =  714.484219437298  +/- 0.000221
# P'_topo (s/s)    =  -0                +/- 1.17e-10
# P''_topo (s/s^2) =  0                 +/- 5.15e-14
# P_bary (ms)      =  N/A
# P'_bary (s/s)    =  N/A
# P''_bary (s/s^2) =  N/A
# P_orb (s)        =  N/A
# asin(i)/c (s)    =  N/A
# eccentricity     =  N/A
# w (rad)          =  N/A
# T_peri           =  N/A
######################################################
   0  287.6798
   1  319.5038
   2  343.9713
   3  404.6185
   4  296.9295
   5  239.1064
   6  297.9088
   7  196.9385
   8  108.2827
   9  86.75301
  10  67.75671
  11  176.2299
  12  218.6464
  13  361.5675
  14  329.3148
  15  389.7701
  16  373.4366
  17  385.4159
  18  317.8513
  19  626.4272
  20  943.5522
  21  973.8868
  22  993.3429
  23  794.6635
  24  674.2723
  25  445.0283
  26  153.7873
  27  199.2556
  28  178.6364
  29  294.8525
  30  248.9117
  31  185.479
  32  353.7597
  33  475.3186
  34  415.6948
  35  438.2602
  36  263.005
  37  171.8235
  38  129.0237
  39  229.8853
  40  209.3393
  41  188.312
  42  204.5466
  43  209.7469
  44  211.5601
  45  188.4978
  46  152.0443
  47  296.7831
  48  224.9731
  49  123.8028
  50  96.89011
  51  231.7329
  52  433.3711
  53  301.4172
  54  197.7076
  55  377.9928
  56  365.526
  57  451.5185
  58  323.3467
  59  197.8877
  60  318.4401
  61  311.1523
  62  345.7323
  63  320.7493
  64  173.8216
  65  184.8211
  66  315.5916
  67  296.9388
  68  306.5246
  69  219.959
  70  134.2419
  71  158.4583
  72  195.0845
  73  233.7964
  74  149.1832
  75  107.7112
  76  191.5575
  77  166.3344
  78  132.9673
  79  309.8298
  80  384.0515
  81  243.9678
  82  251.1864
  83  248.4157
  84  245.4922
  85  142.0624
  86  155.6619
  87  169.4212
  88  90.75092
  89  70.01955
  90  263.98
  91  261.2664
  92  103.6848
  93  137.2752
  94  315.1178
  95  362.9493
  96  402.2108
  97  377.3586
  98  150.6077
  99  140.4945
 100  169.6088
 101  316.4158
 102  284.7647
 103  42.68242
 104  166.4718
 105  299.1332
 106  362.8878
 107  365.8708
 108  285.8108
 109  293.5245
 110  259.3628
 111  287.5564
 112  344.8183
 113  315.8376
 114  350.2267
 115  378.9554
 116  221.5759
 117  161.786
 118  312.3738
 119  237.2773
 120  117.5634
 121  190.9834
 122  266.1274
 123  243.0409
 124  202.5624
 125  341.8344
 126  325.4071
 127  212.6981
 128  266.8832
 129  300.5725
 130  316.6244
 131  229.7276
 132  183.5727
 133  121.8379
 134  83.13947
 135  172.9096
 136  154.8306
 137  -26.61857
 138  8.944419
 139  177.1099
 140  258.4297
 141  234.7347
 142  105.9556
 143  156.5655
 144  260.9773
 145  220.1442
 146  252.1866
 147  184.2988
 148  51.49214
 149  108.3374
 150  185.0006
 151  258.4154
 152  58.06864
 153  202.6383
 154  319.1462
 155  260.1824
 156  393.388
 157  366.7711
 158  174.159
 159  324.9128
 160  243.3406
 161  354.3438
 162  349.4365
 163  224.6436
 164  229.4262
 165  245.8545
 166  124.8018
 167  157.8946
 168  183.3182
 169  296.2943
 170  394.5232
 171  265.5848
 172  286.1217
 173  285.9267
 174  272.2951
 175  355.3779
 176  266.5622
 177  163.9186
 178  129.3922
 179  289.7315
 180  254.137
 181  224.6979
 182  321.2669
 183  283.683
 184  152.8955
 185  241.3397
 186  188.5271
 187  194.258
 188  173.1251
 189  118.1426
 190  178.1025
 191  196.5427
 192  210.5808
 193  202.6563
 194  116.644
 195  158.175
 196  366.9985
 197  462.4987
 198  349.8693
 199  193.4182
 200  44.68459
 201  133.0393
 202  259.3298
 203  202.6784
 204  308.1127
 205  365.0039
 206  287.7017
 207  224.2489
 208  129.9706
 209  175.6417
 210  284.3804
 211  251.4228
 212  180.3673
 213  197.5748
 214  230.5482
 215  225.051
 216  168.4465
 217  244.0997
 218  432.7949
 219  347.4971
 220  257.7783
 221  175.2365
 222  100.8757
 223  92.83998
 224  104.7536
 225  88.55067
 226  201.0565
 227  172.0872
 228  121.3966
 229  83.11967
 230  117.5307
 231  236.4053
 232  206.1042
 233  278.3565
 234  207.9501
 235  181.5928
 236  254.5981
 237  190.0629
 238  232.4996
 239  159.525
 240  264.0171
 241  258.3009
 242  282.1029
 243  253.3583
 244  209.3326
 245  323.0258
 246  284.382
 247  166.8599
 248  170.2744
 249  179.1332
 250  222.3937
 251  230.8084
 252  276.9314
 253  126.5108
 254  184.3392
 255  314.0746
 256  252.3519
 257  156.5898
 258  179.6408
 259  183.5273
 260  174.8027
 261  331.0475
 262  330.7638
 263  354.2892
 264  238.2633
 265  165.1393
 266  340.7756
 267  202.6622
 268  249.9878
 269  293.4207
 270  191.7796
 271  310.638
 272  310.7792
 273  313.4773
 274  310.1869
 275  279.5893
 276  368.8023
 277  386.2697
 278  275.1546
 279  202.9337
 280  194.1949
 281  292.7458
 282  352.5484
 283  194.6774
 284  204.3432
 285  210.5034
 286  223.7385
 287  298.3046
 288  197.1609
 289  215.9833
 290  258.2693
 291  253.4146
 292  260.9049
 293  348.9236
 294  194.1411
 295  86.93823
 296  238.7272
 297  249.677
 298  209.1728
 299  233.6913
 300  177.7681
 301  173.9693
 302  144.1327
 303  97.66879
 304  153.3468
 305  264.6443
 306  229.0504
 307  230.7589
 308  253.9617
 309  282.8205
 310  159.3756
 311  205.6969
 312  255.0156
 313  230.4981
 314  226.9297
 315  188.9279
 316  134.5881
 317  109.8556
 318  165.1133
 319  218.0796
 320  288.4679
 321  210.0531
 322  140.2611
 323  231.4946
 324  202.5176
 325  225.3684
 326  246.7303
 327  124.8455
 328  272.048
 329  302.2789
 330  342.4258
 331  292.7311
 332  276.0933
 333  209.5279
 334  208.4714
 335  314.4684
 336  242.1281
 337  98.64407
 338  229.0598
 339  330.3043
 340  213.1358
 341  183.1311
 342  105.8082
 343  62.62075
 344  79.31791
 345  135.6056
 346  273.0172
 347  312.593
 348  191.4021
 349  129.6845
 350  274.798
 351  326.2201
 352  242.7798
 353  302.804
 354  312.1535
 355  263.221
 356  330.4254
 357  241.2095
 358  211.439
 359  137.8891
 360  52.53846
 361  202.8886
 362  304.109
 363  366.031
 364  388.4606
 365  349.4755
 366  357.5369
 367  192.129
 368  142.6386
 369  318.4116
 370  339.4308
 371  326.0811
 372  318.3401
 373  198.2529
 374  139.9707
 375  115.2061
 376  249.7033
 377  237.8912
 378  191.1794
 379  211.4504
 380  202.48
 381  231.8672
 382  228.1421
 383  277.6555
 384  301.7747
 385  195.7752
 386  268.4457
 387  250.9745
 388  266.6283
 389  270.7336
 390  219.1353
 391  252.381
 392  303.2873
 393  303.102
 394  312.2122
 395  223.867
 396  214.5566
 397  314.7685
 398  363.4154
 399  234.2341
 400  67.89066
 401  187.051
 402  142.8747
 403  87.97586
 404  217.4903
 405  285.8491
 406  287.7689
 407  178.8002
 408  368.9032
 409  303.5876
 410  213.129
 411  177.1224
 412  227.9941
 413  251.189
 414  200.1818
 415  237.005
 416  274.9129
 417  155.9012
 418  187.9862
 419  299.7408
 420  310.0538
 421  234.0446
 422  214.6344
 423  166.0103
 424  244.7436
 425  255.37
 426  281.4648
 427  209.8598
 428  110.408
 429  146.8595
 430  107.0013
 431  214.7238
 432  331.262
 433  290.3535
 434  182.0366
 435  226.763
 436  279.9937
 437  292.7949
 438  217.7225
 439  171.6142
 440  254.1747
 441  202.7048
 442  119.5413
 443  76.96795
 444  245.7225
 445  274.0909
 446  205.4876
 447  108.3457
 448  199.7762
 449  176.6955
 450  144.7317
 451  216.6722
 452  269.7743
 453  342.4057
 454  334.7196
 455  286.3024
 456  168.2054
 457  131.1957
 458  132.6079
 459  201.8481
 460  166.0439
 461  96.23484
 462  189.0356
 463  148.7186
 464  227.9436
 465  258.3429
 466  206.095
 467  103.8239
 468  140.9682
 469  193.9416
 470  314.9645
 471  231.574
 472  152.3355
 473  235.5707
 474  263.1523
 475  254.0523
 476  265.2508
 477  121.2205
 478  160.7517
 479  193.4846
 480  176.2538
 481  267.2342
 482  196.0106
 483  269.3983
 484  280.7666
 485  127.583
 486  77.50018
 487  40.16706
 488  237.6614
 489  257.7519
 490  137.3415
 491  143.6371
 492  215.1511
 493  129.3677
 494  250.5156
 495  263.123
 496  219.4379
 497  297.5545
 498  228.0517
 499  269.2198
 500  160.5481
 501  230.0827
 502  248.6402
 503  138.0569
 504  199.2307
 505  241.9116
 506  197.1258
 507  132.9376
 508  152.8004
 509  202.1176
 510  193.5392
 511  80.83617
