# Input file       =  1192486011.12838_cleaned.dat
# Candidate        =  PSR_0332+5434
# Telescope        =  AR
# Epoch_topo       =  58045.921645004397
# Epoch_bary       =  N/A
# T_sample         =  0.002
# Data Folded      =  7340032
# Data Avg         =  0.0147912265712355
# Data StdDev      =  1.00006388427599 
# Profile Bins     =  512
# Profile Avg      =  212.095142506832 
# Profile StdDev   =  119.740685435107 
# Reduced chi-sqr  =  2.034
# Prob(Noise)      <  2.72e-38   (~12.9 sigma)
# P_topo (ms)      =  714.485316019878  +/- 0.000239
# P'_topo (s/s)    =  -0                +/- 1.26e-10
# P''_topo (s/s^2) =  0                 +/- 5.56e-14
# P_bary (ms)      =  N/A
# P'_bary (s/s)    =  N/A
# P''_bary (s/s^2) =  N/A
# P_orb (s)        =  N/A
# asin(i)/c (s)    =  N/A
# eccentricity     =  N/A
# w (rad)          =  N/A
# T_peri           =  N/A
######################################################
   0  1293.5
   1  1127.601
   2  888.5274
   3  396.379
   4  91.39171
   5  114.1772
   6  222.3003
   7  234.3744
   8  155.66
   9  48.04829
  10  138.9314
  11  208.4516
  12  223.8828
  13  306.7048
  14  172.8307
  15  123.5162
  16  144.0086
  17  332.5558
  18  383.0637
  19  246.4206
  20  242.6567
  21  239.1718
  22  234.9911
  23  281.5856
  24  277.2989
  25  225.2788
  26  120.6509
  27  198.3197
  28  113.3843
  29  120.0174
  30  -10.64276
  31  82.60235
  32  162.1274
  33  289.9344
  34  212.5449
  35  145.803
  36  237.7111
  37  255.4409
  38  129.183
  39  157.8197
  40  160.6479
  41  155.3262
  42  276.2318
  43  291.796
  44  200.778
  45  317.9525
  46  302.1986
  47  230.9384
  48  161.5301
  49  266.2917
  50  222.695
  51  266.8347
  52  122.8646
  53  165.2013
  54  224.2848
  55  190.9662
  56  74.08147
  57  84.29473
  58  212.1746
  59  182.6743
  60  126.0963
  61  131.8316
  62  253.7023
  63  111.9584
  64  104.6934
  65  143.2661
  66  116.7244
  67  168.6014
  68  230.4988
  69  197.1087
  70  126.5684
  71  9.001973
  72  9.404248
  73  89.37803
  74  142.4143
  75  104.1804
  76  73.55147
  77  146.1209
  78  265.0266
  79  182.4342
  80  97.28118
  81  59.73427
  82  271.8375
  83  301.2795
  84  203.2803
  85  221.04
  86  183.7059
  87  128.7991
  88  245.157
  89  125.3078
  90  201.8535
  91  249.0491
  92  371.0011
  93  256.8691
  94  179.4915
  95  271.2232
  96  264.2737
  97  241.5695
  98  279.5216
  99  240.648
 100  174.7938
 101  135.2903
 102  138.0484
 103  221.0478
 104  134.9618
 105  148.338
 106  216.9446
 107  365.483
 108  436.1611
 109  357.8111
 110  374.0171
 111  393.9265
 112  466.5143
 113  381.6319
 114  227.8873
 115  207.0663
 116  215.4604
 117  276.7883
 118  262.799
 119  372.4646
 120  335.3601
 121  246.5821
 122  193.7365
 123  182.1002
 124  252.1832
 125  203.0779
 126  216.3389
 127  207.5308
 128  225.5964
 129  145.1734
 130  183.4536
 131  116.4207
 132  193.1551
 133  278.3258
 134  309.3691
 135  182.1696
 136  304.2224
 137  253.98
 138  212.9085
 139  195.6561
 140  198.2405
 141  218.1158
 142  287.4958
 143  308.4474
 144  217.098
 145  272.0244
 146  184.9389
 147  179.8157
 148  245.0909
 149  251.0263
 150  71.95684
 151  264.7075
 152  349.4877
 153  348.1793
 154  236.1753
 155  236.7947
 156  286.3851
 157  208.9968
 158  288.6151
 159  320.6687
 160  91.46444
 161  135.6281
 162  233.88
 163  284.6961
 164  258.2928
 165  62.88795
 166  119.0913
 167  146.8752
 168  100.3161
 169  150.167
 170  186.4649
 171  122.5938
 172  234.8912
 173  182.2837
 174  155.3123
 175  194.5359
 176  191.9534
 177  266.5653
 178  207.8326
 179  338.7787
 180  243.1722
 181  143.9584
 182  150.8067
 183  250.9605
 184  259.3137
 185  310.9742
 186  267.9191
 187  32.52033
 188  18.93347
 189  166.8629
 190  183.7852
 191  141.8699
 192  154.3465
 193  290.8285
 194  263.0433
 195  246.7852
 196  330.6512
 197  221.8537
 198  205.9023
 199  271.8018
 200  249.0116
 201  190.795
 202  261.9919
 203  245.4439
 204  189.6801
 205  164.2308
 206  316.8576
 207  459.5038
 208  267.1063
 209  166.8282
 210  318.1277
 211  252.8113
 212  117.2527
 213  41.64524
 214  159.6954
 215  200.316
 216  226.1295
 217  93.92528
 218  271.2727
 219  391.7534
 220  142.876
 221  215.996
 222  133.8929
 223  160.8609
 224  200.1667
 225  177.5091
 226  218.8786
 227  106.3723
 228  97.82886
 229  271.3019
 230  284.8518
 231  255.691
 232  225.9807
 233  134.5981
 234  245.9875
 235  333.0569
 236  217.8792
 237  332.5955
 238  311.4226
 239  196.0939
 240  131.7998
 241  280.9737
 242  269.5131
 243  170.8664
 244  203.397
 245  168.1813
 246  209.6495
 247  165.1407
 248  105.1364
 249  166.0736
 250  186.4895
 251  152.1374
 252  170.6723
 253  114.5329
 254  72.16934
 255  201.6706
 256  351.853
 257  308.1384
 258  145.72
 259  40.75512
 260  202.2225
 261  287.5676
 262  175.5714
 263  198.2864
 264  289.4257
 265  239.1225
 266  325.9482
 267  372.2619
 268  405.6787
 269  175.4505
 270  149.2212
 271  257.1451
 272  194.5242
 273  156.3487
 274  137.8619
 275  295.0486
 276  294.7993
 277  183.315
 278  208.8409
 279  175.0233
 280  213.2338
 281  227.2695
 282  322.6122
 283  337.9293
 284  286.3541
 285  244.8825
 286  177.1319
 287  83.91322
 288  280.4772
 289  280.3877
 290  288.5677
 291  240.1131
 292  88.98228
 293  161.6018
 294  184.3546
 295  186.1746
 296  142.5948
 297  238.4879
 298  237.1737
 299  271.5086
 300  241.9498
 301  156.2207
 302  196.9142
 303  189.701
 304  73.76692
 305  72.62209
 306  168.5717
 307  159.023
 308  181.6954
 309  176.5399
 310  175.3038
 311  163.0525
 312  215.4014
 313  268.5951
 314  196.6449
 315  147.2308
 316  270.0829
 317  214.3277
 318  267.9285
 319  262.8489
 320  221.5061
 321  210.1913
 322  203.0131
 323  188.0292
 324  145.1768
 325  141.2282
 326  227.3008
 327  369.9316
 328  210.6638
 329  157.8654
 330  211.5486
 331  235.0778
 332  291.2709
 333  277.2267
 334  260.4113
 335  51.96684
 336  67.45479
 337  213.9696
 338  150.753
 339  89.9598
 340  216.2837
 341  215.0755
 342  174.3006
 343  126.6691
 344  99.78562
 345  202.1095
 346  240.9355
 347  122.4584
 348  90.52869
 349  146.3387
 350  121.1844
 351  147.6875
 352  166.7362
 353  161.3712
 354  198.616
 355  221.6649
 356  197.7269
 357  271.3391
 358  274.7297
 359  132.4931
 360  265.8424
 361  257.9622
 362  269.1346
 363  317.2687
 364  194.1214
 365  209.5098
 366  223.0854
 367  236.162
 368  202.5339
 369  344.149
 370  292.091
 371  157.1398
 372  65.18581
 373  159.6968
 374  211.4022
 375  225.6448
 376  331.7612
 377  265.7092
 378  217.1393
 379  67.25385
 380  147.132
 381  188.9524
 382  285.7145
 383  236.5802
 384  136.571
 385  102.5975
 386  218.4695
 387  259.5377
 388  123.9072
 389  155.1249
 390  260.773
 391  277.5441
 392  158.4513
 393  186.1374
 394  136.2129
 395  171.9433
 396  215.5367
 397  220.6886
 398  25.36079
 399  27.19327
 400  131.8633
 401  280.8656
 402  258.8939
 403  187.5576
 404  268.1768
 405  196.9456
 406  112.632
 407  212.4823
 408  214.7567
 409  212.7715
 410  178.948
 411  236.6909
 412  161.2032
 413  165.178
 414  248.7078
 415  195.7433
 416  223.2924
 417  264.8916
 418  290.0774
 419  128.1708
 420  153.3677
 421  183.8061
 422  186.8595
 423  96.85007
 424  168.57
 425  66.55909
 426  34.94491
 427  250.0463
 428  265.25
 429  147.3352
 430  10.41821
 431  117.4525
 432  202.4408
 433  78.58081
 434  119.425
 435  163.3332
 436  234.1203
 437  313.9224
 438  278.1678
 439  153.9188
 440  223.7289
 441  199.6882
 442  180.7041
 443  219.4389
 444  148.9149
 445  164.1439
 446  209.822
 447  321.9101
 448  299.1096
 449  188.749
 450  138.4319
 451  210.0516
 452  189.8733
 453  141.8759
 454  212
 455  225.2448
 456  256.9664
 457  80.42015
 458  187.1056
 459  213.2285
 460  210.4762
 461  25.24349
 462  146.8623
 463  260.6636
 464  129.1052
 465  -50.8179
 466  48.59949
 467  32.19831
 468  95.67896
 469  22.98281
 470  50.42321
 471  170.9127
 472  83.39838
 473  69.91267
 474  65.92055
 475  127.0788
 476  193.8821
 477  129.9629
 478  92.72498
 479  115.0921
 480  32.02528
 481  19.18753
 482  45.11334
 483  112.2281
 484  171.1022
 485  291.977
 486  284.7948
 487  165.5256
 488  7.868207
 489  52.36709
 490  360.028
 491  375.3067
 492  339.274
 493  274.838
 494  191.7469
 495  162.8819
 496  216.2355
 497  212.559
 498  145.4821
 499  195.9025
 500  177.527
 501  266.0838
 502  230.0213
 503  299.3279
 504  426.0878
 505  366.5211
 506  372.7639
 507  466.1644
 508  579.361
 509  718.0252
 510  895.0906
 511  1190.353
