# Input file       =  1192040582.118433_cleaned.dat
# Candidate        =  PSR_0332+5434
# Telescope        =  AR
# Epoch_topo       =  58040.766216648532
# Epoch_bary       =  N/A
# T_sample         =  0.002
# Data Folded      =  7208960
# Data Avg         =  0.0304534235313026
# Data StdDev      =  3.05498144605937 
# Profile Bins     =  512
# Profile Avg      =  428.681267013083 
# Profile StdDev   =  362.501580453934 
# Reduced chi-sqr  =  1.194
# Prob(Noise)      <  0.00164   (~2.9 sigma)
# P_topo (ms)      =  714.481360357075  +/- 0.000238
# P'_topo (s/s)    =  -0                +/- 1.28e-10
# P''_topo (s/s^2) =  0                 +/- 5.76e-14
# P_bary (ms)      =  N/A
# P'_bary (s/s)    =  N/A
# P''_bary (s/s^2) =  N/A
# P_orb (s)        =  N/A
# asin(i)/c (s)    =  N/A
# eccentricity     =  N/A
# w (rad)          =  N/A
# T_peri           =  N/A
######################################################
   0  432.6925
   1  299.062
   2  466.562
   3  426.6345
   4  90.7697
   5  585.671
   6  680.8463
   7  787.2649
   8  966.3069
   9  665.2732
  10  410.9332
  11  217.5267
  12  481.7314
  13  438.8085
  14  142.1783
  15  97.53844
  16  217.9653
  17  574.0323
  18  650.1257
  19  700.4252
  20  503.466
  21  726.9436
  22  270.8494
  23  170.0292
  24  14.18239
  25  262.7784
  26  363.1136
  27  109.832
  28  168.0781
  29  575.0206
  30  389.1414
  31  648.5083
  32  477.7615
  33  1.81273
  34  -9.312917
  35  141.9133
  36  446.7127
  37  360.1654
  38  275.449
  39  514.6533
  40  540.8723
  41  346.3605
  42  642.4048
  43  843.1923
  44  495.886
  45  255.0534
  46  22.2251
  47  15.4323
  48  252.681
  49  310.3221
  50  643.3328
  51  456.7743
  52  777.2739
  53  699.4083
  54  91.95444
  55  373.9337
  56  386.7436
  57  254.3926
  58  616.8423
  59  731.6413
  60  489.8471
  61  450.9358
  62  361.458
  63  254.3385
  64  235.0781
  65  365.9943
  66  429.9406
  67  203.2379
  68  369.7147
  69  354.8273
  70  330.8155
  71  602.3258
  72  501.7646
  73  436.7497
  74  542.5464
  75  386.9713
  76  189.4469
  77  502.1993
  78  431.6177
  79  585.4796
  80  526.3586
  81  672.4778
  82  500.6647
  83  270.882
  84  199.976
  85  395.7302
  86  698.7264
  87  521.5746
  88  698.6906
  89  665.0953
  90  111.579
  91  678.3756
  92  796.0686
  93  506.7926
  94  309.8963
  95  485.7347
  96  500.0466
  97  398.3373
  98  495.691
  99  657.2158
 100  292.9353
 101  387.133
 102  287.9111
 103  147.1597
 104  108.1549
 105  -6.261785
 106  130.0821
 107  295.4614
 108  399.6988
 109  160.9659
 110  200.2856
 111  144.0213
 112  251.1935
 113  262.4768
 114  219.4769
 115  47.92775
 116  246.4885
 117  562.3684
 118  644.978
 119  413.9736
 120  99.71229
 121  320.9892
 122  564.5598
 123  438.1354
 124  595.6097
 125  487.9917
 126  353.7863
 127  454.5834
 128  246.2933
 129  419.2202
 130  456.5986
 131  665.2275
 132  549.1166
 133  50.8009
 134  56.8611
 135  613.3008
 136  323.8691
 137  134.7581
 138  296.4013
 139  590.8373
 140  369.62
 141  412.6251
 142  416.8721
 143  322.0098
 144  553.0068
 145  316.4224
 146  665.3312
 147  563.1748
 148  345.195
 149  551.1752
 150  279.9759
 151  323.4401
 152  164.6797
 153  230.7268
 154  341.5839
 155  294.6756
 156  218.3344
 157  361.1714
 158  700.2186
 159  814.4276
 160  335.8169
 161  118.8878
 162  575.0137
 163  718.5647
 164  333.9217
 165  514.2003
 166  534.3074
 167  129.0131
 168  202.1747
 169  192.7944
 170  71.38537
 171  787.6736
 172  1040.722
 173  606.7317
 174  247.1895
 175  404.7258
 176  762.6435
 177  553.283
 178  275.5605
 179  770.3831
 180  939.1941
 181  738.9521
 182  748.338
 183  966.6733
 184  582.0542
 185  456.913
 186  555.4647
 187  694.0481
 188  788.4713
 189  418.1987
 190  238.3463
 191  96.81234
 192  310.9601
 193  452.9825
 194  134.0598
 195  3.361956
 196  168.0046
 197  329.7783
 198  650.2418
 199  426.46
 200  377.1124
 201  224.2361
 202  306.1087
 203  455.5979
 204  237.6679
 205  248.6623
 206  215.6569
 207  -215.8297
 208  138.7134
 209  348.282
 210  131.591
 211  489.6381
 212  351.8643
 213  429.0882
 214  399.2846
 215  385.0612
 216  313.6224
 217  372.204
 218  70.70129
 219  44.96264
 220  413.4063
 221  597.7278
 222  286.5468
 223  292.2437
 224  512.2877
 225  366.1637
 226  280.9224
 227  365.7047
 228  175.0838
 229  221.0549
 230  163.6494
 231  38.9644
 232  129.3045
 233  114.5556
 234  332.5818
 235  301.1358
 236  108.0852
 237  197.3438
 238  621.6046
 239  487.6509
 240  606.4991
 241  674.296
 242  855.2753
 243  730.6857
 244  669.5754
 245  915.4521
 246  811.4267
 247  561.1395
 248  590.6864
 249  570.7689
 250  359.3407
 251  385.8228
 252  247.7564
 253  414.1439
 254  354.2163
 255  311.3051
 256  600.796
 257  747.7159
 258  304.1581
 259  202.8409
 260  409.8121
 261  322.4783
 262  144.4121
 263  179.5628
 264  -87.69427
 265  172.6728
 266  52.06004
 267  248.8573
 268  384.1823
 269  330.3323
 270  310.2068
 271  329.1248
 272  50.57587
 273  100.3313
 274  165.8382
 275  335.4946
 276  634.9139
 277  910.0385
 278  607.1628
 279  531.8887
 280  313.9247
 281  46.11824
 282  409.1248
 283  814.8765
 284  704.6598
 285  831.936
 286  879.4946
 287  370.0084
 288  39.26881
 289  278.163
 290  696.248
 291  600.37
 292  502.4565
 293  719.67
 294  662.7667
 295  260.4854
 296  448.4169
 297  511.6644
 298  438.0787
 299  289.0009
 300  367.4221
 301  494.4977
 302  350.8068
 303  299.6903
 304  309.6341
 305  254.1275
 306  387.1359
 307  590.4551
 308  500.9483
 309  833.3206
 310  777.3906
 311  545.6226
 312  697.6768
 313  790.6572
 314  735.225
 315  1418.205
 316  1759.337
 317  2185.254
 318  2589.81
 319  2541.893
 320  2104.861
 321  1481.77
 322  1017.314
 323  601.0541
 324  578.2997
 325  528.4258
 326  590.3109
 327  480.4073
 328  535.4216
 329  169.3207
 330  321.8115
 331  774.7524
 332  476.525
 333  693.1367
 334  594.6281
 335  152.5821
 336  181.158
 337  415.863
 338  662.9374
 339  643.7737
 340  566.2597
 341  247.2605
 342  283.4421
 343  466.2569
 344  378.451
 345  486.5756
 346  344.8768
 347  252.7999
 348  451.9818
 349  358.6113
 350  307.3856
 351  384.4485
 352  642.4
 353  574.1076
 354  438.231
 355  498.7822
 356  281.3324
 357  620.3774
 358  367.2551
 359  428.4688
 360  558.6833
 361  360.3706
 362  206.84
 363  376.8834
 364  822.3766
 365  488.684
 366  503.9433
 367  525.0494
 368  -19.28331
 369  209.8398
 370  410.9642
 371  462.5396
 372  554.691
 373  588.3696
 374  504.5865
 375  421.3285
 376  397.4726
 377  395.8142
 378  429.551
 379  366.5678
 380  258.1466
 381  57.61374
 382  386.0973
 383  456.7845
 384  481.2353
 385  389.9074
 386  287.4864
 387  288.8274
 388  616.2999
 389  438.2875
 390  144.7106
 391  280.6172
 392  409.3219
 393  715.2487
 394  446.5162
 395  606.6459
 396  329.2411
 397  239.8313
 398  520.0356
 399  265.0797
 400  393.7513
 401  517.8912
 402  295.0903
 403  273.5067
 404  171.4952
 405  558.957
 406  569.9281
 407  148.8916
 408  119.4125
 409  216.9738
 410  278.4553
 411  323.2768
 412  269.2357
 413  86.53404
 414  110.4478
 415  638.0061
 416  673.2827
 417  633.9443
 418  397.3623
 419  412.4167
 420  156.7583
 421  -65.52248
 422  280.3978
 423  362.067
 424  732.2612
 425  247.7038
 426  285.8134
 427  675.468
 428  607.3972
 429  547.1718
 430  443.7527
 431  198.834
 432  -17.30758
 433  148.2019
 434  415.3619
 435  340.6197
 436  286.024
 437  448.5095
 438  495.4795
 439  178.867
 440  259.4123
 441  290.8436
 442  117.5092
 443  153.0497
 444  629.64
 445  600.5152
 446  559.4511
 447  520.0551
 448  402.5667
 449  343.4575
 450  503.7632
 451  444.0495
 452  688.8948
 453  763.322
 454  710.4296
 455  549.6983
 456  708.3807
 457  660.7047
 458  344.9503
 459  520.1199
 460  612.3422
 461  555.5015
 462  264.1357
 463  203.0165
 464  336.6662
 465  303.3964
 466  350.9674
 467  220.2637
 468  161.4717
 469  -10.73499
 470  -45.6366
 471  182.5672
 472  167.2214
 473  10.11332
 474  43.5091
 475  243.9937
 476  172.6966
 477  256.0462
 478  817.968
 479  421.0278
 480  346.0441
 481  624.8954
 482  555.694
 483  -2.875151
 484  37.35494
 485  125.4311
 486  278.0536
 487  375.9649
 488  595.6606
 489  539.7587
 490  659.0317
 491  787.439
 492  542.1135
 493  585.618
 494  522.4156
 495  340.6304
 496  510.5107
 497  471.2674
 498  482.5864
 499  419.6325
 500  287.101
 501  399.9578
 502  529.1057
 503  444.4738
 504  467.7925
 505  155.3737
 506  100.6273
 507  274.1699
 508  377.8857
 509  751.5807
 510  665.5536
 511  501.3613
