# Input file       =  1192040582.118433_cleaned.dat
# Candidate        =  PSR_0332+5434
# Telescope        =  AR
# Epoch_topo       =  58040.766216648532
# Epoch_bary       =  N/A
# T_sample         =  0.002
# Data Folded      =  7208960
# Data Avg         =  0.0304534235313026
# Data StdDev      =  3.05498144605937 
# Profile Bins     =  512
# Profile Avg      =  428.681267007286 
# Profile StdDev   =  362.501580453934 
# Reduced chi-sqr  =  1.190
# Prob(Noise)      <  0.00192   (~2.9 sigma)
# P_topo (ms)      =  714.481360207432  +/- 0.00024
# P'_topo (s/s)    =  -0                +/- 1.29e-10
# P''_topo (s/s^2) =  0                 +/- 5.8e-14
# P_bary (ms)      =  N/A
# P'_bary (s/s)    =  N/A
# P''_bary (s/s^2) =  N/A
# P_orb (s)        =  N/A
# asin(i)/c (s)    =  N/A
# eccentricity     =  N/A
# w (rad)          =  N/A
# T_peri           =  N/A
######################################################
   0  257.5444
   1  574.9164
   2  433.8468
   3  568.6343
   4  524.0268
   5  335.631
   6  456.9076
   7  253.6048
   8  397.8116
   9  445.1591
  10  642.2325
  11  601.8799
  12  140.831
  13  -22.40907
  14  601.5547
  15  354.754
  16  172.4786
  17  233.5526
  18  582.7719
  19  407.8639
  20  383.7798
  21  452.4518
  22  275.8732
  23  558.3104
  24  337.5146
  25  590.8651
  26  628.2582
  27  320.4525
  28  561.6517
  29  297.9931
  30  316.4701
  31  193.3754
  32  218.0741
  33  313.0428
  34  326.7834
  35  205.4751
  36  314.2193
  37  652.4276
  38  840.7255
  39  450.6956
  40  76.8374
  41  515.6393
  42  728.8472
  43  400.5106
  44  470.974
  45  592.4869
  46  152.5668
  47  151.3705
  48  241.4674
  49  39.42324
  50  655.6748
  51  1086.604
  52  648.9052
  53  306.0441
  54  316.6717
  55  745.6921
  56  602.957
  57  263.5157
  58  690.1336
  59  982.0297
  60  758.7784
  61  701.6412
  62  959.8192
  63  655.3828
  64  469.5961
  65  533.6785
  66  666.8032
  67  785.593
  68  484.9509
  69  262.1577
  70  113.2097
  71  268.9508
  72  449.0385
  73  202.8506
  74  -20.24783
  75  170.39
  76  268.9968
  77  652.6415
  78  436.6399
  79  405.9868
  80  223.3034
  81  250.1217
  82  474.5048
  83  262.1956
  84  237.4349
  85  224.908
  86  -142.333
  87  28.25177
  88  393.1926
  89  99.21591
  90  472.4821
  91  367.1672
  92  439.5211
  93  396.4805
  94  404.2609
  95  295.7785
  96  380.8984
  97  129.2361
  98  22.30394
  99  375.9846
 100  579.1174
 101  347.9504
 102  218.3446
 103  539.133
 104  383.845
 105  297.0816
 106  326.2818
 107  231.085
 108  169.4051
 109  213.1891
 110  22.3267
 111  143.3963
 112  81.99734
 113  308.007
 114  318.8993
 115  134.6984
 116  138.5116
 117  610.1385
 118  501.8894
 119  573.1953
 120  670.228
 121  846.3796
 122  786.2671
 123  636.9756
 124  884.9499
 125  846.1254
 126  582.7899
 127  585.8381
 128  581.0125
 129  398.96
 130  375.5654
 131  256.0628
 132  391.2892
 133  361.2294
 134  290.6101
 135  541.7168
 136  781.1706
 137  360.9572
 138  204.4099
 139  365.5466
 140  345.602
 141  174.8293
 142  206.8964
 143  -88.42944
 144  125.9934
 145  71.60889
 146  209.1284
 147  410.3773
 148  320.9861
 149  313.2526
 150  338.908
 151  97.65556
 152  83.51963
 153  157.3801
 154  296.3334
 155  573.3248
 156  921.0398
 157  661.3053
 158  514.3174
 159  362.9948
 160  50.56755
 161  342.091
 162  781.2453
 163  707.3613
 164  805.7396
 165  887.1672
 166  488.7964
 167  14.53455
 168  256.0918
 169  629.395
 170  660.6492
 171  462.1435
 172  700.362
 173  707.9882
 174  299.8582
 175  395.4042
 176  553.3652
 177  437.3551
 178  304.5746
 179  353.8274
 180  505.7784
 181  378.5394
 182  277.2431
 183  303.7697
 184  262.8047
 185  355.8507
 186  585.1016
 187  508.0542
 188  741.4998
 189  843.2456
 190  538.9694
 191  680.6107
 192  793.47
 193  704.7625
 194  1296.481
 195  1734.401
 196  2105.263
 197  2548.828
 198  2572.283
 199  2192.464
 200  1579.397
 201  1090.927
 202  650.0496
 203  567.2083
 204  546.5051
 205  584.9342
 206  477.7991
 207  560.9237
 208  224.3986
 209  244.2146
 210  746.1573
 211  512.5469
 212  646.2978
 213  640.2751
 214  210.1875
 215  123.1563
 216  411.7888
 217  612.3679
 218  667.7399
 219  558.9752
 220  307.4871
 221  263.6081
 222  441.0284
 223  422.0682
 224  427.7773
 225  438.8616
 226  183.1379
 227  480.9767
 228  355.7146
 229  321.4485
 230  352.6724
 231  637.2921
 232  571.0516
 233  449.8558
 234  523.2391
 235  275.0434
 236  589.1395
 237  402.1136
 238  396.4802
 239  563.1575
 240  398.4957
 241  190.93
 242  358.557
 243  759.2211
 244  577.9855
 245  433.0385
 246  583.253
 247  13.51148
 248  157.7564
 249  404.1057
 250  467.7152
 251  550.3169
 252  599.1777
 253  485.0061
 254  448.2315
 255  397.5923
 256  384.3513
 257  451.457
 258  363.854
 259  314.3925
 260  43.21935
 261  338.292
 262  454.9007
 263  498.9771
 264  385.4968
 265  304.7747
 266  259.6357
 267  585.6125
 268  498.2535
 269  146.4509
 270  264.1817
 271  357.2019
 272  734.1915
 273  440.8933
 274  601.4532
 275  371.5435
 276  210.8676
 277  514.8403
 278  316.478
 279  334.994
 280  531.6242
 281  321.6987
 282  282.9772
 283  187.0486
 284  466.5535
 285  631.4742
 286  191.9595
 287  95.58946
 288  217.7635
 289  259.0989
 290  355.6202
 291  278.3314
 292  114.6606
 293  60.51321
 294  560.3981
 295  679.2557
 296  652.1483
 297  409.9686
 298  421.1723
 299  192.1181
 300  -80.0157
 301  273.5247
 302  317.0456
 303  721.8481
 304  315.0322
 305  245.4479
 306  633.2765
 307  642.1093
 308  550.9615
 309  475.3348
 310  221.074
 311  20.37558
 312  101.3904
 313  413.2845
 314  349.6658
 315  276.0805
 316  425.1983
 317  488.5188
 318  250.7193
 319  188.6467
 320  349.2706
 321  104.5102
 322  149.5793
 323  542.0464
 324  644.6699
 325  547.6788
 326  501.9701
 327  457.8513
 328  277.132
 329  522.5026
 330  421.4164
 331  671.6056
 332  761.0842
 333  740.3697
 334  567.7741
 335  659.5334
 336  732.9
 337  346.9549
 338  502.7691
 339  602.1219
 340  597.7502
 341  276.3151
 342  221.063
 343  296.6248
 344  332.3769
 345  343.2986
 346  253.0703
 347  149.4919
 348  23.56437
 349  -75.74808
 350  156.2036
 351  187.1235
 352  25.77947
 353  24.28483
 354  191.8531
 355  227.2211
 356  180.6386
 357  805.5296
 358  480.9836
 359  317.7506
 360  594.0165
 361  595.9625
 362  65.6684
 363  7.863074
 364  118.8731
 365  274.3554
 366  341.2671
 367  596.9709
 368  533.3993
 369  622.7609
 370  817.2767
 371  549.3999
 372  577.7482
 373  539.1566
 374  358.3388
 375  473.2487
 376  511.7428
 377  453.1031
 378  442.4978
 379  300.0348
 380  363.3881
 381  535.1129
 382  406.1456
 383  522.4766
 384  164.2978
 385  118.389
 386  234.4743
 387  369.5482
 388  702.4918
 389  702.3593
 390  506.2611
 391  461.4142
 392  316.3502
 393  413.8432
 394  496.907
 395  71.90858
 396  550.1048
 397  657.3138
 398  771.4255
 399  936.3718
 400  751.4978
 401  429.7583
 402  215.6425
 403  446.7384
 404  474.214
 405  179.3093
 406  72.45795
 407  184.5308
 408  520.8806
 409  647.8306
 410  732.0693
 411  495.0544
 412  730.0102
 413  314.8483
 414  193.2111
 415  30.42042
 416  212.2906
 417  399.4934
 418  124.859
 419  123.0661
 420  552.6664
 421  423.8442
 422  579.0457
 423  554.3399
 424  62.01929
 425  -48.73793
 426  143.268
 427  388.3922
 428  405.899
 429  223.5258
 430  509.3731
 431  536.7927
 432  372.1417
 433  557.7203
 434  883.7053
 435  549.6918
 436  271.7696
 437  38.12734
 438  12.05679
 439  224.4213
 440  286.0432
 441  637.1652
 442  460.7265
 443  722.5784
 444  772.2722
 445  148.261
 446  304.734
 447  431.4607
 448  235.5784
 449  554.5552
 450  772.0546
 451  482.678
 452  471.7218
 453  354.9787
 454  289.0667
 455  212.7832
 456  335.5916
 457  470.5541
 458  206.6525
 459  350.8422
 460  331.5379
 461  340.4953
 462  551.3482
 463  547.7567
 464  408.4528
 465  532.9796
 466  434.4992
 467  195.8266
 468  466.4781
 469  441.3459
 470  594.1385
 471  488.1185
 472  686.4301
 473  523.682
 474  304.2354
 475  208.6055
 476  349.4631
 477  683.2023
 478  540.6917
 479  650.4932
 480  729.6699
 481  151.7067
 482  552.8179
 483  816.5746
 484  578.6874
 485  303.7934
 486  474.8322
 487  481.8299
 488  433.7013
 489  443.0762
 490  658.5596
 491  340.4943
 492  367.4145
 493  319.3382
 494  143.5665
 495  115.2041
 496  8.364017
 497  121.8909
 498  268.5132
 499  405.485
 500  186.4623
 501  211.4359
 502  143.127
 503  243.5832
 504  244.3287
 505  247.1583
 506  57.1864
 507  197.8799
 508  533.4673
 509  636.6183
 510  468.8371
 511  125.3056
