# Input file       =  1192587082.133473-PSRB0329-2ms-sampling-dd.dat
# Candidate        =  PSR_0332+5434
# Telescope        =  AR
# Epoch_topo       =  58047.091448304083
# Epoch_bary       =  N/A
# T_sample         =  0.002
# Data Folded      =  7340032
# Data Avg         =  -2.41829172652609e-10
# Data StdDev      =  5.62349919862067 
# Profile Bins     =  512
# Profile Avg      =  -0.136951348107192
# Profile StdDev   =  673.318634113164 
# Reduced chi-sqr  =  1.132
# Prob(Noise)      <  0.0205   (~2.0 sigma)
# P_topo (ms)      =  714.486593002143  +/- 9e-05
# P'_topo (s/s)    =  -0                +/- 4.75e-11
# P''_topo (s/s^2) =  0                 +/- 2.1e-14
# P_bary (ms)      =  N/A
# P'_bary (s/s)    =  N/A
# P''_bary (s/s^2) =  N/A
# P_orb (s)        =  N/A
# asin(i)/c (s)    =  N/A
# eccentricity     =  N/A
# w (rad)          =  N/A
# T_peri           =  N/A
######################################################
   0  -587.4793
   1  -365.354
   2  32.02084
   3  -308.5798
   4  160.8355
   5  322.9107
   6  -25.89375
   7  -412.6992
   8  -275.4228
   9  8.19195
  10  314.8682
  11  808.7172
  12  -24.55761
  13  -244.6042
  14  -415.3503
  15  -624.4083
  16  -745.7328
  17  -498.5742
  18  -160.2527
  19  -154.4245
  20  299.6644
  21  125.6125
  22  -211.1296
  23  -383.3641
  24  -644.3155
  25  -630.4948
  26  -359.6243
  27  -215.4804
  28  60.57729
  29  309.5176
  30  -136.1921
  31  151.7858
  32  37.6738
  33  18.92873
  34  -326.7242
  35  -438.9646
  36  -594.1331
  37  -716.9373
  38  -935.9482
  39  -506.9649
  40  12.86207
  41  165.5523
  42  -82.40746
  43  -494.231
  44  -414.0216
  45  -567.2174
  46  -474.0706
  47  -312.8491
  48  -187.3027
  49  -61.69083
  50  423.6692
  51  460.7592
  52  356.3495
  53  355.6277
  54  428.9788
  55  114.5675
  56  -101.2871
  57  383.2855
  58  207.8812
  59  55.6854
  60  388.4612
  61  418.6901
  62  573.6522
  63  400.4382
  64  -81.27988
  65  -305.2697
  66  -185.7519
  67  -433.4427
  68  -538.3611
  69  142.5036
  70  943.1857
  71  623.3348
  72  728.9143
  73  683.558
  74  52.93194
  75  8.214769
  76  238.998
  77  769.2249
  78  595.8693
  79  1107.51
  80  1261.641
  81  473.8564
  82  313.8496
  83  8.079316
  84  -319.0563
  85  -114.9783
  86  -268.3232
  87  -205.9554
  88  53.23655
  89  506.0107
  90  576.2841
  91  579.2415
  92  -38.71663
  93  -64.17849
  94  -334.0086
  95  129.877
  96  540.1938
  97  1177.732
  98  1139.829
  99  453.546
 100  566.0356
 101  152.1983
 102  433.8228
 103  366.7793
 104  137.2984
 105  -159.7663
 106  -330.5721
 107  75.66644
 108  -45.484
 109  190.5429
 110  188.5185
 111  -355.7427
 112  -757.6814
 113  -626.3873
 114  -497.6573
 115  -147.3416
 116  -4.949456
 117  411.7966
 118  -272.1141
 119  -619.949
 120  -418.3431
 121  -84.14909
 122  -16.63439
 123  -300.2925
 124  -267.5925
 125  -338.9433
 126  -564.5921
 127  -306.6343
 128  -25.06655
 129  420.5339
 130  198.1339
 131  679.8743
 132  419.5587
 133  -468.552
 134  163.2298
 135  70.26391
 136  784.887
 137  658.5243
 138  538.1004
 139  830.6201
 140  755.6852
 141  522.41
 142  467.605
 143  115.1741
 144  259.5174
 145  -131.9053
 146  356.6011
 147  858.0543
 148  503.5093
 149  761.3232
 150  366.5059
 151  -230.4932
 152  -193.8382
 153  -85.67769
 154  459.5052
 155  1104.033
 156  1058.096
 157  978.9821
 158  705.2663
 159  498.0777
 160  325.531
 161  483.0845
 162  360.5216
 163  258.1378
 164  288.4654
 165  193.5625
 166  309.3464
 167  313.4425
 168  590.6511
 169  659.3103
 170  133.5457
 171  -47.0239
 172  391.5974
 173  1161.628
 174  921.2321
 175  1010.581
 176  1129.29
 177  330.5028
 178  285.7895
 179  664.6979
 180  250.7353
 181  434.7755
 182  69.5798
 183  730.7358
 184  583.5742
 185  -1.705537
 186  162.047
 187  -171.0684
 188  539.0256
 189  795.6845
 190  257.5723
 191  658.9304
 192  134.7407
 193  362.1685
 194  610.0071
 195  624.9877
 196  833.6151
 197  403.1079
 198  259.3578
 199  -126.7873
 200  -686.1542
 201  -768.1686
 202  -558.1436
 203  -43.85577
 204  297.2258
 205  131.9825
 206  321.1111
 207  166.3709
 208  -86.24743
 209  -241.3347
 210  105.0881
 211  239.5465
 212  404.2904
 213  371.3116
 214  91.03658
 215  292.9377
 216  -381.5889
 217  -104.7998
 218  -107.3575
 219  -654.0706
 220  -517.0933
 221  -517.3929
 222  -88.85505
 223  507.4108
 224  440.9018
 225  545.368
 226  56.15066
 227  -157.1866
 228  -428.3918
 229  -455.5268
 230  13.55679
 231  831.7591
 232  335.6982
 233  369.7497
 234  -96.09928
 235  -354.7289
 236  -72.9556
 237  -31.78362
 238  93.96763
 239  -39.88485
 240  -238.3448
 241  -628.6547
 242  -563.1614
 243  211.2128
 244  386.5656
 245  533.8098
 246  543.9239
 247  -67.8166
 248  -430.0125
 249  163.7308
 250  180.2102
 251  2.484128
 252  -263.8613
 253  -482.2748
 254  48.73631
 255  778.4529
 256  604.3532
 257  390.0924
 258  211.4052
 259  -131.3853
 260  -613.9331
 261  -642.5724
 262  -221.776
 263  219.1153
 264  673.2988
 265  475.7728
 266  563.9092
 267  -151.6263
 268  -119.342
 269  329.4266
 270  953.4068
 271  458.4313
 272  -10.58647
 273  -175.8524
 274  -359.8329
 275  -88.72138
 276  22.80738
 277  -414.7139
 278  -378.9542
 279  -365.8713
 280  -162.7236
 281  22.60681
 282  558.2549
 283  527.6436
 284  318.2657
 285  -135.342
 286  -358.6069
 287  -79.5997
 288  436.692
 289  609.5978
 290  343.2647
 291  -11.96039
 292  -91.07278
 293  110.1823
 294  -334.8216
 295  -560.4146
 296  -294.7806
 297  -7.143081
 298  229.2333
 299  273.7261
 300  404.8847
 301  -77.97743
 302  -149.5524
 303  68.71198
 304  -2.791779
 305  521.8187
 306  569.551
 307  695.2787
 308  476.0966
 309  338.192
 310  220.6651
 311  -261.9254
 312  -212.538
 313  -78.07053
 314  -316.5131
 315  -708.3333
 316  -760.3818
 317  -1066.141
 318  -805.0498
 319  -77.11587
 320  410.7801
 321  493.5716
 322  278.5601
 323  -18.27984
 324  -342.5333
 325  -1036.428
 326  -419.4963
 327  -60.57222
 328  58.72459
 329  99.15157
 330  -103.5951
 331  -145.7998
 332  -506.301
 333  -584.1396
 334  -1048.292
 335  -1225.5
 336  -1146.773
 337  -847.8461
 338  -305.5462
 339  -132.8625
 340  -7.3568
 341  -148.288
 342  -150.2546
 343  -960.7867
 344  -981.498
 345  -601.1987
 346  -184.6434
 347  12.53134
 348  163.0971
 349  101.9342
 350  -359.1053
 351  -453.3999
 352  -490.8865
 353  -897.1418
 354  -648.4782
 355  -705.3558
 356  -887.2885
 357  -416.3681
 358  -445.6185
 359  -563.8368
 360  -707.4791
 361  -581.9843
 362  -623.9232
 363  -287.1041
 364  12.3036
 365  211.2041
 366  -5.011333
 367  -487.3195
 368  -769.743
 369  -641.6111
 370  -1005.451
 371  -945.2536
 372  -369.7437
 373  117.2001
 374  -158.0105
 375  -408.5595
 376  -546.0792
 377  -703.4941
 378  -282.8068
 379  249.0196
 380  55.53565
 381  -275.9554
 382  -466.2542
 383  -375.649
 384  -159.7006
 385  -355.7233
 386  -47.34387
 387  -252.4555
 388  440.7409
 389  1231.69
 390  1895.056
 391  2286.17
 392  2118.689
 393  1341.406
 394  229.0337
 395  -236.4516
 396  -41.98753
 397  351.1348
 398  248.7746
 399  395.7041
 400  -106.9428
 401  -803.6826
 402  -859.7748
 403  -776.5422
 404  -168.9294
 405  144.4488
 406  14.29122
 407  248.782
 408  -51.19029
 409  -396.5924
 410  -686.0414
 411  -674.9417
 412  -885.1401
 413  -739.9965
 414  -948.7161
 415  -481.2036
 416  -472.5321
 417  -781.7902
 418  -549.5477
 419  -1071.551
 420  -876.4321
 421  -396.5232
 422  -439.3448
 423  -539.9076
 424  -530.892
 425  -521.5427
 426  -1401.952
 427  -1266.67
 428  -1172.171
 429  -950.0551
 430  -977.187
 431  -45.55295
 432  -106.0813
 433  -346.7549
 434  -556.0184
 435  -691.9803
 436  -544.5706
 437  -334.647
 438  271.314
 439  226.3706
 440  418.4963
 441  175.9
 442  43.23788
 443  -251.4544
 444  -81.44808
 445  -8.484258
 446  -254.1321
 447  439.4213
 448  648.9327
 449  369.6213
 450  -1.913755
 451  -561.9834
 452  -927.0842
 453  -1129.872
 454  -860.9235
 455  -325.6366
 456  -421.5358
 457  -361.9717
 458  -279.5547
 459  -673.1337
 460  -851.842
 461  -419.2892
 462  -174.5136
 463  -410.3908
 464  -710.3157
 465  -701.6916
 466  -179.9518
 467  -66.08689
 468  -346.6795
 469  -53.01817
 470  -186.6355
 471  -251.6996
 472  -328.1158
 473  -154.7646
 474  403.7
 475  261.6986
 476  513.1808
 477  579.282
 478  382.2488
 479  464.2712
 480  131.5586
 481  730.167
 482  891.873
 483  123.089
 484  504.1651
 485  912.9407
 486  927.306
 487  689.343
 488  899.6775
 489  258.8638
 490  -616.4443
 491  75.75142
 492  199.0049
 493  220.6065
 494  554.9142
 495  449.8708
 496  555.892
 497  266.5527
 498  511.4833
 499  551.2609
 500  247.4354
 501  782.6124
 502  166.8723
 503  226.5713
 504  175.3452
 505  469.8779
 506  92.37957
 507  412.1422
 508  129.1693
 509  -701.6795
 510  -339.574
 511  -44.5055
