# Input file       =  1192040582.118433_cleaned.dat
# Candidate        =  PSR_0332+5434
# Telescope        =  AR
# Epoch_topo       =  58040.766216648532
# Epoch_bary       =  N/A
# T_sample         =  0.002
# Data Folded      =  7208960
# Data Avg         =  0.0148438921317254
# Data StdDev      =  1.00007701716171 
# Profile Bins     =  512
# Profile Avg      =  208.954321093141 
# Profile StdDev   =  118.668314586461 
# Reduced chi-sqr  =  2.051
# Prob(Noise)      <  2.87e-39   (~13.1 sigma)
# P_topo (ms)      =  714.481359225996  +/- 0.000199
# P'_topo (s/s)    =  -0                +/- 1.07e-10
# P''_topo (s/s^2) =  0                 +/- 4.81e-14
# P_bary (ms)      =  N/A
# P'_bary (s/s)    =  N/A
# P''_bary (s/s^2) =  N/A
# P_orb (s)        =  N/A
# asin(i)/c (s)    =  N/A
# eccentricity     =  N/A
# w (rad)          =  N/A
# T_peri           =  N/A
######################################################
   0  1137.055
   1  950.9677
   2  674.4233
   3  466.2619
   4  279.4047
   5  258.7956
   6  324.8503
   7  331.6754
   8  248.538
   9  282.9085
  10  118.8084
  11  215.0803
  12  364.0594
  13  284.2723
  14  355.9179
  15  289.1483
  16  113.8475
  17  143.3375
  18  154.5864
  19  268.0059
  20  274.0279
  21  217.8235
  22  167.6709
  23  198.0101
  24  250.5957
  25  170.6468
  26  191.5171
  27  182.6628
  28  161.4164
  29  198.9417
  30  165.7296
  31  177.004
  32  165.8663
  33  248.121
  34  251.2661
  35  207.8594
  36  266.6829
  37  184.6553
  38  314.0653
  39  206.0982
  40  190.1709
  41  250.6122
  42  130.7718
  43  97.4314
  44  175.8797
  45  329.9665
  46  254.6331
  47  269.8198
  48  279.5967
  49  19.88611
  50  75.83533
  51  166.792
  52  199.0519
  53  219.6354
  54  263.5493
  55  231.2942
  56  211.0524
  57  215.4282
  58  210.6983
  59  182.3071
  60  218.0997
  61  166.5362
  62  67.64283
  63  174.0262
  64  206.4283
  65  252.6317
  66  164.0273
  67  172.1871
  68  167.5703
  69  296.4017
  70  239.1523
  71  90.22194
  72  109.1753
  73  246.0491
  74  344.4261
  75  262.8658
  76  301.1558
  77  136.2922
  78  135.4916
  79  302.627
  80  211.4185
  81  223.7178
  82  324.9315
  83  208.0719
  84  164.2475
  85  108.9721
  86  213.1608
  87  259.4483
  88  98.66725
  89  115.6794
  90  120.5389
  91  136.9366
  92  191.6774
  93  163.1582
  94  106.8164
  95  104.4144
  96  256.4489
  97  368.3174
  98  311.8837
  99  154.3521
 100  220.145
 101  195.6983
 102  53.34536
 103  144.0279
 104  160.1709
 105  321.3714
 106  143.919
 107  142.7617
 108  292.3745
 109  291.215
 110  257.2331
 111  211.3425
 112  106.2744
 113  74.41177
 114  105.149
 115  160.7067
 116  76.30086
 117  80.96722
 118  217.1384
 119  240.6183
 120  146.749
 121  203.3952
 122  145.0927
 123  38.68407
 124  74.60604
 125  269.7585
 126  228.3046
 127  227.748
 128  248.1558
 129  203.0789
 130  166.6422
 131  247.7139
 132  212.5455
 133  302.0994
 134  337.5845
 135  346.0161
 136  278.0328
 137  324.6688
 138  291.8987
 139  170.9354
 140  232.7912
 141  286.636
 142  279.7744
 143  146.74
 144  121.5286
 145  163.8478
 146  164.3224
 147  200.9209
 148  104.4415
 149  92.56466
 150  8.090035
 151  14.04362
 152  69.7439
 153  78.53481
 154  60.40249
 155  21.83856
 156  122.2636
 157  111.3875
 158  208.7732
 159  357.9977
 160  143.6054
 161  125.617
 162  253.7868
 163  261.1936
 164  100.1685
 165  58.62719
 166  88.98886
 167  171.3226
 168  245.6183
 169  269.9984
 170  228.0548
 171  325.5227
 172  377.9349
 173  281.4
 174  260.1907
 175  225.7278
 176  127.9013
 177  210.0023
 178  250.438
 179  247.8757
 180  234.7519
 181  124.2265
 182  186.1558
 183  265.5629
 184  246.3824
 185  244.0203
 186  167.5146
 187  133.8228
 188  158.83
 189  179.7379
 190  319.9758
 191  280.2374
 192  217.0182
 193  200.3348
 194  191.7049
 195  233.1145
 196  179.5867
 197  140.8481
 198  329.8589
 199  310.0889
 200  332.6321
 201  373.2123
 202  246.2186
 203  118.6127
 204  98.6062
 205  209.6031
 206  252.4924
 207  114.039
 208  92.75956
 209  156.5431
 210  245.345
 211  299.2155
 212  284.2403
 213  163.592
 214  299.1821
 215  81.99847
 216  73.04655
 217  69.83403
 218  159.792
 219  127.196
 220  41.06176
 221  72.92751
 222  204.2984
 223  158.4107
 224  302.4127
 225  189.009
 226  -19.00163
 227  1.368396
 228  67.53288
 229  232.6534
 230  163.2134
 231  101.444
 232  157.8075
 233  219.7635
 234  167.1883
 235  255.6057
 236  351.3793
 237  225.7482
 238  188.2117
 239  65.3739
 240  79.1134
 241  138.9682
 242  157.2751
 243  297.3958
 244  173.067
 245  314.6396
 246  263.7086
 247  20.75273
 248  146.7178
 249  180.0734
 250  165.9549
 251  298.7394
 252  316.1448
 253  251.9613
 254  228.8336
 255  170.0465
 256  147.7663
 257  132.866
 258  192.736
 259  187.4929
 260  115.6635
 261  194.2566
 262  206.743
 263  189.7472
 264  277.8135
 265  236.3481
 266  236.3826
 267  265.5077
 268  154.4642
 269  119.4828
 270  244.9548
 271  202.5551
 272  278.0058
 273  260.522
 274  320.7255
 275  231.9769
 276  187.4373
 277  124.9891
 278  171.9168
 279  300.9725
 280  226.2481
 281  299.2289
 282  329.626
 283  105.1623
 284  267.9229
 285  326.4384
 286  219.5887
 287  152.3396
 288  224.7508
 289  235.1199
 290  188.412
 291  201.6741
 292  261.9936
 293  158.5726
 294  173.5016
 295  136.8375
 296  91.33971
 297  43.21661
 298  -18.37923
 299  79.44144
 300  150.9202
 301  186.6796
 302  88.90984
 303  108.6354
 304  81.57647
 305  108.1276
 306  113.127
 307  84.89965
 308  38.15769
 309  119.7955
 310  250.1186
 311  303.2143
 312  178.9554
 313  33.45623
 314  176.3358
 315  282.6873
 316  184.8671
 317  291.4826
 318  271.6746
 319  213.7431
 320  249.246
 321  144.3484
 322  156.228
 323  196.8624
 324  266.4676
 325  248.9691
 326  54.97883
 327  115.3503
 328  307.7186
 329  191.3428
 330  87.92614
 331  81.42249
 332  204.6319
 333  193.8017
 334  267.4087
 335  227.5905
 336  227.5036
 337  319.827
 338  191.3121
 339  249.9858
 340  219.4941
 341  158.8168
 342  189.895
 343  137.7448
 344  195.6366
 345  178.0274
 346  164.3033
 347  251.3699
 348  209.6865
 349  101.9111
 350  135.4038
 351  276.2837
 352  365.7908
 353  169.3938
 354  106.7047
 355  325.2911
 356  391.6243
 357  207.949
 358  260.3257
 359  254.5767
 360  57.71673
 361  60.89705
 362  123.8925
 363  86.00939
 364  393.6806
 365  470.3093
 366  305.0586
 367  166.7848
 368  236.1801
 369  318.5477
 370  254.225
 371  179.4369
 372  354.8375
 373  358.828
 374  332.1014
 375  342.7582
 376  352.3034
 377  239.6597
 378  177.5547
 379  202.6922
 380  287.3427
 381  341.2066
 382  247.3891
 383  64.1681
 384  36.93334
 385  171.6922
 386  237.1935
 387  95.10137
 388  65.10588
 389  84.19632
 390  116.5702
 391  194.679
 392  156.0077
 393  186.0417
 394  134.7588
 395  153.7001
 396  188.9272
 397  139.6217
 398  134.2773
 399  125.5187
 400  -61.57297
 401  143.8152
 402  240.8248
 403  119.4338
 404  250.4237
 405  201.8668
 406  227.2494
 407  253.1596
 408  210.1624
 409  117.3199
 410  126.1607
 411  68.46307
 412  48.54974
 413  192.9263
 414  234.8102
 415  148.6145
 416  174.2208
 417  222.2386
 418  160.95
 419  180.4751
 420  193.2509
 421  155.0779
 422  180.4042
 423  109.8587
 424  42.80807
 425  73.71561
 426  33.57446
 427  150.5736
 428  114.7498
 429  89.35715
 430  116.4012
 431  289.4822
 432  192.9075
 433  218.5945
 434  286.9303
 435  373.1001
 436  330.0434
 437  322.1566
 438  409.5123
 439  361.7278
 440  247.4859
 441  238.1042
 442  274.9555
 443  200.3088
 444  201.5057
 445  119.2139
 446  182.1294
 447  129.1538
 448  148.7616
 449  242.6663
 450  299.1414
 451  185.7177
 452  143.8947
 453  239.3451
 454  182.618
 455  124.1542
 456  89.33597
 457  -30.55735
 458  135.4767
 459  85.11428
 460  124.4085
 461  181.7567
 462  157.9453
 463  149.769
 464  165.0206
 465  80.60921
 466  67.21162
 467  99.41093
 468  164.8401
 469  302.2783
 470  387.4832
 471  245.5832
 472  230.0515
 473  167.9682
 474  63.18733
 475  228.1082
 476  348.0947
 477  375.9047
 478  411.5585
 479  402.1447
 480  169.4604
 481  26.79164
 482  177.1712
 483  322.8592
 484  282.1294
 485  228.3723
 486  355.8004
 487  323.2845
 488  137.4577
 489  198.4035
 490  229.0285
 491  177.0254
 492  124.7299
 493  228.6555
 494  322.6212
 495  225.8521
 496  212.9487
 497  185.2532
 498  154.4359
 499  212.3733
 500  252.9894
 501  288.8985
 502  415.9668
 503  354.1086
 504  236.0413
 505  348.3968
 506  380.9006
 507  376.0071
 508  651.1378
 509  792.4792
 510  1022.272
 511  1181.681
