# Input file       =  1192385205.116898_cleaned.dat
# Candidate        =  PSR_0332+5434
# Telescope        =  AR
# Epoch_topo       =  58044.754908760391
# Epoch_bary       =  N/A
# T_sample         =  0.002
# Data Folded      =  7208960
# Data Avg         =  0.194989592048594
# Data StdDev      =  4.32976794324798 
# Profile Bins     =  256
# Profile Avg      =  5491.08499656179 
# Profile StdDev   =  726.575828704313 
# Reduced chi-sqr  =  0.696
# Prob(Noise)      <  1   (~0.0 sigma)
# P_topo (ms)      =  714.48438224147   +/- 0.000129
# P'_topo (s/s)    =  -0                +/- 6.91e-11
# P''_topo (s/s^2) =  0                 +/- 3.1e-14
# P_bary (ms)      =  N/A
# P'_bary (s/s)    =  N/A
# P''_bary (s/s^2) =  N/A
# P_orb (s)        =  N/A
# asin(i)/c (s)    =  N/A
# eccentricity     =  N/A
# w (rad)          =  N/A
# T_peri           =  N/A
######################################################
   0  5646.405
   1  4906.413
   2  5431.468
   3  5153.488
   4  6166.192
   5  5328.64
   6  5581.535
   7  4887.297
   8  5933.761
   9  5342.459
  10  4717.378
  11  5159.234
  12  5250.311
  13  5939.322
  14  5826.44
  15  5238.186
  16  5643.779
  17  5975.175
  18  4885.221
  19  4970.268
  20  5479.582
  21  5590.256
  22  5937.653
  23  5338.984
  24  5335.36
  25  5781.953
  26  5695.977
  27  5231.181
  28  4753.141
  29  5723.495
  30  4810.491
  31  5712.948
  32  5363.333
  33  5765.203
  34  4844.901
  35  4889.2
  36  5156.481
  37  5771.335
  38  5595.084
  39  5328.73
  40  5851.722
  41  5875.825
  42  4785.628
  43  5231.585
  44  5531.963
  45  6608.946
  46  5921.423
  47  5276.845
  48  5096.831
  49  5643.085
  50  5817.844
  51  5787.748
  52  5689.806
  53  5917.532
  54  5822.417
  55  6078.037
  56  5568.953
  57  5007.08
  58  5551.684
  59  4713.769
  60  3795.512
  61  4375.004
  62  5564.684
  63  5316.393
  64  5767.017
  65  5309.718
  66  5464.006
  67  5128.977
  68  5210.145
  69  5509.702
  70  5504.272
  71  5199.578
  72  4956.7
  73  5123.839
  74  6104.423
  75  5299.256
  76  4696.996
  77  4596.711
  78  5066.059
  79  5395.345
  80  4733.007
  81  5199.388
  82  4840.853
  83  5456.801
  84  4916.117
  85  5095.712
  86  5566.68
  87  5559.566
  88  5814.315
  89  5493.548
  90  5144.226
  91  5305.479
  92  5655.968
  93  5785.02
  94  6381.658
  95  5880.379
  96  5296.458
  97  5369.09
  98  5248.398
  99  5301.642
 100  5152.938
 101  5491.879
 102  5863.905
 103  5864.626
 104  5449.772
 105  5646.868
 106  5387.426
 107  5738.682
 108  5565.135
 109  4503.911
 110  5321.595
 111  4804.885
 112  5644.417
 113  5525.709
 114  5516.639
 115  5124.854
 116  5319.083
 117  4971.266
 118  4965.322
 119  5443.104
 120  5734.444
 121  5343.3
 122  6016.66
 123  5694.364
 124  5060.566
 125  4760.704
 126  5474.986
 127  5799.095
 128  5472.154
 129  5862.877
 130  5461.202
 131  6066.189
 132  5762.947
 133  5370.827
 134  5377.93
 135  5674.236
 136  5952.913
 137  4859.301
 138  5208.838
 139  6064.556
 140  6175.631
 141  5506.139
 142  4736.82
 143  4869.708
 144  5770.436
 145  6214.421
 146  5455.955
 147  4658.826
 148  4925.749
 149  6133.277
 150  5752.554
 151  5354.877
 152  5792.156
 153  6663.332
 154  5279.576
 155  5812.025
 156  6076.7
 157  6064.476
 158  7932.095
 159  8350.031
 160  7726.025
 161  5555.439
 162  5600.318
 163  5858.114
 164  5674.145
 165  6158.435
 166  5689.775
 167  5890.65
 168  6467.505
 169  5598.312
 170  5719.55
 171  5907.996
 172  5541.853
 173  5252.543
 174  5309.723
 175  5224.621
 176  6025.816
 177  5352.408
 178  5592.13
 179  5482.135
 180  4964.538
 181  5132.02
 182  5482.414
 183  4974.49
 184  4938.229
 185  6205.936
 186  5736.989
 187  5586.313
 188  4625.162
 189  5076.792
 190  5002.005
 191  4897.937
 192  4872.434
 193  5574.946
 194  5599.43
 195  5204.587
 196  4621.829
 197  4683.013
 198  6412.2
 199  5496.399
 200  4146.326
 201  4550.521
 202  5679.853
 203  6018.625
 204  5556.336
 205  5295.208
 206  6205.628
 207  5719.007
 208  5548.854
 209  5120.881
 210  5294.245
 211  4834.701
 212  5392.37
 213  5689.61
 214  5594.634
 215  5930.751
 216  5357.765
 217  5876.181
 218  6241.139
 219  5805.984
 220  5787.626
 221  5697.838
 222  5757.73
 223  5571.697
 224  4945.541
 225  5816.498
 226  5608.864
 227  5410.118
 228  5595.669
 229  6082.965
 230  5866.078
 231  5515.946
 232  5595.894
 233  5282.777
 234  5786.366
 235  6306.67
 236  5702.844
 237  5176.613
 238  5404.44
 239  5901.524
 240  6266.216
 241  4852.672
 242  4989.62
 243  5207.896
 244  6000.864
 245  5751.682
 246  5461.051
 247  5130.533
 248  5455.934
 249  4786.584
 250  4932.643
 251  5524.555
 252  6288.872
 253  5907.59
 254  4991.473
 255  5641.586
