# Input file       =  1192729877.127806_cleaned.dat
# Candidate        =  PSR_0332+5434
# Telescope        =  AR
# Epoch_topo       =  58048.744168145902
# Epoch_bary       =  N/A
# T_sample         =  0.002
# Data Folded      =  7143424
# Data Avg         =  -0.00152583893414137
# Data StdDev      =  3.20031234969843 
# Profile Bins     =  256
# Profile Avg      =  -42.9433599048104
# Profile StdDev   =  534.595869681654 
# Reduced chi-sqr  =  1.211
# Prob(Noise)      <  0.0118   (~2.3 sigma)
# P_topo (ms)      =  714.487604183143  +/- 0.000105
# P'_topo (s/s)    =  -0                +/- 5.72e-11
# P''_topo (s/s^2) =  0                 +/- 2.59e-14
# P_bary (ms)      =  N/A
# P'_bary (s/s)    =  N/A
# P''_bary (s/s^2) =  N/A
# P_orb (s)        =  N/A
# asin(i)/c (s)    =  N/A
# eccentricity     =  N/A
# w (rad)          =  N/A
# T_peri           =  N/A
######################################################
   0  98.22896
   1  -818.1964
   2  -418.2382
   3  -469.7224
   4  -838.1628
   5  -478.7489
   6  -123.7645
   7  -71.0993
   8  -330.3172
   9  -150.3256
  10  -16.61339
  11  175.4148
  12  575.5172
  13  576.0293
  14  -255.4223
  15  96.59105
  16  352.4952
  17  536.0178
  18  -462.8329
  19  386.6488
  20  -124.6562
  21  -395.3962
  22  -517.833
  23  12.99467
  24  -124.5054
  25  -56.46606
  26  -563.032
  27  -860.4702
  28  -337.1217
  29  -314.8357
  30  -47.66763
  31  -8.380879
  32  -19.87519
  33  137.5496
  34  -949.9022
  35  -340.2733
  36  -0.4305302
  37  -446.0587
  38  -549.2875
  39  573.1118
  40  368.0267
  41  73.47095
  42  -183.271
  43  37.63676
  44  -525.9089
  45  -163.0853
  46  -656.2592
  47  -110.4951
  48  443.2785
  49  288.8534
  50  -740.736
  51  -851.4171
  52  -437.1797
  53  -916.7939
  54  -783.7351
  55  -699.9172
  56  -353.3801
  57  46.47863
  58  -2.194537
  59  428.5395
  60  237.3641
  61  -98.06731
  62  19.70856
  63  -285.2792
  64  -537.3993
  65  398.064
  66  184.9482
  67  -24.66529
  68  -79.46013
  69  233.44
  70  -110.3899
  71  -814.3467
  72  -522.8288
  73  256.8593
  74  371.2949
  75  632.3149
  76  201.7905
  77  371.3703
  78  123.7874
  79  -371.0871
  80  -105.6692
  81  866.1094
  82  -76.05716
  83  -135.8235
  84  201.8309
  85  280.3744
  86  457.7785
  87  -560.7758
  88  -638.0373
  89  765.8104
  90  396.8132
  91  -342.761
  92  177.7985
  93  -373.101
  94  -91.84039
  95  -479.7394
  96  -262.3634
  97  -73.42196
  98  623.8348
  99  70.89021
 100  -545.7947
 101  -357.7846
 102  -348.7446
 103  186.0752
 104  472.0936
 105  116.9658
 106  203.863
 107  855.6919
 108  -272.4522
 109  -386.898
 110  147.4349
 111  495.0018
 112  51.42324
 113  -227.4506
 114  161.6844
 115  -144.5066
 116  227.768
 117  -74.73068
 118  -192.2041
 119  370.9103
 120  -175.2512
 121  473.6871
 122  335.6121
 123  184.1483
 124  -128.3324
 125  -692.0282
 126  -793.5499
 127  88.35734
 128  -684.7722
 129  -598.7721
 130  208.6492
 131  817.3878
 132  564.9153
 133  -587.4619
 134  -28.11873
 135  -620.455
 136  -396.9147
 137  -32.45182
 138  -135.3125
 139  91.54798
 140  315.7893
 141  -575.2851
 142  -176.098
 143  -12.67051
 144  -319.1612
 145  -298.9068
 146  -163.1854
 147  -806.3066
 148  -33.16715
 149  713.1342
 150  35.12752
 151  297.5304
 152  26.2375
 153  -482.3127
 154  -86.72294
 155  389.7314
 156  1053.93
 157  1368.584
 158  2774.27
 159  2809.831
 160  1573.381
 161  274.5775
 162  -219.4186
 163  -144.1032
 164  696.5808
 165  618.5234
 166  243.8482
 167  642.3876
 168  595.0303
 169  -409.3362
 170  -343.9649
 171  -217.3187
 172  -35.33016
 173  -454.4429
 174  -848.8383
 175  -822.6589
 176  -749.5087
 177  -538.5988
 178  -263.257
 179  -358.1021
 180  -128.1785
 181  -39.29042
 182  -277.2495
 183  -569.1216
 184  -355.9546
 185  -196.8872
 186  16.91362
 187  -456.933
 188  -404.8594
 189  -2.341359
 190  625.8705
 191  -500.5303
 192  -555.3074
 193  -398.4251
 194  323.7182
 195  -151.6228
 196  -311.6895
 197  -457.1387
 198  227.7908
 199  -653.8785
 200  -263.6884
 201  33.26547
 202  268.7143
 203  -108.8532
 204  279.9665
 205  932.0988
 206  183.8184
 207  -88.27726
 208  -51.83983
 209  596.1737
 210  -171.4912
 211  -497.0089
 212  -208.8469
 213  541.4924
 214  9.076606
 215  -656.096
 216  -842.0145
 217  165.1657
 218  2.257852
 219  -823.5575
 220  -741.3783
 221  274.3192
 222  331.3535
 223  -509.2924
 224  128.4589
 225  -427.9368
 226  190.4595
 227  186.4559
 228  -139.4474
 229  -740.0437
 230  -295.9641
 231  458.437
 232  -70.5079
 233  -713.3214
 234  -183.111
 235  56.39045
 236  115.8889
 237  -246.3355
 238  -309.866
 239  226.8786
 240  132.7547
 241  51.11906
 242  459.4637
 243  235.7129
 244  60.78435
 245  -28.91725
 246  816.0974
 247  85.86266
 248  -133.9073
 249  -688.479
 250  513.6729
 251  40.43451
 252  -679.2208
 253  -425.1949
 254  575.4648
 255  1083.201
