# Input file       =  1192845516.153047_cleaned.dat
# Candidate        =  PSR_0332+5434
# Telescope        =  AR
# Epoch_topo       =  58050.082582789895
# Epoch_bary       =  N/A
# T_sample         =  0.002
# Data Folded      =  7340032
# Data Avg         =  0.0550874094582727
# Data StdDev      =  2.7346390860365  
# Profile Bins     =  1024
# Profile Avg      =  394.85613859616  
# Profile StdDev   =  231.525598309426 
# Reduced chi-sqr  =  1.207
# Prob(Noise)      <  5.26e-06   (~4.4 sigma)
# P_topo (ms)      =  714.489069798151  +/- 0.000128
# P'_topo (s/s)    =  -0                +/- 6.77e-11
# P''_topo (s/s^2) =  0                 +/- 2.99e-14
# P_bary (ms)      =  N/A
# P'_bary (s/s)    =  N/A
# P''_bary (s/s^2) =  N/A
# P_orb (s)        =  N/A
# asin(i)/c (s)    =  N/A
# eccentricity     =  N/A
# w (rad)          =  N/A
# T_peri           =  N/A
######################################################
   0  326.5508
   1  345.9207
   2  421.132
   3  381.9402
   4  362.1692
   5  333.2918
   6  370.4123
   7  418.441
   8  404.5684
   9  361.3225
  10  289.4472
  11  320.7386
  12  292.7896
  13  273.5022
  14  388.453
  15  474.2528
  16  400.4135
  17  313.3857
  18  336.1017
  19  436.5035
  20  377.537
  21  327.6078
  22  466.2588
  23  636.5433
  24  660.9967
  25  512.7702
  26  391.8746
  27  293.9399
  28  297.0938
  29  286.8061
  30  211.9139
  31  141.8916
  32  224.6655
  33  356.6013
  34  427.571
  35  482.5779
  36  539.7952
  37  667.2579
  38  629.9626
  39  548.9065
  40  279.3202
  41  124.1424
  42  133.394
  43  286.1152
  44  365.914
  45  277.1631
  46  289.0745
  47  413.4082
  48  556.1379
  49  453.4028
  50  320.5556
  51  221.2147
  52  269.822
  53  365.0653
  54  490.2896
  55  544.1656
  56  462.0388
  57  427.0675
  58  319.3867
  59  293.942
  60  104.9586
  61  95.8747
  62  192.9616
  63  355.6436
  64  407.8988
  65  380.483
  66  374.3749
  67  442.4153
  68  483.2547
  69  476.9851
  70  452.9265
  71  477.1579
  72  493.3116
  73  420.6584
  74  324.6699
  75  316.0017
  76  352.6612
  77  483.379
  78  576.5082
  79  670.4589
  80  714.9553
  81  674.5656
  82  574.9602
  83  511.1588
  84  436.3838
  85  492.0273
  86  538.301
  87  618.1919
  88  560.5846
  89  525.7198
  90  510.088
  91  533.4691
  92  546.3184
  93  625.7849
  94  534.1257
  95  454.3068
  96  310.6383
  97  265.0927
  98  222.8691
  99  281.2703
 100  310.4178
 101  321.2278
 102  355.2919
 103  493.5431
 104  573.6056
 105  563.6072
 106  474.4673
 107  417.7412
 108  392.6057
 109  355.0748
 110  341.0548
 111  461.3712
 112  414.2477
 113  283.5327
 114  165.9671
 115  253.0085
 116  291.0586
 117  357.7642
 118  449.0979
 119  610.3216
 120  618.6915
 121  461.1758
 122  283.2908
 123  261.6317
 124  280.7375
 125  261.6212
 126  134.1749
 127  59.93056
 128  24.085
 129  151.1809
 130  387.9355
 131  627.3451
 132  581.4406
 133  369.9593
 134  270.299
 135  278.5418
 136  274.3647
 137  184.9965
 138  205.9809
 139  300.4837
 140  365.2858
 141  326.8575
 142  372.6712
 143  466.6404
 144  500.8223
 145  529.5349
 146  348.2029
 147  264.8456
 148  175.4528
 149  301.4016
 150  388.7699
 151  344.7188
 152  326.9966
 153  249.3347
 154  264.8929
 155  210.0912
 156  276.105
 157  332.1569
 158  340.6308
 159  346.1524
 160  338.5285
 161  322.2182
 162  227.2038
 163  196.411
 164  254.2632
 165  227.2711
 166  205.3999
 167  148.535
 168  261.1248
 169  328.3932
 170  404.8643
 171  364.1693
 172  315.3693
 173  400.5705
 174  349.4015
 175  323.381
 176  220.5034
 177  307.3132
 178  266.2441
 179  283.5397
 180  293.8823
 181  325.9904
 182  444.9647
 183  404.4812
 184  423.9844
 185  392.8424
 186  433.0121
 187  391.9063
 188  373.1795
 189  359.0841
 190  461.9313
 191  435.857
 192  501.4144
 193  508.7242
 194  468.038
 195  394.5833
 196  322.3464
 197  417.0375
 198  434.2183
 199  465.8764
 200  355.1125
 201  252.3009
 202  119.4406
 203  146.326
 204  136.0101
 205  172.6667
 206  144.236
 207  173.5497
 208  226.687
 209  261.0827
 210  246.4837
 211  274.8488
 212  353.8132
 213  446.3452
 214  511.6779
 215  526.2543
 216  557.3271
 217  380.584
 218  304.9392
 219  240.2914
 220  440.8578
 221  369.3165
 222  295.8369
 223  235.4913
 224  240.6138
 225  260.3925
 226  151.8868
 227  212.1346
 228  214.5484
 229  211.3106
 230  266.2806
 231  305.2074
 232  341.7082
 233  319.1967
 234  324.653
 235  381.8753
 236  378.4895
 237  425.1768
 238  453.3702
 239  426.2716
 240  376.3022
 241  326.7046
 242  329.7334
 243  349.6908
 244  259.3458
 245  197.6923
 246  202.6506
 247  340.9796
 248  364.3764
 249  450.6354
 250  534.3195
 251  551.9448
 252  486.5556
 253  501.5752
 254  551.9293
 255  594.8329
 256  482.1154
 257  409.7046
 258  379.0955
 259  343.8941
 260  315.8528
 261  299.1856
 262  388.7349
 263  402.4041
 264  394.8624
 265  406.5568
 266  490.756
 267  497.1578
 268  508.3171
 269  359.6021
 270  330.9607
 271  248.392
 272  197.6719
 273  226.3761
 274  338.2353
 275  398.2573
 276  404.1236
 277  423.7107
 278  531.5981
 279  496.287
 280  541.0016
 281  457.4035
 282  435.7975
 283  364.5698
 284  338.6642
 285  289.3666
 286  206.963
 287  262.7588
 288  347.5054
 289  431.8595
 290  424.0567
 291  355.6268
 292  294.2592
 293  251.4535
 294  332.0065
 295  478.7043
 296  504.4929
 297  508.7141
 298  430.4899
 299  347.9677
 300  102.6352
 301  255.9942
 302  277.9778
 303  355.0637
 304  224.5113
 305  349.6269
 306  421.3348
 307  418.016
 308  434.8842
 309  568.1866
 310  535.8088
 311  486.5616
 312  387.5583
 313  360.3707
 314  339.446
 315  326.6729
 316  415.9554
 317  562.5604
 318  472.6997
 319  448.9331
 320  455.8451
 321  560.4119
 322  431.7639
 323  357.6425
 324  418.1127
 325  478.0521
 326  410.717
 327  383.0701
 328  410.6456
 329  354.0551
 330  314.1118
 331  365.7163
 332  339.4451
 333  334.2951
 334  255.71
 335  347.0201
 336  416.889
 337  470.0834
 338  512.3491
 339  505.3546
 340  512.2451
 341  555.0697
 342  560.0131
 343  474.156
 344  279.2917
 345  246.1122
 346  269.3276
 347  291.8882
 348  321.6263
 349  247.8904
 350  129.8577
 351  44.70479
 352  202.2875
 353  378.3055
 354  485.3916
 355  485.4933
 356  430.214
 357  367.6939
 358  326.8473
 359  324.6592
 360  423.7201
 361  430.8134
 362  413.1294
 363  333.3118
 364  341.3156
 365  424.9156
 366  564.8033
 367  647.6176
 368  588.4573
 369  528.6169
 370  478.5422
 371  421.8847
 372  411.3239
 373  432.6333
 374  450.543
 375  346.7488
 376  226.6657
 377  203.1001
 378  241.7988
 379  337.7211
 380  325.1024
 381  296.3536
 382  287.0587
 383  447.9022
 384  658.0367
 385  691.0422
 386  632.7123
 387  486.2869
 388  492.4142
 389  339.5385
 390  309.3857
 391  187.3624
 392  106.0496
 393  51.1966
 394  77.13029
 395  222.6588
 396  244.7728
 397  304.0452
 398  269.1821
 399  315.0136
 400  378.1338
 401  364.6164
 402  399.6927
 403  493.6569
 404  529.6458
 405  447.8127
 406  414.023
 407  450.2086
 408  399.8037
 409  327.6769
 410  396.7915
 411  578.0416
 412  616.167
 413  529.7251
 414  426.695
 415  384.2699
 416  440.2207
 417  515.2245
 418  584.8131
 419  651.1121
 420  564.501
 421  361.8243
 422  286.8
 423  387.0864
 424  500.2884
 425  481.5223
 426  470.4471
 427  582.5739
 428  574.7839
 429  454.9576
 430  260.7315
 431  174.8349
 432  173.296
 433  242.908
 434  313.7935
 435  445.7504
 436  436.2811
 437  471.8388
 438  454.2102
 439  451.8969
 440  513.4183
 441  525.8288
 442  558.5103
 443  444.3075
 444  351.4769
 445  236.5941
 446  196.9632
 447  230.7693
 448  198.5212
 449  230.2228
 450  307.4898
 451  315.615
 452  437.1416
 453  361.4612
 454  555.3
 455  526.3182
 456  543.4577
 457  381.1129
 458  393.3303
 459  372.2699
 460  358.7944
 461  298.7295
 462  284.2184
 463  273.0318
 464  304.6623
 465  378.0216
 466  328.9303
 467  361.6752
 468  369.3307
 469  399.9811
 470  378.4438
 471  436.8376
 472  410.2357
 473  389.6687
 474  342.1922
 475  452.2732
 476  440.3212
 477  440.1366
 478  425.5586
 479  413.3108
 480  469.5044
 481  446.0074
 482  447.0698
 483  395.8685
 484  378.6358
 485  296.9784
 486  227.2314
 487  138.3332
 488  124.3701
 489  106.9294
 490  134.8795
 491  137.4654
 492  200.3983
 493  263.2379
 494  287.4372
 495  255.5763
 496  271.2194
 497  345.5874
 498  438.0906
 499  487.8079
 500  532.158
 501  496.1122
 502  474.6782
 503  387.9357
 504  362.3185
 505  256.7469
 506  209.4191
 507  232.74
 508  267.2377
 509  358.176
 510  429.6172
 511  439.8881
 512  410.657
 513  299.7595
 514  248.3124
 515  195.8327
 516  296.3031
 517  472.2108
 518  484.6741
 519  426.5371
 520  298.5277
 521  227.3785
 522  196.7342
 523  305.0648
 524  409.9238
 525  471.7105
 526  441.0401
 527  387.0646
 528  277.4373
 529  337.2545
 530  416.0531
 531  469.1566
 532  437.5577
 533  418.2626
 534  486.7075
 535  560.8911
 536  576.9999
 537  411.8501
 538  349.2607
 539  381.1797
 540  448.5767
 541  312.9
 542  291.1954
 543  297.6552
 544  277.4913
 545  201.2695
 546  187.5413
 547  260.5453
 548  238.9949
 549  195.6386
 550  192.6223
 551  207.6999
 552  280.4564
 553  321.3857
 554  383.3919
 555  409.9032
 556  390.2399
 557  320.0862
 558  242.143
 559  240.0912
 560  350.148
 561  365.49
 562  371.8385
 563  392.412
 564  414.35
 565  462.384
 566  442.6931
 567  528.0355
 568  533.9084
 569  489.8557
 570  505.1823
 571  434.7124
 572  328.3722
 573  253.0049
 574  277.2826
 575  411.0231
 576  397.1067
 577  446.6541
 578  399.7796
 579  410.8562
 580  309.6739
 581  215.7428
 582  252.2908
 583  345.1344
 584  374.7913
 585  380.9704
 586  336.0015
 587  317.6662
 588  303.4009
 589  319.6796
 590  422.798
 591  430.1546
 592  372.0815
 593  447.4296
 594  451.9851
 595  521.8969
 596  480.3269
 597  568.3275
 598  616.6905
 599  657.4698
 600  649.7328
 601  514.1044
 602  311.6472
 603  214.0063
 604  262.8322
 605  375.4662
 606  465.765
 607  532.2627
 608  605.6913
 609  576.3076
 610  518.3989
 611  559.8898
 612  552.1886
 613  535.7831
 614  512.0681
 615  441.5975
 616  320.0151
 617  143.2999
 618  202.4085
 619  295.1215
 620  351.1275
 621  360.2785
 622  339.7563
 623  387.8899
 624  439.0722
 625  486.1825
 626  616.1934
 627  656.684
 628  731.4397
 629  795.8141
 630  884.358
 631  1000.751
 632  1034.541
 633  1168.929
 634  1211.879
 635  1262.072
 636  1290.211
 637  1202.071
 638  1054.484
 639  870.0721
 640  830.9934
 641  729.1386
 642  596.7022
 643  474.8308
 644  453.675
 645  472.6622
 646  498.3124
 647  509.7238
 648  559.7225
 649  509.7606
 650  417.1425
 651  355.2796
 652  374.903
 653  381.6466
 654  338.092
 655  231.7511
 656  293.0564
 657  355.8895
 658  486.9316
 659  431.198
 660  487.5041
 661  624.0381
 662  666.2596
 663  643.7261
 664  574.0497
 665  539.3454
 666  414.5227
 667  415.6907
 668  449.9477
 669  612.4868
 670  440.7496
 671  437.1483
 672  379.8094
 673  310.6717
 674  287.1948
 675  419.3945
 676  604.9006
 677  598.4575
 678  448.1859
 679  413.0041
 680  411.5089
 681  492.0816
 682  452.8213
 683  428.2589
 684  367.1604
 685  448.1244
 686  433.046
 687  540.3348
 688  577.732
 689  529.5994
 690  424.0396
 691  361.6609
 692  380.7021
 693  346.4726
 694  273.7333
 695  278.7483
 696  429.6274
 697  477.029
 698  518.7153
 699  463.9309
 700  486.3467
 701  475.4173
 702  422.064
 703  403.7743
 704  397.2923
 705  442.6507
 706  373.776
 707  371.7509
 708  299.7059
 709  354.3343
 710  390.1675
 711  451.5424
 712  387.3195
 713  442.089
 714  433.3092
 715  299.6872
 716  125.605
 717  156.8957
 718  353.9418
 719  386.17
 720  297.8831
 721  188.8848
 722  254.9515
 723  221.2582
 724  343.6666
 725  408.4264
 726  527.8058
 727  421.2032
 728  334.4121
 729  302.3106
 730  353.5542
 731  426.3727
 732  497.631
 733  454.2364
 734  416.5234
 735  369.848
 736  483.8321
 737  433.5578
 738  421.0222
 739  339.8738
 740  315.4087
 741  210.067
 742  172.5878
 743  291.635
 744  379.8913
 745  336.4418
 746  370.4301
 747  405.8064
 748  459.8425
 749  346.6228
 750  342.4404
 751  272.5497
 752  282.5012
 753  302.4754
 754  385.0895
 755  321.8421
 756  210.5429
 757  275.5804
 758  402.1793
 759  503.6355
 760  529.0302
 761  516.4831
 762  472.4628
 763  414.2444
 764  452.0845
 765  528.9523
 766  495.4577
 767  364.7082
 768  274.0448
 769  228.4418
 770  187.7824
 771  215.1775
 772  174.3143
 773  134.1099
 774  176.6108
 775  354.4169
 776  383.3473
 777  346.7015
 778  349.3565
 779  525.0211
 780  526.2752
 781  430.2569
 782  373.912
 783  260.802
 784  259.421
 785  247.2086
 786  427.7339
 787  538.6833
 788  573.652
 789  656.6815
 790  638.3964
 791  584.136
 792  545.3851
 793  582.8408
 794  607.175
 795  517.5898
 796  517.9811
 797  419.5598
 798  388.7473
 799  308.8511
 800  405.916
 801  494.767
 802  500.8188
 803  432.8261
 804  341.6296
 805  434.42
 806  475.3587
 807  466.5221
 808  447.3745
 809  436.1847
 810  533.0301
 811  562.8101
 812  538.8467
 813  523.4257
 814  332.2484
 815  232.1825
 816  233.5269
 817  344.3744
 818  369.6124
 819  296.0065
 820  281.7498
 821  360.7272
 822  438.8776
 823  608.145
 824  705.9421
 825  692.6479
 826  606.5781
 827  434.5594
 828  401.4802
 829  323.8213
 830  399.6396
 831  379.2832
 832  342.0188
 833  345.4289
 834  387.1894
 835  432.6902
 836  467.3979
 837  359.4221
 838  335.0817
 839  340.8125
 840  308.0812
 841  249.5868
 842  229.2474
 843  320.9328
 844  418.2663
 845  394.176
 846  383.657
 847  382.9987
 848  435.7041
 849  443.1353
 850  374.6551
 851  262.2085
 852  233.158
 853  244.3027
 854  308.1857
 855  437.7754
 856  503.4905
 857  486.5066
 858  338.2235
 859  363.6154
 860  414.58
 861  486.4596
 862  526.9987
 863  505.5287
 864  420.3466
 865  384.5082
 866  391.4044
 867  413.9172
 868  403.3985
 869  441.8001
 870  446.148
 871  339.4172
 872  433.0912
 873  478.6639
 874  610.8986
 875  477.1612
 876  321.3975
 877  184.7807
 878  241.7585
 879  386.7151
 880  430.5258
 881  360.9264
 882  238.3834
 883  267.6778
 884  311.2391
 885  478.5517
 886  622.1144
 887  744.5564
 888  557.3855
 889  400.4196
 890  369.7806
 891  447.0373
 892  405.3422
 893  367.7668
 894  392.9055
 895  402.3762
 896  303.5818
 897  165.2827
 898  165.3317
 899  215.6279
 900  243.825
 901  236.3714
 902  362.5349
 903  370.9005
 904  360.0419
 905  320.7871
 906  377.6374
 907  376.8163
 908  438.5198
 909  458.479
 910  517.8537
 911  521.8923
 912  565.4856
 913  653.5608
 914  577.1452
 915  449.9025
 916  419.1439
 917  509.0396
 918  578.9827
 919  469.7535
 920  386.754
 921  368.7107
 922  391.4637
 923  406.5678
 924  336.215
 925  273.6547
 926  226.1501
 927  339.9958
 928  367.4054
 929  428.6366
 930  473.9567
 931  522.1575
 932  517.5399
 933  366.3477
 934  333.3042
 935  249.1479
 936  250.8637
 937  251.8725
 938  244.9096
 939  297.6204
 940  239.7552
 941  411.745
 942  522.6821
 943  545.7521
 944  462.293
 945  437.1917
 946  532.3525
 947  495.2756
 948  410.7586
 949  274.2511
 950  310.8906
 951  340.9212
 952  415.6319
 953  386.146
 954  310.5149
 955  327.7988
 956  422.2732
 957  508.8927
 958  553.9672
 959  481.1907
 960  472.9378
 961  443.8963
 962  391.4183
 963  376.7086
 964  409.8981
 965  426.623
 966  390.1083
 967  355.2227
 968  418.1201
 969  422.4082
 970  420.9601
 971  422.6443
 972  567.7962
 973  599.6334
 974  551.3795
 975  471.1408
 976  508.5686
 977  439.7796
 978  502.6627
 979  416.0534
 980  354.3183
 981  172.3618
 982  178.7964
 983  316.0368
 984  351.9356
 985  311.8597
 986  268.692
 987  377.6687
 988  539.4776
 989  555.97
 990  522.6201
 991  438.2862
 992  434.2231
 993  422.7668
 994  352.0792
 995  340.9515
 996  340.076
 997  367.1579
 998  339.4096
 999  371.5638
1000  356.8246
1001  327.4893
1002  189.267
1003  70.98235
1004  41.61242
1005  181.4016
1006  407.058
1007  572.3904
1008  666.296
1009  598.8228
1010  496.7352
1011  370.3846
1012  385.4177
1013  511.1236
1014  554.8768
1015  553.4137
1016  342.9816
1017  245.9057
1018  293.7561
1019  292.123
1020  383.1051
1021  444.6952
1022  533.9374
1023  432.2413
