# Input file       =  1192673223.132615-PSRB0329-2ms-sampling-dd.dat
# Candidate        =  PSR_0332+5434
# Telescope        =  AR
# Epoch_topo       =  58048.088450608971
# Epoch_bary       =  N/A
# T_sample         =  0.002
# Data Folded      =  7340032
# Data Avg         =  1.18725602736163e-10
# Data StdDev      =  5.38451868568126 
# Profile Bins     =  512
# Profile Avg      =  0.0123246385915851
# Profile StdDev   =  644.704771664051 
# Reduced chi-sqr  =  0.863
# Prob(Noise)      <  0.988   (~0.0 sigma)
# P_topo (ms)      =  714.487407455799  +/- 0.000108
# P'_topo (s/s)    =  -0                +/- 5.7e-11
# P''_topo (s/s^2) =  0                 +/- 2.52e-14
# P_bary (ms)      =  N/A
# P'_bary (s/s)    =  N/A
# P''_bary (s/s^2) =  N/A
# P_orb (s)        =  N/A
# asin(i)/c (s)    =  N/A
# eccentricity     =  N/A
# w (rad)          =  N/A
# T_peri           =  N/A
######################################################
   0  377.4377
   1  399.6958
   2  283.7652
   3  -336.9966
   4  -903.2906
   5  -563.0594
   6  -165.2896
   7  139.2038
   8  169.0771
   9  11.84082
  10  -333.8761
  11  -477.6425
  12  -260.8872
  13  48.25812
  14  334.213
  15  397.1768
  16  46.95108
  17  -253.9136
  18  -400.4517
  19  -85.74598
  20  -114.3152
  21  -328.3032
  22  61.13238
  23  -32.37017
  24  157.1092
  25  -174.0122
  26  -367.8518
  27  -82.4744
  28  -177.3805
  29  -260.1576
  30  -84.14575
  31  -131.8561
  32  -491.9415
  33  -896.9734
  34  -769.8151
  35  -586.359
  36  -604.931
  37  -387.4541
  38  -206.4647
  39  -297.6257
  40  -388.0981
  41  -729.9534
  42  -368.5232
  43  -416.2297
  44  -312.5957
  45  -167.7496
  46  -64.57406
  47  -47.12487
  48  106.0813
  49  270.552
  50  34.9721
  51  -179.7445
  52  -102.3321
  53  -104.7924
  54  -315.6029
  55  -213.8213
  56  -249.0979
  57  291.4716
  58  347.8691
  59  -42.31506
  60  -103.353
  61  -250.2399
  62  -373.112
  63  -290.7307
  64  284.767
  65  419.7268
  66  345.6874
  67  -5.856148
  68  -389.753
  69  -381.8929
  70  -7.588667
  71  340.3472
  72  321.796
  73  -86.22111
  74  177.29
  75  -301.2205
  76  -189.1527
  77  432.0856
  78  951.139
  79  1001.031
  80  777.0156
  81  1015.174
  82  886.6575
  83  1029.032
  84  243.4821
  85  479.5348
  86  894.1171
  87  503.2491
  88  237.3695
  89  514.1935
  90  622.9042
  91  -47.86601
  92  -52.64253
  93  82.82115
  94  -159.1382
  95  534.0646
  96  121.9896
  97  -418.7831
  98  -185.0326
  99  204.8412
 100  105.7669
 101  98.54735
 102  -335.8002
 103  -198.5685
 104  -293.9211
 105  -118.6847
 106  -247.6588
 107  -161.5768
 108  -120.461
 109  -237.323
 110  -398.7504
 111  -544.8875
 112  -471.6011
 113  -194.2365
 114  123.3987
 115  223.3917
 116  589.892
 117  434.1884
 118  -169.8769
 119  -40.65707
 120  196.505
 121  116.1777
 122  764.0212
 123  925.8937
 124  953.0649
 125  355.0708
 126  -47.13079
 127  246.1832
 128  81.48716
 129  555.5426
 130  514.2509
 131  643.4907
 132  465.7252
 133  -373.3793
 134  -430.485
 135  -158.3535
 136  -348.1577
 137  -101.6406
 138  30.96047
 139  454.4189
 140  21.69455
 141  -520.1061
 142  -392.3044
 143  -221.5795
 144  113.3124
 145  85.72263
 146  88.83112
 147  51.64457
 148  -65.30391
 149  -34.12312
 150  -92.48811
 151  -240.887
 152  -211.8596
 153  -109.0376
 154  8.512619
 155  95.51396
 156  560.7128
 157  281.8529
 158  258.2585
 159  488.2439
 160  375.2905
 161  108.8788
 162  88.06225
 163  28.18561
 164  330.8268
 165  626.3058
 166  899.2435
 167  1056.943
 168  759.9777
 169  956.1323
 170  1184.834
 171  1310.233
 172  1499.461
 173  1664.11
 174  1666.337
 175  842.1672
 176  664.2263
 177  762.1026
 178  310.4271
 179  296.7144
 180  -31.27967
 181  612.0474
 182  869.3362
 183  527.542
 184  884.6627
 185  679.2052
 186  744.8965
 187  811.9547
 188  520.2078
 189  415.7922
 190  68.07668
 191  -292.2773
 192  -225.7417
 193  -285.7059
 194  -504.2896
 195  -340.1924
 196  -177.1505
 197  263.4124
 198  299.1211
 199  511.3831
 200  737.5303
 201  281.1016
 202  -33.54978
 203  -9.837397
 204  94.7727
 205  244.9337
 206  370.226
 207  647.1249
 208  537.6602
 209  306.4273
 210  185.1713
 211  -126.2757
 212  -197.5843
 213  181.7949
 214  258.6903
 215  103.9215
 216  -138.7092
 217  -18.98257
 218  128.7177
 219  2.267556
 220  139.9291
 221  -46.78445
 222  151.5169
 223  122.4996
 224  325.9132
 225  378.3893
 226  751.2523
 227  549.8382
 228  553.9496
 229  420.873
 230  -24.42366
 231  36.64646
 232  451.374
 233  408.7318
 234  213.707
 235  334.9174
 236  -117.4996
 237  -288.61
 238  143.7352
 239  272.0547
 240  495.1643
 241  313.8378
 242  249.6208
 243  376.7813
 244  468.1557
 245  552.4296
 246  608.069
 247  649.0397
 248  105.8916
 249  -184.0676
 250  -16.06617
 251  119.8759
 252  184.5733
 253  34.54527
 254  142.3879
 255  -96.86295
 256  -210.0141
 257  80.45597
 258  -183.7423
 259  -103.0031
 260  -25.78693
 261  -337.5506
 262  -532.2871
 263  -64.48215
 264  193.2312
 265  -63.80994
 266  333.3008
 267  210.9429
 268  269.8375
 269  240.4105
 270  627.3331
 271  578.2295
 272  272.7243
 273  -50.10267
 274  689.9182
 275  967.7642
 276  545.2407
 277  654.0164
 278  324.6804
 279  199.2355
 280  123.1662
 281  796.2861
 282  848.9725
 283  700.0004
 284  568.4824
 285  270.5807
 286  137.0746
 287  -86.53923
 288  19.4364
 289  59.95407
 290  453.4837
 291  445.3447
 292  156.9629
 293  14.23267
 294  -252.3723
 295  -134.7486
 296  -158.9626
 297  -178.1093
 298  14.38918
 299  164.8488
 300  636.3157
 301  316.0961
 302  121.1525
 303  332.9687
 304  227.8781
 305  120.2886
 306  -131.9239
 307  14.55223
 308  368.7263
 309  625.2236
 310  1142.1
 311  538.7029
 312  62.7902
 313  267.9344
 314  -312.2291
 315  -484.6969
 316  -268.0622
 317  141.8625
 318  80.25526
 319  -91.98481
 320  -271.5438
 321  -623.5176
 322  -668.8765
 323  -645.8095
 324  -482.731
 325  -88.33205
 326  289.4288
 327  61.86355
 328  -66.9912
 329  -358.2824
 330  -537.8792
 331  -116.8461
 332  37.64314
 333  -77.19089
 334  -64.61149
 335  480.6707
 336  126.252
 337  -259.2237
 338  -447.2866
 339  -372.5912
 340  145.4111
 341  170.4983
 342  576.2317
 343  214.961
 344  -392.5165
 345  -563.6249
 346  -199.2894
 347  -646.2122
 348  -498.688
 349  -11.21759
 350  -290.7413
 351  -354.036
 352  -473.9446
 353  -209.1712
 354  -488.6795
 355  -398.0861
 356  -277.023
 357  -319.1318
 358  -227.0309
 359  114.758
 360  282.4221
 361  -5.583775
 362  -386.0377
 363  -622.1772
 364  -219.421
 365  -304.6596
 366  -342.8394
 367  -132.8098
 368  -35.39866
 369  5.237152
 370  114.5774
 371  -2.411827
 372  -311.7538
 373  -53.53533
 374  -4.135224
 375  164.8103
 376  72.47858
 377  291.3242
 378  119.8662
 379  -399.3406
 380  -558.5121
 381  -153.3971
 382  184.8551
 383  209.8866
 384  230.0391
 385  135.1274
 386  -154.816
 387  -699.9988
 388  -775.9072
 389  -651.0501
 390  -158.8691
 391  -43.5955
 392  421.1915
 393  45.7073
 394  -67.62157
 395  -604.5966
 396  -479.7803
 397  -384.5768
 398  -64.23208
 399  -170.6237
 400  -78.90572
 401  254.5661
 402  -162.8014
 403  -163.7526
 404  -522.2347
 405  -553.6271
 406  -664.3379
 407  -640.1833
 408  -205.3726
 409  -532.6215
 410  -327.1559
 411  -124.3012
 412  -564.265
 413  -688.623
 414  -114.2591
 415  -410.9774
 416  -683.3279
 417  -650.8825
 418  -460.2019
 419  -685.3937
 420  -803.0342
 421  -651.3537
 422  -653.896
 423  -295.829
 424  -45.0132
 425  19.01925
 426  264.786
 427  108.3637
 428  -87.29894
 429  -674.7381
 430  -482.5828
 431  -525.5867
 432  -231.0454
 433  37.1613
 434  131.6075
 435  120.2358
 436  94.20708
 437  -272.3209
 438  -549.4402
 439  -314.978
 440  47.34679
 441  54.33737
 442  -297.6214
 443  -353.2111
 444  -493.1102
 445  -282.2908
 446  -164.0542
 447  -527.3235
 448  -709.8775
 449  -728.0902
 450  -828.2861
 451  -1114.689
 452  -911.7388
 453  -453.6992
 454  -534.7158
 455  -532.8449
 456  -324.6302
 457  -311.0415
 458  -431.8602
 459  -446.2619
 460  66.72717
 461  331.7645
 462  421.049
 463  96.2075
 464  -299.7653
 465  -656.1154
 466  -861.8061
 467  -196.3587
 468  445.0335
 469  480.3352
 470  -22.09304
 471  -103.3186
 472  -168.7274
 473  -555.7654
 474  -451.4242
 475  -10.87695
 476  -86.28983
 477  104.9684
 478  -592.2659
 479  -252.5379
 480  -595.1575
 481  -889.7332
 482  -515.2672
 483  -210.175
 484  -50.34422
 485  -213.9951
 486  -683.9006
 487  -1280.464
 488  -1344.646
 489  -695.3667
 490  -512.0699
 491  -367.7274
 492  -340.1894
 493  -223.8439
 494  -337.5604
 495  -275.11
 496  -229.9504
 497  -288.8544
 498  -228.8602
 499  180.1149
 500  85.86008
 501  132.1487
 502  268.8047
 503  57.85391
 504  216.089
 505  20.02072
 506  6.632087
 507  -102.0718
 508  -276.507
 509  -399.2484
 510  -520.429
 511  156.0604
