# Input file       =  1192055239.118371-PSRB0329-2ms-sampling-dd.dat
# Candidate        =  PSR_0332+5434
# Telescope        =  AR
# Epoch_topo       =  58040.935857851517
# Epoch_bary       =  N/A
# T_sample         =  0.002
# Data Folded      =  7340032
# Data Avg         =  -3.46758047111439e-10
# Data StdDev      =  5.21356276594409 
# Profile Bins     =  512
# Profile Avg      =  0.0858730906910007
# Profile StdDev   =  624.235700307338 
# Reduced chi-sqr  =  1.279
# Prob(Noise)      <  1.93e-05   (~4.1 sigma)
# P_topo (ms)      =  714.481497566481  +/- 4.05e-05
# P'_topo (s/s)    =  -0                +/- 2.14e-11
# P''_topo (s/s^2) =  0                 +/- 9.44e-15
# P_bary (ms)      =  N/A
# P'_bary (s/s)    =  N/A
# P''_bary (s/s^2) =  N/A
# P_orb (s)        =  N/A
# asin(i)/c (s)    =  N/A
# eccentricity     =  N/A
# w (rad)          =  N/A
# T_peri           =  N/A
######################################################
   0  -813.0589
   1  -921.0905
   2  -301.1557
   3  -240.577
   4  -418.6608
   5  -1054.947
   6  -1142.198
   7  -1409.096
   8  -1277.062
   9  -985.5073
  10  -501.173
  11  -720.4538
  12  -949.8154
  13  -1190.212
  14  -1319.272
  15  -1146.178
  16  -519.4775
  17  -371.0431
  18  -529.7775
  19  -768.8586
  20  -848.8176
  21  -733.2388
  22  -909.9818
  23  -745.0074
  24  -299.06
  25  51.30662
  26  -446.2527
  27  -832.472
  28  -604.7797
  29  -423.4532
  30  -23.3323
  31  670.2027
  32  600.9902
  33  -261.7581
  34  -697.4822
  35  -1043.971
  36  -1116.663
  37  -688.0709
  38  119.6794
  39  22.66994
  40  -280.5152
  41  -499.1643
  42  -584.6176
  43  -786.8316
  44  -748.3152
  45  -375.8436
  46  -256.9863
  47  -276.5095
  48  -392.3092
  49  -356.2863
  50  -584.0904
  51  -292.1371
  52  -327.5987
  53  -133.5613
  54  -147.8723
  55  -647.7535
  56  -1147.408
  57  -591.3176
  58  14.03441
  59  35.99081
  60  44.77388
  61  -227.2064
  62  -535.5184
  63  -538.7606
  64  -463.2301
  65  -358.1031
  66  -99.28877
  67  -236.736
  68  -169.1761
  69  -316.0628
  70  -822.7404
  71  -421.9947
  72  -86.78629
  73  446.9201
  74  295.8179
  75  290.7039
  76  -70.48949
  77  -278.6264
  78  -419.3243
  79  -447.2932
  80  -344.436
  81  -51.36913
  82  286.5288
  83  429.1801
  84  350.6422
  85  -173.385
  86  -459.4703
  87  -342.5686
  88  357.6805
  89  550.8474
  90  496.208
  91  319.5551
  92  57.53652
  93  -504.2806
  94  -834.794
  95  -538.6719
  96  203.4979
  97  572.9598
  98  368.8123
  99  16.19314
 100  61.40768
 101  90.81348
 102  863.553
 103  1742.4
 104  2341.786
 105  2596.144
 106  2170.507
 107  1805.467
 108  596.2528
 109  17.91563
 110  640.8152
 111  574.7888
 112  126.1248
 113  -181.9725
 114  -124.7107
 115  -323.8227
 116  164.904
 117  326.3997
 118  261.8284
 119  -8.441136
 120  455.4323
 121  432.2838
 122  -170.6054
 123  -394.359
 124  213.2163
 125  432.8317
 126  701.9236
 127  378.9944
 128  197.7418
 129  283.0082
 130  333.0147
 131  486.264
 132  805.7398
 133  233.9132
 134  214.4934
 135  -30.896
 136  -401.427
 137  -463.558
 138  -12.85919
 139  51.65676
 140  -149.7923
 141  -348.3952
 142  -346.9261
 143  -679.6947
 144  29.67535
 145  249.5459
 146  446.766
 147  203.3722
 148  319.0916
 149  433.9168
 150  -141.6198
 151  -336.6725
 152  -240.1473
 153  -93.92096
 154  -35.31122
 155  65.18389
 156  -411.9998
 157  -557.7656
 158  -547.8202
 159  -125.3568
 160  256.4977
 161  448.3895
 162  110.9118
 163  -2.75779
 164  -133.8004
 165  -242.7868
 166  -432.4562
 167  -33.3268
 168  296.564
 169  321.4333
 170  249.5901
 171  108.9979
 172  154.424
 173  432.397
 174  518.2151
 175  577.1782
 176  679.3863
 177  725.5652
 178  372.4278
 179  181.8863
 180  110.6409
 181  -102.1247
 182  89.3606
 183  137.6132
 184  310.1665
 185  -252.5569
 186  -421.926
 187  -586.1245
 188  -281.3517
 189  -212.2108
 190  -270.6777
 191  -217.2538
 192  -47.67445
 193  -388.7103
 194  -444.5889
 195  -483.3658
 196  -124.7003
 197  27.19704
 198  -118.8803
 199  -302.3326
 200  86.00301
 201  77.74083
 202  263.3112
 203  2.101462
 204  -29.88011
 205  -82.52971
 206  401.8923
 207  566.547
 208  279.1423
 209  202.7305
 210  296.3709
 211  164.9815
 212  187.463
 213  209.091
 214  9.844582
 215  107.1506
 216  566.938
 217  487.1039
 218  662.655
 219  402.9679
 220  439.3678
 221  777.4958
 222  672.2979
 223  417.8535
 224  54.57517
 225  410.6667
 226  686.8455
 227  977.3436
 228  1190.488
 229  579.327
 230  211.5863
 231  355.101
 232  562.8788
 233  476.3225
 234  626.7098
 235  495.572
 236  73.35576
 237  -76.90218
 238  -81.90455
 239  761.7803
 240  592.8154
 241  451.4522
 242  123.7283
 243  -140.1056
 244  -357.2421
 245  272.9724
 246  598.9084
 247  855.048
 248  929.551
 249  945.7199
 250  671.7019
 251  66.22186
 252  18.65835
 253  770.9213
 254  1111.026
 255  1072.984
 256  766.3329
 257  767.6467
 258  191.3536
 259  132.0361
 260  315.7071
 261  887.0175
 262  782.3292
 263  915.4424
 264  856.304
 265  186.6037
 266  80.06151
 267  198.7843
 268  478.4553
 269  368.9481
 270  674.927
 271  797.8665
 272  576.9564
 273  60.33305
 274  -253.6069
 275  -32.16907
 276  283.6959
 277  89.29785
 278  22.65315
 279  112.3601
 280  -41.84695
 281  -47.58101
 282  261.6068
 283  155.1405
 284  219.4857
 285  284.316
 286  332.0351
 287  -127.2852
 288  -169.7399
 289  -151.4076
 290  -187.0822
 291  197.8172
 292  366.0884
 293  0.9211931
 294  -194.7275
 295  -266.2693
 296  240.6395
 297  518.0004
 298  744.5784
 299  901.3941
 300  680.456
 301  334.5883
 302  -319.0411
 303  -335.5075
 304  -316.6655
 305  126.2537
 306  467.5245
 307  565.2991
 308  667.6427
 309  116.1136
 310  -201.4017
 311  -71.70412
 312  362.323
 313  483.2129
 314  518.3431
 315  203.1992
 316  93.46119
 317  -86.14214
 318  -389.772
 319  -196.4135
 320  -141.548
 321  -23.97985
 322  130.1131
 323  -76.29764
 324  -446.8328
 325  -88.5928
 326  361.715
 327  422.2375
 328  139.908
 329  34.89367
 330  -398.615
 331  -487.8845
 332  -372.5776
 333  -376.8785
 334  -494.437
 335  -129.4065
 336  -159.4912
 337  -189.435
 338  -668.6204
 339  -636.0258
 340  -555.3051
 341  -500.9609
 342  -160.3487
 343  -169.9521
 344  -300.8854
 345  -4.215249
 346  -274.3995
 347  -330.8393
 348  -248.2194
 349  -176.3361
 350  37.89771
 351  70.27424
 352  86.93342
 353  35.05106
 354  282.7007
 355  159.631
 356  -66.2347
 357  -205.4798
 358  -244.4851
 359  -457.2598
 360  -538.72
 361  -402.2408
 362  -300
 363  -242.3682
 364  -146.1961
 365  183.8339
 366  4.932816
 367  -386.8395
 368  -478.6644
 369  -135.4071
 370  314.8766
 371  591.4579
 372  884.6526
 373  585.2463
 374  -37.87608
 375  -154.1624
 376  -205.0025
 377  -288.4193
 378  216.1388
 379  432.2383
 380  358.9133
 381  -25.41317
 382  -11.68018
 383  167.597
 384  188.7391
 385  614.2728
 386  943.1583
 387  476.0719
 388  -342.5199
 389  -223.9715
 390  -159.4121
 391  -127.3995
 392  75.90221
 393  206.716
 394  -215.5746
 395  -516.1244
 396  -326.2798
 397  2.268004
 398  326.1875
 399  612.9896
 400  307.8393
 401  394.5224
 402  110.1043
 403  -93.57718
 404  -244.2739
 405  -12.23976
 406  -134.1711
 407  228.1078
 408  518.6354
 409  69.90926
 410  -312.7342
 411  -106.0422
 412  101.4189
 413  13.59282
 414  88.16379
 415  -127.2927
 416  -811.8447
 417  -545.5175
 418  -249.8329
 419  -663.5453
 420  -263.3003
 421  -86.19925
 422  177.1885
 423  -96.25253
 424  -544.679
 425  -596.6356
 426  -403.7715
 427  246.2392
 428  250.8778
 429  -43.16511
 430  76.5237
 431  -476.7475
 432  -863.8444
 433  -835.4613
 434  -816.0455
 435  -631.0321
 436  -392.444
 437  -332.8101
 438  -375.3189
 439  -538.3876
 440  -478.8716
 441  -363.7805
 442  -25.93688
 443  83.78941
 444  -391.6097
 445  -546.1158
 446  -480.5436
 447  -219.7383
 448  76.44124
 449  -24.51814
 450  282.3085
 451  67.61196
 452  -661.5583
 453  -839.8514
 454  -139.4014
 455  27.35732
 456  191.2507
 457  -87.76235
 458  79.87846
 459  -315.6299
 460  -604.536
 461  -395.0778
 462  -143.3327
 463  85.5036
 464  230.6531
 465  -149.7242
 466  -199.3775
 467  -239.6611
 468  -295.743
 469  143.7188
 470  535.131
 471  744.4933
 472  803.8334
 473  154.1981
 474  -585.3079
 475  -537.5024
 476  -329.4663
 477  -179.0457
 478  211.5128
 479  529.9556
 480  844.6683
 481  434.7476
 482  -431.7732
 483  -375.7756
 484  111.9358
 485  869.14
 486  1096.235
 487  809.8837
 488  414.0832
 489  -657.9574
 490  -955.5505
 491  -840.2234
 492  -216.0636
 493  208.1752
 494  219.9199
 495  265.6593
 496  -217.0644
 497  -275.2766
 498  11.59624
 499  640.1896
 500  1083.75
 501  1352.331
 502  645.153
 503  -46.86271
 504  -681.3108
 505  -774.4263
 506  -595.4521
 507  -546.6064
 508  -210.0851
 509  -386.7659
 510  -1103.197
 511  -809.9631
