# Input file       =  1192385205.116898_cleaned.dat
# Candidate        =  PSR_0332+5434
# Telescope        =  AR
# Epoch_topo       =  58044.754908760391
# Epoch_bary       =  N/A
# T_sample         =  0.002
# Data Folded      =  7208960
# Data Avg         =  0.194989592048594
# Data StdDev      =  4.32976794324798 
# Profile Bins     =  512
# Profile Avg      =  2745.54249803602 
# Profile StdDev   =  513.766695523055 
# Reduced chi-sqr  =  0.600
# Prob(Noise)      <  1   (~0.0 sigma)
# P_topo (ms)      =  714.484382222623  +/- 0.000117
# P'_topo (s/s)    =  -0                +/- 6.27e-11
# P''_topo (s/s^2) =  0                 +/- 2.82e-14
# P_bary (ms)      =  N/A
# P'_bary (s/s)    =  N/A
# P''_bary (s/s^2) =  N/A
# P_orb (s)        =  N/A
# asin(i)/c (s)    =  N/A
# eccentricity     =  N/A
# w (rad)          =  N/A
# T_peri           =  N/A
######################################################
   0  2826.909
   1  2884.186
   2  3080.442
   3  2757.603
   4  2680.675
   5  2636.869
   6  2295.961
   7  2423.529
   8  2639.462
   9  2968.608
  10  2659.488
  11  2279.16
  12  2709.848
  13  2960.052
  14  2526.142
  15  2762.771
  16  2945.543
  17  2880.981
  18  2592.978
  19  2346.347
  20  2435.132
  21  2390.014
  22  2600.082
  23  2507.68
  24  2784.33
  25  2921.611
  26  2904.328
  27  2812.996
  28  2583.65
  29  2693.967
  30  2809.76
  31  2943.78
  32  2989.842
  33  2914.04
  34  2641.189
  35  2289.238
  36  2457.966
  37  2702.304
  38  2590.905
  39  2875.696
  40  3146.896
  41  3428.157
  42  3080.224
  43  2978.097
  44  2588.073
  45  2665.954
  46  2598.433
  47  2517.085
  48  2732.927
  49  2795.268
  50  2941.516
  51  2874.902
  52  2918.287
  53  2873.452
  54  2864.671
  55  2802.489
  56  2957.788
  57  2965.621
  58  2855.057
  59  2893.492
  60  3064.666
  61  3054.675
  62  2958.232
  63  2794.113
  64  2360.207
  65  2570.926
  66  2840.059
  67  2807.699
  68  2371.534
  69  2432.403
  70  2102.525
  71  1793.667
  72  1911.426
  73  2249.031
  74  2574.708
  75  2895.455
  76  2701.677
  77  2588.657
  78  2984.312
  79  2861.452
  80  2659.973
  81  2691.005
  82  2475.424
  83  2822.19
  84  2896.427
  85  2398.338
  86  2581.011
  87  2546.775
  88  2818.233
  89  2711.287
  90  2735.087
  91  2734.157
  92  2728.198
  93  2578.176
  94  2400.012
  95  2585.203
  96  2349.152
  97  2649.245
  98  3049.866
  99  3138.408
 100  2723.231
 101  2649.083
 102  2409.782
 103  2303.112
 104  2190.032
 105  2350.951
 106  2362.519
 107  2541.088
 108  3014.922
 109  2584.43
 110  2256.403
 111  2355.619
 112  2631.161
 113  2632.319
 114  2414.041
 115  2403.309
 116  2563.17
 117  2866.629
 118  2392.343
 119  2497.116
 120  2664.75
 121  2472.284
 122  2733.866
 123  2789.208
 124  2954.868
 125  2693.602
 126  2704.959
 127  2976.766
 128  2889.484
 129  2693.986
 130  2534.669
 131  2535.803
 132  2863.628
 133  2537.818
 134  2642.726
 135  2871.955
 136  2918.896
 137  2831.364
 138  3101.543
 139  3259.594
 140  3045.343
 141  2913.736
 142  2771.355
 143  2616.443
 144  2673.253
 145  2658.188
 146  2688.91
 147  2570.57
 148  2757.415
 149  2547.85
 150  2735.624
 151  2437.054
 152  2824.594
 153  2641.805
 154  2752.883
 155  2995.82
 156  3052.751
 157  2958.676
 158  2568.967
 159  2789.712
 160  2922.302
 161  2776.546
 162  2734.898
 163  2673.897
 164  2743.275
 165  2887.491
 166  2955.474
 167  2726.841
 168  2421.369
 169  2184.495
 170  2339.537
 171  2799.457
 172  2711.655
 173  2274.476
 174  2572.205
 175  2930.393
 176  2811.527
 177  2767.288
 178  2738.826
 179  2785.814
 180  2511.225
 181  2505.71
 182  2953.835
 183  2508.372
 184  2556.728
 185  2420.61
 186  2422.534
 187  2540.983
 188  2398.374
 189  2853.997
 190  2870.563
 191  2958.547
 192  2585.039
 193  2709.875
 194  2871.932
 195  3058.841
 196  3004.772
 197  2793.519
 198  2601.198
 199  2560.114
 200  2336.133
 201  2382.998
 202  2701.968
 203  2727.019
 204  2974.378
 205  2873.638
 206  2743.896
 207  2732.012
 208  2786.823
 209  3008.941
 210  2781.459
 211  2696.531
 212  2993.011
 213  3019.195
 214  2938.886
 215  2807.424
 216  2983.869
 217  2559.132
 218  2401.917
 219  2809.647
 220  2901.414
 221  2781.264
 222  2972.987
 223  2961.193
 224  2855.021
 225  2251.828
 226  2367.776
 227  2633.193
 228  3046.366
 229  3012.459
 230  2959.552
 231  3196.067
 232  2839.128
 233  2766.037
 234  2533.692
 235  2357.555
 236  2186.937
 237  2526.526
 238  2736.264
 239  2912.169
 240  2998.113
 241  3184.066
 242  2990.549
 243  2687.406
 244  2288.464
 245  2412.117
 246  2353.197
 247  2479.924
 248  2795.541
 249  3189.205
 250  3074.917
 251  2797.575
 252  2738.863
 253  2642.071
 254  2658.156
 255  2935.719
 256  3434.393
 257  3334.065
 258  2767.491
 259  2592.832
 260  2753.453
 261  2998.479
 262  2943.571
 263  3084.418
 264  2977.63
 265  2984.663
 266  3647.34
 267  4041.504
 268  4181.929
 269  4132.531
 270  4340.139
 271  3694.49
 272  2991.238
 273  2718.432
 274  2805.173
 275  2782.846
 276  2695.814
 277  3025.077
 278  3029.187
 279  2722.426
 280  3090.518
 281  3083.9
 282  2951.007
 283  2850.632
 284  2730.719
 285  3080.364
 286  3008.06
 287  3324.186
 288  3207.536
 289  2653.761
 290  2604.878
 291  2916.503
 292  3005.293
 293  2944.454
 294  2807.348
 295  2738.451
 296  2820.46
 297  2507.043
 298  2685.846
 299  2691.406
 300  2320.468
 301  2699.574
 302  3097.516
 303  2973.901
 304  2824.527
 305  2593.151
 306  2794.369
 307  2800.866
 308  2751.541
 309  2747.759
 310  2708.276
 311  2392.957
 312  2269.465
 313  2700.259
 314  2724.807
 315  2766.635
 316  2616.074
 317  2449.702
 318  2394.04
 319  2441.699
 320  2902.342
 321  3192.885
 322  3043.144
 323  2829.693
 324  2778.477
 325  2827.928
 326  2463.104
 327  2270.083
 328  2374.709
 329  2624.716
 330  2455.095
 331  2549.558
 332  2451.38
 333  2447.517
 334  2458.482
 335  2381.838
 336  2752.596
 337  2789.458
 338  2776.575
 339  2819.685
 340  2792.717
 341  2537.91
 342  2262.809
 343  2382.694
 344  2124.487
 345  2330.22
 346  3193.471
 347  3182.285
 348  3058.079
 349  2580.487
 350  2358.037
 351  1863.899
 352  2378.573
 353  2138.396
 354  2711.138
 355  2851.183
 356  3014.223
 357  3049.202
 358  2671.606
 359  2866.967
 360  2657.232
 361  2642.459
 362  2943.074
 363  3156.086
 364  3258.293
 365  2696.709
 366  2542.846
 367  2956.974
 368  2480.365
 369  2611.667
 370  2492.992
 371  2758.442
 372  2558.39
 373  2330.403
 374  2684.491
 375  2712.591
 376  2720.245
 377  2909.89
 378  2766.518
 379  2831.581
 380  2818.932
 381  3080.045
 382  2757.71
 383  2660.996
 384  2659.39
 385  3023.156
 386  3335.941
 387  3003.755
 388  3040.481
 389  2785.719
 390  3022.606
 391  2850.028
 392  2627.33
 393  2922.493
 394  2921.002
 395  2847.301
 396  2912.759
 397  2795.301
 398  2530.279
 399  2407.078
 400  2760.005
 401  2962.115
 402  2937.602
 403  2737.463
 404  2830.135
 405  2616.094
 406  2650.195
 407  2870.568
 408  2846.495
 409  3101.354
 410  3192.302
 411  2818.565
 412  2701.366
 413  2750.182
 414  2995.755
 415  2710.922
 416  2681.905
 417  2683.886
 418  2532.422
 419  3063.015
 420  3020.314
 421  3213.043
 422  3192.395
 423  2729.969
 424  2643.805
 425  2596.04
 426  2504.777
 427  2754.22
 428  2980.316
 429  2872.334
 430  3207.167
 431  3053.297
 432  2837.718
 433  2286.497
 434  2265.211
 435  2538.051
 436  2755.053
 437  2510.621
 438  2727.966
 439  3052.354
 440  3152.29
 441  2739.048
 442  2787.903
 443  2653.114
 444  2700.904
 445  2490.687
 446  2696.852
 447  2776.968
 448  2462.948
 449  2387.644
 450  2460.561
 451  2521.99
 452  2277.625
 453  3006.873
 454  3020.934
 455  3236.278
 456  3056.951
 457  2924.921
 458  2775.899
 459  2370.173
 460  2574.748
 461  2934.577
 462  2788.271
 463  2828.118
 464  2813.315
 465  2317.971
 466  2324.496
 467  2899.834
 468  2565.784
 469  2565.077
 470  3207.143
 471  3014.752
 472  2715.31
 473  2623.818
 474  2878.375
 475  2790.72
 476  2320.311
 477  2528.039
 478  2670.556
 479  3113.758
 480  2832.007
 481  2615.733
 482  2699.284
 483  2178.169
 484  2375.405
 485  2664.409
 486  2361.974
 487  2727.125
 488  2943.802
 489  2984.963
 490  2969.408
 491  2869.874
 492  2905.583
 493  2557.847
 494  2346.779
 495  3018.07
 496  3268.406
 497  2958.197
 498  2424.59
 499  2501.598
 500  2466.059
 501  2472.712
 502  2586.331
 503  2787.064
 504  2891.772
 505  2741.607
 506  2893.819
 507  3021.091
 508  2651.805
 509  2680.547
 510  2556.583
 511  2715.094
