# Input file       =  1192500920.129434_cleaned.dat
# Candidate        =  PSR_0332+5434
# Telescope        =  AR
# Epoch_topo       =  58046.094202886969
# Epoch_bary       =  N/A
# T_sample         =  0.002
# Data Folded      =  7340032
# Data Avg         =  0.0143982859980836
# Data StdDev      =  1.00004904158493 
# Profile Bins     =  512
# Profile Avg      =  206.459035491933 
# Profile StdDev   =  119.738908274638 
# Reduced chi-sqr  =  1.852
# Prob(Noise)      <  1.94e-28   (~11.0 sigma)
# P_topo (ms)      =  714.485789057863  +/- 0.000265
# P'_topo (s/s)    =  -0                +/- 1.4e-10
# P''_topo (s/s^2) =  0                 +/- 6.16e-14
# P_bary (ms)      =  N/A
# P'_bary (s/s)    =  N/A
# P''_bary (s/s^2) =  N/A
# P_orb (s)        =  N/A
# asin(i)/c (s)    =  N/A
# eccentricity     =  N/A
# w (rad)          =  N/A
# T_peri           =  N/A
######################################################
   0  140.2902
   1  112.3481
   2  204.6475
   3  220.5738
   4  95.75198
   5  6.895191
   6  57.81838
   7  108.0377
   8  178.997
   9  143.4561
  10  237.0167
  11  244.1105
  12  212.6888
  13  243.595
  14  232.1292
  15  207.5978
  16  121.5321
  17  119.2248
  18  70.51968
  19  107.2263
  20  143.718
  21  51.47176
  22  129.3479
  23  191.1519
  24  195.4923
  25  173.5026
  26  143.1947
  27  190.4704
  28  227.54
  29  262.0298
  30  305.3958
  31  292.3498
  32  221.9725
  33  156.7142
  34  189.1719
  35  215.9658
  36  106.9541
  37  156.8842
  38  112.5898
  39  173.9178
  40  267.0457
  41  262.136
  42  205.9224
  43  162.2987
  44  164.5271
  45  237.3759
  46  164.2257
  47  93.29987
  48  309.5017
  49  237.614
  50  251.6354
  51  206.6413
  52  103.8696
  53  110.0875
  54  230.5407
  55  235.2802
  56  258.7769
  57  294.7494
  58  137.5544
  59  67.3221
  60  205.9898
  61  146.9906
  62  122.9052
  63  2.689767
  64  20.99391
  65  78.38527
  66  184.0761
  67  354.1778
  68  421.6858
  69  244.0538
  70  154.6276
  71  248.5227
  72  158.4478
  73  161.284
  74  84.97549
  75  272.274
  76  291.9383
  77  70.1838
  78  149.1167
  79  60.48956
  80  60.07995
  81  13.03287
  82  184.9894
  83  188.5208
  84  90.9941
  85  44.36467
  86  24.73933
  87  149.5348
  88  226.2944
  89  133.4074
  90  196.3599
  91  222.0102
  92  94.49376
  93  19.28129
  94  16.82798
  95  46.46387
  96  97.11983
  97  134.8751
  98  174.9761
  99  238.9079
 100  274.8485
 101  167.3716
 102  157.2688
 103  181.7011
 104  193.221
 105  260.4104
 106  201.1478
 107  180.6131
 108  288.0295
 109  261.554
 110  90.93428
 111  48.66129
 112  151.8742
 113  61.09216
 114  132.5184
 115  234.6967
 116  88.07097
 117  125.4279
 118  271.815
 119  137.5648
 120  81.82672
 121  89.86892
 122  99.53333
 123  183.2699
 124  185.3275
 125  66.30527
 126  115.5298
 127  163.7853
 128  245.5077
 129  188.9591
 130  173.6407
 131  228.5898
 132  225.1412
 133  324.8156
 134  279.005
 135  137.1003
 136  319.0191
 137  219.6252
 138  198.4527
 139  245.7337
 140  356.86
 141  290.3323
 142  229.2339
 143  299.8018
 144  95.91196
 145  100.5496
 146  219.5959
 147  308.7716
 148  288.2142
 149  373.6444
 150  304.9243
 151  213.9314
 152  259.3002
 153  273.4504
 154  283.6564
 155  280.0236
 156  172.0668
 157  323.5495
 158  197.1183
 159  119.3632
 160  128.0323
 161  -4.658805
 162  19.66552
 163  68.37782
 164  165.6714
 165  232.0913
 166  312.3009
 167  297.4271
 168  219.8605
 169  120.615
 170  297.5129
 171  312.9579
 172  300.65
 173  228.3878
 174  272.6433
 175  170.728
 176  89.1599
 177  148.6166
 178  282.2478
 179  286.5809
 180  274.958
 181  274.136
 182  62.68492
 183  56.68589
 184  133.001
 185  323.219
 186  335.8071
 187  178.4203
 188  217.7295
 189  190.2756
 190  155.3161
 191  270.1339
 192  149.954
 193  282.3497
 194  342.3554
 195  364.7218
 196  235.0854
 197  221.2578
 198  242.258
 199  261.5906
 200  235.0042
 201  99.18395
 202  165.613
 203  202.4667
 204  224.2409
 205  145.1184
 206  130.2782
 207  77.79622
 208  89.99193
 209  118.1187
 210  156.2228
 211  278.6112
 212  203.6934
 213  140.3545
 214  224.4181
 215  284.9023
 216  273.8076
 217  213.7154
 218  249.9766
 219  267.5323
 220  193.7268
 221  122.3325
 222  313.641
 223  276.0127
 224  206.5786
 225  203.1024
 226  298.3651
 227  231.7591
 228  326.1341
 229  310.2228
 230  216.2883
 231  47.56944
 232  172.0033
 233  377.5912
 234  183.1814
 235  16.0658
 236  147.9098
 237  24.74897
 238  100.5883
 239  258.7971
 240  246.1096
 241  253.8898
 242  142.8018
 243  127.4774
 244  125.6756
 245  60.26218
 246  38.89669
 247  106.7475
 248  219.6481
 249  297.6504
 250  303.4886
 251  326.6546
 252  370.4417
 253  368.6961
 254  388.6031
 255  243.398
 256  111.9387
 257  248.6735
 258  184.3197
 259  119.845
 260  219.1136
 261  259.3029
 262  88.99781
 263  128.3458
 264  112.9931
 265  275.8698
 266  257.5175
 267  318.8315
 268  158.6094
 269  133.5364
 270  223.5399
 271  133.9163
 272  127.7151
 273  129.1983
 274  205.455
 275  258.2563
 276  76.78983
 277  177.9597
 278  297.8293
 279  308.8946
 280  178.8726
 281  232.8052
 282  260.7548
 283  257.6588
 284  329.0439
 285  207.2463
 286  145.6174
 287  39.32118
 288  182.9128
 289  211.6808
 290  147.6266
 291  112.1794
 292  78.14081
 293  149.4668
 294  223.5514
 295  242.9934
 296  209.9723
 297  206.9351
 298  258.3933
 299  268.8795
 300  286.224
 301  155.7155
 302  181.7885
 303  220.9963
 304  208.1061
 305  60.95984
 306  50.55698
 307  132.9875
 308  215.9019
 309  172.6891
 310  165.1664
 311  143.4691
 312  78.37376
 313  128.4129
 314  255.3556
 315  206.6411
 316  23.93252
 317  45.71114
 318  20.36181
 319  80.40939
 320  70.12679
 321  232.04
 322  301.224
 323  316.0265
 324  316.2565
 325  86.91652
 326  50.21227
 327  45.43378
 328  146.4186
 329  226.3849
 330  155.6683
 331  88.64066
 332  171.8793
 333  238.6965
 334  163.2799
 335  129.775
 336  98.46909
 337  223.5323
 338  229.442
 339  170.3578
 340  174.4693
 341  239.1136
 342  274.2632
 343  200.4026
 344  180.4465
 345  115.2775
 346  74.61702
 347  239.9729
 348  34.14907
 349  156.7954
 350  373.0753
 351  238.0585
 352  176.443
 353  262.6311
 354  330.4496
 355  205.6931
 356  259.5837
 357  391.615
 358  446.632
 359  273.1702
 360  203.7998
 361  255.1593
 362  270.91
 363  177.5783
 364  95.58308
 365  284.2796
 366  369.929
 367  344.1252
 368  343.1078
 369  354.4679
 370  521.6829
 371  758.6468
 372  941.645
 373  1089.098
 374  1116.625
 375  868.2983
 376  629.6879
 377  436.9984
 378  322.6889
 379  140.7305
 380  366.2218
 381  357.8121
 382  350.6731
 383  402.0299
 384  282.3216
 385  291.9884
 386  362.92
 387  288.5395
 388  196.0029
 389  284.4092
 390  221.9099
 391  204.2428
 392  327.0313
 393  191.8629
 394  85.18089
 395  211.1884
 396  374.2313
 397  276.0444
 398  200.3125
 399  230.0476
 400  224.9893
 401  168.2831
 402  196.5896
 403  145.904
 404  145.2139
 405  181.5338
 406  211.3208
 407  192.0574
 408  196.8714
 409  226.432
 410  269.9257
 411  134.7896
 412  132.6205
 413  227.2049
 414  222.737
 415  183.1629
 416  72.1364
 417  206.6578
 418  331.6476
 419  168.6263
 420  274.757
 421  127.158
 422  171.0613
 423  159.7253
 424  146.3912
 425  114.7259
 426  147.4526
 427  107.1445
 428  233.5057
 429  267.8518
 430  258.536
 431  136.4151
 432  138.0121
 433  156.7481
 434  233.4992
 435  162.0265
 436  115.8125
 437  121.6349
 438  95.67122
 439  328.0335
 440  282.8526
 441  214.5782
 442  183.9648
 443  199.8747
 444  173.9403
 445  90.97594
 446  122.0202
 447  312.5254
 448  339.9393
 449  323.755
 450  298.2226
 451  227.7827
 452  262.7748
 453  175.7709
 454  150.7308
 455  167.443
 456  318.6519
 457  245.4325
 458  204.2005
 459  227.9609
 460  333.7007
 461  255.5272
 462  17.28488
 463  209.4742
 464  192.7976
 465  198.5816
 466  245.5797
 467  202.417
 468  161.1702
 469  160.6542
 470  336.514
 471  318.7206
 472  126.226
 473  192.0853
 474  223.0928
 475  188.8814
 476  131.5625
 477  77.51245
 478  180.8317
 479  152.1799
 480  329.0206
 481  233.151
 482  212.6899
 483  287.5532
 484  214.1556
 485  352.0985
 486  346.852
 487  340.2524
 488  184.5889
 489  156.6283
 490  277.6893
 491  234.1384
 492  228.0866
 493  333.1339
 494  339.867
 495  295.216
 496  178.608
 497  249.0573
 498  286.3958
 499  212.5344
 500  242.973
 501  374.2797
 502  135.2727
 503  58.12328
 504  127.3777
 505  33.82251
 506  22.19113
 507  72.51801
 508  109.9177
 509  10.95954
 510  164.1082
 511  112.9445
