# Input file       =  1192931700.156139_cleaned.dat
# Candidate        =  PSR_0332+5434
# Telescope        =  AR
# Epoch_topo       =  58051.080082825683
# Epoch_bary       =  N/A
# T_sample         =  0.002
# Data Folded      =  7340032
# Data Avg         =  0.016192716851165
# Data StdDev      =  1.00004703609549 
# Profile Bins     =  512
# Profile Avg      =  232.153691615175 
# Profile StdDev   =  119.738668151299 
# Reduced chi-sqr  =  1.412
# Prob(Noise)      <  2.23e-09   (~5.9 sigma)
# P_topo (ms)      =  714.489916849862  +/- 0.00014
# P'_topo (s/s)    =  -0                +/- 7.39e-11
# P''_topo (s/s^2) =  0                 +/- 3.26e-14
# P_bary (ms)      =  N/A
# P'_bary (s/s)    =  N/A
# P''_bary (s/s^2) =  N/A
# P_orb (s)        =  N/A
# asin(i)/c (s)    =  N/A
# eccentricity     =  N/A
# w (rad)          =  N/A
# T_peri           =  N/A
######################################################
   0  1000.912
   1  1001.855
   2  555.123
   3  341.9595
   4  359.0775
   5  274.7816
   6  208.7002
   7  177.8126
   8  249.3419
   9  364.375
  10  432.8783
  11  322.8464
  12  270.0447
  13  216.1777
  14  301.4536
  15  302.5262
  16  224.8181
  17  184.0324
  18  207.8201
  19  110.6309
  20  141.4712
  21  180.2539
  22  292.8182
  23  347.4128
  24  205.7442
  25  229.8605
  26  175.4993
  27  43.26456
  28  230.8349
  29  188.5548
  30  180.8418
  31  117.296
  32  159.9521
  33  272.98
  34  161.3706
  35  171.0235
  36  197.6705
  37  175.703
  38  190.9725
  39  229.7031
  40  327.1851
  41  263.5683
  42  268.4926
  43  240.9836
  44  279.7566
  45  215.4426
  46  173.8981
  47  139.7503
  48  250.1236
  49  377.0086
  50  308.6542
  51  228.9854
  52  143.8488
  53  267.1319
  54  171.8072
  55  199.8563
  56  286.695
  57  321.4611
  58  251.1253
  59  288.6452
  60  314.234
  61  294.0943
  62  231.3569
  63  304.9009
  64  276.7906
  65  190.4833
  66  353.0447
  67  243.0518
  68  228.258
  69  251.0148
  70  248.0621
  71  191.1897
  72  118.2278
  73  65.49033
  74  163.123
  75  145.8942
  76  168.9822
  77  296.6917
  78  321.509
  79  272.2415
  80  229.0073
  81  313.5432
  82  288.9777
  83  229.8839
  84  145.3476
  85  244.4736
  86  197.8229
  87  257.9673
  88  174.8719
  89  166.9507
  90  193.2513
  91  278.6892
  92  281.8452
  93  217.3966
  94  198.1048
  95  140.4333
  96  95.05169
  97  191.5066
  98  92.10687
  99  163.1502
 100  198.245
 101  230.9639
 102  231.2479
 103  48.39193
 104  198.0987
 105  343.3335
 106  440.9189
 107  235.5402
 108  173.3091
 109  267.5195
 110  346.4168
 111  223.3296
 112  180.7511
 113  152.4791
 114  207.282
 115  286.3472
 116  155.6877
 117  154.2948
 118  105.1512
 119  253.0491
 120  208.1285
 121  190.1968
 122  184.5097
 123  191.5236
 124  281.4272
 125  194.6369
 126  291.6253
 127  305.5214
 128  274.2438
 129  261.7579
 130  267.6706
 131  247.7744
 132  266.7887
 133  290.6894
 134  265.0555
 135  195.6185
 136  33.63802
 137  35.00084
 138  39.06931
 139  145.6981
 140  265.1113
 141  452.322
 142  359.0866
 143  253.9816
 144  230.9968
 145  312.7929
 146  284.1691
 147  261.2957
 148  308.6139
 149  297.8866
 150  238.2025
 151  290.3385
 152  253.3555
 153  198.6512
 154  267.7002
 155  250.0286
 156  270.7623
 157  316.0303
 158  213.2436
 159  136.7674
 160  271.3921
 161  267.8025
 162  216.1243
 163  203.3931
 164  256.8855
 165  290.1969
 166  198.754
 167  137.2568
 168  123.6301
 169  187.1599
 170  251.397
 171  206.1712
 172  202.335
 173  133.6974
 174  252.5724
 175  247.8885
 176  200.3739
 177  232.087
 178  249.5819
 179  264.4211
 180  141.0184
 181  244.7022
 182  234.9388
 183  271.4656
 184  304.947
 185  217.2087
 186  159.0482
 187  153.0948
 188  100.8697
 189  150.4342
 190  290.3816
 191  252.7297
 192  272.6155
 193  302.3654
 194  178.2664
 195  151.2193
 196  228.0172
 197  216.5093
 198  335.45
 199  327.9259
 200  241.8829
 201  129.5857
 202  146.82
 203  187.5982
 204  181.3044
 205  251.7175
 206  234.2917
 207  279.6044
 208  292.165
 209  148.4789
 210  324.382
 211  377.7234
 212  278.8011
 213  359.3688
 214  270.3985
 215  254.6167
 216  115.3078
 217  108.0881
 218  193.4138
 219  338.1589
 220  340.0619
 221  230.5506
 222  310.7498
 223  238.0109
 224  248.8923
 225  175.1138
 226  185.4043
 227  276.9927
 228  202.346
 229  127.5138
 230  279.5301
 231  339.1492
 232  297.237
 233  194.2202
 234  149.7126
 235  129.7599
 236  96.58834
 237  196.0214
 238  249.8825
 239  243.3483
 240  203.162
 241  133.0391
 242  180.3269
 243  211.8111
 244  234.4549
 245  176.0967
 246  147.0566
 247  210.6687
 248  201.9889
 249  174.3186
 250  175.8709
 251  61.46681
 252  155.4643
 253  312.0405
 254  309.925
 255  272.8294
 256  294.6779
 257  275.2713
 258  329.3807
 259  241.465
 260  156.3067
 261  148.2954
 262  279.4133
 263  158.1761
 264  163.8702
 265  69.9
 266  262.2199
 267  342.3069
 268  209.4351
 269  94.67213
 270  226.2124
 271  258.2572
 272  199.2118
 273  152.6663
 274  330.2574
 275  290.9048
 276  241.9387
 277  318.5228
 278  283.268
 279  229.3221
 280  230.7162
 281  194.5398
 282  295.5458
 283  342.0024
 284  320.3037
 285  286.6219
 286  236.5099
 287  184.5633
 288  175.4391
 289  368.2798
 290  202.2579
 291  171.1339
 292  171.0547
 293  240.1784
 294  373.3396
 295  291.3608
 296  315.4989
 297  272.1591
 298  221.3093
 299  164.5885
 300  175.383
 301  319.4372
 302  424.5955
 303  354.2653
 304  293.4414
 305  211.6871
 306  235.3092
 307  284.5336
 308  308.5259
 309  212.2466
 310  138.8637
 311  64.44043
 312  136.7869
 313  185.7679
 314  338.2056
 315  314.4914
 316  261.9001
 317  241.1397
 318  231.6841
 319  119.5259
 320  241.9517
 321  261.9959
 322  327.061
 323  216.3483
 324  205.2168
 325  202.5267
 326  123.4117
 327  104.8027
 328  97.88105
 329  18.93177
 330  182.7749
 331  251.0991
 332  278.3786
 333  240.3693
 334  295.6104
 335  357.5611
 336  273.5615
 337  130.557
 338  234.8373
 339  273.8361
 340  180.8376
 341  383.1757
 342  313.4378
 343  271.4874
 344  216.7321
 345  128.0886
 346  238.7051
 347  264.6418
 348  172.2196
 349  202.6338
 350  214.5345
 351  220.6476
 352  215.1568
 353  278.2866
 354  264.2241
 355  237.6281
 356  145.5988
 357  197.5667
 358  219.6514
 359  145.7559
 360  241.1501
 361  274.3238
 362  149.9607
 363  156.8069
 364  146.2832
 365  273.8187
 366  274.8112
 367  128.217
 368  91.16696
 369  128.4255
 370  177.1504
 371  137.6763
 372  167.5768
 373  272.643
 374  187.6549
 375  79.36749
 376  96.41264
 377  235.8853
 378  240.7247
 379  188.3229
 380  179.2551
 381  270.3931
 382  125.3884
 383  213.8526
 384  108.0641
 385  182.3802
 386  237.7078
 387  274.7107
 388  278.6041
 389  276.1451
 390  247.8492
 391  174.3772
 392  177.1747
 393  338.7471
 394  378.8766
 395  249.6945
 396  317.1052
 397  238.5274
 398  138.7554
 399  311.9383
 400  283.7451
 401  178.1474
 402  136.0706
 403  336.5571
 404  470.0374
 405  364.0409
 406  203.2722
 407  122.2122
 408  84.61447
 409  53.77918
 410  34.52753
 411  180.4412
 412  249.4266
 413  173.9316
 414  334.6612
 415  219.3293
 416  220.6054
 417  302.049
 418  288.518
 419  227.9961
 420  121.8021
 421  112.1368
 422  154.0519
 423  163.668
 424  135.3115
 425  167.5595
 426  158.6318
 427  349.9421
 428  204.6392
 429  217.1952
 430  322.3611
 431  200.6986
 432  214.0149
 433  242.9427
 434  112.3321
 435  179.1793
 436  268.2614
 437  162.9384
 438  136.1833
 439  145.8575
 440  259.969
 441  249.302
 442  254.1061
 443  194.5693
 444  246.8886
 445  252.5874
 446  228.6597
 447  172.301
 448  159.8054
 449  216.5054
 450  232.8778
 451  406.5774
 452  190.4091
 453  143.5712
 454  183.001
 455  179.6836
 456  308.9879
 457  175.8391
 458  220.1758
 459  328.9596
 460  199.5958
 461  55.46762
 462  153.8091
 463  367.2829
 464  421.8771
 465  193.2454
 466  102.7466
 467  188.6572
 468  199.7009
 469  74.93856
 470  206.2219
 471  256.9451
 472  242.9727
 473  251.4981
 474  215.3878
 475  152.0368
 476  92.86138
 477  83.00095
 478  137.5216
 479  198.6153
 480  80.35542
 481  37.97441
 482  169.4372
 483  284.0111
 484  329.3472
 485  332.9445
 486  176.1433
 487  51.17026
 488  4.657837
 489  94.84877
 490  205.8141
 491  297.1006
 492  327.3744
 493  168.0647
 494  110.0304
 495  207.4299
 496  213.4856
 497  228.8362
 498  269.0038
 499  266.6317
 500  352.5664
 501  317.9801
 502  315.3928
 503  381.4213
 504  400.3147
 505  352.4562
 506  332.2882
 507  305.3818
 508  387.2406
 509  646.0818
 510  833.3752
 511  927.7171
