# Input file       =  1192141432.122322_cleaned.dat
# Candidate        =  PSR_0332+5434
# Telescope        =  AR
# Epoch_topo       =  58041.933462063913
# Epoch_bary       =  N/A
# T_sample         =  0.002
# Data Folded      =  7340032
# Data Avg         =  0.0296924541097334
# Data StdDev      =  2.29055754945397 
# Profile Bins     =  256
# Profile Avg      =  851.498380110308 
# Profile StdDev   =  387.855720930351 
# Reduced chi-sqr  =  1.705
# Prob(Noise)      <  1.6e-11   (~6.6 sigma)
# P_topo (ms)      =  714.482235919921  +/- 0.000247
# P'_topo (s/s)    =  -0                +/- 1.3e-10
# P''_topo (s/s^2) =  0                 +/- 5.75e-14
# P_bary (ms)      =  N/A
# P'_bary (s/s)    =  N/A
# P''_bary (s/s^2) =  N/A
# P_orb (s)        =  N/A
# asin(i)/c (s)    =  N/A
# eccentricity     =  N/A
# w (rad)          =  N/A
# T_peri           =  N/A
######################################################
   0  281.5136
   1  273.6103
   2  480.3229
   3  682.2621
   4  127.6472
   5  650.1472
   6  1921.697
   7  1111.974
   8  923.1886
   9  1182.746
  10  740.8766
  11  986.5599
  12  877.4687
  13  1124.237
  14  664.8619
  15  1177.309
  16  907.6971
  17  1353.06
  18  679.7444
  19  336.3756
  20  809.3969
  21  488.7594
  22  720.4668
  23  758.4989
  24  508.4605
  25  204.022
  26  857.17
  27  955.445
  28  774.0595
  29  475.278
  30  1090.633
  31  1108.128
  32  939.8083
  33  385.082
  34  1015.468
  35  1363.627
  36  1356.676
  37  943.4083
  38  1003.721
  39  923.5194
  40  743.5411
  41  1026.171
  42  530.8176
  43  389.688
  44  731.8165
  45  480.6992
  46  367.0803
  47  1373.863
  48  588.4724
  49  700.1464
  50  822.4777
  51  1017.53
  52  1157.458
  53  680.7285
  54  1020.517
  55  978.6755
  56  1888.913
  57  354.5495
  58  712.1685
  59  1483.164
  60  1007.211
  61  830.3942
  62  965.2127
  63  1123.79
  64  780.3289
  65  1277.761
  66  1003.603
  67  622.0923
  68  571.237
  69  570.6664
  70  298.3421
  71  670.8847
  72  993.382
  73  1257.853
  74  1476.64
  75  764.5811
  76  658.7261
  77  638.7589
  78  938.8219
  79  1101.072
  80  712.2353
  81  872.8845
  82  853.678
  83  981.3101
  84  1120.878
  85  319.2627
  86  260.8999
  87  -87.22739
  88  750.4412
  89  1076.457
  90  943.5805
  91  1146.887
  92  819.6255
  93  842.9733
  94  1209.512
  95  1094.276
  96  1082.623
  97  896.9969
  98  855.809
  99  670.4432
 100  524.9879
 101  785.0574
 102  1019.108
 103  827.349
 104  666.0939
 105  678.9166
 106  1144.792
 107  517.2586
 108  1080.85
 109  1181.476
 110  1217.526
 111  1169.718
 112  819.6523
 113  758.6944
 114  1531.331
 115  1293.726
 116  659.2163
 117  392.0865
 118  439.6962
 119  556.8883
 120  1335.703
 121  543.4487
 122  1665.369
 123  753.1778
 124  1096.202
 125  1075.059
 126  1227.879
 127  710.8059
 128  586.3516
 129  693.7326
 130  800.6584
 131  656.8226
 132  831.7991
 133  1028.22
 134  1193.733
 135  1117.828
 136  1097.682
 137  665.1879
 138  78.81749
 139  1072.969
 140  1074.863
 141  936.5266
 142  469.1355
 143  1282.839
 144  684.2056
 145  826.7192
 146  956.1126
 147  843.1217
 148  940.8788
 149  1522.513
 150  1546.602
 151  1107.712
 152  408.4478
 153  968.7033
 154  804.5631
 155  1018.182
 156  1531.315
 157  1913.921
 158  3270.849
 159  3869.819
 160  2856.82
 161  1616.504
 162  949.8894
 163  689.6484
 164  573.47
 165  1043.935
 166  1496.561
 167  1314.341
 168  1104.038
 169  1159.781
 170  346.8431
 171  389.2319
 172  1411.007
 173  1177.722
 174  837.8186
 175  1217.057
 176  571.3876
 177  627.1782
 178  1062.208
 179  1060.953
 180  1171.735
 181  1239.578
 182  1012.639
 183  435.0835
 184  223.7911
 185  439.7326
 186  769.2749
 187  947.1013
 188  191.0031
 189  437.2541
 190  557.7313
 191  824.033
 192  684.7116
 193  295.3177
 194  494.7232
 195  104.7109
 196  888.277
 197  483.723
 198  231.2883
 199  677.9528
 200  586.0411
 201  560.8566
 202  30.67238
 203  493.4627
 204  592.6525
 205  411.2384
 206  734.1039
 207  860.7956
 208  670.6428
 209  869.3648
 210  1059.014
 211  696.1628
 212  948.1573
 213  692.0173
 214  980.071
 215  1041.333
 216  881.597
 217  493.7794
 218  1019.887
 219  452.0605
 220  204.7782
 221  852.6394
 222  618.7718
 223  789.9359
 224  689.0159
 225  668.2234
 226  588.4424
 227  990.1437
 228  404.541
 229  929.5618
 230  748.4077
 231  246.2646
 232  644.306
 233  778.8318
 234  1047.27
 235  303.5656
 236  940.4216
 237  843.7559
 238  400.7025
 239  719.2134
 240  571.8568
 241  739.8853
 242  592.1386
 243  660.8467
 244  901.9932
 245  371.613
 246  886.6543
 247  734.327
 248  696.1503
 249  269.1556
 250  433.6487
 251  768.9946
 252  938.1813
 253  1062.371
 254  901.4968
 255  694.3066
