# Input file       =  1192643699.13104_cleaned.dat
# Candidate        =  PSR_0332+5434
# Telescope        =  AR
# Epoch_topo       =  58047.746737627778
# Epoch_bary       =  N/A
# T_sample         =  0.002
# Data Folded      =  7143424
# Data Avg         =  0.0267488856804581
# Data StdDev      =  1.00003686943597 
# Profile Bins     =  512
# Profile Avg      =  373.202298242948 
# Profile StdDev   =  118.122939447455 
# Reduced chi-sqr  =  1.451
# Prob(Noise)      <  9.92e-11   (~6.4 sigma)
# P_topo (ms)      =  714.486781383038  +/- 0.00026
# P'_topo (s/s)    =  -0                +/- 1.41e-10
# P''_topo (s/s^2) =  0                 +/- 6.41e-14
# P_bary (ms)      =  N/A
# P'_bary (s/s)    =  N/A
# P''_bary (s/s^2) =  N/A
# P_orb (s)        =  N/A
# asin(i)/c (s)    =  N/A
# eccentricity     =  N/A
# w (rad)          =  N/A
# T_peri           =  N/A
######################################################
   0  267.6687
   1  236.1823
   2  362.5138
   3  387.3377
   4  322.1516
   5  328.4095
   6  362.9155
   7  268.3838
   8  401.1621
   9  494.6266
  10  463.1131
  11  318.8707
  12  420.838
  13  376.2424
  14  402.0359
  15  469.3806
  16  240.2857
  17  300.9982
  18  225.9724
  19  324.7808
  20  398.7646
  21  387.2775
  22  394.5869
  23  253.483
  24  210.6908
  25  255.8875
  26  333.874
  27  246.8766
  28  362.3641
  29  452.3516
  30  431.7769
  31  486.9006
  32  344.8378
  33  431.1823
  34  358.5747
  35  341.7798
  36  385.5457
  37  301.7279
  38  259.2407
  39  348.6119
  40  383.0529
  41  327.7988
  42  316.2668
  43  363.9115
  44  435.888
  45  407.8167
  46  352.367
  47  479.049
  48  520.3019
  49  483.4625
  50  463.1227
  51  307.7173
  52  354.0833
  53  444.401
  54  364.995
  55  328.3555
  56  374.0248
  57  229.0018
  58  356.8363
  59  220.16
  60  250.0688
  61  285.3939
  62  312.2629
  63  314.0045
  64  279.7705
  65  387.7397
  66  473.1405
  67  315.9802
  68  364.0403
  69  312.3172
  70  282.0419
  71  344.8496
  72  423.2518
  73  300.374
  74  269.1604
  75  323.3606
  76  414.1591
  77  431.3615
  78  311.3954
  79  254.4445
  80  299.3949
  81  394.4285
  82  286.2916
  83  342.8622
  84  475.52
  85  545.7335
  86  465.4831
  87  401.9903
  88  456.4902
  89  418.0625
  90  336.8028
  91  368.8705
  92  454.2367
  93  482.2213
  94  358.207
  95  386.7674
  96  501.2153
  97  406.6596
  98  304.5228
  99  343.1981
 100  436.5301
 101  314.3722
 102  404.7686
 103  528.8192
 104  521.4052
 105  495.5191
 106  399.2105
 107  460.314
 108  514.5504
 109  453.2392
 110  440.0715
 111  347.1522
 112  428.0247
 113  516.3836
 114  453.5714
 115  423.487
 116  323.7215
 117  366.6466
 118  484.6389
 119  378.8628
 120  273.4163
 121  250.3438
 122  316.7817
 123  292.5398
 124  390.6259
 125  526.8522
 126  496.3004
 127  341.1065
 128  484.023
 129  416.2648
 130  483.666
 131  373.2317
 132  403.4289
 133  438.8278
 134  391.4993
 135  371.0359
 136  375.9832
 137  518.6779
 138  505.8136
 139  405.2942
 140  441.6909
 141  394.8964
 142  491.6613
 143  442.9238
 144  379.2552
 145  373.521
 146  556.8183
 147  605.2098
 148  610.7999
 149  925.558
 150  1103.561
 151  1121.542
 152  997.0049
 153  786.8716
 154  677.9648
 155  475.8565
 156  312.5388
 157  230.7401
 158  252.996
 159  279.3908
 160  318.9027
 161  415.4776
 162  457.5049
 163  430.0463
 164  450.7968
 165  448.9844
 166  329.953
 167  348.8532
 168  291.4446
 169  359.8768
 170  291.9454
 171  229.7617
 172  269.6241
 173  249.9937
 174  424.5799
 175  394.392
 176  425.8762
 177  370.6159
 178  335.1848
 179  344.105
 180  434.1521
 181  345.1684
 182  403.5873
 183  371.5415
 184  387.3068
 185  374.5924
 186  419.4048
 187  416.5865
 188  244.6261
 189  256.4373
 190  248.8249
 191  317.5192
 192  242.1903
 193  210.3466
 194  260.3968
 195  203.8645
 196  395.8448
 197  368.1867
 198  271.118
 199  292.9834
 200  290.6998
 201  280.9176
 202  424.3811
 203  354.2389
 204  411.3927
 205  419.1765
 206  320.4023
 207  315.4848
 208  278.6294
 209  357.8858
 210  376.226
 211  379.8971
 212  476.6346
 213  294.0957
 214  230.1786
 215  244.036
 216  185.8099
 217  352.9354
 218  429.4409
 219  360.4104
 220  334.5477
 221  360.5345
 222  396.0811
 223  357.273
 224  355.179
 225  348.4445
 226  381.5993
 227  398.7358
 228  522.2516
 229  446.4298
 230  391.206
 231  381.5515
 232  467.8186
 233  467.3381
 234  425.7825
 235  446.5694
 236  351.2816
 237  282.5836
 238  282.0474
 239  417.6593
 240  477.4577
 241  376.5974
 242  292.0855
 243  331.7656
 244  306.8181
 245  334.9131
 246  425.5451
 247  329.1267
 248  325.3476
 249  335.545
 250  384.2352
 251  403.6243
 252  416.4019
 253  433.7123
 254  378.405
 255  314.6378
 256  423.4125
 257  365.8586
 258  411.0655
 259  367.467
 260  384.3579
 261  494.6922
 262  433.0061
 263  322.817
 264  373.1505
 265  243.1174
 266  367.924
 267  356.6538
 268  292.9201
 269  281.5054
 270  224.5348
 271  371.1404
 272  279.6776
 273  224.1511
 274  331.0329
 275  483.9254
 276  433.4278
 277  278.5695
 278  352.2636
 279  231.2866
 280  233.5424
 281  317.9866
 282  444.1884
 283  288.3727
 284  395.3775
 285  445.1417
 286  263.4146
 287  303.2262
 288  410.8371
 289  439.1879
 290  379.1683
 291  339.8787
 292  298.4787
 293  294.8194
 294  389.413
 295  388.555
 296  291.6557
 297  363.0646
 298  348.5831
 299  319.5852
 300  296.7024
 301  221.0973
 302  324.81
 303  378.1619
 304  257.5606
 305  209.1681
 306  240.0088
 307  389.8839
 308  305.9074
 309  387.3419
 310  429.5923
 311  437.0743
 312  467.6074
 313  457.5752
 314  356.179
 315  346.2296
 316  382.2967
 317  297.1338
 318  297.9809
 319  386.1093
 320  297.2472
 321  247.634
 322  274.6598
 323  363.1294
 324  360.011
 325  509.5024
 326  495.9882
 327  389.7982
 328  271.6975
 329  401.3253
 330  512.5403
 331  453.1524
 332  448.0898
 333  453.0375
 334  264.5781
 335  364.1046
 336  505.0415
 337  432.5847
 338  408.3836
 339  435.1866
 340  467.3524
 341  553.3859
 342  378.4266
 343  303.6148
 344  313.7892
 345  449.6101
 346  524.7682
 347  524.3
 348  525.7446
 349  453.274
 350  479.0993
 351  383.3108
 352  266.0483
 353  327.7088
 354  289.8992
 355  444.64
 356  478.6806
 357  397.4325
 358  358.7267
 359  337.6569
 360  318.1032
 361  314.0324
 362  385.1952
 363  412.7353
 364  395.6654
 365  526.9722
 366  393.5024
 367  296.0366
 368  335.7583
 369  246.5137
 370  235.3183
 371  401.1858
 372  468.27
 373  406.1157
 374  299.432
 375  367.4249
 376  346.7768
 377  290.1268
 378  335.5256
 379  244.9964
 380  176.3971
 381  178.8106
 382  135.4624
 383  203.3555
 384  194.0816
 385  478.2264
 386  412.4454
 387  328.339
 388  245.9883
 389  265.8683
 390  401.8604
 391  376.8835
 392  402.9232
 393  404.1307
 394  333.1552
 395  391.0622
 396  327.9153
 397  231.6544
 398  172.6279
 399  240.1621
 400  362.1771
 401  318.5841
 402  318.8189
 403  339.7247
 404  322.7187
 405  370.1858
 406  400.9095
 407  521.9343
 408  330.0065
 409  347.6003
 410  343.0549
 411  290.3282
 412  488.196
 413  409.9688
 414  329.7079
 415  225.1192
 416  378.3178
 417  429.0096
 418  341.882
 419  458.9601
 420  340.077
 421  383.643
 422  405.8571
 423  393.446
 424  322.9348
 425  359.7859
 426  443.3843
 427  404.6069
 428  410.9503
 429  389.6084
 430  368.3638
 431  383.3406
 432  232.7642
 433  117.9361
 434  311.5267
 435  351.4329
 436  354.3377
 437  299.4777
 438  330.2458
 439  308.3323
 440  342.6347
 441  307.3069
 442  377.3022
 443  482.9899
 444  410.9036
 445  306.2166
 446  377.5039
 447  359.5374
 448  284.7849
 449  256.2672
 450  273.7813
 451  278.4188
 452  294.3796
 453  328.5069
 454  366.8556
 455  367.2259
 456  537.5931
 457  554.5529
 458  466.9332
 459  328.5674
 460  310.2588
 461  323.2569
 462  303.3579
 463  299.2404
 464  389.9466
 465  350.3369
 466  273.8517
 467  301.8331
 468  278.7697
 469  364.8426
 470  462.0712
 471  337.0094
 472  308.4991
 473  272.3516
 474  296.9377
 475  411.3217
 476  464.4601
 477  409.4947
 478  332.3821
 479  378.2051
 480  408.6848
 481  410.8515
 482  417.7883
 483  435.1715
 484  412.6209
 485  359.0094
 486  315.1389
 487  489.3036
 488  536.7691
 489  347.1357
 490  393.7407
 491  465.9427
 492  569.9338
 493  517.6857
 494  320.1935
 495  188.1558
 496  374.8438
 497  506.1949
 498  490.8739
 499  439.8159
 500  463.2271
 501  377.8217
 502  302.5906
 503  376.0847
 504  328.9949
 505  385.645
 506  362.5198
 507  450.2675
 508  452.0352
 509  351.8875
 510  365.4996
 511  360.8521
