# Input file       =  1192845516.153047_cleaned.dat
# Candidate        =  PSR_0332+5434
# Telescope        =  AR
# Epoch_topo       =  58050.082582789895
# Epoch_bary       =  N/A
# T_sample         =  0.002
# Data Folded      =  7340032
# Data Avg         =  0.0550874094582727
# Data StdDev      =  2.7346390860365  
# Profile Bins     =  256
# Profile Avg      =  1579.42455406294 
# Profile StdDev   =  463.051196618851 
# Reduced chi-sqr  =  1.517
# Prob(Noise)      <  1.83e-07   (~5.1 sigma)
# P_topo (ms)      =  714.489070019212  +/- 0.000153
# P'_topo (s/s)    =  -0                +/- 8.09e-11
# P''_topo (s/s^2) =  0                 +/- 3.57e-14
# P_bary (ms)      =  N/A
# P'_bary (s/s)    =  N/A
# P''_bary (s/s^2) =  N/A
# P_orb (s)        =  N/A
# asin(i)/c (s)    =  N/A
# eccentricity     =  N/A
# w (rad)          =  N/A
# T_peri           =  N/A
######################################################
   0  1492.407
   1  1460.267
   2  1425.475
   3  1326.299
   4  1531.879
   5  1691.492
   6  2031.307
   7  1039.021
   8  1310.476
   9  2379.848
  10  905.1064
  11  1293.767
  12  1654.399
  13  1508.599
  14  1639.621
  15  682.9335
  16  1586.346
  17  1865.05
  18  1625.291
  19  1915.447
  20  2573.987
  21  2023.094
  22  2168.496
  23  2213.157
  24  1142.137
  25  1372.878
  26  2080.679
  27  1512.315
  28  1208.185
  29  1551.523
  30  1814.911
  31  836.1296
  32  864.9076
  33  1705.603
  34  939.8024
  35  1455.145
  36  1782.123
  37  1156.059
  38  1095.502
  39  1239.865
  40  1164.807
  41  840.7789
  42  1256.291
  43  1436.593
  44  1070.133
  45  1394.521
  46  1667.118
  47  1611.145
  48  1921.03
  49  1588.001
  50  1024.703
  51  617.5031
  52  934.996
  53  1704
  54  1642.386
  55  1350.983
  56  859.3586
  57  961.9051
  58  1314.525
  59  1691.576
  60  1422.554
  61  965.1484
  62  1827.518
  63  2122.75
  64  1743.188
  65  1361.134
  66  1713.227
  67  1591.929
  68  1085.776
  69  1816.976
  70  1874.605
  71  1124.992
  72  1533.004
  73  1254.877
  74  1906.847
  75  977.4523
  76  1372.609
  77  1995.631
  78  1485.158
  79  1862.678
  80  1825.298
  81  1666.302
  82  1460.816
  83  1284.097
  84  1837.481
  85  2132.801
  86  1150.454
  87  865.8261
  88  1337.173
  89  1516.624
  90  1609.715
  91  1839.292
  92  2130.912
  93  1681.464
  94  995.5646
  95  1260.705
  96  2500.79
  97  1488.048
  98  414.2307
  99  1086.779
 100  1534.752
 101  1879.789
 102  1616.878
 103  2071.116
 104  2053.433
 105  1734.139
 106  1934.402
 107  1696.978
 108  1011.987
 109  1826.964
 110  2064.679
 111  1107.195
 112  983.8464
 113  1797.598
 114  1774.997
 115  1229.507
 116  1357.831
 117  1521.137
 118  1592.505
 119  1749.012
 120  1775.846
 121  1163.793
 122  498.2223
 123  956.1482
 124  1403.312
 125  1978.068
 126  1144.727
 127  1371.865
 128  1275.226
 129  1570.183
 130  1065.25
 131  1695.097
 132  1450.361
 133  1848.221
 134  1808.432
 135  1403.8
 136  939.2403
 137  873.3309
 138  1284.535
 139  1294.39
 140  1386.436
 141  1791.226
 142  2011.939
 143  1239.974
 144  1710.567
 145  1131.241
 146  1430.901
 147  1407.899
 148  1739.629
 149  2268.407
 150  1907.575
 151  1454.598
 152  2255.287
 153  2128.629
 154  1008.452
 155  1394.144
 156  2068.717
 157  3238.917
 158  4557.961
 159  4624.501
 160  2817.207
 161  1912.349
 162  1920.101
 163  1387.903
 164  1471.458
 165  2315.556
 166  2041.438
 167  1928.262
 168  1389.636
 169  2087.234
 170  1785.392
 171  1716.225
 172  2000.59
 173  1308.118
 174  1793.452
 175  1829.414
 176  1606.197
 177  1435.005
 178  1669.724
 179  983.9183
 180  1028.065
 181  1629.096
 182  1364.22
 183  1790.911
 184  1698.697
 185  976.3585
 186  1440.828
 187  1505.176
 188  1278.232
 189  1287.411
 190  1992.152
 191  1875.108
 192  960.8267
 193  766.0406
 194  1505.707
 195  1743.973
 196  1337.879
 197  2443.351
 198  2293.784
 199  1720.598
 200  1779.428
 201  1697.326
 202  1914.84
 203  1819.409
 204  1190.222
 205  1527.258
 206  2559.047
 207  1512.95
 208  1465.246
 209  1565.169
 210  1109.8
 211  1558.54
 212  1584.965
 213  1116.596
 214  1708.422
 215  1878.042
 216  1660.149
 217  1682.982
 218  1962.067
 219  1125.867
 220  1386.453
 221  1903.178
 222  1923.219
 223  1582.135
 224  960.9771
 225  1113.431
 226  1461.528
 227  1849.421
 228  2305.283
 229  1965.861
 230  1557.213
 231  1192.276
 232  1707.979
 233  1611.465
 234  1031.596
 235  1586.099
 236  1962.252
 237  1401.241
 238  1449.98
 239  1902.659
 240  1739.288
 241  1588.93
 242  1626.432
 243  2190.139
 244  1890.551
 245  1045.626
 246  1299.71
 247  2024.128
 248  1610.484
 249  1391.409
 250  1100.23
 251  930.2567
 252  2251.456
 253  1933.902
 254  1283.852
 255  1744.026
