# Input file       =  1192759393.134662_cleaned.dat
# Candidate        =  PSR_0332+5434
# Telescope        =  AR
# Epoch_topo       =  58049.085788595621
# Epoch_bary       =  N/A
# T_sample         =  0.002
# Data Folded      =  7340032
# Data Avg         =  0.0524283150620506
# Data StdDev      =  2.6634030484251  
# Profile Bins     =  256
# Profile Avg      =  1503.20299882443 
# Profile StdDev   =  450.988934864904 
# Reduced chi-sqr  =  1.698
# Prob(Noise)      <  2.3e-11   (~6.6 sigma)
# P_topo (ms)      =  714.488234098081  +/- 0.000216
# P'_topo (s/s)    =  -0                +/- 1.14e-10
# P''_topo (s/s^2) =  0                 +/- 5.02e-14
# P_bary (ms)      =  N/A
# P'_bary (s/s)    =  N/A
# P''_bary (s/s^2) =  N/A
# P_orb (s)        =  N/A
# asin(i)/c (s)    =  N/A
# eccentricity     =  N/A
# w (rad)          =  N/A
# T_peri           =  N/A
######################################################
   0  1793.822
   1  1502.631
   2  1653.693
   3  2161.556
   4  1933.36
   5  1314.061
   6  1426.066
   7  1218.908
   8  1340.959
   9  1395.143
  10  1065.91
  11  1274.981
  12  1842.539
  13  1541.128
  14  1370.664
  15  976.5024
  16  1700.766
  17  732.348
  18  1248.102
  19  1565.941
  20  1117.731
  21  1044.781
  22  1771.934
  23  1477.104
  24  1714.516
  25  1478.331
  26  1293.236
  27  869.4237
  28  1672.27
  29  2018.793
  30  1475.461
  31  1117.252
  32  1854.87
  33  836.3702
  34  644.3011
  35  1351.841
  36  1563.938
  37  1134.18
  38  758.6876
  39  786.4239
  40  793.1531
  41  1061.372
  42  1204.559
  43  1845.671
  44  1605.089
  45  1430.324
  46  1429.45
  47  1273.235
  48  1168.028
  49  771.5699
  50  909.2421
  51  923.2354
  52  1717.284
  53  2049.027
  54  1882.693
  55  1177.613
  56  1114.135
  57  1933.936
  58  2182.755
  59  1268.828
  60  1310.318
  61  1262.549
  62  952.9831
  63  1052.776
  64  1209.718
  65  1049.828
  66  1004.206
  67  1470.908
  68  945.7391
  69  1171.833
  70  781.1561
  71  946.0635
  72  1402.704
  73  1218.32
  74  1337.847
  75  1085.414
  76  1377.196
  77  1327.976
  78  877.498
  79  1344.886
  80  1511.237
  81  1894.999
  82  1531.353
  83  1433.371
  84  2732.983
  85  1747.659
  86  1699.895
  87  1462.799
  88  1173.024
  89  1474.478
  90  1467.495
  91  885.926
  92  793.8627
  93  2341.046
  94  1469.421
  95  1033.817
  96  1397.795
  97  1333.683
  98  1363.176
  99  1182.225
 100  1410.77
 101  1536.988
 102  1077.677
 103  1410.228
 104  1526.253
 105  1007.365
 106  837.921
 107  1303.047
 108  1560.796
 109  1193.208
 110  1444.537
 111  1531.047
 112  1673.708
 113  1138.401
 114  1490.685
 115  941.7454
 116  880.8408
 117  1384.296
 118  1553.188
 119  1133.235
 120  1079.76
 121  1431.569
 122  1376.779
 123  1000.602
 124  1965.61
 125  1938.503
 126  1704.667
 127  1523.425
 128  1404.574
 129  1675.026
 130  1503.927
 131  1669.25
 132  1196.975
 133  530.6944
 134  1619.797
 135  1748.546
 136  1839.112
 137  1640.814
 138  1923.22
 139  1736.889
 140  908.2311
 141  893.7158
 142  1876.442
 143  1293.921
 144  1259.85
 145  1466.7
 146  1467.131
 147  1661.149
 148  1433.136
 149  1086.632
 150  1718.347
 151  1863.986
 152  1403.009
 153  1285.951
 154  1994.327
 155  2126.633
 156  1640.732
 157  2669.2
 158  4354.453
 159  4982.63
 160  3928.451
 161  2306.179
 162  1659.982
 163  1512.039
 164  2082.661
 165  2556.941
 166  1818.138
 167  2418.002
 168  1982.659
 169  1719.052
 170  1353.236
 171  1261.434
 172  2335.458
 173  2148.569
 174  2301.376
 175  1824.705
 176  1874.021
 177  1293.197
 178  1369.545
 179  2231.831
 180  1886.02
 181  1952.871
 182  1862.262
 183  2183.768
 184  1607.982
 185  1227.915
 186  1897.998
 187  1554.513
 188  1512.409
 189  1570.105
 190  1283.432
 191  964.7748
 192  1705.261
 193  1605.502
 194  1694.188
 195  1700.361
 196  698.9243
 197  1811.308
 198  2300.79
 199  1533.466
 200  1664.072
 201  2077.456
 202  1101.975
 203  1214.593
 204  1022.786
 205  739.051
 206  966.1143
 207  1321.634
 208  1848.625
 209  1515.711
 210  1796.036
 211  1572.827
 212  1777.424
 213  1639.438
 214  931.926
 215  1140.416
 216  1450.337
 217  1712.841
 218  1291.604
 219  1186.337
 220  1592.995
 221  1780.571
 222  1884.185
 223  1712.669
 224  1378.098
 225  1799.008
 226  1434.271
 227  1708.046
 228  980.0849
 229  1059.045
 230  1809.16
 231  1762.482
 232  831.6473
 233  2087.807
 234  1375.239
 235  1840.099
 236  1745.23
 237  1315.735
 238  1105.273
 239  1325.038
 240  1883.31
 241  1445.599
 242  1983.087
 243  1316.235
 244  1259.217
 245  1417.996
 246  1472.177
 247  1525.5
 248  1332.57
 249  1461.699
 250  1493.248
 251  1734.857
 252  797.525
 253  1310.056
 254  1480.9
 255  2103.031
