# Input file       =  1192816011.146538_cleaned.dat
# Candidate        =  PSR_0332+5434
# Telescope        =  AR
# Epoch_topo       =  58049.741089659008
# Epoch_bary       =  N/A
# T_sample         =  0.002
# Data Folded      =  7143424
# Data Avg         =  0.0341807709201724
# Data StdDev      =  1.00014171925916 
# Profile Bins     =  512
# Profile Avg      =  476.85180110586  
# Profile StdDev   =  118.135324160153 
# Reduced chi-sqr  =  1.561
# Prob(Noise)      <  6.39e-15   (~7.7 sigma)
# P_topo (ms)      =  714.488436679248  +/- 0.000252
# P'_topo (s/s)    =  -0                +/- 1.36e-10
# P''_topo (s/s^2) =  0                 +/- 6.19e-14
# P_bary (ms)      =  N/A
# P'_bary (s/s)    =  N/A
# P''_bary (s/s^2) =  N/A
# P_orb (s)        =  N/A
# asin(i)/c (s)    =  N/A
# eccentricity     =  N/A
# w (rad)          =  N/A
# T_peri           =  N/A
######################################################
   0  1155.157
   1  1122.655
   2  913.4315
   3  708.6711
   4  558.9809
   5  476.4828
   6  448.3559
   7  416.7471
   8  430.6065
   9  547.6558
  10  488.9602
  11  584.4556
  12  567.5797
  13  620.0861
  14  683.2738
  15  544.3778
  16  560.8127
  17  604.394
  18  558.6891
  19  502.7435
  20  363.5213
  21  462.3082
  22  451.399
  23  609.1947
  24  466.7401
  25  403.7043
  26  564.2112
  27  671.9294
  28  527.5927
  29  428.8077
  30  439.9128
  31  603.296
  32  439.119
  33  462.848
  34  482.4926
  35  474.7768
  36  472.0097
  37  458.977
  38  568.2067
  39  606.0546
  40  566.6335
  41  501.8731
  42  470.405
  43  404.2346
  44  486.0126
  45  487.3118
  46  449.4921
  47  488.4502
  48  481.3582
  49  390.0901
  50  426.7377
  51  478.6816
  52  427.0383
  53  320.5708
  54  417.1544
  55  421.3645
  56  616.4831
  57  590.453
  58  528.75
  59  587.1147
  60  625.764
  61  572.6222
  62  619.6913
  63  599.6046
  64  516.4257
  65  430.5429
  66  490.7363
  67  516.9078
  68  575.2026
  69  516.4644
  70  365.4222
  71  425.8175
  72  441.2396
  73  423.513
  74  416.7829
  75  390.4975
  76  584.9083
  77  440.1646
  78  342.7935
  79  476.8157
  80  452.5732
  81  453.841
  82  374.1767
  83  523.347
  84  508.0916
  85  487.8259
  86  321.9453
  87  361.6257
  88  425.0929
  89  451.4008
  90  599.4108
  91  482.2226
  92  477.1779
  93  435.3757
  94  478.7819
  95  524.9688
  96  439.2153
  97  620.1481
  98  584.0403
  99  496.1216
 100  563.9991
 101  498.2809
 102  527.838
 103  564.0509
 104  582.4229
 105  611.6599
 106  557.3471
 107  637.2203
 108  560.0056
 109  420.3993
 110  374.894
 111  448.6635
 112  388.0189
 113  503.9924
 114  599.6096
 115  439.5882
 116  419.4977
 117  478.6505
 118  282.111
 119  186.4427
 120  356.5681
 121  433.6185
 122  419.617
 123  462.1714
 124  564.6449
 125  603.1338
 126  609.2065
 127  610.2055
 128  414.0619
 129  446.8398
 130  423.083
 131  384.6679
 132  370.6217
 133  399.2778
 134  573.3197
 135  505.2046
 136  556.4025
 137  547.4243
 138  603.3477
 139  510.232
 140  447.4837
 141  414.9962
 142  448.7437
 143  504.8711
 144  463.1624
 145  532.6522
 146  466.6203
 147  354.3398
 148  470.9607
 149  344.0026
 150  365.9655
 151  472.3618
 152  589.2571
 153  422.319
 154  424.2701
 155  518.1497
 156  551.2299
 157  446.5433
 158  481.9846
 159  512.9501
 160  514.6877
 161  523.2434
 162  553.09
 163  517.9749
 164  406.6979
 165  421.2518
 166  486.0394
 167  533.2991
 168  644.8159
 169  600.9955
 170  395.6375
 171  424.1251
 172  402.4666
 173  314.7428
 174  505.9256
 175  460.3468
 176  580.351
 177  502.2866
 178  448.8987
 179  557.6751
 180  440.7399
 181  446.4467
 182  525.684
 183  488.8539
 184  500.6353
 185  376.8634
 186  425.9094
 187  477.044
 188  498.861
 189  483.8138
 190  639.2458
 191  673.3087
 192  490.7863
 193  528.5284
 194  458.4417
 195  453.3391
 196  578.1823
 197  533.94
 198  501.6758
 199  502.5885
 200  422.0793
 201  424.834
 202  401.3609
 203  387.3091
 204  344.9438
 205  407.6966
 206  359.3107
 207  296.0067
 208  402.4901
 209  518.6415
 210  565.2748
 211  473.2126
 212  556.2338
 213  472.8206
 214  443.3746
 215  583.2901
 216  646.2291
 217  573.485
 218  435.0019
 219  499.0638
 220  517.6391
 221  500.8568
 222  567.7812
 223  403.3452
 224  377.7074
 225  396.5726
 226  396.9023
 227  420.2448
 228  393.64
 229  356.3316
 230  390.7543
 231  489.5991
 232  581.5383
 233  540.1561
 234  389.4862
 235  426.7876
 236  375.7922
 237  369.923
 238  402.5066
 239  466.3961
 240  539.556
 241  668.5035
 242  589.3807
 243  444.2836
 244  388.767
 245  538.1476
 246  353.3419
 247  337.6291
 248  552.0035
 249  559.8706
 250  471.5282
 251  471.5139
 252  512.9067
 253  394.9659
 254  477.9834
 255  417.6575
 256  509.3201
 257  541.2114
 258  584.9416
 259  532.9222
 260  487.2816
 261  473.032
 262  396.7783
 263  421.1328
 264  378.2815
 265  434.0767
 266  457.7568
 267  435.0566
 268  420.9342
 269  633.6697
 270  681.3253
 271  532.742
 272  510.7269
 273  523.2336
 274  430.4046
 275  439.0576
 276  441.354
 277  567.8921
 278  628.5689
 279  614.8689
 280  482.845
 281  432.5194
 282  474.5514
 283  545.5527
 284  424.6073
 285  454.2899
 286  437.7846
 287  457.9719
 288  558.1315
 289  578.8087
 290  436.0369
 291  474.9852
 292  615.7183
 293  504.2795
 294  464.6465
 295  477.0769
 296  340.124
 297  463.7818
 298  452.1671
 299  531.379
 300  577.0239
 301  486.2015
 302  522.696
 303  378.5408
 304  308.0005
 305  358.6971
 306  580.6252
 307  514.5284
 308  468.1653
 309  572.8133
 310  566.6038
 311  342.8866
 312  440.1229
 313  524.9299
 314  460.1794
 315  417.6626
 316  519.8141
 317  459.1313
 318  378.7217
 319  400.9126
 320  432.9846
 321  497.2347
 322  488.5385
 323  469.6298
 324  577.1828
 325  584.5267
 326  536.6354
 327  457.3198
 328  394.0464
 329  367.0002
 330  375.5013
 331  376.7282
 332  496.4547
 333  450.0073
 334  431.7094
 335  521.0855
 336  540.9064
 337  521.9151
 338  520.1574
 339  526.9373
 340  479.5108
 341  494.1904
 342  605.1713
 343  588.7242
 344  392.8161
 345  331.0109
 346  325.1768
 347  361.3065
 348  403.8404
 349  403.1184
 350  461.7388
 351  364.6786
 352  384.2519
 353  431.2597
 354  419.9276
 355  410.652
 356  390.9432
 357  299.2747
 358  335.6393
 359  361.9352
 360  518.4757
 361  493.3008
 362  478.2814
 363  424.9899
 364  539.0318
 365  607.9993
 366  434.7251
 367  581.8139
 368  578.5435
 369  482.5771
 370  503.1674
 371  455.5086
 372  395.9493
 373  273.3348
 374  313.9008
 375  537.3346
 376  485.828
 377  458.8049
 378  456.0045
 379  422.9442
 380  456.9053
 381  452.2161
 382  482.312
 383  452.6232
 384  418.7173
 385  285.654
 386  314.4367
 387  480.8706
 388  488.8748
 389  494.2078
 390  497.8002
 391  441.903
 392  377.2306
 393  327.6637
 394  436.368
 395  319.1121
 396  351.6822
 397  376.5809
 398  408.0182
 399  533.6863
 400  467.09
 401  443.9824
 402  434.1784
 403  490.4595
 404  421.2936
 405  219.719
 406  363.7443
 407  408.4517
 408  406.4497
 409  408.1852
 410  448.217
 411  275.8459
 412  339.9944
 413  421.5476
 414  504.4993
 415  543.869
 416  475.1054
 417  507.5454
 418  338.9108
 419  262.4736
 420  333.7206
 421  417.3536
 422  534.9427
 423  582.4166
 424  413.0565
 425  398.3247
 426  346.888
 427  508.9298
 428  554.2401
 429  471.4629
 430  393.2391
 431  438.628
 432  515.1935
 433  494.6299
 434  489.0746
 435  499.3311
 436  378.5431
 437  316.6719
 438  309.5066
 439  396.953
 440  415.4529
 441  376.1002
 442  445.1854
 443  513.5212
 444  473.4974
 445  472.7112
 446  396.1873
 447  468.3584
 448  410.0591
 449  564.4319
 450  505.336
 451  526.8921
 452  400.544
 453  247.919
 454  287.9227
 455  378.1915
 456  408.6779
 457  433.747
 458  397.2755
 459  365.7527
 460  364.8457
 461  481.7642
 462  454.977
 463  428.1393
 464  383.1874
 465  459.4955
 466  394.3362
 467  434.5739
 468  377.0652
 469  362.1079
 470  450.4583
 471  364.162
 472  372.7701
 473  406.6077
 474  451.4039
 475  488.3105
 476  397.0775
 477  455.4394
 478  396.9019
 479  397.4557
 480  440.4783
 481  532.3519
 482  379.7409
 483  366.7955
 484  506.8979
 485  502.7468
 486  651.6369
 487  538.123
 488  387.8506
 489  386.0303
 490  511.6046
 491  621.1609
 492  575.4666
 493  464.1759
 494  483.2572
 495  447.1061
 496  535.2775
 497  489.838
 498  493.0301
 499  497.4053
 500  445.2898
 501  528.2987
 502  461.6536
 503  513.4068
 504  618.6844
 505  687.4224
 506  690.4725
 507  686.8346
 508  678.1593
 509  855.9195
 510  1125.758
 511  1202.576
