# Input file       =  1192729877.127806_cleaned.dat
# Candidate        =  PSR_0332+5434
# Telescope        =  AR
# Epoch_topo       =  58048.744168145902
# Epoch_bary       =  N/A
# T_sample         =  0.002
# Data Folded      =  7143424
# Data Avg         =  -0.00152583893414137
# Data StdDev      =  3.20031234969843 
# Profile Bins     =  1024
# Profile Avg      =  -10.7358398912113
# Profile StdDev   =  267.297934840827 
# Reduced chi-sqr  =  0.941
# Prob(Noise)      <  0.913   (~0.0 sigma)
# P_topo (ms)      =  714.48760417822   +/- 9.19e-05
# P'_topo (s/s)    =  -0                +/- 4.98e-11
# P''_topo (s/s^2) =  0                 +/- 2.26e-14
# P_bary (ms)      =  N/A
# P'_bary (s/s)    =  N/A
# P''_bary (s/s^2) =  N/A
# P_orb (s)        =  N/A
# asin(i)/c (s)    =  N/A
# eccentricity     =  N/A
# w (rad)          =  N/A
# T_peri           =  N/A
######################################################
   0  58.16931
   1  45.94572
   2  -32.23076
   3  -90.87606
   4  -242.9867
   5  -252.0722
   6  -198.1121
   7  -126.186
   8  -156.2224
   9  -141.6319
  10  -51.6652
  11  14.84644
  12  -53.7916
  13  -189.4044
  14  -173.5022
  15  -135.027
  16  -146.5307
  17  -214.1913
  18  -270.3131
  19  -278.0204
  20  -172.9054
  21  -19.85706
  22  -74.07504
  23  -147.8372
  24  -86.82767
  25  38.36282
  26  3.941217
  27  -5.787092
  28  -44.64479
  29  39.58197
  30  -77.67694
  31  19.72636
  32  -70.00663
  33  -54.58456
  34  -170.4189
  35  -118.4596
  36  -89.77417
  37  29.9195
  38  -40.7234
  39  -2.320712
  40  -51.6598
  41  -4.462189
  42  20.79019
  43  56.3416
  44  64.38379
  45  53.81581
  46  19.60196
  47  1.81824
  48  58.72565
  49  142.483
  50  257.2663
  51  248.5422
  52  147.2615
  53  148.5352
  54  130.0033
  55  4.188942
  56  -169.1318
  57  -149.453
  58  18.88157
  59  138.7911
  60  96.38776
  61  35.39183
  62  -83.76363
  63  -27.08076
  64  124.0652
  65  122.643
  66  94.64832
  67  93.49455
  68  191.9293
  69  222.8553
  70  51.77295
  71  -39.72805
  72  -158.5112
  73  -175.8451
  74  -118.9031
  75  107.8735
  76  138.6017
  77  142.8486
  78  15.47926
  79  11.57372
  80  -32.36256
  81  -103.5365
  82  28.4468
  83  -2.080237
  84  -137.8981
  85  -189.0303
  86  -86.08198
  87  1.554482
  88  -162.4993
  89  -176.4496
  90  -118.0551
  91  -53.36319
  92  -54.49929
  93  21.82727
  94  54.68174
  95  -46.91573
  96  -48.68429
  97  -34.54702
  98  -3.831527
  99  -36.51686
 100  -18.15553
 101  92.68232
 102  -29.9286
 103  -180.5808
 104  -254.4742
 105  -109.6368
 106  -49.2487
 107  -94.15192
 108  -209.6372
 109  -251.3154
 110  -250.9472
 111  -193.3111
 112  -78.96848
 113  -60.28728
 114  -86.73296
 115  -29.54574
 116  15.09627
 117  -63.60151
 118  -183.2124
 119  -124.249
 120  52.50975
 121  12.57807
 122  -55.88892
 123  26.3702
 124  43.1717
 125  -5.85156
 126  -56.03269
 127  -62.71598
 128  -14.32055
 129  8.35212
 130  16.66043
 131  46.43322
 132  46.96194
 133  63.36053
 134  20.70291
 135  -97.44913
 136  -236.6474
 137  -331.9852
 138  -233.0232
 139  -132.5211
 140  -135.5467
 141  -106.8851
 142  -31.20428
 143  -13.58743
 144  -16.30727
 145  -0.776344
 146  10.32363
 147  -15.01238
 148  -156.4772
 149  -97.04562
 150  -93.95061
 151  -136.6887
 152  -167.3469
 153  -122.7679
 154  -123.0872
 155  -85.45201
 156  -1.495044
 157  149.5621
 158  298.018
 159  338.6391
 160  236.5496
 161  63.13926
 162  -107.3077
 163  -31.10898
 164  29.45212
 165  34.89202
 166  -3.883992
 167  76.20969
 168  70.90139
 169  -46.86127
 170  -191.3554
 171  -119.6764
 172  -36.28939
 173  12.6876
 174  102.4685
 175  14.72754
 176  -49.26543
 177  -191.5234
 178  -231.8179
 179  -63.02899
 180  22.99599
 181  48.28119
 182  -157.9796
 183  -163.0084
 184  -177.8941
 185  -140.1376
 186  -199.3197
 187  -111.4174
 188  -88.50949
 189  5.784651
 190  12.83101
 191  59.76575
 192  83.00359
 193  106.9161
 194  137.2876
 195  138.6371
 196  165.5435
 197  84.17546
 198  27.1523
 199  -93.01863
 200  -151.724
 201  -225.2493
 202  -227.3952
 203  -208.5125
 204  -243.181
 205  -239.4559
 206  -177.7107
 207  -135.9312
 208  -100.4506
 209  -137.5667
 210  -83.79556
 211  -118.2012
 212  -152.6294
 213  -232.6566
 214  -321.8994
 215  -235.5419
 216  -191.8504
 217  -94.36545
 218  -264.6
 219  -268.9809
 220  -173.8255
 221  -146.5768
 222  -147.9691
 223  -231.9124
 224  -196.464
 225  -47.45043
 226  5.54423
 227  33.79356
 228  -57.34916
 229  -18.37026
 230  75.98212
 231  89.79719
 232  63.75792
 233  -36.64538
 234  -69.12973
 235  -27.73841
 236  7.711643
 237  147.4247
 238  161.6535
 239  243.7088
 240  100.0666
 241  82.36199
 242  -57.26291
 243  -10.90335
 244  -16.07379
 245  -37.87356
 246  -55.8864
 247  14.56287
 248  -49.03755
 249  36.13588
 250  9.030115
 251  6.632872
 252  -75.46207
 253  -11.82262
 254  -74.79575
 255  -254.538
 256  -263.3365
 257  -90.48183
 258  -38.99507
 259  -36.83267
 260  16.77748
 261  209.5318
 262  162.0526
 263  57.74249
 264  35.61757
 265  59.42469
 266  69.63931
 267  -22.20176
 268  69.67789
 269  5.193244
 270  -41.54269
 271  -93.74988
 272  -3.698181
 273  -28.80702
 274  -9.352994
 275  45.85912
 276  166.7202
 277  73.87051
 278  0.3665934
 279  -28.95678
 280  23.43756
 281  -18.22844
 282  -61.31602
 283  -108.0794
 284  -175.9616
 285  -230.9435
 286  -249.3985
 287  -189.2577
 288  -165.2914
 289  -193.2834
 290  -77.50385
 291  27.9608
 292  68.16469
 293  14.67348
 294  85.13854
 295  162.6147
 296  172.4378
 297  45.11539
 298  39.61398
 299  64.79667
 300  195.1478
 301  172.5289
 302  163.1199
 303  136.7106
 304  80.46956
 305  32.73027
 306  -0.3716868
 307  48.91919
 308  125.3668
 309  153.3485
 310  37.58826
 311  46.41251
 312  18.51493
 313  76.3444
 314  9.267336
 315  -66.8565
 316  -74.09006
 317  -99.58841
 318  -87.22836
 319  -125.3277
 320  -107.6257
 321  -85.8193
 322  66.09679
 323  165.4113
 324  256.106
 325  214.4963
 326  225.9491
 327  130.4189
 328  35.07766
 329  -106.8354
 330  -57.30377
 331  -13.66058
 332  18.89432
 333  -36.25268
 334  -35.35382
 335  -161.542
 336  -89.04984
 337  72.81126
 338  248.5147
 339  158.548
 340  23.37926
 341  26.50377
 342  51.70151
 343  210.3221
 344  213.2716
 345  135.6519
 346  16.78825
 347  -46.21915
 348  -87.81799
 349  -147.6082
 350  -183.3699
 351  -232.4309
 352  -239.3167
 353  -152.8997
 354  -92.76448
 355  -5.644913
 356  152.7024
 357  269.6775
 358  245.4345
 359  150.2624
 360  88.45496
 361  141.0638
 362  105.3367
 363  -75.23642
 364  -149.7515
 365  -81.01155
 366  -24.15662
 367  -62.8513
 368  -13.78122
 369  118.9132
 370  121.0397
 371  -58.05507
 372  -134.331
 373  -115.7207
 374  -62.67334
 375  -43.00734
 376  -27.85798
 377  -26.69441
 378  -8.110437
 379  -33.36235
 380  5.875789
 381  -138.1769
 382  -218.7016
 383  -227.4248
 384  -91.19222
 385  -63.82161
 386  -11.21054
 387  15.99317
 388  -47.27244
 389  -56.63857
 390  -20.48208
 391  98.3566
 392  186.573
 393  130.9254
 394  160.6103
 395  190.2982
 396  77.47138
 397  8.446923
 398  -92.46364
 399  -48.30017
 400  -152.4043
 401  -185.7909
 402  -120.2929
 403  -83.44052
 404  -143.9677
 405  -113.3364
 406  -50.0029
 407  -64.67181
 408  -123.7218
 409  -180.4982
 410  -9.988494
 411  61.26477
 412  11.32862
 413  50.25112
 414  38.96183
 415  123.1155
 416  169.6964
 417  139.2592
 418  76.1363
 419  14.44967
 420  28.40122
 421  133.5091
 422  -22.05828
 423  -69.48957
 424  -51.50426
 425  56.53754
 426  154.0157
 427  194.5802
 428  247.464
 429  245.9312
 430  159.9597
 431  169.3492
 432  8.160154
 433  -76.14474
 434  -205.1004
 435  -106.7364
 436  -119.7159
 437  -78.75309
 438  -110.126
 439  -54.73291
 440  22.20767
 441  -11.15102
 442  112.0828
 443  105.774
 444  117.5577
 445  101.2905
 446  134.2733
 447  145.1771
 448  138.5354
 449  20.16201
 450  -67.23615
 451  -263.8692
 452  -221.6902
 453  -62.35515
 454  109.5961
 455  72.85424
 456  73.1966
 457  63.25631
 458  60.68882
 459  -87.58583
 460  -73.15132
 461  -64.88831
 462  36.7141
 463  20.42894
 464  142.2758
 465  75.09374
 466  24.71961
 467  -23.34532
 468  -76.11484
 469  -19.51213
 470  -3.382284
 471  54.89151
 472  18.5266
 473  -102.6481
 474  -122.7994
 475  52.73746
 476  184.1679
 477  127.133
 478  -41.10355
 479  78.00268
 480  73.34802
 481  -80.1357
 482  -128.9058
 483  -47.60296
 484  72.10997
 485  104.4618
 486  192.536
 487  158.7507
 488  9.03736
 489  55.77116
 490  128.2663
 491  164.3899
 492  34.54838
 493  24.55714
 494  68.23325
 495  -80.36253
 496  -33.1102
 497  13.02781
 498  4.567555
 499  -161.5314
 500  -232.785
 501  -119.3645
 502  -127.8577
 503  -228.3977
 504  -196.4693
 505  -235.3317
 506  -190.9287
 507  -86.34755
 508  95.14764
 509  68.8168
 510  24.15008
 511  -184.7931
 512  -173.7267
 513  -204.2502
 514  -144.9875
 515  -136.4267
 516  -194.6261
 517  -158.7178
 518  -151.9812
 519  -15.16284
 520  78.7811
 521  71.89606
 522  -8.684258
 523  118.7578
 524  123.407
 525  263.2158
 526  238.1996
 527  247.9836
 528  240.8009
 529  179.3817
 530  44.75021
 531  -120.2493
 532  -162.4095
 533  -154.8785
 534  -116.7146
 535  -57.44581
 536  48.00633
 537  97.44865
 538  -77.66925
 539  -201.5827
 540  -181.4091
 541  -101.0113
 542  -108.8638
 543  -202.1411
 544  -132.0016
 545  -94.312
 546  -67.09276
 547  -6.449167
 548  17.93704
 549  17.59077
 550  -18.14645
 551  -46.8677
 552  -35.61572
 553  -85.54237
 554  -12.02866
 555  42.16121
 556  45.92453
 557  -25.52461
 558  25.081
 559  3.581896
 560  81.29123
 561  167.4191
 562  87.46986
 563  -114.9798
 564  -246.5062
 565  -180.6688
 566  -11.53578
 567  -70.41419
 568  -68.51279
 569  -30.08305
 570  -35.68615
 571  -44.34309
 572  -53.41949
 573  50.91116
 574  8.90352
 575  56.98911
 576  -36.47698
 577  -38.39402
 578  -213.2121
 579  -156.1368
 580  -98.43532
 581  -44.65623
 582  -91.97279
 583  11.65695
 584  63.82738
 585  -13.23057
 586  -136.2221
 587  -194.2009
 588  -202.3889
 589  -264.7286
 590  -163.256
 591  -112.5987
 592  -29.62308
 593  -61.62547
 594  27.79447
 595  167.193
 596  214.1298
 597  189.2346
 598  135.1065
 599  169.6494
 600  46.73757
 601  -39.85273
 602  -55.37704
 603  31.03852
 604  94.27508
 605  109.1408
 606  66.21145
 607  -5.772979
 608  -9.349917
 609  65.73442
 610  41.73977
 611  -147.8345
 612  -176.7714
 613  -103.7743
 614  -66.1696
 615  -104.9631
 616  -115.7962
 617  21.33676
 618  21.67449
 619  80.28917
 620  97.45896
 621  121.4897
 622  103.6935
 623  103.2865
 624  215.2844
 625  260.5044
 626  346.5002
 627  325.9614
 628  355.3672
 629  298.9705
 630  344.3779
 631  503.1175
 632  716.9407
 633  698.77
 634  718.7958
 635  670.1722
 636  703.8833
 637  659.4578
 638  748.9869
 639  719.283
 640  586.4284
 641  305.9838
 642  240.2028
 643  142.206
 644  100.4276
 645  25.44115
 646  37.07431
 647  113.4583
 648  -9.765985
 649  -117.9753
 650  -118.0937
 651  -103.4389
 652  -76.09225
 653  -72.90908
 654  30.98497
 655  107.0257
 656  183.4053
 657  192.2702
 658  201.732
 659  90.66064
 660  126.0547
 661  164.4296
 662  198.4084
 663  138.6156
 664  27.50863
 665  -39.67275
 666  117.0504
 667  205.2983
 668  265.3718
 669  119.0336
 670  61.07246
 671  147.7318
 672  163.2549
 673  203.5655
 674  109.3005
 675  80.39307
 676  6.9803
 677  -125.8157
 678  -188.1133
 679  -235.6448
 680  -144.944
 681  -94.09332
 682  4.051106
 683  -13.24332
 684  -47.29957
 685  -50.8032
 686  -84.47477
 687  -22.69366
 688  -9.436595
 689  1.34877
 690  5.925116
 691  -88.23406
 692  -101.528
 693  -136.2
 694  -80.51883
 695  -153.0693
 696  -163.0233
 697  -213.2197
 698  -203.3892
 699  -357.7221
 700  -290.6888
 701  -218.3728
 702  -97.89859
 703  -80.12296
 704  -145.1719
 705  -198.3495
 706  -241.7035
 707  -294.0815
 708  -214.6683
 709  -67.72067
 710  -50.31917
 711  -114.1846
 712  -199.1384
 713  -94.81166
 714  63.49464
 715  70.57976
 716  -54.33786
 717  -211.6903
 718  -124.6449
 719  -8.458638
 720  48.35677
 721  -30.15053
 722  -98.53923
 723  -102.67
 724  -33.13344
 725  35.77987
 726  18.53556
 727  -48.91059
 728  -27.80416
 729  -43.75354
 730  -100.4031
 731  -166.7677
 732  -258.505
 733  -128.1389
 734  -95.58794
 735  0.5404037
 736  -38.32895
 737  -103.4579
 738  -139.2881
 739  -120.3576
 740  -108.0255
 741  10.20061
 742  -36.57429
 743  -61.69219
 744  -55.75656
 745  8.813787
 746  98.0001
 747  9.701573
 748  -65.81195
 749  -155.086
 750  -148.1453
 751  -170.3717
 752  -183.4643
 753  -165.5433
 754  6.814093
 755  112.6285
 756  81.30341
 757  -44.96795
 758  -60.06084
 759  -72.10074
 760  52.18333
 761  207.9689
 762  317.8559
 763  112.9672
 764  -136.5489
 765  -201.2563
 766  -130.959
 767  -172.7936
 768  -179.5227
 769  -115.8299
 770  -52.81635
 771  -165.3863
 772  -178.3979
 773  -83.27563
 774  -56.72758
 775  -18.50597
 776  61.3563
 777  122.7795
 778  95.46772
 779  107.8502
 780  94.50362
 781  -45.47467
 782  -160.4067
 783  -186.7845
 784  -30.29172
 785  -62.71742
 786  -102.6453
 787  -83.51066
 788  -64.51505
 789  -143.548
 790  -182.1864
 791  -27.3923
 792  145.3889
 793  70.7384
 794  7.656474
 795  -18.84429
 796  -88.2292
 797  -215.5545
 798  -245.6109
 799  -169.5533
 800  -71.85712
 801  -26.79683
 802  -27.39882
 803  -83.30489
 804  -55.37747
 805  -58.44458
 806  118.3508
 807  108.4466
 808  128.3592
 809  23.51953
 810  63.26643
 811  16.44441
 812  -58.00074
 813  -73.37408
 814  15.16619
 815  -14.96442
 816  86.95592
 817  59.96334
 818  127.7947
 819  55.80034
 820  168.1144
 821  313.9125
 822  331.5145
 823  138.1895
 824  47.84288
 825  75.77157
 826  43.13324
 827  -23.61116
 828  -61.80437
 829  -25.274
 830  -2.042527
 831  -34.89793
 832  -104.2353
 833  -59.36726
 834  57.24896
 835  176.2309
 836  135.1273
 837  167.8011
 838  165.6797
 839  53.60225
 840  5.381596
 841  -25.90587
 842  -90.57794
 843  -153.8448
 844  -187.7657
 845  -129.2824
 846  -79.59952
 847  -63.14861
 848  -66.40419
 849  -93.8826
 850  -31.06859
 851  36.20429
 852  87.09164
 853  143.9272
 854  184.0599
 855  157.0885
 856  51.44434
 857  12.81848
 858  -91.82209
 859  -85.29156
 860  -171.4142
 861  -135.5373
 862  -132.3478
 863  -317.9367
 864  -284.2316
 865  -225.0125
 866  -143.2293
 867  -54.29447
 868  0.4877029
 869  127.1912
 870  64.12366
 871  6.95627
 872  54.17742
 873  15.39852
 874  -12.15729
 875  -155.7806
 876  -220.9386
 877  -239.9593
 878  -173.4176
 879  -229.5299
 880  -274.1577
 881  -224.0446
 882  -103.984
 883  52.33276
 884  52.78526
 885  55.45516
 886  70.04922
 887  101.0775
 888  121.8849
 889  147.703
 890  26.46828
 891  -49.46503
 892  -120.0782
 893  -124.6929
 894  -183.8868
 895  -40.40208
 896  36.33015
 897  99.78368
 898  4.49646
 899  8.421877
 900  -72.40525
 901  -132.0355
 902  -177.2249
 903  -134.8902
 904  -133.8795
 905  57.11663
 906  184.0775
 907  246.6798
 908  105.2253
 909  -12.07041
 910  9.929014
 911  -52.80703
 912  -20.69309
 913  -26.14638
 914  -20.35648
 915  -101.5061
 916  -167.8715
 917  -222.1586
 918  -218.3527
 919  -127.5365
 920  -53.97736
 921  -58.44671
 922  -98.50676
 923  -67.11238
 924  148.9835
 925  189.3856
 926  151.032
 927  29.20982
 928  47.61768
 929  36.52951
 930  -90.02692
 931  -143.1462
 932  -131.3397
 933  -170.7604
 934  -229.4989
 935  -256.5979
 936  -92.50516
 937  -27.79372
 938  35.69999
 939  33.32578
 940  39.26903
 941  -51.52095
 942  5.345093
 943  157.3181
 944  226.1412
 945  -17.95848
 946  -139.4738
 947  -94.13754
 948  -76.55898
 949  -110.3372
 950  -18.62121
 951  4.104497
 952  -82.74729
 953  -119.4535
 954  -71.07613
 955  -75.82083
 956  -25.94803
 957  51.33058
 958  163.0379
 959  125.0664
 960  103.8618
 961  20.97351
 962  -2.379443
 963  -95.37217
 964  -59.55171
 965  -13.86184
 966  144.2084
 967  86.02541
 968  167.6709
 969  39.11566
 970  143.5527
 971  138.8766
 972  188.5453
 973  78.38972
 974  -50.50691
 975  -83.29175
 976  -18.34295
 977  67.41374
 978  50.8806
 979  -34.99612
 980  -29.40606
 981  -34.52852
 982  5.475898
 983  97.3319
 984  133.5908
 985  280.6968
 986  238.9582
 987  226.3848
 988  114.2214
 989  0.7130392
 990  -104.6876
 991  -43.35616
 992  15.3431
 993  24.65005
 994  -105.391
 995  -170.958
 996  -239.5997
 997  -235.5118
 998  -119.1486
 999  70.5617
1000  95.77473
1001  104.5282
1002  154.9326
1003  167.4323
1004  90.45661
1005  -60.33842
1006  -65.33755
1007  -10.21888
1008  -143.3516
1009  -191.5389
1010  -231.7159
1011  -207.5578
1012  -158.5581
1013  -82.09676
1014  -43.87474
1015  -66.99722
1016  -20.51045
1017  123.089
1018  325.7285
1019  369.2738
1020  391.2069
1021  245.0788
1022  212.7582
1023  116.7696
