# Input file       =  1192845516.153047_cleaned.dat
# Candidate        =  PSR_0332+5434
# Telescope        =  AR
# Epoch_topo       =  58050.082582789895
# Epoch_bary       =  N/A
# T_sample         =  0.002
# Data Folded      =  7340032
# Data Avg         =  0.0187592532303253
# Data StdDev      =  0.999954331093703
# Profile Bins     =  512
# Profile Avg      =  268.922764027886 
# Profile StdDev   =  119.727568299947 
# Reduced chi-sqr  =  1.501
# Prob(Noise)      <  1.46e-12   (~7.0 sigma)
# P_topo (ms)      =  714.489068622474  +/- 0.000128
# P'_topo (s/s)    =  -0                +/- 6.75e-11
# P''_topo (s/s^2) =  0                 +/- 2.98e-14
# P_bary (ms)      =  N/A
# P'_bary (s/s)    =  N/A
# P''_bary (s/s^2) =  N/A
# P_orb (s)        =  N/A
# asin(i)/c (s)    =  N/A
# eccentricity     =  N/A
# w (rad)          =  N/A
# T_peri           =  N/A
######################################################
   0  995.6874
   1  831.4387
   2  613.0669
   3  418.2351
   4  319.4854
   5  328.5543
   6  363.4757
   7  284.9397
   8  260.2543
   9  231.4215
  10  219.6696
  11  352.1924
  12  379.5937
  13  498.1458
  14  433.289
  15  314.528
  16  341.5501
  17  306.1903
  18  242.2689
  19  191.4632
  20  414.4757
  21  340.884
  22  319.6863
  23  330.3208
  24  279.2325
  25  343.8958
  26  428.0094
  27  299.7141
  28  257.4238
  29  139.808
  30  262.3654
  31  329.665
  32  323.5877
  33  316.6647
  34  291.7453
  35  256.8456
  36  234.5504
  37  273.5531
  38  263.234
  39  240.6382
  40  84.09365
  41  272.9299
  42  201.9701
  43  154.9163
  44  222.6183
  45  340.0841
  46  222.7585
  47  218.4867
  48  292.8279
  49  258.03
  50  292.0507
  51  306.7227
  52  221.2235
  53  134.6005
  54  233.1535
  55  247.6893
  56  303.6853
  57  209.5881
  58  192.1635
  59  263.344
  60  151.882
  61  281.7445
  62  392.8775
  63  335.91
  64  320.6562
  65  352.2008
  66  175.2236
  67  126.7615
  68  108.9786
  69  145.6349
  70  259.4651
  71  261.6672
  72  356.9924
  73  217.1203
  74  128.0264
  75  305.1526
  76  428.4771
  77  423.1017
  78  344.6857
  79  365.251
  80  325.9488
  81  219.6441
  82  270.5719
  83  339.358
  84  255.2883
  85  309.5959
  86  301.9696
  87  348.1651
  88  367.5597
  89  220.0926
  90  150.8075
  91  235.8087
  92  213.8649
  93  298.6342
  94  425.8752
  95  335.8267
  96  213.96
  97  239.765
  98  233.628
  99  240.6519
 100  290.0505
 101  247.4631
 102  183.0253
 103  115.9227
 104  225.3589
 105  198.4187
 106  271.8195
 107  205.8254
 108  164.9852
 109  240.1308
 110  304.466
 111  201.8585
 112  264.89
 113  335.8265
 114  263.2585
 115  251.4173
 116  295.921
 117  277.8559
 118  264.7599
 119  380.8249
 120  198.477
 121  166.9079
 122  254.6903
 123  170.5672
 124  214.4009
 125  452.1743
 126  396.8824
 127  280.899
 128  288.557
 129  281.5253
 130  172.5371
 131  97.44913
 132  125.6881
 133  220.6727
 134  242.9565
 135  220.7848
 136  274.713
 137  339.6379
 138  377.2556
 139  344.9207
 140  279.5666
 141  364.1059
 142  252.3138
 143  234.727
 144  167.6248
 145  143.1732
 146  246.6304
 147  297.6648
 148  327.0463
 149  212.1069
 150  172.1213
 151  192.3981
 152  218.0825
 153  353.5451
 154  289.461
 155  346.9012
 156  236.9326
 157  177.8723
 158  272.1686
 159  219.6889
 160  273.9843
 161  369.3846
 162  327.8261
 163  281.6598
 164  275.4401
 165  247.9379
 166  258.5576
 167  254.5731
 168  386.0107
 169  358.8072
 170  321.2647
 171  276.6447
 172  182.4444
 173  103.2049
 174  236.5879
 175  198.1282
 176  390.9791
 177  367.868
 178  287.2558
 179  239.9213
 180  240.1823
 181  240.5193
 182  244.8685
 183  128.3195
 184  11.69596
 185  297.3009
 186  479.712
 187  320.2427
 188  263.2062
 189  361.5144
 190  217.7204
 191  157.7165
 192  260.1233
 193  360.7468
 194  216.7731
 195  276.696
 196  228.2357
 197  264.847
 198  278.521
 199  188.4382
 200  165.2949
 201  257.6959
 202  266.4321
 203  246.397
 204  260.1624
 205  313.0992
 206  435.2883
 207  269.0593
 208  206.1706
 209  136.8469
 210  117.9959
 211  282.5596
 212  403.6998
 213  425.6158
 214  127.2615
 215  53.84654
 216  204.9247
 217  205.6449
 218  368.5261
 219  227.5522
 220  163.423
 221  315.1598
 222  286.7644
 223  189.2068
 224  32.41539
 225  120.0182
 226  271.3004
 227  279.8986
 228  355.3679
 229  328.7021
 230  342.4524
 231  213.4875
 232  267.9908
 233  406.7679
 234  493.4191
 235  420.3125
 236  329.0383
 237  394.2163
 238  379.7162
 239  364.6002
 240  395.3129
 241  378.8522
 242  231.7138
 243  172.1309
 244  216.6231
 245  274.4717
 246  391.6879
 247  312.5573
 248  241.7488
 249  240.9569
 250  257.5697
 251  102.2861
 252  176.3618
 253  331.3489
 254  389.5576
 255  180.3976
 256  145.8697
 257  45.43769
 258  8.728439
 259  296.1926
 260  395.4044
 261  201.4436
 262  156.6611
 263  119.361
 264  237.0441
 265  260.7175
 266  365.6316
 267  251.2285
 268  129.0446
 269  250.3081
 270  207.2061
 271  180.1423
 272  160.6868
 273  220.8021
 274  227.676
 275  175.74
 276  201.7433
 277  84.81756
 278  162.0636
 279  281.125
 280  262.1964
 281  269.0818
 282  182.0302
 283  168.2398
 284  180.9085
 285  286.0047
 286  308.742
 287  279.7657
 288  258.9613
 289  311.1451
 290  349.6396
 291  334.9649
 292  259.9681
 293  335.7696
 294  237.6771
 295  98.3746
 296  62.32191
 297  53.97511
 298  125.1328
 299  142.1374
 300  252.1555
 301  382.6588
 302  385.7053
 303  202.4996
 304  240.609
 305  163.8316
 306  150.6406
 307  113.0204
 308  156.9558
 309  194.0654
 310  245.047
 311  232.354
 312  283.9556
 313  299.1264
 314  230.2489
 315  220.4001
 316  183.9291
 317  171.1163
 318  260.098
 319  391.2211
 320  319.7585
 321  373.2216
 322  321.6863
 323  249.2311
 324  199.5612
 325  240.3097
 326  242.5235
 327  320.4367
 328  332.503
 329  187.43
 330  103.812
 331  215.859
 332  278.9286
 333  349.9656
 334  316.8563
 335  268.9593
 336  205.3574
 337  142.3899
 338  259.3304
 339  281.4968
 340  171.4407
 341  259.2287
 342  369.2222
 343  321.7913
 344  109.6688
 345  207.1418
 346  174.6134
 347  291.8621
 348  337.2265
 349  369.6148
 350  261.8744
 351  220.4292
 352  330.9236
 353  340.663
 354  331.8376
 355  268.6705
 356  305.8862
 357  303.4802
 358  289.4993
 359  222.2839
 360  216.0173
 361  194.8066
 362  316.7781
 363  386.9601
 364  406.7655
 365  398.1745
 366  190.0472
 367  187.6763
 368  192.8758
 369  59.29329
 370  128.3947
 371  287.868
 372  294.5865
 373  216.3107
 374  310.5334
 375  284.738
 376  251.1378
 377  385.5751
 378  375.7955
 379  308.0747
 380  253.5511
 381  269.077
 382  137.4068
 383  165.4319
 384  217.8759
 385  234.4939
 386  510.7648
 387  474.0694
 388  305.2931
 389  169.6402
 390  49.97229
 391  59.36642
 392  158.0847
 393  176.9561
 394  269.8622
 395  291.9138
 396  342.7742
 397  299.5406
 398  266.3782
 399  294.8244
 400  428.2678
 401  346.7599
 402  367.0884
 403  436.812
 404  390.9892
 405  201.2887
 406  315.439
 407  345.193
 408  365.7272
 409  175.5664
 410  160.6212
 411  260.9475
 412  314.4011
 413  300.3245
 414  341.2088
 415  377.0127
 416  250.4804
 417  137.0066
 418  128.2232
 419  212.3622
 420  300.566
 421  413.3335
 422  377.3574
 423  297.3705
 424  240.9879
 425  183.3579
 426  262.9694
 427  270.1426
 428  242.182
 429  253.2058
 430  286.9455
 431  258.8207
 432  323.8825
 433  298.3374
 434  323.3018
 435  287.4875
 436  248.5291
 437  145.0273
 438  51.22438
 439  85.29541
 440  156.2638
 441  207.3951
 442  199.3654
 443  289.0774
 444  369.6762
 445  323.4915
 446  235.2896
 447  168.3243
 448  208.556
 449  315.4817
 450  272.9636
 451  175.1028
 452  248.46
 453  330.6642
 454  202.71
 455  128.5988
 456  275.2857
 457  289.6364
 458  212.7745
 459  286.0426
 460  296.3341
 461  319.6689
 462  331.7717
 463  225.5596
 464  296.3561
 465  218.4937
 466  194.7739
 467  169.9388
 468  144.9834
 469  123.0566
 470  176.058
 471  250.0695
 472  246.1976
 473  149.1781
 474  203.8484
 475  238.425
 476  291.347
 477  325.4544
 478  367.7959
 479  355.8932
 480  225.3982
 481  209.2515
 482  308.7934
 483  282.3115
 484  181.4645
 485  165.6115
 486  258.6826
 487  279.3486
 488  258.1327
 489  304.2838
 490  280.6714
 491  345.164
 492  413.7603
 493  452.6411
 494  437.2441
 495  227.92
 496  191.7937
 497  333.0674
 498  445.1013
 499  392.5945
 500  401.1609
 501  362.9964
 502  190.1305
 503  150.1115
 504  233.9569
 505  233.3139
 506  300.3138
 507  410.1467
 508  515.3889
 509  675.3225
 510  817.1606
 511  929.2108
