# Input file       =  1192141432.122322_cleaned.dat
# Candidate        =  PSR_0332+5434
# Telescope        =  AR
# Epoch_topo       =  58041.933462063913
# Epoch_bary       =  N/A
# T_sample         =  0.002
# Data Folded      =  7340032
# Data Avg         =  0.0123280780084314
# Data StdDev      =  1.00001491650456 
# Profile Bins     =  512
# Profile Avg      =  176.774788514869 
# Profile StdDev   =  119.734822375149 
# Reduced chi-sqr  =  1.552
# Prob(Noise)      <  1.52e-14   (~7.6 sigma)
# P_topo (ms)      =  714.482234723065  +/- 0.000161
# P'_topo (s/s)    =  -0                +/- 8.5e-11
# P''_topo (s/s^2) =  0                 +/- 3.75e-14
# P_bary (ms)      =  N/A
# P'_bary (s/s)    =  N/A
# P''_bary (s/s^2) =  N/A
# P_orb (s)        =  N/A
# asin(i)/c (s)    =  N/A
# eccentricity     =  N/A
# w (rad)          =  N/A
# T_peri           =  N/A
######################################################
   0  871.0483
   1  772.1874
   2  542.2556
   3  401.7934
   4  336.3148
   5  238.6063
   6  167.9741
   7  145.7133
   8  133.5633
   9  77.23058
  10  91.17472
  11  243.7849
  12  200.518
  13  336.4567
  14  298.5083
  15  309.6708
  16  242.1198
  17  184.5419
  18  260.1801
  19  246.9006
  20  246.4344
  21  128.9648
  22  17.26509
  23  -9.718883
  24  102.3413
  25  286.5482
  26  332.9414
  27  234.1041
  28  260.4319
  29  187.6471
  30  142.3014
  31  228.4382
  32  287.3994
  33  193.1539
  34  42.60355
  35  11.69235
  36  177.7523
  37  231.5759
  38  208.5011
  39  189.8034
  40  216.1209
  41  277.6133
  42  251.6915
  43  328.0878
  44  199.2754
  45  174.2923
  46  223.7197
  47  144.2885
  48  15.19233
  49  62.18929
  50  33.7925
  51  38.19789
  52  155.8902
  53  185.7687
  54  101.8797
  55  238.5376
  56  178.5822
  57  67.33885
  58  -20.98515
  59  76.59386
  60  74.86057
  61  86.07553
  62  131.3621
  63  142.7603
  64  247.66
  65  183.3575
  66  115.527
  67  -1.888783
  68  92.47324
  69  190.9762
  70  33.80413
  71  12.3019
  72  17.07068
  73  221.7213
  74  169.4492
  75  96.80279
  76  96.83115
  77  113.8667
  78  47.97318
  79  159.5096
  80  158.5851
  81  120.7088
  82  129.3329
  83  193.8796
  84  69.64967
  85  -77.31062
  86  28.41561
  87  136.3276
  88  80.4627
  89  61.66957
  90  134.9494
  91  184.2344
  92  20.32118
  93  46.0176
  94  225.9519
  95  148.4081
  96  170.4536
  97  149.6876
  98  162.271
  99  120.35
 100  238.0775
 101  189.0548
 102  206.7702
 103  142.0601
 104  144.1627
 105  212.4025
 106  204.4621
 107  139.4158
 108  166.0957
 109  150.9168
 110  257.3694
 111  235.7822
 112  243.6457
 113  236.445
 114  148.8255
 115  165.1956
 116  35.22476
 117  146.2451
 118  235.0526
 119  96.7596
 120  60.3734
 121  58.88359
 122  15.34321
 123  153.622
 124  204.4812
 125  110.0216
 126  149.4494
 127  243.1439
 128  53.91803
 129  97.85132
 130  158.7203
 131  174.2147
 132  108.5076
 133  42.36341
 134  185.0991
 135  227.432
 136  211.932
 137  87.74052
 138  55.55638
 139  76.00301
 140  259.425
 141  253.7702
 142  40.99673
 143  45.41546
 144  46.50991
 145  91.54939
 146  151.544
 147  117.2375
 148  178.4697
 149  236.3579
 150  227.3365
 151  73.44337
 152  26.44293
 153  105.717
 154  246.0913
 155  222.822
 156  158.7504
 157  93.95457
 158  65.15308
 159  140.7995
 160  162.0397
 161  190.1823
 162  51.87061
 163  183.932
 164  157.8499
 165  111.3104
 166  160.1597
 167  193.3443
 168  81.1337
 169  174.2258
 170  174.8367
 171  82.81274
 172  61.6845
 173  101.0592
 174  276.3638
 175  122.8435
 176  161.6681
 177  196.4271
 178  145.9291
 179  109.7115
 180  22.49013
 181  45.82015
 182  121.9768
 183  202.2316
 184  148.5554
 185  218.3025
 186  198.8114
 187  264.3946
 188  219.4784
 189  94.24841
 190  263.2749
 191  215.2532
 192  104.3936
 193  19.38265
 194  50.6303
 195  -37.62197
 196  81.79856
 197  146.25
 198  23.2797
 199  114.5083
 200  143.6292
 201  -5.386722
 202  -3.665356
 203  96.82707
 204  141.7118
 205  374.9299
 206  466.1743
 207  330.1566
 208  173.5291
 209  232.6761
 210  165.4712
 211  230.6058
 212  293.3747
 213  168.9419
 214  131.4514
 215  184.7463
 216  219.7908
 217  244.565
 218  174.6268
 219  186.7266
 220  254.7506
 221  162.1051
 222  100.1812
 223  197.594
 224  263.558
 225  156.447
 226  168.19
 227  330.3221
 228  235.8664
 229  170.619
 230  120.1762
 231  8.645823
 232  61.8001
 233  126.9268
 234  194.2887
 235  155.3238
 236  63.46205
 237  196.5033
 238  113.3299
 239  178.9227
 240  150.2323
 241  91.89309
 242  89.81313
 243  105.865
 244  -21.03816
 245  155.1351
 246  205.2317
 247  198.7473
 248  166.9245
 249  113.5154
 250  197.5933
 251  168.897
 252  73.94536
 253  161.9869
 254  303.2824
 255  359.2931
 256  159.3052
 257  217.5271
 258  152.5572
 259  65.57202
 260  88.8885
 261  165.597
 262  236.5058
 263  255.8901
 264  286.2809
 265  371.9125
 266  187.1137
 267  187.436
 268  169.1863
 269  256.5778
 270  220.6358
 271  139.2419
 272  235.4108
 273  266.0303
 274  48.13108
 275  191.4259
 276  210.7017
 277  159.6193
 278  97.35506
 279  27.79333
 280  122.1745
 281  124.8253
 282  148.1239
 283  160.0555
 284  42.89349
 285  48.91853
 286  63.94236
 287  255.0998
 288  327.6684
 289  165.0599
 290  102.7639
 291  193.8154
 292  109.5504
 293  215.7062
 294  167.4004
 295  262.1036
 296  173.9591
 297  250.4896
 298  234.0392
 299  170.4729
 300  130.9653
 301  142.9254
 302  251.5267
 303  248.9775
 304  145.2845
 305  383.7122
 306  419.8673
 307  219.3118
 308  0.02956951
 309  91.70679
 310  141.2598
 311  334.2448
 312  297.4044
 313  191.7046
 314  226.1237
 315  153.5549
 316  187.545
 317  156.0847
 318  227.5087
 319  322.0292
 320  179.0426
 321  119.5099
 322  201.153
 323  232.9008
 324  308.2103
 325  249.7552
 326  199.7987
 327  137.5839
 328  136.0403
 329  119.5389
 330  106.4117
 331  100.7712
 332  143.0262
 333  172.259
 334  -26.53105
 335  115.1867
 336  130.4152
 337  154.8806
 338  246.7489
 339  213.3078
 340  300.6072
 341  385.1515
 342  272.4065
 343  152.8813
 344  156.7489
 345  126.5107
 346  126.248
 347  176.9654
 348  74.81924
 349  40.78976
 350  266.0685
 351  291.2771
 352  168.5639
 353  105.3163
 354  156.677
 355  175.7105
 356  166.1511
 357  171.458
 358  160.7823
 359  117.0613
 360  259.8568
 361  350.4786
 362  162.7088
 363  90.00393
 364  41.86885
 365  10.1905
 366  95.71346
 367  -29.14522
 368  -29.95032
 369  111.6537
 370  206.4092
 371  238.2876
 372  259.9026
 373  192.8543
 374  225.5071
 375  275.2034
 376  182.3605
 377  179.8095
 378  174.7962
 379  172.2233
 380  174.4037
 381  158.8896
 382  337.1155
 383  293.719
 384  174.1155
 385  192.5194
 386  285.3765
 387  176.9665
 388  215.8627
 389  248.565
 390  173.0277
 391  159.1194
 392  128.539
 393  142.1643
 394  77.19335
 395  150.047
 396  172.6462
 397  178.8908
 398  242.1588
 399  168.1582
 400  187.6971
 401  280.8304
 402  32.30162
 403  32.78417
 404  242.6776
 405  285.8625
 406  243.9937
 407  55.94943
 408  120.7078
 409  175.6317
 410  248.8736
 411  300.9519
 412  247.1347
 413  242.2572
 414  246.9907
 415  341.4015
 416  204.1766
 417  253.2968
 418  86.41282
 419  93.07347
 420  199.9103
 421  302.8043
 422  335.6041
 423  280.4251
 424  217.3816
 425  149.1295
 426  140.124
 427  93.52092
 428  70.61178
 429  87.26202
 430  53.85968
 431  92.37619
 432  105.4969
 433  220.364
 434  312.8601
 435  152.9959
 436  53.8802
 437  301.1451
 438  387.5604
 439  182.879
 440  115.0881
 441  175.0599
 442  267.2516
 443  277.3343
 444  198.6149
 445  233.0235
 446  298.8035
 447  167.4111
 448  144.0203
 449  136.8243
 450  94.63019
 451  100.0322
 452  163.9437
 453  223.6037
 454  114.3801
 455  78.08362
 456  149.3582
 457  134.54
 458  199.2149
 459  244.3751
 460  182.7041
 461  249.8634
 462  251.0974
 463  256.8694
 464  224.3905
 465  223.2904
 466  245.4595
 467  168.9898
 468  87.48152
 469  -33.43405
 470  0.2290242
 471  188.0251
 472  268.4014
 473  287.3477
 474  199.3922
 475  181.2416
 476  184.7982
 477  60.46282
 478  94.7337
 479  234.4679
 480  264.2609
 481  141.9033
 482  121.7707
 483  117.6973
 484  220.8108
 485  205.5819
 486  173.4573
 487  167.5535
 488  154.3864
 489  203.4652
 490  201.6458
 491  293.4966
 492  340.7248
 493  402.1007
 494  289.1609
 495  206.7746
 496  268.7617
 497  163.5569
 498  -15.28741
 499  188.7826
 500  210.4109
 501  139.3062
 502  182.4634
 503  253.2607
 504  207.1538
 505  311.7581
 506  342.0831
 507  453.623
 508  377.1766
 509  612.5972
 510  820.1222
 511  849.4771
