# Input file       =  1192385205.116898_cleaned.dat
# Candidate        =  PSR_0332+5434
# Telescope        =  AR
# Epoch_topo       =  58044.754908760391
# Epoch_bary       =  N/A
# T_sample         =  0.002
# Data Folded      =  7208960
# Data Avg         =  0.0320864946623349
# Data StdDev      =  1.00010063539099 
# Profile Bins     =  512
# Profile Avg      =  451.820669236419 
# Profile StdDev   =  118.671117106081 
# Reduced chi-sqr  =  1.336
# Prob(Noise)      <  4.99e-07   (~4.9 sigma)
# P_topo (ms)      =  714.484382222623  +/- 0.000108
# P'_topo (s/s)    =  -0                +/- 5.79e-11
# P''_topo (s/s^2) =  0                 +/- 2.6e-14
# P_bary (ms)      =  N/A
# P'_bary (s/s)    =  N/A
# P''_bary (s/s^2) =  N/A
# P_orb (s)        =  N/A
# asin(i)/c (s)    =  N/A
# eccentricity     =  N/A
# w (rad)          =  N/A
# T_peri           =  N/A
######################################################
   0  450.3843
   1  444.0581
   2  470.802
   3  408.5445
   4  438.5098
   5  479.3145
   6  371.1237
   7  440.2867
   8  443.9733
   9  523.6763
  10  417.5837
  11  368.059
  12  505.6063
  13  567.4332
  14  329.7256
  15  451.1244
  16  561.3862
  17  469.6431
  18  385.2254
  19  348.2002
  20  347.4886
  21  312.1988
  22  433.0544
  23  372.9621
  24  472.3389
  25  517.6783
  26  472.8375
  27  383.2695
  28  361.8958
  29  439.5951
  30  523.8204
  31  538.374
  32  535.9019
  33  514.6253
  34  336.4381
  35  343.7642
  36  419.1053
  37  507.3343
  38  465.0688
  39  511.3424
  40  574.3063
  41  654.7178
  42  509.024
  43  451.5154
  44  392.2659
  45  447.8941
  46  368.0535
  47  284.8481
  48  399.0674
  49  394.0769
  50  483.6718
  51  498.0701
  52  523.9814
  53  543.5449
  54  546.9125
  55  501.4145
  56  533.7692
  57  493.145
  58  434.1278
  59  538.3052
  60  531.5919
  61  505.4696
  62  584.291
  63  524.1713
  64  384.9004
  65  433.8555
  66  485.7858
  67  518.7722
  68  364.2599
  69  373.7108
  70  273.0024
  71  140.1304
  72  176.565
  73  264.9119
  74  342.3917
  75  382.2322
  76  338.2393
  77  362.4773
  78  492.2788
  79  498.4197
  80  432.0005
  81  454.6008
  82  381.131
  83  384.7614
  84  452.6731
  85  376.8979
  86  467.8175
  87  364.3033
  88  501.5987
  89  472.8184
  90  456.5115
  91  467.6489
  92  465.9368
  93  464.916
  94  414.6373
  95  372.7563
  96  368.9387
  97  418.4139
  98  536.2273
  99  608.9639
 100  451.1555
 101  461.9649
 102  406.4364
 103  361.0481
 104  257.5019
 105  317.0452
 106  369.597
 107  429.7605
 108  551.9023
 109  372.6571
 110  305.1174
 111  340.5134
 112  397.4288
 113  406.6573
 114  339.762
 115  342.1675
 116  358.3928
 117  492.5981
 118  407.5031
 119  335.5103
 120  379.746
 121  364.6506
 122  471.8896
 123  415.9047
 124  455.4977
 125  379.2109
 126  442.1758
 127  508.9241
 128  520.6553
 129  439.2589
 130  363.3907
 131  409.9621
 132  477.1947
 133  361.1355
 134  474.3833
 135  526.8931
 136  505.8721
 137  463.8745
 138  560.0292
 139  614.5525
 140  560.5881
 141  489.6667
 142  399.6463
 143  335.3586
 144  402.4082
 145  411.0097
 146  438.7647
 147  327.6381
 148  391.999
 149  319.3174
 150  409.6512
 151  401.3084
 152  525.3321
 153  465.9249
 154  429.5001
 155  544.7731
 156  512.8975
 157  353.2346
 158  340.3774
 159  430.9841
 160  508.5034
 161  469.8738
 162  490.0362
 163  529.5846
 164  493.1506
 165  526.499
 166  568.2487
 167  454.4807
 168  324.153
 169  265.6901
 170  352.7473
 171  510.1559
 172  498.3403
 173  365.9984
 174  487.8289
 175  527.1263
 176  485.7295
 177  433.8863
 178  409.5071
 179  465.1541
 180  440.491
 181  440.9173
 182  526.5777
 183  312.5843
 184  360.646
 185  389.1111
 186  390.0771
 187  457.4745
 188  386.4603
 189  487.4652
 190  541.6125
 191  584.4939
 192  424.9931
 193  520.2421
 194  571.0351
 195  581.3968
 196  512.9294
 197  463.6666
 198  423.2068
 199  425.6033
 200  427.0142
 201  385.9816
 202  474.9575
 203  472.8445
 204  550.8211
 205  424.1486
 206  419.0616
 207  447.6744
 208  458.8071
 209  526.0094
 210  487.7057
 211  428.0151
 212  480.9962
 213  494.7276
 214  500.9778
 215  492.5431
 216  528.5946
 217  414.92
 218  330.8786
 219  432.7887
 220  462.9581
 221  424.8124
 222  482.6905
 223  505.9095
 224  435.9338
 225  231.466
 226  264.9466
 227  346.288
 228  452.7729
 229  505.6059
 230  460.9631
 231  558.0162
 232  520.2338
 233  463.1109
 234  416.8706
 235  357.912
 236  283.196
 237  389.7428
 238  425.9229
 239  486.3228
 240  464.4022
 241  535.7977
 242  539.726
 243  467.3186
 244  366.3977
 245  380.0726
 246  341.7903
 247  409.0295
 248  442.7794
 249  531.272
 250  526.9247
 251  482.9215
 252  470.2245
 253  467.4883
 254  396.0026
 255  484.0003
 256  691.6996
 257  669.6926
 258  468.631
 259  411.3853
 260  467.8101
 261  555.0623
 262  546.2669
 263  565.4715
 264  583.3041
 265  590.2082
 266  781.7965
 267  907.0959
 268  1017.932
 269  1095.568
 270  1136.117
 271  871.4785
 272  571.2557
 273  442.2912
 274  476.3758
 275  444.3721
 276  474.9994
 277  637.2326
 278  603.0665
 279  468.3139
 280  552.2359
 281  538.5317
 282  515.6841
 283  469.6007
 284  489.0204
 285  626.1497
 286  515.7104
 287  638.301
 288  602.6009
 289  346.8752
 290  293.5345
 291  499.2419
 292  560.9576
 293  484.9358
 294  415.6024
 295  425.069
 296  513.9999
 297  369.8107
 298  466.6284
 299  486.1544
 300  335.8069
 301  432.9186
 302  525.0169
 303  453.866
 304  438.5156
 305  354.0486
 306  446.3352
 307  393.7256
 308  419.3819
 309  415.0798
 310  375.8708
 311  306.155
 312  215.3694
 313  341.9123
 314  378.7407
 315  469.9298
 316  409.6427
 317  396.7892
 318  426.7213
 319  375.9863
 320  474.9414
 321  554.4425
 322  457.6182
 323  363.5042
 324  481.8279
 325  485.1337
 326  383.2417
 327  311.0652
 328  349.0859
 329  416.5736
 330  311.5722
 331  376.3854
 332  331.176
 333  351.8008
 334  353.2995
 335  391.351
 336  440.5923
 337  394.7339
 338  417.6508
 339  392.2213
 340  439.5016
 341  413.4295
 342  372.5501
 343  414.6193
 344  303.0305
 345  332.5216
 346  540.1201
 347  499.1405
 348  574.4379
 349  450.551
 350  346.3215
 351  213.4147
 352  408.4672
 353  254.5176
 354  426.1561
 355  406.3553
 356  437.9622
 357  518.3795
 358  465.0193
 359  558.9026
 360  465.6061
 361  492.4171
 362  596.9332
 363  562.955
 364  587.7548
 365  433.0186
 366  453.676
 367  609.5459
 368  457.3639
 369  469.8733
 370  387.9585
 371  452.1401
 372  290.9664
 373  245.7236
 374  419.2966
 375  456.8374
 376  447.5157
 377  535.673
 378  450.5681
 379  495.2437
 380  529.7423
 381  624.7893
 382  468.4826
 383  462.3251
 384  535.2319
 385  545.7607
 386  609.4398
 387  495.1763
 388  449.6408
 389  427.0659
 390  564.5978
 391  543.7952
 392  448.2171
 393  507.5305
 394  556.6843
 395  554.2368
 396  465.8784
 397  448.2441
 398  460.4704
 399  418.8614
 400  517.9654
 401  531.9319
 402  543.9507
 403  439.7415
 404  424.5111
 405  365.0782
 406  392.6696
 407  460.6761
 408  453.8408
 409  547.8069
 410  585.8461
 411  471.591
 412  397.7616
 413  359.6447
 414  549.5587
 415  463.3942
 416  407.6964
 417  411.3498
 418  391.3486
 419  502.5403
 420  492.6254
 421  523.6704
 422  482.924
 423  313.7858
 424  435.3941
 425  423.2051
 426  510.9461
 427  546.5426
 428  576.2889
 429  485.8625
 430  489.1156
 431  565.5901
 432  523.6707
 433  334.9425
 434  370.5328
 435  506.5065
 436  525.7462
 437  319.1226
 438  400.4659
 439  491.9418
 440  550.3546
 441  499.0821
 442  476.214
 443  454.7648
 444  459.4125
 445  404.5981
 446  464.8645
 447  501.8336
 448  382.8226
 449  375.1643
 450  351.8995
 451  397.1965
 452  328.4701
 453  507.9006
 454  516.6138
 455  506.1543
 456  500.1702
 457  473.7549
 458  504.141
 459  393.3661
 460  438.8854
 461  506.9044
 462  427.1427
 463  465.9434
 464  434.7155
 465  354.5122
 466  335.1046
 467  516.3355
 468  428.278
 469  349.8748
 470  517.9268
 471  390.3318
 472  342.0901
 473  351.2583
 474  504.2122
 475  467.1042
 476  331.0303
 477  351.6538
 478  394.3907
 479  502.3966
 480  421.1682
 481  362.8872
 482  446.2488
 483  314.1143
 484  335.6193
 485  444.076
 486  299.6175
 487  361.5257
 488  462.5493
 489  488.0789
 490  471.7338
 491  448.6105
 492  472.8596
 493  339.134
 494  302.8828
 495  455.0583
 496  579.7958
 497  463.5047
 498  404.6466
 499  397.8903
 500  427.5775
 501  407.999
 502  385.2936
 503  370.3062
 504  388.8514
 505  420.2802
 506  486.5775
 507  577.4465
 508  446.1993
 509  448.9308
 510  401.4812
 511  465.1031
