# Input file       =  1192471422.139069_cleaned.dat
# Candidate        =  PSR_0332+5434
# Telescope        =  AR
# Epoch_topo       =  58045.752790961451
# Epoch_bary       =  N/A
# T_sample         =  0.002
# Data Folded      =  7143424
# Data Avg         =  0.0175098999680722
# Data StdDev      =  1.00000027420358 
# Profile Bins     =  512
# Profile Avg      =  244.297262681902 
# Profile StdDev   =  118.118616870406 
# Reduced chi-sqr  =  1.906
# Prob(Noise)      <  2.82e-31   (~11.6 sigma)
# P_topo (ms)      =  714.485169895326  +/- 0.000181
# P'_topo (s/s)    =  -0                +/- 9.79e-11
# P''_topo (s/s^2) =  0                 +/- 4.44e-14
# P_bary (ms)      =  N/A
# P'_bary (s/s)    =  N/A
# P''_bary (s/s^2) =  N/A
# P_orb (s)        =  N/A
# asin(i)/c (s)    =  N/A
# eccentricity     =  N/A
# w (rad)          =  N/A
# T_peri           =  N/A
######################################################
   0  308.1487
   1  373.2506
   2  357.5103
   3  352.8972
   4  298.4073
   5  246.6879
   6  243.3141
   7  239.3115
   8  263.7779
   9  280.5493
  10  236.5967
  11  348.1981
  12  349.2856
  13  219.8658
  14  148.6437
  15  168.5209
  16  229.4748
  17  219.4007
  18  388.2556
  19  419.5981
  20  435.6429
  21  419.1321
  22  257.5751
  23  306.9023
  24  210.767
  25  171.8546
  26  306.8468
  27  236.0638
  28  262.1262
  29  227.4684
  30  230.725
  31  207.0319
  32  228.2648
  33  275.13
  34  319.8429
  35  299.831
  36  316.74
  37  285.5054
  38  176.2705
  39  93.578
  40  139.5635
  41  234.3609
  42  219.9074
  43  418.1222
  44  369.0918
  45  284.0413
  46  304.2906
  47  219.1211
  48  266.7313
  49  229.5494
  50  152.9448
  51  333.2647
  52  181.5151
  53  206.8038
  54  304.4383
  55  270.3956
  56  127.6603
  57  212.1728
  58  391.7298
  59  253.421
  60  120.9602
  61  139.4748
  62  107.4234
  63  159.7158
  64  201.2986
  65  194.6259
  66  254.5504
  67  287.8029
  68  123.3464
  69  98.95737
  70  145.4387
  71  246.3929
  72  271.471
  73  220.0872
  74  257.7817
  75  238.493
  76  -8.317589
  77  51.49148
  78  156.4495
  79  238.5704
  80  176.7004
  81  129.9165
  82  231.4827
  83  177.5267
  84  152.4639
  85  144.6166
  86  104.7749
  87  30.98186
  88  154.1098
  89  213.4442
  90  235.5269
  91  184.3964
  92  237.399
  93  294.0581
  94  224.0176
  95  307.6974
  96  282.4649
  97  313.3255
  98  283.0742
  99  275.4383
 100  301.6502
 101  173.3252
 102  269.4067
 103  305.7304
 104  215.3003
 105  107.3216
 106  187.8629
 107  176.5464
 108  187.4181
 109  129.8133
 110  104.2749
 111  2.902263
 112  147.9034
 113  121.3938
 114  114.0003
 115  184.9467
 116  165.8805
 117  113.7665
 118  86.4554
 119  158.2878
 120  295.4409
 121  241.9823
 122  151.489
 123  268.0902
 124  131.3759
 125  118.8682
 126  254.388
 127  275.6688
 128  307.598
 129  216.9566
 130  332.1074
 131  268.8063
 132  89.41448
 133  64.45753
 134  72.0146
 135  83.19874
 136  214.9716
 137  190.2314
 138  160.9933
 139  160.7575
 140  171.5965
 141  169.1734
 142  120.4562
 143  139.5373
 144  228.9002
 145  232.2895
 146  342.4889
 147  368.9146
 148  188.6946
 149  147.3787
 150  205.8591
 151  334.4653
 152  263.8375
 153  113.9498
 154  118.9928
 155  189.0701
 156  211.8636
 157  126.148
 158  232.7749
 159  212.5521
 160  146.6817
 161  124.7658
 162  369.8221
 163  393.2277
 164  169.7579
 165  159.3216
 166  235.5341
 167  324.2439
 168  313.4084
 169  323.666
 170  215.574
 171  168.0462
 172  261.4922
 173  302.7047
 174  313.3643
 175  303.4482
 176  222.3842
 177  273.9162
 178  209.8614
 179  222.6741
 180  237.7112
 181  298.2926
 182  359.4368
 183  333.1136
 184  336.2992
 185  346.9467
 186  506.1642
 187  529.0815
 188  537.876
 189  509.7378
 190  791.5005
 191  1018.66
 192  1130.953
 193  1185.358
 194  901.3146
 195  618.5885
 196  436.7713
 197  326.0072
 198  341.1889
 199  178.2739
 200  156.4789
 201  207.4107
 202  198.968
 203  190.2187
 204  185.7507
 205  285.5388
 206  396.404
 207  435.288
 208  389.4777
 209  331.4116
 210  195.5308
 211  160.6039
 212  169.5246
 213  235.0621
 214  167.703
 215  74.57648
 216  115.7545
 217  149.8587
 218  220.7318
 219  240.5315
 220  213.3103
 221  240.3597
 222  93.89979
 223  258.4321
 224  293.6314
 225  120.9089
 226  95.30141
 227  180.661
 228  203.0049
 229  199.0843
 230  260.5879
 231  219.1169
 232  241.5557
 233  230.6625
 234  198.4178
 235  180.5281
 236  168.7483
 237  193.0239
 238  207.1561
 239  207.14
 240  338.208
 241  257.4755
 242  269.2986
 243  354.3676
 244  206.5209
 245  199.7498
 246  400.0269
 247  183.8519
 248  114.0021
 249  230.9298
 250  335.1511
 251  258.8845
 252  205.2262
 253  189.0191
 254  189.0979
 255  300.6472
 256  177.5997
 257  102.5303
 258  214.238
 259  200.5883
 260  194.0359
 261  83.62682
 262  32.49435
 263  145.3148
 264  286.7611
 265  154.5676
 266  204.525
 267  167.6403
 268  160.0941
 269  193.0041
 270  235.7768
 271  183.6324
 272  171.3868
 273  115.978
 274  263.6013
 275  173.1149
 276  227.4185
 277  294.998
 278  220.8296
 279  274.2685
 280  442.912
 281  276.1285
 282  244.2911
 283  227.1292
 284  190.5043
 285  121.9735
 286  162.6932
 287  266.9644
 288  200.7079
 289  161.2252
 290  157.954
 291  267.7194
 292  204.0136
 293  167.7415
 294  245.621
 295  174.7167
 296  117.1746
 297  137.8554
 298  191.8692
 299  192.2269
 300  232.5748
 301  186.9555
 302  225.3327
 303  243.6892
 304  249.4702
 305  324.9427
 306  267.3669
 307  272.7161
 308  254.7617
 309  114.412
 310  113.9153
 311  123.4226
 312  151.5491
 313  168.6622
 314  262.5827
 315  212.7361
 316  152.8483
 317  125.1675
 318  62.72357
 319  95.94522
 320  155.0603
 321  271.385
 322  282.5195
 323  218.0137
 324  234.1193
 325  154.2025
 326  246.632
 327  295.5484
 328  298.19
 329  231.2215
 330  156.0587
 331  299.5251
 332  412.1262
 333  365.8498
 334  259.5047
 335  260.0492
 336  209.8761
 337  297.5845
 338  425.3977
 339  172.6374
 340  171.258
 341  248.2145
 342  277.8909
 343  272.2245
 344  232.1169
 345  269.1383
 346  283.7499
 347  278.4217
 348  231.835
 349  236.0188
 350  289.9824
 351  346.0122
 352  303.9056
 353  307.9872
 354  280.0942
 355  294.7821
 356  298.834
 357  133.2605
 358  167.2574
 359  250.2785
 360  240.3093
 361  177.179
 362  208.0559
 363  174.9163
 364  264.1651
 365  262.7166
 366  230.0077
 367  154.4186
 368  155.3462
 369  216.4601
 370  213.4326
 371  213.8483
 372  272.5356
 373  284.6541
 374  259.0316
 375  191.6467
 376  113.4464
 377  186.8132
 378  190.7887
 379  268.6474
 380  136.8267
 381  161.7849
 382  179.4396
 383  142.6901
 384  413.2593
 385  451.696
 386  299.5644
 387  116.0787
 388  120.5822
 389  191.7437
 390  250.2157
 391  282.1076
 392  365.7784
 393  282.1488
 394  389.7742
 395  384.8644
 396  249.2948
 397  284.3302
 398  410.9583
 399  458.7696
 400  423.3399
 401  316.751
 402  144.1192
 403  164.1741
 404  266.1775
 405  377.6047
 406  319.9151
 407  380.6731
 408  381.4475
 409  309.4037
 410  240.8663
 411  305.5023
 412  310.1072
 413  265.0461
 414  241.0402
 415  304.8573
 416  262.2108
 417  315.5173
 418  415.8664
 419  326.0056
 420  307.5169
 421  171.9415
 422  275.6774
 423  256.9078
 424  170.6356
 425  291.4514
 426  329.3534
 427  397.0905
 428  310.5867
 429  243.9794
 430  298.7022
 431  328.2927
 432  486.4946
 433  430.7882
 434  255.2521
 435  133.7361
 436  128.6297
 437  225.5627
 438  256.3196
 439  245.8669
 440  309.8177
 441  245.7965
 442  130.4825
 443  160.2512
 444  234.7195
 445  254.8832
 446  310.1801
 447  155.6496
 448  18.69015
 449  216.4658
 450  145.0571
 451  161.4106
 452  109.6185
 453  154.9818
 454  216.1564
 455  337.6318
 456  296.6755
 457  114.1469
 458  105.5424
 459  241.5632
 460  200.1341
 461  203.467
 462  278.5683
 463  335.2609
 464  343.8455
 465  319.2717
 466  332.3794
 467  234.9122
 468  55.18665
 469  229.9236
 470  219.0362
 471  208.8063
 472  307.0662
 473  296.0883
 474  336.0722
 475  255.2513
 476  265.4208
 477  305.7904
 478  180.0566
 479  96.10246
 480  106.8767
 481  292.7935
 482  337.4831
 483  212.7683
 484  463.3776
 485  497.5572
 486  372.8764
 487  368.6004
 488  378.8686
 489  264.5275
 490  191.0758
 491  214.5449
 492  291.8752
 493  258.2962
 494  190.8289
 495  193.7945
 496  250.1099
 497  214.0295
 498  229.5618
 499  289.2191
 500  256.4393
 501  218.4202
 502  241.4927
 503  321.9426
 504  227.8307
 505  194.4888
 506  128.0397
 507  187.1149
 508  201.7691
 509  80.42958
 510  281.8264
 511  311.7839
