# Input file       =  1192658309.14104_cleaned.dat
# Candidate        =  PSR_0332+5434
# Telescope        =  AR
# Epoch_topo       =  58047.915834965745
# Epoch_bary       =  N/A
# T_sample         =  0.002
# Data Folded      =  7340032
# Data Avg         =  0.0258240400871728
# Data StdDev      =  2.03832293666647 
# Profile Bins     =  256
# Profile Avg      =  740.369701659677 
# Profile StdDev   =  345.145317251733 
# Reduced chi-sqr  =  2.169
# Prob(Noise)      <  4.16e-24   (~10.1 sigma)
# P_topo (ms)      =  714.48693169724   +/- 0.000222
# P'_topo (s/s)    =  -0                +/- 1.17e-10
# P''_topo (s/s^2) =  0                 +/- 5.18e-14
# P_bary (ms)      =  N/A
# P'_bary (s/s)    =  N/A
# P''_bary (s/s^2) =  N/A
# P_orb (s)        =  N/A
# asin(i)/c (s)    =  N/A
# eccentricity     =  N/A
# w (rad)          =  N/A
# T_peri           =  N/A
######################################################
   0  658.1998
   1  771.5285
   2  843.8157
   3  895.9241
   4  326.6943
   5  902.2879
   6  395.2478
   7  743.2409
   8  1080.6
   9  1096.828
  10  931.3445
  11  167.6229
  12  1146.295
  13  646.9438
  14  919.3918
  15  715.1171
  16  991.0757
  17  1506.546
  18  1071.574
  19  469.2979
  20  301.8328
  21  465.107
  22  933.2532
  23  1421.061
  24  736.5877
  25  925.1366
  26  1138.303
  27  1089.506
  28  885.226
  29  941.369
  30  843.9274
  31  790.7951
  32  718.0797
  33  251.071
  34  813.5092
  35  924.8663
  36  679.4387
  37  894.8481
  38  989.7639
  39  999.9886
  40  847.712
  41  569.3226
  42  594.7509
  43  595.301
  44  510.0811
  45  469.0051
  46  861.6769
  47  711.6815
  48  500.0927
  49  612.0762
  50  307.6185
  51  628.4292
  52  811.8671
  53  1002.92
  54  908.9176
  55  958.6068
  56  871.0792
  57  788.1899
  58  376.9351
  59  1018.365
  60  748.9969
  61  303.5086
  62  674.6796
  63  1164.898
  64  766.455
  65  505.7624
  66  399.3577
  67  625.134
  68  861.6855
  69  604.1463
  70  659.898
  71  232.2084
  72  861.4337
  73  731.8465
  74  831.5446
  75  348.9846
  76  1084.409
  77  306.0394
  78  791.4941
  79  641.3696
  80  896.0768
  81  295.944
  82  649.0132
  83  774.7384
  84  1204.572
  85  342.168
  86  827.2593
  87  664.3563
  88  789.1703
  89  761.5615
  90  603.1863
  91  1021.367
  92  972.3942
  93  378.6271
  94  1068.562
  95  534.1003
  96  651.9011
  97  710.974
  98  580.6462
  99  409.9194
 100  345.3505
 101  769.3438
 102  500.4806
 103  488.511
 104  461.5396
 105  868.7672
 106  493.2238
 107  833.0784
 108  744.2688
 109  576.308
 110  496.8486
 111  966.8937
 112  289.68
 113  548.5067
 114  734.6161
 115  932.4614
 116  677.1532
 117  1086.592
 118  1257.304
 119  830.3668
 120  758.2828
 121  300.7811
 122  787.1324
 123  475.3235
 124  221.3022
 125  571.4283
 126  963.269
 127  669.6418
 128  1067.69
 129  1442.573
 130  903.8854
 131  696.6801
 132  932.9761
 133  869.7406
 134  583.8969
 135  846.4728
 136  750.091
 137  990.9725
 138  890.6283
 139  1104.274
 140  1375.514
 141  618.4073
 142  763.51
 143  781.2944
 144  1102.406
 145  1220.575
 146  834.2983
 147  625.0834
 148  368.4591
 149  671.3112
 150  569.0822
 151  818.9697
 152  903.9985
 153  501.8253
 154  647.6467
 155  970.4352
 156  1281.002
 157  2012.886
 158  3748.931
 159  4745.719
 160  2701.693
 161  934.7153
 162  1038.002
 163  313.8621
 164  1091.045
 165  984.1455
 166  755.7262
 167  435.3368
 168  775.1803
 169  861.3214
 170  581.3246
 171  320.8316
 172  908.6177
 173  394.9724
 174  748.4119
 175  939.3807
 176  744.749
 177  207.5851
 178  341.6165
 179  610.7596
 180  666.9773
 181  1202.47
 182  675.0453
 183  717.0417
 184  617.7466
 185  446.5805
 186  656.48
 187  941.418
 188  588.3378
 189  607.9598
 190  412.4418
 191  280.701
 192  194.5874
 193  -110.3977
 194  234.2087
 195  711.2881
 196  592.8882
 197  690.681
 198  106.3375
 199  492.3517
 200  816.0269
 201  400.3997
 202  649.8787
 203  265.89
 204  805.7726
 205  780.2984
 206  206.604
 207  566.3716
 208  578.4406
 209  337.1316
 210  407.0518
 211  601.311
 212  694.9938
 213  530.686
 214  189.7435
 215  733.9344
 216  334.4448
 217  357.9795
 218  1056.846
 219  822.3543
 220  585.6751
 221  417.4147
 222  403.7573
 223  187.7909
 224  1106.995
 225  949.1496
 226  681.489
 227  736.2508
 228  553.7106
 229  808.1254
 230  604.1833
 231  770.071
 232  933.309
 233  574.2394
 234  992.8747
 235  394.2538
 236  512.0116
 237  526.8197
 238  592.6097
 239  752.7897
 240  982.885
 241  574.2849
 242  816.7562
 243  797.4001
 244  527.9669
 245  660.434
 246  832.0389
 247  264.8545
 248  1132.134
 249  673.6989
 250  681.9607
 251  483.7291
 252  237.1028
 253  479.2611
 254  533.0596
 255  685.0239
