# Input file       =  1192759393.134662-PSRB0329-2ms-sampling-dd.dat
# Candidate        =  PSR_0332+5434
# Telescope        =  AR
# Epoch_topo       =  58049.085788595621
# Epoch_bary       =  N/A
# T_sample         =  0.002
# Data Folded      =  7340032
# Data Avg         =  6.38020687498123e-10
# Data StdDev      =  5.11036488916687 
# Profile Bins     =  512
# Profile Avg      =  -0.0410464266411442
# Profile StdDev   =  611.879505173165 
# Reduced chi-sqr  =  1.134
# Prob(Noise)      <  0.0193   (~2.1 sigma)
# P_topo (ms)      =  714.488234176441  +/- 9.04e-05
# P'_topo (s/s)    =  -0                +/- 4.77e-11
# P''_topo (s/s^2) =  0                 +/- 2.11e-14
# P_bary (ms)      =  N/A
# P'_bary (s/s)    =  N/A
# P''_bary (s/s^2) =  N/A
# P_orb (s)        =  N/A
# asin(i)/c (s)    =  N/A
# eccentricity     =  N/A
# w (rad)          =  N/A
# T_peri           =  N/A
######################################################
   0  -519.838
   1  -292.2032
   2  -618.8717
   3  -915.2499
   4  -898.0316
   5  -495.0205
   6  -147.6369
   7  -514.1236
   8  -557.2676
   9  -565.2755
  10  -428.463
  11  -318.3667
  12  -208.9058
  13  70.57184
  14  -22.90096
  15  -305.0974
  16  -533.1137
  17  -466.458
  18  -402.3981
  19  89.3563
  20  221.9982
  21  -77.55173
  22  -69.73444
  23  -656.92
  24  -964.2498
  25  -1017.226
  26  -868.2216
  27  -231.6557
  28  187.1551
  29  208.0671
  30  160.4442
  31  -189.9199
  32  -640.0072
  33  -983.9647
  34  -390.006
  35  -242.9537
  36  -441.2529
  37  -791.4473
  38  -929.2837
  39  -910.2273
  40  -710.7821
  41  -663.9154
  42  -646.8474
  43  -728.7944
  44  -853.8694
  45  -669.9318
  46  -631.1449
  47  -578.6236
  48  -254.4361
  49  -91.55897
  50  -105.3528
  51  -447.9088
  52  -158.5836
  53  -207.5733
  54  -235.9215
  55  184.3162
  56  -68.92578
  57  -188.7487
  58  -556.1096
  59  -762.3328
  60  -480.9362
  61  210.8504
  62  182.4709
  63  -150.6103
  64  -137.622
  65  -843.5217
  66  -477.6539
  67  -181.763
  68  28.55858
  69  276.2266
  70  -152.4353
  71  -165.9912
  72  -173.5692
  73  -9.873241
  74  35.58332
  75  295.849
  76  857.6698
  77  710.1174
  78  356.5377
  79  221.2161
  80  -131.0005
  81  -171.2019
  82  681.3393
  83  974.303
  84  280.0426
  85  7.979774
  86  18.10498
  87  -117.2611
  88  -109.2466
  89  -261.8793
  90  -474.7365
  91  -354.6329
  92  -231.8692
  93  -113.847
  94  -318.3982
  95  -315.4737
  96  -221.7339
  97  -165.742
  98  -2.702513
  99  142.8555
 100  643.918
 101  345.1555
 102  -263.5522
 103  -277.896
 104  -156.7039
 105  81.9777
 106  27.88616
 107  -101.422
 108  -59.70552
 109  -245.8925
 110  326.8717
 111  656.699
 112  573.8708
 113  361.6005
 114  301.261
 115  555.0547
 116  213.4328
 117  400.5579
 118  131.8257
 119  -7.770754
 120  274.5648
 121  384.7763
 122  362.5513
 123  -78.71789
 124  -460.1316
 125  -866.9145
 126  -405.4425
 127  -457.631
 128  -257.2957
 129  73.26013
 130  27.79142
 131  -284.2416
 132  -137.4739
 133  -75.87466
 134  257.4541
 135  419.2928
 136  135.1669
 137  -174.5738
 138  -2.996704
 139  -122.1138
 140  16.52218
 141  -0.7720363
 142  431.2502
 143  127.9514
 144  -510.081
 145  -597.7527
 146  -658.2572
 147  -244.9778
 148  -109.6226
 149  468.3249
 150  308.2856
 151  79.04446
 152  89.01857
 153  -214.0992
 154  -297.0452
 155  59.12956
 156  99.95035
 157  476.0775
 158  83.90318
 159  137.1879
 160  79.37999
 161  98.13984
 162  435.683
 163  514.9923
 164  530.0392
 165  416.6811
 166  -76.77715
 167  -22.21389
 168  20.42705
 169  37.81589
 170  178.8056
 171  -293.5099
 172  -130.6877
 173  -476.1574
 174  -293.2893
 175  308.5249
 176  693.8594
 177  558.3181
 178  210.0357
 179  17.97605
 180  -511.2913
 181  -86.89405
 182  842.1215
 183  1112.982
 184  1231.945
 185  860.0173
 186  704.2321
 187  299.1085
 188  -348.7554
 189  -68.14571
 190  1.901315
 191  541.0645
 192  685.285
 193  127.7553
 194  72.21247
 195  -501.6975
 196  -220.6815
 197  -87.92715
 198  502.0211
 199  317.7455
 200  422.9413
 201  8.514411
 202  453.8422
 203  190.3299
 204  337.2607
 205  455.5357
 206  260.2297
 207  282.052
 208  175.4167
 209  176.9649
 210  372.5957
 211  103.852
 212  291.1259
 213  -202.0921
 214  566.2537
 215  956.874
 216  789.7657
 217  665.6944
 218  612.748
 219  161.7147
 220  -83.65717
 221  515.052
 222  336.087
 223  188.3481
 224  498.2575
 225  709.9614
 226  643.9312
 227  420.4753
 228  886.3727
 229  988.0836
 230  1098.736
 231  1115.688
 232  1403.629
 233  2149.58
 234  1766.769
 235  1239.649
 236  715.3132
 237  -32.03648
 238  -444.3333
 239  26.73353
 240  -123.0434
 241  305.0081
 242  520.3636
 243  756.4496
 244  756.0461
 245  604.2896
 246  292.7966
 247  280.2506
 248  672.5199
 249  685.9236
 250  189.9818
 251  374.7147
 252  330.3511
 253  -31.56924
 254  -203.7621
 255  -238.5015
 256  -389.424
 257  32.94605
 258  711.7039
 259  600.5502
 260  764.3751
 261  471.3863
 262  480.6668
 263  257.3147
 264  304.7736
 265  911.8214
 266  1028.054
 267  721.8637
 268  604.7526
 269  382.0489
 270  176.1234
 271  168.9354
 272  470.7956
 273  686.1284
 274  743.7784
 275  578.1746
 276  786.0496
 277  390.363
 278  321.9289
 279  6.547006
 280  303.5141
 281  460.4132
 282  678.1708
 283  424.7795
 284  213.0599
 285  369.8079
 286  439.2799
 287  371.7202
 288  373.7484
 289  645.9049
 290  503.0709
 291  240.0484
 292  407.1739
 293  667.1101
 294  541.1061
 295  -248.319
 296  -87.11419
 297  76.2323
 298  246.9343
 299  198.5061
 300  455.713
 301  608.702
 302  618.9671
 303  303.3958
 304  -93.03546
 305  -445.1088
 306  -626.0836
 307  -75.27135
 308  418.3406
 309  616.5714
 310  665.3953
 311  448.7819
 312  -244.5739
 313  -229.2103
 314  -3.136986
 315  127.5046
 316  528.5999
 317  613.7385
 318  230.3469
 319  33.11059
 320  -87.41087
 321  -149.5989
 322  -339.4223
 323  -281.8634
 324  -170.0868
 325  482.1794
 326  326.6216
 327  21.22438
 328  -200.0318
 329  142.7057
 330  149.2664
 331  298.7759
 332  567.5858
 333  738.0235
 334  804.561
 335  431.3427
 336  207.0316
 337  155.8068
 338  69.25932
 339  486.4808
 340  95.23793
 341  -33.3666
 342  -379.1057
 343  -608.3735
 344  -598.9964
 345  -554.6134
 346  -98.13683
 347  -49.12651
 348  -294.3972
 349  -315.3216
 350  -495.8667
 351  -209.9273
 352  -134.9851
 353  -152.0216
 354  -220.2202
 355  -307.5854
 356  -122.0007
 357  -539.1039
 358  -200.3205
 359  202.2693
 360  350.5072
 361  248.0768
 362  -34.21908
 363  128.2635
 364  -51.97168
 365  -299.7825
 366  178.6564
 367  741.6828
 368  847.769
 369  462.5806
 370  65.2431
 371  -743.2389
 372  -338.9904
 373  -414.2742
 374  252.4654
 375  142.565
 376  126.2012
 377  -255.1785
 378  -1062.166
 379  -678.085
 380  -453.3497
 381  -269.5162
 382  -333.1031
 383  42.98139
 384  130.5756
 385  -193.5773
 386  -243.5619
 387  -462.8715
 388  -548.118
 389  -444.9857
 390  -569.4312
 391  -352.1481
 392  -267.8199
 393  -19.4148
 394  99.70756
 395  250.8115
 396  117.4499
 397  96.4773
 398  342.1125
 399  59.55083
 400  124.0688
 401  20.86203
 402  319.0907
 403  180.4869
 404  -117.5966
 405  161.2468
 406  36.21865
 407  -237.6049
 408  -132.5001
 409  -32.87656
 410  129.6429
 411  148.5136
 412  -277.4407
 413  -119.6051
 414  -309.1434
 415  -322.3661
 416  210.2075
 417  -269.4351
 418  139.7642
 419  133.7526
 420  -246.5278
 421  -320.3115
 422  -488.0918
 423  -60.64583
 424  41.9262
 425  660.8522
 426  500.5963
 427  -22.17997
 428  -387.7881
 429  -131.6573
 430  -116.0589
 431  -254.5786
 432  458.4929
 433  329.8073
 434  80.87693
 435  18.18906
 436  54.14707
 437  -222.204
 438  -27.08973
 439  -93.61123
 440  -337.0862
 441  -332.5992
 442  -324.7013
 443  -317.7326
 444  -275.1069
 445  -614.4744
 446  -342.1581
 447  -589.7487
 448  -777.4845
 449  -799.3375
 450  -469.5825
 451  -316.2245
 452  -90.81089
 453  -103.8351
 454  -300.7853
 455  -568.9093
 456  -1157.453
 457  -791.0078
 458  172.6001
 459  339.9357
 460  -129.023
 461  -416.6276
 462  -638.1924
 463  -708.5939
 464  -832.5775
 465  -378.2892
 466  -216.3189
 467  -204.4204
 468  -178.3259
 469  -279.3509
 470  -723.9476
 471  -989.4575
 472  -859.1189
 473  -333.9548
 474  234.7561
 475  343.9188
 476  444.4974
 477  25.11339
 478  -732.1679
 479  -1140.08
 480  -857.8948
 481  -204.4184
 482  198.5582
 483  176.6758
 484  198.0454
 485  -308.8285
 486  -933.1246
 487  -823.1411
 488  -587.8193
 489  53.70211
 490  393.2795
 491  45.66987
 492  -617.4262
 493  -946.8219
 494  -1090.028
 495  -263.488
 496  318.7509
 497  238.5151
 498  154.5489
 499  -10.04357
 500  -582.3936
 501  -629.137
 502  -561.0396
 503  -224.855
 504  -408.3505
 505  -445.3721
 506  -487.8282
 507  -1200.739
 508  -947.9757
 509  -594.5096
 510  -624.8984
 511  -575.7925
