# Input file       =  1192830597.138417_cleaned.dat
# Candidate        =  PSR_0332+5434
# Telescope        =  AR
# Epoch_topo       =  58049.909909009453
# Epoch_bary       =  N/A
# T_sample         =  0.002
# Data Folded      =  7340032
# Data Avg         =  0.0463765401925359
# Data StdDev      =  2.36168998514396 
# Profile Bins     =  1024
# Profile Avg      =  332.377656405809 
# Profile StdDev   =  199.950219984728 
# Reduced chi-sqr  =  1.228
# Prob(Noise)      <  7.27e-07   (~4.8 sigma)
# P_topo (ms)      =  714.488590775551  +/- 0.000213
# P'_topo (s/s)    =  -0                +/- 1.13e-10
# P''_topo (s/s^2) =  0                 +/- 4.97e-14
# P_bary (ms)      =  N/A
# P'_bary (s/s)    =  N/A
# P''_bary (s/s^2) =  N/A
# P_orb (s)        =  N/A
# asin(i)/c (s)    =  N/A
# eccentricity     =  N/A
# w (rad)          =  N/A
# T_peri           =  N/A
######################################################
   0  407.9066
   1  457.0671
   2  439.8616
   3  345.9213
   4  358.4694
   5  431.3856
   6  427.9109
   7  345.9546
   8  321.4983
   9  397.2335
  10  407.3274
  11  410.5652
  12  362.8828
  13  413.7395
  14  278.3253
  15  276.03
  16  189.6398
  17  272.3879
  18  353.2771
  19  403.8311
  20  405.5628
  21  322.3878
  22  426.0577
  23  472.9878
  24  415.7421
  25  321.7358
  26  293.8965
  27  302.7455
  28  256.9686
  29  236.6122
  30  183.0125
  31  232.5627
  32  270.7707
  33  330.7196
  34  274.6173
  35  352.6439
  36  420.5247
  37  543.3862
  38  466.4099
  39  393.446
  40  276.6374
  41  269.5346
  42  339.2175
  43  393.7286
  44  268.392
  45  191.7163
  46  189.2889
  47  448.0004
  48  525.7117
  49  660.8659
  50  558.0154
  51  515.1345
  52  437.9441
  53  402.7432
  54  424.4377
  55  404.6879
  56  414.3803
  57  429.473
  58  412.6527
  59  438.3706
  60  398.0965
  61  453.1967
  62  454.163
  63  516.9876
  64  469.3993
  65  470.7478
  66  382.2823
  67  340.8437
  68  329.6898
  69  377.063
  70  379.3747
  71  330.9031
  72  231.5553
  73  280.774
  74  267.3582
  75  266.7359
  76  160.0184
  77  157.1517
  78  235.3668
  79  329.306
  80  405.2823
  81  434.0017
  82  386.3419
  83  308.6571
  84  303.5286
  85  298.6608
  86  211.5345
  87  140.8229
  88  252.4408
  89  366.1711
  90  276.146
  91  195.5877
  92  262.2121
  93  381.0974
  94  297.7646
  95  361.4771
  96  468.7874
  97  598.1481
  98  515.2446
  99  444.7961
 100  399.4694
 101  392.8589
 102  343.3781
 103  395.42
 104  411.5782
 105  371.3168
 106  315.3877
 107  364.4323
 108  464.5714
 109  455.468
 110  428.7868
 111  352.8297
 112  305.0699
 113  304.3513
 114  281.8581
 115  307.1021
 116  320.6743
 117  315.1027
 118  260.8494
 119  151.6037
 120  195.4075
 121  289.5217
 122  354.8857
 123  352.354
 124  402.9825
 125  554.1854
 126  553.2017
 127  517.424
 128  450.6895
 129  395.2706
 130  359.4468
 131  292.594
 132  298.1179
 133  282.5123
 134  217.0621
 135  203.901
 136  185.0976
 137  153.491
 138  197.3367
 139  181.1038
 140  256.5219
 141  204.8582
 142  302.4968
 143  349.9603
 144  300.3386
 145  212.5813
 146  190.1882
 147  295.6864
 148  341.0222
 149  413.3496
 150  432.8071
 151  386.8214
 152  283.8945
 153  257.645
 154  288.7859
 155  335.2457
 156  346.1707
 157  368.9182
 158  485.8591
 159  528.2162
 160  524.8634
 161  409.7225
 162  371.4136
 163  423.0191
 164  545.5497
 165  566.6611
 166  436.9498
 167  251.4367
 168  311.5435
 169  413.5717
 170  475.963
 171  349.2218
 172  323.2747
 173  266.7763
 174  398.5313
 175  455.9414
 176  515.569
 177  332.8546
 178  328.4233
 179  260.9656
 180  237.0671
 181  153.761
 182  177.9022
 183  255.9888
 184  231.3181
 185  248.0629
 186  248.8459
 187  295.6891
 188  289.8987
 189  280.2787
 190  237.3418
 191  216.7819
 192  237.1668
 193  352.6963
 194  469.433
 195  455.7384
 196  464.4054
 197  388.195
 198  334.275
 199  296.731
 200  336.5041
 201  331.7975
 202  409.1831
 203  476.0131
 204  459.8905
 205  278.4258
 206  296.8148
 207  367.7318
 208  538.437
 209  465.1108
 210  437.4075
 211  346.5076
 212  299.0573
 213  330.5919
 214  314.8818
 215  341.1357
 216  341.6004
 217  358.5046
 218  341.8441
 219  302.5111
 220  284.6266
 221  293.9703
 222  348.889
 223  426.5346
 224  468.511
 225  397.3028
 226  307.1645
 227  384.4891
 228  431.1588
 229  405.7971
 230  357.8486
 231  342.9193
 232  445.0249
 233  376.2242
 234  323.3497
 235  276.1678
 236  263.1079
 237  218.9266
 238  81.53857
 239  80.8978
 240  220.153
 241  321.6339
 242  366.1992
 243  294.179
 244  306.77
 245  314.4521
 246  345.5947
 247  284.9188
 248  322.8165
 249  314.2491
 250  420.7064
 251  374.7821
 252  273.4427
 253  205.647
 254  118.6162
 255  181.5579
 256  310.7856
 257  499.5887
 258  529.6972
 259  611.596
 260  624.016
 261  548.6791
 262  311.7402
 263  172.7951
 264  222.7669
 265  251.635
 266  283.8866
 267  246.8114
 268  316.3938
 269  254.3187
 270  186.3717
 271  126.1933
 272  247.1683
 273  385.2909
 274  455.2407
 275  517.224
 276  465.6947
 277  465.0203
 278  428.5061
 279  398.6424
 280  330.0263
 281  305.8557
 282  393.9592
 283  444.5682
 284  514.0165
 285  432.4923
 286  439.7589
 287  258.5536
 288  214.3756
 289  226.2445
 290  395.6636
 291  575.2556
 292  598.3208
 293  532.0153
 294  321.9325
 295  287.6672
 296  301.9387
 297  384.9426
 298  394.2874
 299  354.9883
 300  267.6497
 301  157.041
 302  232.7087
 303  316.5584
 304  328.4016
 305  247.6569
 306  223.7116
 307  354.5093
 308  387.8538
 309  372.1536
 310  276.6948
 311  215.2455
 312  281.3607
 313  362.0075
 314  371.7707
 315  312.4869
 316  228.9947
 317  259.4459
 318  242.3308
 319  367.5142
 320  350.0462
 321  380.7251
 322  335.037
 323  392.0601
 324  470.3557
 325  461.4956
 326  418.5268
 327  275.4036
 328  293.764
 329  254.7347
 330  311.7746
 331  373.6665
 332  367.1388
 333  308.4307
 334  279.05
 335  336.5861
 336  332.8429
 337  335.4641
 338  372.4805
 339  428.1115
 340  326.5688
 341  266.4818
 342  205.445
 343  215.6634
 344  221.3401
 345  275.1459
 346  418.0526
 347  415.9244
 348  417.9818
 349  370.0109
 350  467.5695
 351  413.5288
 352  318.9491
 353  217.3567
 354  220.1628
 355  343.6578
 356  419.5797
 357  482.9869
 358  343.9312
 359  277.4899
 360  289.9197
 361  297.9784
 362  365.933
 363  264.3272
 364  229.3749
 365  68.4135
 366  74.8366
 367  130.5217
 368  200.573
 369  205.6397
 370  161.179
 371  175.0518
 372  194.721
 373  254.0906
 374  289.0589
 375  315.2477
 376  371.6492
 377  389.0011
 378  429.9984
 379  398.2145
 380  317.4628
 381  254.3468
 382  311.8781
 383  400.7863
 384  414.8643
 385  360.6182
 386  395.2771
 387  400.2922
 388  438.9345
 389  409.4273
 390  364.9891
 391  244.0187
 392  242.2121
 393  268.8989
 394  260.6062
 395  309.4088
 396  305.7812
 397  356.6124
 398  272.2227
 399  199.703
 400  263.8784
 401  325.9258
 402  420.2469
 403  463.6897
 404  417.0451
 405  372.381
 406  341.9487
 407  361.6338
 408  332.2288
 409  262.0443
 410  203.9018
 411  191.5602
 412  199.4629
 413  278.4138
 414  315.9306
 415  333.7731
 416  276.4906
 417  336.0113
 418  283.9523
 419  205.4938
 420  133.5845
 421  226.4593
 422  269.8514
 423  280.0485
 424  230.709
 425  312.1919
 426  396.4741
 427  287.7081
 428  152.6996
 429  88.41039
 430  177.9423
 431  285.4224
 432  329.2973
 433  369.179
 434  335.3614
 435  255.7319
 436  246.4095
 437  217.1153
 438  187.4102
 439  154.2825
 440  66.88342
 441  56.43425
 442  27.96491
 443  140.119
 444  210.9064
 445  218.2251
 446  242.0632
 447  331.4933
 448  437.0731
 449  371.827
 450  304.8024
 451  303.6002
 452  293.4974
 453  346.3655
 454  334.622
 455  275.5634
 456  209.3883
 457  234.8095
 458  303.7928
 459  274.3165
 460  353.8557
 461  386.5607
 462  400.7343
 463  376.9565
 464  381.5491
 465  250.0415
 466  123.8858
 467  107.247
 468  267.2153
 469  348.2318
 470  353.1883
 471  248.5862
 472  224.4224
 473  180.4254
 474  205.6794
 475  150.2381
 476  254.9292
 477  220.3405
 478  245.1804
 479  179.4196
 480  174.4105
 481  150.2078
 482  134.3398
 483  159.9414
 484  199.5165
 485  282.5239
 486  351.2492
 487  315.6812
 488  335.229
 489  401.1527
 490  463.7568
 491  391.1113
 492  253.5322
 493  226.3097
 494  244.382
 495  239.5234
 496  269.4572
 497  238.1109
 498  223.8205
 499  244.936
 500  248.2219
 501  363.3967
 502  368.472
 503  350.1314
 504  269.3703
 505  177.6202
 506  199.0533
 507  314.5555
 508  350.323
 509  371.4147
 510  315.3353
 511  275.9851
 512  330.4054
 513  316.7119
 514  347.9888
 515  314.6405
 516  304.4142
 517  297.2939
 518  310.0715
 519  398.1537
 520  390.0302
 521  300.4439
 522  328.3638
 523  345.2409
 524  360.9814
 525  285.9709
 526  283.0988
 527  203.0578
 528  305.5761
 529  393.2376
 530  564.2415
 531  554.1506
 532  628.8892
 533  531.7908
 534  493.2075
 535  325.3441
 536  293.0183
 537  257.4321
 538  364.4775
 539  385.5656
 540  429.8621
 541  346.5063
 542  343.3501
 543  329.9594
 544  382.0902
 545  363.1165
 546  338.985
 547  344.9061
 548  383.8075
 549  301.4882
 550  317.7862
 551  260.6549
 552  181.0248
 553  144.9561
 554  220.3509
 555  303.6087
 556  205.4492
 557  144.3018
 558  107.7744
 559  132.6796
 560  92.4109
 561  90.86555
 562  47.92867
 563  20.98964
 564  76.46145
 565  210.1436
 566  299.2325
 567  234.8702
 568  130.4167
 569  101.5155
 570  214.7224
 571  290.0867
 572  410.9116
 573  475.5851
 574  528.2092
 575  515.2609
 576  429.6682
 577  387.8531
 578  351.172
 579  413.0924
 580  394.7227
 581  361.0512
 582  412.8328
 583  422.7947
 584  355.3269
 585  237.3451
 586  281.7296
 587  380.2794
 588  441.3713
 589  400.6696
 590  319.3028
 591  266.6271
 592  290.8269
 593  343.3077
 594  339.9758
 595  397.5738
 596  471.8541
 597  503.1104
 598  441.3426
 599  463.1709
 600  417.6994
 601  398.2286
 602  365.6042
 603  351.5666
 604  393.5818
 605  456.6362
 606  409.4592
 607  297.2203
 608  205.6679
 609  296.5841
 610  303.3327
 611  318.1745
 612  308.1945
 613  306.6842
 614  373.9664
 615  424.2027
 616  424.9951
 617  451.042
 618  316.7571
 619  289.4644
 620  288.0107
 621  436.7925
 622  422.2825
 623  351.0195
 624  372.1086
 625  477.5209
 626  334.313
 627  282.6118
 628  324.1991
 629  595.7913
 630  769.3969
 631  859.6578
 632  950.243
 633  1049.68
 634  1227.335
 635  1170.982
 636  1088.562
 637  1003.946
 638  992.6264
 639  890.5345
 640  884.5939
 641  756.8157
 642  625.2147
 643  461.0052
 644  353.7335
 645  179.2972
 646  154.0083
 647  252.4908
 648  340.9554
 649  330.4565
 650  398.3906
 651  340.0884
 652  251.7174
 653  127.9122
 654  172.954
 655  141.625
 656  164.2009
 657  137.1884
 658  185.1893
 659  129.3571
 660  171.0594
 661  201.0153
 662  403.9441
 663  408.4045
 664  397.6737
 665  357.0284
 666  356.6519
 667  340.561
 668  207.7841
 669  219.5028
 670  304.7939
 671  355.4646
 672  446.6046
 673  452.6722
 674  342.7297
 675  304.0305
 676  202.2172
 677  209.7695
 678  145.5212
 679  235.903
 680  288.053
 681  297.395
 682  300.9149
 683  198.8843
 684  237.5533
 685  206.4367
 686  254.4357
 687  256.1024
 688  221.9789
 689  235.3129
 690  237.8825
 691  335.6143
 692  299.1439
 693  285.4647
 694  269.1577
 695  197.4754
 696  133.3935
 697  115.665
 698  223.1535
 699  267.2901
 700  325.4684
 701  287.8417
 702  386.2701
 703  398.0206
 704  424.012
 705  353.5681
 706  243.3897
 707  266.7292
 708  271.6408
 709  313.9859
 710  314.0876
 711  258.7816
 712  216.5668
 713  229.7443
 714  285.2774
 715  277.4309
 716  297.1979
 717  262.2721
 718  352.6829
 719  315.8622
 720  208.6212
 721  187.2652
 722  274.2162
 723  371.6451
 724  322.5723
 725  307.8323
 726  232.5136
 727  177.6925
 728  174.5963
 729  397.3214
 730  514.0048
 731  464.026
 732  382.0569
 733  398.8423
 734  459.1222
 735  455.351
 736  393.6832
 737  294.5771
 738  333.1649
 739  323.3183
 740  273.9898
 741  196.8155
 742  262.9952
 743  437.3244
 744  552.1193
 745  500.1512
 746  425.7948
 747  339.107
 748  250.6699
 749  142.0436
 750  156.9673
 751  250.0029
 752  281.2443
 753  290.9016
 754  331.303
 755  339.8562
 756  360.022
 757  286.1344
 758  298.603
 759  147.8881
 760  163.9906
 761  208.9708
 762  322.0316
 763  346.3754
 764  309.6844
 765  388.1351
 766  365.2969
 767  347.7177
 768  343.334
 769  414.7836
 770  439.5124
 771  417.3124
 772  444.1904
 773  392.9246
 774  293.907
 775  267.0352
 776  331.3439
 777  332.3768
 778  276.5446
 779  208.6835
 780  286.3524
 781  236.714
 782  181.5784
 783  308.2917
 784  392.6894
 785  439.4093
 786  350.9303
 787  378.4292
 788  343.7889
 789  360.0434
 790  344.025
 791  340.8846
 792  283.4945
 793  233.3222
 794  209.0188
 795  259.658
 796  295.7404
 797  325.1734
 798  328.7036
 799  303.0232
 800  306.0795
 801  302.7938
 802  350.0232
 803  332.5853
 804  378.664
 805  449.8406
 806  412.5675
 807  331.4206
 808  299.5123
 809  243.8258
 810  151.1494
 811  124.3964
 812  188.7991
 813  324.7067
 814  323.8606
 815  331.675
 816  217.944
 817  175.8627
 818  89.33199
 819  142.3458
 820  169.3466
 821  219.8238
 822  197.9457
 823  212.8188
 824  196.8395
 825  283.2606
 826  369.1562
 827  400.8345
 828  354.5317
 829  285.4652
 830  312.3953
 831  329.8013
 832  339.2179
 833  236.1373
 834  252.23
 835  230.9409
 836  299.9664
 837  387.5472
 838  475.372
 839  455.6556
 840  401.632
 841  385.3497
 842  315.7794
 843  269.179
 844  208.5095
 845  227.8379
 846  232.9196
 847  217.6837
 848  116.4856
 849  41.07939
 850  97.60326
 851  227.6642
 852  255.501
 853  315.0459
 854  295.6281
 855  374.0495
 856  365.1563
 857  362.5605
 858  313.8309
 859  332.718
 860  341.1594
 861  385.6178
 862  370.0279
 863  375.1184
 864  283.4793
 865  289.2504
 866  362.9479
 867  360.5879
 868  440.7619
 869  480.6506
 870  589.573
 871  453.6018
 872  374.8228
 873  308.9175
 874  289.9633
 875  228.4138
 876  281.9951
 877  391.0619
 878  446.703
 879  480.1674
 880  411.3056
 881  361.7684
 882  291.6176
 883  289.7468
 884  292.2387
 885  290.5615
 886  338.5657
 887  364.8168
 888  361.808
 889  452.0359
 890  405.2659
 891  342.7381
 892  243.6156
 893  289.8155
 894  365.2684
 895  393.6881
 896  353.7542
 897  291.0916
 898  264.6306
 899  291.1596
 900  250.6025
 901  215.1314
 902  268.2794
 903  316.4266
 904  340.6063
 905  387.4377
 906  386.8157
 907  337.4121
 908  252.1225
 909  235.7935
 910  253.4259
 911  250.2375
 912  337.3498
 913  341.6294
 914  299.5138
 915  289.9273
 916  379.2432
 917  494.3234
 918  435.9165
 919  447.7083
 920  354.3449
 921  291.0905
 922  285.7519
 923  281.4178
 924  277.3123
 925  231.1616
 926  311.8805
 927  318.7435
 928  327.5616
 929  254.2939
 930  299.1118
 931  313.5213
 932  181.1243
 933  141.6954
 934  188.6769
 935  430.3193
 936  544.0931
 937  502.2944
 938  353.3219
 939  298.2781
 940  266.4471
 941  315.3817
 942  311.1775
 943  248.0842
 944  250.1461
 945  229.8801
 946  324.4509
 947  282.2614
 948  236.1814
 949  272.4962
 950  343.292
 951  381.0211
 952  390.152
 953  397.1634
 954  447.7862
 955  410.8016
 956  351.3248
 957  281.1294
 958  247.0034
 959  322.4261
 960  334.1145
 961  381.836
 962  344.0978
 963  397.998
 964  413.3476
 965  496.6133
 966  589.8812
 967  538.4439
 968  417.0222
 969  353.7057
 970  368.2903
 971  351.235
 972  325.4469
 973  372.1894
 974  295.6721
 975  319.8087
 976  321.5791
 977  412.8963
 978  341.41
 979  357.9039
 980  336.4026
 981  337.9619
 982  322.8557
 983  372.2864
 984  436.0697
 985  410.4154
 986  410.9779
 987  422.7446
 988  453.6175
 989  442.2678
 990  451.2819
 991  435.9074
 992  417.6193
 993  328.0169
 994  361.6345
 995  397.8728
 996  500.2658
 997  451.3989
 998  447.5236
 999  358.1211
1000  412.745
1001  501.5171
1002  576.74
1003  526.7335
1004  495.1642
1005  485.9196
1006  422.5757
1007  322.7831
1008  298.761
1009  242.3703
1010  230.3275
1011  281.1376
1012  420.0891
1013  457.9255
1014  411.7491
1015  408.2789
1016  320.7079
1017  299.3005
1018  326.9622
1019  446.7977
1020  451.5683
1021  400.6026
1022  353.9023
1023  396.3548
