# Input file       =  1193074493.154612_cleaned.dat
# Candidate        =  PSR_0332+5434
# Telescope        =  AR
# Epoch_topo       =  58052.732779567268
# Epoch_bary       =  N/A
# T_sample         =  0.002
# Data Folded      =  7208960
# Data Avg         =  0.00741637188376971
# Data StdDev      =  1.00020956331974 
# Profile Bins     =  512
# Profile Avg      =  104.411662222999 
# Profile StdDev   =  118.684042404327 
# Reduced chi-sqr  =  1.385
# Prob(Noise)      <  1.69e-08   (~5.5 sigma)
# P_topo (ms)      =  714.490998067169  +/- 0.000137
# P'_topo (s/s)    =  -0                +/- 7.34e-11
# P''_topo (s/s^2) =  0                 +/- 3.3e-14
# P_bary (ms)      =  N/A
# P'_bary (s/s)    =  N/A
# P''_bary (s/s^2) =  N/A
# P_orb (s)        =  N/A
# asin(i)/c (s)    =  N/A
# eccentricity     =  N/A
# w (rad)          =  N/A
# T_peri           =  N/A
######################################################
   0  944.6808
   1  741.3932
   2  414.3819
   3  321.9576
   4  261.8552
   5  100.6064
   6  124.9991
   7  228.6335
   8  135.4623
   9  95.27067
  10  89.58742
  11  107.2896
  12  106.2614
  13  190.0424
  14  231.7968
  15  231.31
  16  262.5621
  17  132.5279
  18  113.7144
  19  -30.66251
  20  38.59944
  21  122.0673
  22  94.76466
  23  -16.75901
  24  71.03264
  25  28.68553
  26  -87.16506
  27  31.07561
  28  11.49235
  29  -6.613858
  30  80.29286
  31  231.0204
  32  237.518
  33  269.2789
  34  134.476
  35  49.93062
  36  163.294
  37  164.8677
  38  111.6254
  39  110.4315
  40  108.6715
  41  36.31379
  42  65.36732
  43  33.99005
  44  93.44241
  45  177.095
  46  188.0572
  47  43.4044
  48  -46.05806
  49  151.5089
  50  166.4856
  51  268.6222
  52  42.45239
  53  -34.00383
  54  82.13683
  55  115.6018
  56  87.15717
  57  4.063382
  58  -59.46836
  59  12.21496
  60  80.2756
  61  47.91946
  62  -12.04269
  63  14.10732
  64  61.56455
  65  9.677909
  66  -37.09288
  67  76.11111
  68  98.59267
  69  18.92174
  70  37.72788
  71  43.43583
  72  18.71513
  73  52.37096
  74  139.8209
  75  135.1703
  76  112.3416
  77  45.19157
  78  91.09805
  79  197.6279
  80  121.5025
  81  16.45287
  82  132.6667
  83  202.3401
  84  139.643
  85  22.12499
  86  156.4693
  87  195.3903
  88  13.62563
  89  72.76955
  90  134.3101
  91  180.6174
  92  215.1396
  93  9.5845
  94  45.62334
  95  96.96518
  96  211.633
  97  160.3692
  98  84.00332
  99  142.191
 100  102.9755
 101  164.6653
 102  78.40234
 103  48.91586
 104  138.5538
 105  212.477
 106  178.8794
 107  36.86535
 108  92.84362
 109  5.65591
 110  86.92102
 111  63.83992
 112  78.76264
 113  193.9798
 114  235.5634
 115  62.79709
 116  19.86277
 117  140.7704
 118  200.1336
 119  115.3694
 120  211.0396
 121  208.7346
 122  90.66615
 123  86.3336
 124  132.6121
 125  145.239
 126  60.87167
 127  34.35294
 128  -17.5675
 129  18.70159
 130  61.35927
 131  59.07553
 132  138.9949
 133  149.7853
 134  163.7914
 135  133.4939
 136  124.0333
 137  212.0322
 138  81.24314
 139  51.79589
 140  110.8608
 141  92.51568
 142  -3.651496
 143  65.07033
 144  178.4624
 145  162.5553
 146  106.0359
 147  74.25607
 148  58.54784
 149  131.5368
 150  191.9071
 151  101.101
 152  -30.31945
 153  -96.4013
 154  82.5839
 155  286.0904
 156  162.3147
 157  60.47034
 158  115.9931
 159  86.87106
 160  48.38879
 161  15.09229
 162  79.79877
 163  201.438
 164  101.6092
 165  -60.30011
 166  98.59695
 167  17.24695
 168  29.38132
 169  82.09947
 170  133.7566
 171  289.2585
 172  148.7113
 173  221.4474
 174  205.6626
 175  181.5534
 176  155.5915
 177  151.3121
 178  109.5716
 179  121.2618
 180  80.5453
 181  -2.713596
 182  112.7941
 183  45.25009
 184  56.5608
 185  33.57526
 186  38.92846
 187  48.94896
 188  205.0824
 189  180.0703
 190  -13.89437
 191  21.3999
 192  -72.58357
 193  -8.311738
 194  151.9337
 195  177.0452
 196  155.705
 197  147.6625
 198  104.5288
 199  2.739645
 200  27.28465
 201  40.37923
 202  13.19071
 203  71.29729
 204  91.73953
 205  79.626
 206  51.74983
 207  182.0414
 208  184.8297
 209  -9.214746
 210  119.6053
 211  155.1338
 212  139.914
 213  177.4071
 214  72.14502
 215  29.10258
 216  103.43
 217  118.5966
 218  82.69457
 219  73.80719
 220  182.7766
 221  89.69666
 222  129.2348
 223  172.731
 224  80.75519
 225  181.2406
 226  155.2501
 227  87.79799
 228  156.9283
 229  136.0209
 230  275.6213
 231  192.0604
 232  139.7729
 233  67.11873
 234  57.91852
 235  66.43116
 236  32.11482
 237  -50.64092
 238  57.90522
 239  255.4667
 240  228.1497
 241  40.31891
 242  65.33369
 243  -9.41326
 244  -9.623197
 245  82.89789
 246  98.74505
 247  -3.022521
 248  -90.42815
 249  36.75534
 250  84.74312
 251  80.04398
 252  173.9873
 253  -11.86501
 254  -1.535014
 255  79.23748
 256  96.32372
 257  86.95822
 258  81.45328
 259  152.7045
 260  105.1269
 261  146.057
 262  76.74954
 263  201.2824
 264  177.5924
 265  202.3232
 266  180.3453
 267  31.13111
 268  241.0755
 269  243.467
 270  182.97
 271  150.1355
 272  187.6928
 273  119.2827
 274  100.7295
 275  129.4557
 276  74.49881
 277  180.8657
 278  297.2018
 279  205.4179
 280  120.4617
 281  6.993944
 282  84.76262
 283  109.8091
 284  77.07553
 285  296.0977
 286  238.4371
 287  148.9206
 288  106.3463
 289  123.4254
 290  111.9658
 291  77.15628
 292  112.2129
 293  -20.46113
 294  147.2056
 295  228.9455
 296  111.9034
 297  91.86453
 298  68.57493
 299  36.81449
 300  33.73753
 301  66.83092
 302  255.5775
 303  69.28776
 304  128.0147
 305  153.1768
 306  7.240926
 307  27.36775
 308  111.0455
 309  115.5754
 310  147.7785
 311  57.71031
 312  87.23518
 313  178.1402
 314  102.4459
 315  38.93413
 316  107.5441
 317  90.6664
 318  83.26441
 319  67.58913
 320  50.46989
 321  149.8928
 322  126.3346
 323  68.53062
 324  34.30752
 325  93.91016
 326  138.6378
 327  109.7554
 328  121.938
 329  148.3736
 330  192.6988
 331  155.799
 332  129.7533
 333  -36.85073
 334  -24.68768
 335  80.49258
 336  -19.76636
 337  18.80853
 338  31.71878
 339  -74.50348
 340  -44.70145
 341  47.73446
 342  48.20592
 343  71.79033
 344  57.25171
 345  159.4694
 346  83.23009
 347  -16.17579
 348  -21.85468
 349  -74.80011
 350  41.48806
 351  178.9195
 352  228.5317
 353  135.1318
 354  64.14613
 355  247.0594
 356  136.6266
 357  66.41576
 358  62.52365
 359  95.11232
 360  240.1311
 361  191.1744
 362  67.61712
 363  85.75679
 364  112.304
 365  126.2857
 366  53.18908
 367  73.73705
 368  124.2035
 369  185.0993
 370  75.99901
 371  -26.86791
 372  -76.83639
 373  116.7853
 374  144.8076
 375  166.5334
 376  132.8921
 377  73.29245
 378  76.58685
 379  64.69861
 380  89.8539
 381  69.6507
 382  25.33935
 383  -3.304301
 384  67.44145
 385  136.6793
 386  110.3654
 387  126.2067
 388  114.3279
 389  -67.11626
 390  -142.5023
 391  -53.97516
 392  127.9339
 393  216.8348
 394  181.1803
 395  -8.23317
 396  61.49995
 397  44.61869
 398  45.46969
 399  202.5377
 400  228.8573
 401  146.6629
 402  36.76092
 403  81.81297
 404  128.7081
 405  54.02111
 406  116.1736
 407  100.9031
 408  119.1746
 409  95.72333
 410  130.878
 411  236.7235
 412  200.2633
 413  173.4445
 414  51.17873
 415  59.1339
 416  -62.67043
 417  12.40683
 418  -11.58632
 419  -63.49039
 420  96.21277
 421  176.1578
 422  115.397
 423  31.04704
 424  98.74032
 425  122.2339
 426  134.5081
 427  229.4521
 428  247.4736
 429  119.3559
 430  49.73871
 431  52.70989
 432  103.5721
 433  54.21201
 434  62.37793
 435  158.9176
 436  204.897
 437  118.9679
 438  135.3522
 439  201.0365
 440  227.8205
 441  157.326
 442  174.4005
 443  169.0657
 444  144.0358
 445  95.48582
 446  94.88383
 447  50.53982
 448  -58.94281
 449  18.01653
 450  100.4945
 451  93.26162
 452  87.3281
 453  220.4442
 454  86.21607
 455  -75.02902
 456  31.49511
 457  45.27329
 458  126.5233
 459  83.65553
 460  120.6404
 461  123.1142
 462  98.29514
 463  103.262
 464  57.55844
 465  70.17941
 466  -22.51831
 467  27.65541
 468  244.636
 469  163.029
 470  134.7829
 471  40.46731
 472  -25.50928
 473  -6.168245
 474  8.252813
 475  194.579
 476  168.5035
 477  -20.05632
 478  -51.18201
 479  135.7643
 480  263.1858
 481  30.98197
 482  32.87706
 483  65.33422
 484  15.70397
 485  59.39174
 486  130.3
 487  140.8191
 488  -66.0248
 489  -36.03295
 490  -98.05101
 491  1.302668
 492  183.002
 493  257.1867
 494  281.0028
 495  134.9209
 496  101.5039
 497  72.41493
 498  141.6793
 499  -3.635416
 500  -36.73945
 501  57.8193
 502  70.7721
 503  -73.29126
 504  25.02049
 505  155.7544
 506  196.767
 507  218.3945
 508  242.6429
 509  420.5461
 510  641.6984
 511  754.8214
