# Input file       =  1193620941.150686_cleaned.dat
# Candidate        =  PSR_0332+5434
# Telescope        =  AR
# Epoch_topo       =  58059.057409151457
# Epoch_bary       =  N/A
# T_sample         =  0.002
# Data Folded      =  7340032
# Data Avg         =  0.017527448373129
# Data StdDev      =  1.00001482236102 
# Profile Bins     =  512
# Profile Avg      =  251.271256227998 
# Profile StdDev   =  119.734811103057 
# Reduced chi-sqr  =  1.190
# Prob(Noise)      <  0.00196   (~2.9 sigma)
# P_topo (ms)      =  714.497015909201  +/- 0.000177
# P'_topo (s/s)    =  -0                +/- 9.35e-11
# P''_topo (s/s^2) =  0                 +/- 4.13e-14
# P_bary (ms)      =  N/A
# P'_bary (s/s)    =  N/A
# P''_bary (s/s^2) =  N/A
# P_orb (s)        =  N/A
# asin(i)/c (s)    =  N/A
# eccentricity     =  N/A
# w (rad)          =  N/A
# T_peri           =  N/A
######################################################
   0  246.9293
   1  248.3266
   2  369.0793
   3  354.9354
   4  199.4874
   5  264.7839
   6  141.9522
   7  158.8492
   8  173.6201
   9  210.0528
  10  79.37086
  11  89.42155
  12  151.9426
  13  289.4639
  14  244.8585
  15  122.9126
  16  306.679
  17  248.4319
  18  97.32572
  19  121.6168
  20  232.739
  21  226.4323
  22  170.2688
  23  378.5403
  24  358.2025
  25  269.7085
  26  214.3944
  27  250.8592
  28  130.8829
  29  245.6979
  30  267.7161
  31  237.0563
  32  206.6702
  33  276.0588
  34  237.6226
  35  287.039
  36  314.8029
  37  244.1269
  38  221.6171
  39  263.9611
  40  329.0254
  41  360.7362
  42  348.1801
  43  306.7056
  44  230.5245
  45  295.1502
  46  217.2773
  47  306.5652
  48  304.08
  49  272.546
  50  218.9403
  51  210.7371
  52  194.2529
  53  251.3936
  54  257.9897
  55  241.6083
  56  211.5496
  57  282.4025
  58  219.5988
  59  185.4144
  60  222.0116
  61  143.5464
  62  136.8751
  63  202.3764
  64  326.5733
  65  181.0606
  66  140.6543
  67  302.25
  68  286.5338
  69  262.3615
  70  264.0162
  71  221.2389
  72  92.09098
  73  360.6201
  74  310.2639
  75  195.9079
  76  238.3198
  77  234.3769
  78  113.8257
  79  198.1551
  80  435.6716
  81  223.4531
  82  293.9172
  83  352.0466
  84  288.2558
  85  173.2245
  86  305.9023
  87  276.4698
  88  135.5794
  89  99.48392
  90  249.7668
  91  216.1814
  92  199.9196
  93  179.0139
  94  240.7328
  95  315.8519
  96  310.7134
  97  265.4637
  98  290.5638
  99  272.0533
 100  331.3385
 101  388.7498
 102  342.7177
 103  197.9756
 104  281.9939
 105  353.8687
 106  314.8981
 107  304.113
 108  166.1947
 109  294.5144
 110  267.8126
 111  306.7073
 112  232.8441
 113  135.0666
 114  199.0481
 115  224.5636
 116  105.4142
 117  190.7771
 118  236.4702
 119  264.2902
 120  300.5417
 121  310.1545
 122  255.7858
 123  266.1561
 124  245.4993
 125  233.476
 126  213.2405
 127  110.2628
 128  173.3448
 129  196.4079
 130  278.6845
 131  276.7133
 132  276.4256
 133  102.2894
 134  268.0402
 135  358.6503
 136  431.3396
 137  429.0416
 138  388.0327
 139  251.3295
 140  240.6598
 141  310.3034
 142  251.6935
 143  159.3129
 144  205.8779
 145  211.8154
 146  129.5072
 147  210.5989
 148  210.8323
 149  214.9155
 150  197.9812
 151  129.9726
 152  296.2494
 153  342.7016
 154  321.301
 155  201.2138
 156  144.1604
 157  137.0466
 158  190.7927
 159  260.6417
 160  354.227
 161  149.0617
 162  100.6448
 163  227.0854
 164  312.952
 165  315.8035
 166  184.1965
 167  263.4835
 168  362.2029
 169  273.5468
 170  414.1005
 171  511.3061
 172  532.3152
 173  309.9563
 174  210.6588
 175  202.2319
 176  260.4732
 177  396.9074
 178  544.0187
 179  708.1091
 180  752.1875
 181  826.8894
 182  792.8519
 183  548.7473
 184  433.4488
 185  184.8021
 186  102.2898
 187  117.9798
 188  218.2714
 189  218.6976
 190  224.4548
 191  191.6598
 192  262.3112
 193  245.03
 194  355.8512
 195  325.9805
 196  223.1438
 197  292.763
 198  201.8367
 199  81.55187
 200  311.2201
 201  378.1891
 202  295.5186
 203  196.6205
 204  209.0224
 205  94.92293
 206  69.50239
 207  214.9149
 208  244.9754
 209  166.7779
 210  234.4251
 211  303.4806
 212  234.5269
 213  325.1135
 214  233.842
 215  290.4496
 216  167.8984
 217  153.0276
 218  283.3132
 219  340.1029
 220  401.0138
 221  354.7592
 222  236.9212
 223  238.8607
 224  226.3417
 225  276.5283
 226  233.1074
 227  243.4236
 228  370.669
 229  297.5741
 230  231.7511
 231  194.747
 232  293.3865
 233  298.3632
 234  266.7002
 235  280.7232
 236  290.4695
 237  351.0625
 238  364.3166
 239  209.6872
 240  156.328
 241  329.3663
 242  248.3628
 243  327.1072
 244  340.3573
 245  222.7687
 246  287.8374
 247  250.4906
 248  171.5912
 249  330.9699
 250  277.0267
 251  359.0748
 252  418.3913
 253  226.2099
 254  137.3047
 255  107.3362
 256  147.6876
 257  195.7842
 258  289.2561
 259  324.3304
 260  249.7885
 261  232.7628
 262  194.785
 263  203.7864
 264  192.7292
 265  168.4379
 266  128.9255
 267  216.7576
 268  293.7869
 269  365.0668
 270  444.7866
 271  353.685
 272  238.5843
 273  143.8241
 274  266.5304
 275  318.1939
 276  318.5269
 277  306.342
 278  278.8364
 279  228.4724
 280  242.0097
 281  258.9246
 282  398.7699
 283  473.4586
 284  347.2561
 285  257.5729
 286  347.2462
 287  353.4837
 288  247.4907
 289  155.4204
 290  221.3295
 291  320.6595
 292  311.1699
 293  194.5175
 294  349.8543
 295  199.8537
 296  131.4615
 297  279.5493
 298  213.4789
 299  175.2426
 300  159.2239
 301  183.5764
 302  212.1515
 303  270.818
 304  232.5844
 305  153.599
 306  217.1308
 307  288.0988
 308  289.9913
 309  130.42
 310  199.8218
 311  328.8729
 312  411.2926
 313  284.9143
 314  255.7587
 315  320.3571
 316  340.764
 317  256.3415
 318  202.4867
 319  265.963
 320  291.5837
 321  160.1618
 322  206.1004
 323  262.7331
 324  295.3515
 325  291.916
 326  236.2362
 327  200.6533
 328  189.8811
 329  124.1572
 330  184.7603
 331  286.0564
 332  265.4392
 333  245.1796
 334  181.1181
 335  153.1726
 336  118.3627
 337  204.6466
 338  310.1608
 339  225.1076
 340  111.6976
 341  104.0488
 342  24.71876
 343  124.9419
 344  245.3386
 345  295.6202
 346  322.9884
 347  358.4215
 348  444.21
 349  391.8956
 350  308.2764
 351  260.3228
 352  265.4627
 353  308.2375
 354  232.7578
 355  212.0004
 356  299.341
 357  137.0986
 358  192.877
 359  209.1155
 360  275.6174
 361  274.7284
 362  231.1378
 363  276.5622
 364  257.5081
 365  320.4716
 366  258.5566
 367  136.57
 368  297.7552
 369  253.997
 370  204.7242
 371  293.7191
 372  262.3487
 373  243.3341
 374  216.695
 375  214.7528
 376  261.9545
 377  146.4064
 378  291.8136
 379  426.9878
 380  295.04
 381  215.7428
 382  279.8569
 383  239.8536
 384  182.2821
 385  204.2235
 386  101.6971
 387  176.1459
 388  232.8664
 389  224.6412
 390  209.2373
 391  224.2669
 392  255.7506
 393  193.2621
 394  241.0115
 395  239.5546
 396  279.6475
 397  386.4152
 398  419.6881
 399  350.7037
 400  252.1615
 401  328.0352
 402  321.0137
 403  239.9318
 404  306.6921
 405  293.4905
 406  342.9257
 407  112.1384
 408  193.3643
 409  201.7962
 410  157.0312
 411  204.7275
 412  331.9467
 413  338.9511
 414  222.575
 415  270.2315
 416  346.8055
 417  189.6243
 418  170.3422
 419  212.1977
 420  272.8242
 421  311.9395
 422  434.4407
 423  358.6782
 424  356.2699
 425  434.9894
 426  293.0591
 427  119.6999
 428  263.4054
 429  296.6751
 430  329.8506
 431  309.7095
 432  143.8898
 433  197.3091
 434  207.4436
 435  246.6599
 436  313.7381
 437  284.8326
 438  359.4269
 439  349.6709
 440  269.2856
 441  219.1077
 442  338.1997
 443  234.2392
 444  206.2739
 445  257.9863
 446  228.7123
 447  269.4865
 448  255.502
 449  233.528
 450  145.0425
 451  221.0805
 452  285.8873
 453  180.7318
 454  44.3404
 455  17.58852
 456  84.11105
 457  116.9502
 458  223.1603
 459  171.3448
 460  230.7447
 461  225.9519
 462  259.3228
 463  279.8065
 464  216.5144
 465  210.2468
 466  283.8246
 467  279.4896
 468  125.4663
 469  140.4595
 470  205.312
 471  205.8924
 472  266.2043
 473  325.1534
 474  228.1361
 475  182.5097
 476  114.9017
 477  152.6103
 478  100.6357
 479  96.52982
 480  119.1821
 481  80.57278
 482  93.42564
 483  116.1605
 484  145.8444
 485  243.6207
 486  274.6042
 487  274.925
 488  168.4171
 489  175.7058
 490  262.9665
 491  176.1485
 492  129.1526
 493  112.9284
 494  104.4599
 495  266.6338
 496  272.6086
 497  101.0292
 498  193.9683
 499  241.5733
 500  181.0751
 501  169.7595
 502  343.4675
 503  338.1979
 504  367.2924
 505  417.4405
 506  351.545
 507  293.2546
 508  340.9333
 509  220.6953
 510  201.3317
 511  193.3455
