# Input file       =  1193104069.1423_cleaned.dat
# Candidate        =  PSR_0332+5434
# Telescope        =  AR
# Epoch_topo       =  58053.075094239583
# Epoch_bary       =  N/A
# T_sample         =  0.002
# Data Folded      =  7340032
# Data Avg         =  0.0148023929110995
# Data StdDev      =  1.00011183593727 
# Profile Bins     =  512
# Profile Avg      =  212.22863999386  
# Profile StdDev   =  119.746426833111 
# Reduced chi-sqr  =  1.261
# Prob(Noise)      <  5.44e-05   (~3.9 sigma)
# P_topo (ms)      =  714.491643387467  +/- 0.00015
# P'_topo (s/s)    =  -0                +/- 7.91e-11
# P''_topo (s/s^2) =  0                 +/- 3.49e-14
# P_bary (ms)      =  N/A
# P'_bary (s/s)    =  N/A
# P''_bary (s/s^2) =  N/A
# P_orb (s)        =  N/A
# asin(i)/c (s)    =  N/A
# eccentricity     =  N/A
# w (rad)          =  N/A
# T_peri           =  N/A
######################################################
   0  438.8168
   1  386.0532
   2  98.68088
   3  126.7649
   4  255.8369
   5  225.2836
   6  331.1636
   7  226.2552
   8  210.268
   9  286.6149
  10  194.9877
  11  151.3753
  12  255.1104
  13  168.7994
  14  104.2784
  15  93.46877
  16  217.2861
  17  227.7389
  18  119.7213
  19  273.2333
  20  241.9153
  21  263.6121
  22  203.794
  23  219.521
  24  330.0781
  25  434.5618
  26  270.2809
  27  162.6386
  28  265.072
  29  209.3903
  30  268.8175
  31  261.2008
  32  304.8591
  33  131.6529
  34  98.2565
  35  135.0245
  36  224.1861
  37  165.2863
  38  276.3512
  39  271.918
  40  73.59608
  41  243.7455
  42  202.7566
  43  108.2076
  44  185.5735
  45  105.036
  46  132.6089
  47  164.3092
  48  206.0154
  49  235.2357
  50  340.8782
  51  291.5922
  52  233.2367
  53  116.2082
  54  149.3717
  55  180.1034
  56  -3.801755
  57  27.7058
  58  121.7983
  59  202.2108
  60  225.5072
  61  157.9901
  62  144.948
  63  177.1067
  64  228.0289
  65  215.1592
  66  153.0514
  67  147.6983
  68  245.8409
  69  287.0367
  70  183.6451
  71  34.56953
  72  -34.80865
  73  192.429
  74  294.1754
  75  263.3972
  76  242.8718
  77  138.4259
  78  212.2909
  79  279.8539
  80  288.293
  81  169.9206
  82  277.0981
  83  300.0645
  84  203.1403
  85  197.5351
  86  168.1413
  87  219.4305
  88  309.9057
  89  245.1915
  90  47.51025
  91  106.2202
  92  42.29485
  93  131.9752
  94  176.2702
  95  228.2438
  96  260.7101
  97  207.8529
  98  307.9599
  99  184.2871
 100  257.0244
 101  318.1006
 102  320.4634
 103  219.8401
 104  238.1433
 105  142.4112
 106  100.0306
 107  75.6888
 108  162.065
 109  178.1196
 110  222.3151
 111  166.2674
 112  174.8582
 113  190.3697
 114  30.10468
 115  36.09381
 116  164.3084
 117  191.4601
 118  157.8463
 119  273.7487
 120  201.3378
 121  100.7485
 122  177.1165
 123  278.705
 124  307.7946
 125  160.3278
 126  164.5221
 127  168.8354
 128  41.45557
 129  149.5419
 130  123.4397
 131  103.354
 132  247.9524
 133  279.3156
 134  112.1679
 135  212.0664
 136  187.8551
 137  190.8094
 138  214.0141
 139  266.814
 140  277.5464
 141  93.74307
 142  132.0731
 143  248.9148
 144  286.0169
 145  232.252
 146  236.1308
 147  93.4982
 148  163.7378
 149  301.8266
 150  242.16
 151  227.6763
 152  170.2766
 153  126.6678
 154  212.9315
 155  207.1166
 156  236.0833
 157  222.1838
 158  198.0995
 159  57.23202
 160  39.15605
 161  177.2005
 162  192.0056
 163  195.3751
 164  70.23453
 165  80.74715
 166  182.6918
 167  216.5816
 168  150.1847
 169  97.44972
 170  100.8359
 171  179.9498
 172  190.4823
 173  172.2052
 174  213.7124
 175  135.2268
 176  79.46983
 177  -17.8126
 178  75.11722
 179  39.14533
 180  55.72033
 181  130.6251
 182  209.6022
 183  337.0669
 184  192.2195
 185  131.906
 186  94.58715
 187  7.949328
 188  -11.89741
 189  -7.866961
 190  163.9767
 191  126.8197
 192  199.8233
 193  92.59049
 194  124.3069
 195  273.8085
 196  347.1499
 197  300.1761
 198  263.5831
 199  234.4608
 200  252.2976
 201  423.4914
 202  387.4742
 203  228.6198
 204  123.1935
 205  153.319
 206  164.0363
 207  104.1271
 208  232.7636
 209  280.048
 210  157.2995
 211  141.7945
 212  224.3624
 213  390.233
 214  243.8154
 215  234.7472
 216  215.1359
 217  271.7537
 218  323.0626
 219  275.8658
 220  262.8799
 221  196.7921
 222  184.2635
 223  317.2076
 224  248.789
 225  150.1318
 226  181.2008
 227  188.2581
 228  236.2839
 229  320.0897
 230  323.9319
 231  261.4427
 232  346.2922
 233  352.8003
 234  214.1148
 235  228.8484
 236  150.6111
 237  120.3707
 238  76.51225
 239  212.3853
 240  337.6108
 241  185.1116
 242  32.4691
 243  17.78464
 244  163.1492
 245  166.8934
 246  254.5027
 247  315.6004
 248  283.9449
 249  194.4088
 250  55.08809
 251  92.09142
 252  185.1
 253  137.227
 254  109.2325
 255  128.1949
 256  220.8425
 257  241.9871
 258  155.2076
 259  238.8707
 260  215.6969
 261  232.6032
 262  187.4583
 263  298.9467
 264  218.3953
 265  249.906
 266  179.7604
 267  208.8984
 268  326.563
 269  276.9445
 270  385.9008
 271  286.1236
 272  181.3111
 273  183.2175
 274  190.2913
 275  221.365
 276  202.8853
 277  333.9395
 278  234.3246
 279  264.9394
 280  285.4407
 281  193.6933
 282  147.541
 283  252.0923
 284  233.9979
 285  58.5112
 286  143.3859
 287  269.5901
 288  280.7101
 289  385.1067
 290  435.8829
 291  279.7548
 292  251.5008
 293  111.954
 294  175.9926
 295  306.3811
 296  316.9147
 297  223.8525
 298  159.8578
 299  149.82
 300  89.02291
 301  155.5089
 302  251.8614
 303  205.7657
 304  134.5965
 305  64.20595
 306  141.3867
 307  147.9506
 308  127.0422
 309  253.3182
 310  238.2731
 311  193.7898
 312  237.7906
 313  417.2545
 314  358.8273
 315  164.1036
 316  214.6051
 317  249.6304
 318  226.7392
 319  104.1505
 320  166.0215
 321  211.8263
 322  120.5584
 323  112.0511
 324  211.3911
 325  271.5694
 326  314.1951
 327  187.9666
 328  243.7227
 329  204.1343
 330  206.0913
 331  220.0551
 332  284.412
 333  273.0483
 334  122.5789
 335  106.5792
 336  166.4855
 337  232.3379
 338  204.4769
 339  236.2912
 340  286.1072
 341  219.0883
 342  69.36908
 343  141.2064
 344  210.1935
 345  214.2641
 346  336.612
 347  102.8074
 348  54.00399
 349  216.2903
 350  209.8875
 351  157.0867
 352  215.0744
 353  192.1559
 354  169.3824
 355  244.1986
 356  285.209
 357  155.7025
 358  158.1634
 359  256.2028
 360  123.157
 361  95.73494
 362  183.5803
 363  306.7662
 364  235.1577
 365  75.99805
 366  114.9577
 367  130.9476
 368  203.5565
 369  181.2793
 370  161.929
 371  239.7578
 372  335.176
 373  263.0734
 374  290.1381
 375  243.5275
 376  237.1042
 377  281.5453
 378  214.2665
 379  151.8073
 380  156.4726
 381  100.4764
 382  126.1573
 383  178.2899
 384  264.8655
 385  185.174
 386  164.5778
 387  227.661
 388  274.5411
 389  157.8513
 390  176.4529
 391  144.9352
 392  143.6875
 393  143.6853
 394  290.7667
 395  267.4461
 396  135.0815
 397  172.6454
 398  256.551
 399  301.3383
 400  224.3886
 401  220.0932
 402  276.1553
 403  253.4602
 404  134.0484
 405  145.8201
 406  191.4068
 407  280.2137
 408  194.5429
 409  235.6708
 410  136.338
 411  210.9762
 412  167.0833
 413  214.2468
 414  136.7948
 415  107.1776
 416  257.0996
 417  215.6055
 418  256.3748
 419  291.1619
 420  254.4233
 421  196.5776
 422  316.065
 423  309.9212
 424  143.4425
 425  175.9668
 426  255.8287
 427  280.7095
 428  237.0576
 429  279.0176
 430  267.5925
 431  222.4062
 432  198.9689
 433  223.2973
 434  254.5719
 435  229.8545
 436  347.7065
 437  306.9367
 438  184.8137
 439  183.166
 440  289.198
 441  216.3073
 442  242.1208
 443  321.7596
 444  195.4131
 445  132.275
 446  232.6239
 447  276.2928
 448  189.7471
 449  255.7005
 450  270.5841
 451  231.7998
 452  222.7945
 453  337.1894
 454  290.4379
 455  216.0921
 456  285.1949
 457  263.0715
 458  215.8638
 459  148.0245
 460  198.5386
 461  287.1089
 462  321.4462
 463  307.3174
 464  154.7803
 465  238.2568
 466  83.40981
 467  186.4849
 468  152.0067
 469  98.27782
 470  159.4766
 471  294.4765
 472  305.1682
 473  307.7701
 474  292.1005
 475  354.5897
 476  279.9387
 477  322.3295
 478  529.0259
 479  708.519
 480  746.7379
 481  797.8481
 482  778.9802
 483  719.8306
 484  334.1143
 485  277.8552
 486  247.679
 487  284.682
 488  239.1097
 489  76.49506
 490  99.3176
 491  335.6262
 492  303.254
 493  338.4612
 494  295.0498
 495  171.9922
 496  258.8627
 497  272.0254
 498  384.5868
 499  258.6616
 500  238.9296
 501  251.09
 502  236.5092
 503  120.8106
 504  99.23874
 505  197.8043
 506  223.3786
 507  221.565
 508  121.3496
 509  35.07344
 510  180.3489
 511  305.1749
