# Input file       =  1193606032.151142-PSRB0329-2ms-sampling-dd.dat
# Candidate        =  PSR_0332+5434
# Telescope        =  AR
# Epoch_topo       =  58058.884851286362
# Epoch_bary       =  N/A
# T_sample         =  0.002
# Data Folded      =  7340032
# Data Avg         =  -4.75597726773867e-10
# Data StdDev      =  3.53914733097844 
# Profile Bins     =  512
# Profile Avg      =  0.0997159188887209
# Profile StdDev   =  423.752856122777 
# Reduced chi-sqr  =  0.760
# Prob(Noise)      <  1   (~0.0 sigma)
# P_topo (ms)      =  714.496524180198  +/- 0.000209
# P'_topo (s/s)    =  -0                +/- 1.1e-10
# P''_topo (s/s^2) =  0                 +/- 4.86e-14
# P_bary (ms)      =  N/A
# P'_bary (s/s)    =  N/A
# P''_bary (s/s^2) =  N/A
# P_orb (s)        =  N/A
# asin(i)/c (s)    =  N/A
# eccentricity     =  N/A
# w (rad)          =  N/A
# T_peri           =  N/A
######################################################
   0  -588.7106
   1  -271.8634
   2  52.72987
   3  16.36715
   4  -338.3455
   5  -362.6089
   6  -169.1997
   7  -233.1155
   8  -277.5256
   9  -189.2549
  10  -114.1143
  11  -236.7595
  12  -115.8028
  13  18.86761
  14  -238.4483
  15  -241.6513
  16  -385.0648
  17  -559.1053
  18  -370.0985
  19  -331.5587
  20  -158.362
  21  -115.1844
  22  136.8222
  23  13.80367
  24  -106.0686
  25  -599.7029
  26  -512.9125
  27  -497.0878
  28  -377.1859
  29  -197.2676
  30  126.2432
  31  136.8987
  32  -265.5603
  33  -26.77079
  34  -223.1427
  35  -206.4669
  36  -303.7886
  37  -260.1039
  38  -377.8472
  39  -100.9382
  40  323.9343
  41  215.7595
  42  262.1556
  43  -125.2322
  44  -324.6518
  45  -154.8165
  46  -111.5828
  47  67.0741
  48  436.5756
  49  -1.433723
  50  -318.8238
  51  -71.13377
  52  154.5763
  53  -66.94073
  54  137.9272
  55  492.2224
  56  349.5796
  57  -135.7665
  58  -184.8225
  59  -36.64762
  60  -59.25765
  61  -143.4893
  62  -109.0163
  63  284.7269
  64  293.5972
  65  84.65723
  66  5.135201
  67  -66.56316
  68  -152.7896
  69  -229.5883
  70  77.45826
  71  -102.1478
  72  -76.3186
  73  26.35887
  74  277.8349
  75  -143.3173
  76  -196.4985
  77  -91.71339
  78  -134.3094
  79  -32.37139
  80  69.16367
  81  14.31506
  82  135.0922
  83  248.9436
  84  24.15135
  85  216.7702
  86  155.7106
  87  267.4292
  88  251.688
  89  -181.9213
  90  137.8795
  91  302.9048
  92  528.5883
  93  112.8496
  94  194.0425
  95  -115.5903
  96  -55.05905
  97  46.46151
  98  -331.2626
  99  -151.2563
 100  -203.1044
 101  221.4653
 102  69.34557
 103  86.46354
 104  469.7783
 105  241.1706
 106  71.70573
 107  143.2581
 108  -38.57588
 109  -165.8699
 110  -39.80907
 111  208.985
 112  76.29893
 113  -374.4471
 114  -239.5675
 115  33.09204
 116  -115.3911
 117  -237.6664
 118  -368.9299
 119  -407.1104
 120  -230.7011
 121  -98.01508
 122  -244.3516
 123  -6.173122
 124  -18.35846
 125  -58.71676
 126  -154.5148
 127  315.3339
 128  457.0131
 129  37.294
 130  156.4052
 131  108.623
 132  221.9301
 133  -133.0066
 134  -391.5124
 135  157.9701
 136  108.3204
 137  37.12041
 138  172.4999
 139  -63.52259
 140  55.13784
 141  -89.20573
 142  94.0177
 143  -150.0998
 144  182.1555
 145  324.1041
 146  -104.4988
 147  73.07314
 148  -6.799406
 149  10.01195
 150  65.23418
 151  84.48172
 152  259.0511
 153  389.5541
 154  446.8142
 155  350.0689
 156  70.38717
 157  80.33347
 158  586.9717
 159  596.2347
 160  202.0604
 161  -164.3757
 162  132.5515
 163  129.4453
 164  505.9715
 165  596.6668
 166  453.2561
 167  17.66121
 168  150.7457
 169  255.6232
 170  290.2381
 171  252.9337
 172  180.3593
 173  318.7968
 174  37.02499
 175  106.0962
 176  167.2606
 177  111.5912
 178  133.0784
 179  44.0424
 180  31.6167
 181  -51.91923
 182  -84.66132
 183  -124.8599
 184  -89.66954
 185  -458.2247
 186  -227.4545
 187  58.40226
 188  284.7616
 189  185.4563
 190  504.2536
 191  215.2414
 192  11.31614
 193  129.1151
 194  -13.13462
 195  -76.66552
 196  100.1446
 197  293.9694
 198  426.3896
 199  390.1941
 200  148.6065
 201  78.71156
 202  3.996035
 203  -286.2056
 204  -516.8237
 205  -186.429
 206  201.7884
 207  -4.252575
 208  -406.9611
 209  -514.9884
 210  -279.5045
 211  69.9047
 212  -15.63055
 213  120.4515
 214  35.00642
 215  27.76301
 216  -116.6792
 217  -74.7397
 218  -2.455065
 219  115.4967
 220  290.5071
 221  460.4802
 222  379.6399
 223  177.6646
 224  215.2054
 225  133.3197
 226  -141.5746
 227  -88.22665
 228  -38.72232
 229  -133.6727
 230  254.4589
 231  216.8547
 232  42.63914
 233  135.6178
 234  218.3399
 235  174.2316
 236  217.3226
 237  213.4955
 238  46.92034
 239  3.490666
 240  149.808
 241  -46.99273
 242  -358.6574
 243  92.28661
 244  108.4113
 245  -304.1195
 246  -214.7934
 247  -459.3946
 248  -401.9848
 249  -87.67292
 250  -255.1839
 251  52.09147
 252  155.6453
 253  -65.23032
 254  -331.8353
 255  -171.2031
 256  125.9074
 257  47.13682
 258  -4.33908
 259  -165.1085
 260  -321.3264
 261  -99.4366
 262  -67.78907
 263  74.9158
 264  30.48281
 265  235.1521
 266  94.96101
 267  138.6916
 268  104.2447
 269  11.19324
 270  -507.5628
 271  -390.2353
 272  -16.12229
 273  198.8373
 274  366.9859
 275  379.7008
 276  457.791
 277  45.96566
 278  48.06249
 279  -268.1682
 280  -147.0519
 281  -176.7637
 282  -51.03857
 283  169.07
 284  -184.3734
 285  107.9449
 286  -131.4669
 287  -161.7725
 288  -130.7501
 289  -48.02983
 290  103.5138
 291  62.81962
 292  47.62188
 293  53.45028
 294  -30.76385
 295  113.6599
 296  287.1969
 297  58.32085
 298  121.7339
 299  228.4545
 300  233.8055
 301  129.1709
 302  -40.15913
 303  -258.4566
 304  161.2388
 305  268.0616
 306  266.3747
 307  191.1142
 308  210.3042
 309  390.3152
 310  306.2555
 311  203.5146
 312  355.8639
 313  301.2517
 314  345.0526
 315  445.0758
 316  343.5408
 317  425.221
 318  411.263
 319  341.3964
 320  -194.6435
 321  -105.0268
 322  24.8375
 323  251.6
 324  77.12705
 325  -350.3105
 326  -166.122
 327  80.51135
 328  -181.971
 329  -237.5154
 330  -181.7682
 331  -54.30415
 332  178.4742
 333  -163.5533
 334  -14.74279
 335  -190.5461
 336  59.25895
 337  203.6013
 338  52.1138
 339  166.8709
 340  273.3406
 341  214.2308
 342  91.52218
 343  65.35508
 344  4.736383
 345  -208.3967
 346  172.0314
 347  215.1448
 348  -83.8559
 349  238.1161
 350  272.1024
 351  -158.9801
 352  -225.0742
 353  -89.33937
 354  156.1197
 355  54.61971
 356  -41.33726
 357  -2.451873
 358  -130.6057
 359  54.85878
 360  98.79056
 361  -40.04278
 362  -64.97973
 363  -68.76763
 364  105.2442
 365  67.22585
 366  -373.4681
 367  -249.7304
 368  114.4499
 369  -21.91061
 370  161.4098
 371  -128.9309
 372  -309.8457
 373  -310.7153
 374  144.7669
 375  218.4655
 376  100.7436
 377  -127.0908
 378  149.413
 379  142.3873
 380  257.2667
 381  157.591
 382  237.5633
 383  483.8953
 384  271.1555
 385  246.6972
 386  328.9005
 387  -48.74047
 388  -157.7758
 389  94.8913
 390  205.5598
 391  196.1517
 392  -47.46653
 393  137.88
 394  -103.505
 395  -384.4553
 396  -267.4738
 397  -125.0875
 398  207.554
 399  627.4604
 400  447.0219
 401  604.7542
 402  1194.27
 403  1193.906
 404  1324.679
 405  1299.118
 406  914.9012
 407  637.9107
 408  376.7791
 409  493.7644
 410  120.0866
 411  115.4282
 412  87.04649
 413  251.3029
 414  16.87667
 415  129.0782
 416  393.1764
 417  49.99789
 418  -36.27704
 419  -79.21252
 420  -171.2214
 421  -63.65549
 422  -530.706
 423  -300.6359
 424  -61.2567
 425  -177.5456
 426  -274.821
 427  -228.7113
 428  -409.8716
 429  -384.0718
 430  -322.4426
 431  -8.055591
 432  -259.9596
 433  -145.0463
 434  -57.58168
 435  -273.841
 436  -536.4285
 437  -151.9676
 438  66.27879
 439  38.81781
 440  -11.27068
 441  23.15582
 442  -156.2006
 443  71.17742
 444  -237.6934
 445  -224.8952
 446  -355.103
 447  -316.4819
 448  -85.97762
 449  521.3642
 450  390.9946
 451  -79.91906
 452  -83.45949
 453  -186.5921
 454  -230.2112
 455  -180.4003
 456  -63.62766
 457  -91.237
 458  -302.4176
 459  -330.9823
 460  -199.6555
 461  -463.6369
 462  -391.5141
 463  -374.4431
 464  -234.812
 465  -200.4739
 466  -346.5514
 467  -13.19551
 468  30.58074
 469  -354.1463
 470  -346.468
 471  -237.4137
 472  -462.4794
 473  -296.6666
 474  -420.0649
 475  -123.4524
 476  -435.5491
 477  -747.5236
 478  -456.0157
 479  -141.0161
 480  -42.90213
 481  -286.9766
 482  -191.2936
 483  -365.9399
 484  -202.8746
 485  -270.704
 486  -278.9411
 487  16.62096
 488  -96.58741
 489  -152.7732
 490  -18.85489
 491  69.47047
 492  -193.9626
 493  -367.0555
 494  -580.1187
 495  -265.1758
 496  -438.3986
 497  -222.9428
 498  -258.9754
 499  -200.8495
 500  -241.1609
 501  -321.513
 502  -345.0768
 503  -254.0224
 504  -53.52189
 505  -84.01889
 506  -31.61302
 507  166.3642
 508  -96.51005
 509  -90.05891
 510  -69.54363
 511  -234.7042
