# Input file       =  1193677587.15639_cleaned.dat
# Candidate        =  PSR_0332+5434
# Telescope        =  AR
# Epoch_topo       =  58059.713034217479
# Epoch_bary       =  N/A
# T_sample         =  0.002
# Data Folded      =  7143424
# Data Avg         =  0.0175602049233961
# Data StdDev      =  1.00028357811061 
# Profile Bins     =  512
# Profile Avg      =  245.03101841354  
# Profile StdDev   =  118.152080326883 
# Reduced chi-sqr  =  1.540
# Prob(Noise)      <  4.51e-14   (~7.5 sigma)
# P_topo (ms)      =  714.497279396639  +/- 0.000212
# P'_topo (s/s)    =  -0                +/- 1.15e-10
# P''_topo (s/s^2) =  0                 +/- 5.21e-14
# P_bary (ms)      =  N/A
# P'_bary (s/s)    =  N/A
# P''_bary (s/s^2) =  N/A
# P_orb (s)        =  N/A
# asin(i)/c (s)    =  N/A
# eccentricity     =  N/A
# w (rad)          =  N/A
# T_peri           =  N/A
######################################################
   0  201.4534
   1  106.8198
   2  89.35513
   3  256.8322
   4  327.1718
   5  200.2352
   6  195.4531
   7  166.4568
   8  192.9404
   9  253.9762
  10  405.4199
  11  275.9893
  12  245.3744
  13  220.5386
  14  260.082
  15  165.3188
  16  105.2921
  17  150.6139
  18  178.7323
  19  211.7231
  20  211.8427
  21  291.926
  22  200.3486
  23  215.226
  24  106.6619
  25  131.0517
  26  102.1316
  27  7.908285
  28  176.1073
  29  161.0105
  30  83.94575
  31  41.93588
  32  186.6335
  33  203.4959
  34  245.0158
  35  185.2949
  36  207.8629
  37  174.5225
  38  80.16419
  39  186.7238
  40  135.7387
  41  112.4932
  42  108.011
  43  147.5822
  44  162.1603
  45  175.9564
  46  282.775
  47  221.2089
  48  249.5779
  49  330.7517
  50  264.6597
  51  271.5586
  52  139.3495
  53  204.9247
  54  203.4492
  55  146.9041
  56  248.8587
  57  254.443
  58  116.1947
  59  221
  60  113.1148
  61  164.2517
  62  243.7096
  63  185.83
  64  315.6761
  65  273.3596
  66  206.8827
  67  233.0819
  68  214.9364
  69  365.2669
  70  412.1833
  71  249.37
  72  206.8176
  73  216.274
  74  141.2362
  75  200.3421
  76  155.892
  77  140.8591
  78  86.31361
  79  108.4674
  80  140.0499
  81  167.6732
  82  39.32779
  83  158.4936
  84  302.2714
  85  165.6283
  86  86.07648
  87  238.3887
  88  243.8499
  89  185.4456
  90  135.8284
  91  233.8279
  92  240.5911
  93  422.7712
  94  288.4822
  95  138.7043
  96  84.96227
  97  202.9894
  98  258.5185
  99  254.9631
 100  325.5129
 101  410.011
 102  360.3693
 103  240.1677
 104  161.8974
 105  295.3898
 106  221.6929
 107  239.6146
 108  439.0726
 109  298.8339
 110  177.1816
 111  123.8678
 112  260.9887
 113  271.1848
 114  208.794
 115  235.0051
 116  245.0297
 117  237.5562
 118  353.6727
 119  321.9055
 120  177.6999
 121  268.1607
 122  232.8267
 123  276.3595
 124  265.8814
 125  270.5133
 126  152.1584
 127  225.6948
 128  161.8389
 129  127.2491
 130  214.32
 131  279.0707
 132  241.8985
 133  202.4447
 134  153.6632
 135  200.2905
 136  226.3219
 137  213.2379
 138  167.0108
 139  36.98931
 140  -16.43169
 141  134.1036
 142  260.0076
 143  248.4485
 144  211.4182
 145  138.8602
 146  181.282
 147  85.12987
 148  188.9307
 149  199.4469
 150  150.2301
 151  176.6198
 152  148.001
 153  246.2129
 154  97.76771
 155  138.1188
 156  283.5784
 157  294.0828
 158  259.6747
 159  244.9818
 160  195.0665
 161  201.2831
 162  126.2835
 163  200.5693
 164  176.4558
 165  136.95
 166  202.6167
 167  106.764
 168  24.74659
 169  156.1582
 170  362.632
 171  274.171
 172  272.2403
 173  225.679
 174  147.2268
 175  150.2024
 176  198.4524
 177  200.5656
 178  194.0519
 179  247.2486
 180  244.2728
 181  305.9153
 182  201.0526
 183  100.7184
 184  112.665
 185  79.21896
 186  156.139
 187  223.1035
 188  155.8323
 189  152.3825
 190  280.601
 191  297.18
 192  281.2604
 193  186.483
 194  236.5828
 195  206.7666
 196  173.0228
 197  234.3164
 198  308.8993
 199  237.1961
 200  220.2841
 201  310.3694
 202  285.7485
 203  215.0815
 204  198.2925
 205  270.5777
 206  282.0063
 207  246.223
 208  364.2909
 209  354.5373
 210  405.3427
 211  351.1147
 212  330.4525
 213  230.0397
 214  367.924
 215  371.4671
 216  471.0045
 217  303.9371
 218  261.3793
 219  346.3595
 220  328.1835
 221  292.35
 222  316.3275
 223  263.6955
 224  354.0376
 225  588.2378
 226  866.6241
 227  1060.354
 228  890.6659
 229  879.1964
 230  636.6365
 231  460.5663
 232  224.9134
 233  212.4303
 234  156.7248
 235  169.4702
 236  249.521
 237  303.2228
 238  222.737
 239  338.7382
 240  343.6585
 241  379.4609
 242  231.5511
 243  331.1259
 244  303.9771
 245  294.9392
 246  234.1469
 247  334.2669
 248  298.6439
 249  141.4634
 250  186.1595
 251  278.1414
 252  378.03
 253  437.5792
 254  426.4232
 255  276.7818
 256  189.5743
 257  303.5102
 258  310.8797
 259  380.6315
 260  446.8514
 261  268.0123
 262  160.5128
 263  266.8378
 264  326.0038
 265  308.6611
 266  203.1302
 267  194.7909
 268  295.2743
 269  270.3126
 270  190.2136
 271  257.9429
 272  270.8293
 273  140.5603
 274  304.8613
 275  297.8523
 276  140.9693
 277  117.9253
 278  191.0225
 279  133.2868
 280  279.7611
 281  228.3438
 282  263.4379
 283  218.7262
 284  203.4271
 285  216.9792
 286  294.308
 287  413.3079
 288  427.5728
 289  350.1188
 290  393.1776
 291  427.5012
 292  370.7967
 293  349.3859
 294  371.3802
 295  238.0574
 296  317.6809
 297  316.4784
 298  253.6865
 299  228.8907
 300  247.3401
 301  293.8683
 302  387.1668
 303  339.8702
 304  413.8525
 305  383.3204
 306  266.8271
 307  273.3047
 308  280.5852
 309  357.5596
 310  206.6191
 311  128.7526
 312  240.2601
 313  243.8333
 314  201.7633
 315  192.1914
 316  273.5949
 317  161.4414
 318  225.0057
 319  224.2445
 320  172.2693
 321  315.9966
 322  260.2944
 323  197.5836
 324  212.5515
 325  320.3395
 326  282.8194
 327  165.4913
 328  235.7737
 329  249.5934
 330  284.1952
 331  221.1261
 332  171.1774
 333  136.8793
 334  210.2588
 335  211.8027
 336  289.38
 337  197.7202
 338  307.6439
 339  286.7405
 340  334.9984
 341  197.6232
 342  327.433
 343  375.1721
 344  280.2428
 345  197.5833
 346  80.12957
 347  3.68571
 348  169.83
 349  306.6611
 350  213.0907
 351  190.5674
 352  144.5575
 353  161.0728
 354  217.3133
 355  324.7019
 356  348.6013
 357  185.8964
 358  77.24452
 359  82.30566
 360  63.65982
 361  206.6517
 362  343.4379
 363  295.4458
 364  269.2869
 365  263.9056
 366  237.3785
 367  255.6539
 368  135.4831
 369  182.0963
 370  275.9629
 371  252.1527
 372  382.7501
 373  294.1861
 374  299.5376
 375  331.5628
 376  353.614
 377  271.5729
 378  254.4114
 379  280.4939
 380  275.5611
 381  231.6838
 382  147.0018
 383  185.5887
 384  247.2962
 385  214.8472
 386  209.8239
 387  219.6218
 388  214.4649
 389  208.4364
 390  218.0768
 391  259.1592
 392  362.5727
 393  209.0103
 394  158.0824
 395  263.4981
 396  191.9638
 397  175.4036
 398  205.7625
 399  200.6758
 400  112.1975
 401  197.8905
 402  390.1995
 403  318.3784
 404  165.816
 405  290.1746
 406  287.117
 407  303.6557
 408  375.3101
 409  374.2173
 410  291.385
 411  264.6411
 412  280.5014
 413  203.2143
 414  127.5204
 415  194.2522
 416  245.8956
 417  188.9054
 418  160.2516
 419  103.9295
 420  247.399
 421  293.9586
 422  250.9981
 423  203.625
 424  67.74995
 425  250.0288
 426  356.9801
 427  429.7237
 428  290.8255
 429  432.0947
 430  387.2654
 431  352.1205
 432  268.7407
 433  225.0073
 434  223.1324
 435  162.965
 436  203.4766
 437  381.771
 438  388.3002
 439  195.1351
 440  125.2266
 441  155.8003
 442  300.8485
 443  224.111
 444  158.0229
 445  276.2856
 446  254.1515
 447  280.1371
 448  321.1461
 449  278.8839
 450  245.9947
 451  255.0753
 452  158.8967
 453  195.4752
 454  288.4861
 455  299.7152
 456  359.9257
 457  375.2461
 458  242.7363
 459  246.8118
 460  254.5619
 461  241.6382
 462  185.6331
 463  194.9615
 464  162.6787
 465  319.4679
 466  453.5475
 467  378.4755
 468  271.0399
 469  138.6223
 470  185.077
 471  255.8763
 472  228.1111
 473  117.945
 474  198.8994
 475  269.6168
 476  356.3912
 477  213.2438
 478  215.1265
 479  280.0767
 480  170.0554
 481  209.4099
 482  403.8581
 483  182.6788
 484  197.7929
 485  347.7742
 486  285.7973
 487  161.9362
 488  226.1
 489  281.0822
 490  258.9631
 491  144.1888
 492  313.8026
 493  302.8727
 494  301.9938
 495  324.6154
 496  278.8581
 497  351.2627
 498  420.885
 499  312.3706
 500  101.8478
 501  294.535
 502  383.3166
 503  288.8307
 504  145.6207
 505  126.6164
 506  218.4764
 507  194.6035
 508  187.9232
 509  209.0347
 510  274.3029
 511  360.6474
