# Input file       =  1193505289.155681-PSRB0329-2ms-sampling-dd.dat
# Candidate        =  PSR_0332+5434
# Telescope        =  AR
# Epoch_topo       =  58057.718844394454
# Epoch_bary       =  N/A
# T_sample         =  0.002
# Data Folded      =  7208960
# Data Avg         =  -1.38712411315205e-10
# Data StdDev      =  5.14469144317754 
# Profile Bins     =  512
# Profile Avg      =  -0.0238582059609933
# Profile StdDev   =  610.464846359476 
# Reduced chi-sqr  =  0.835
# Prob(Noise)      <  0.997   (~0.0 sigma)
# P_topo (ms)      =  714.495446562658  +/- 0.000367
# P'_topo (s/s)    =  -0                +/- 1.97e-10
# P''_topo (s/s^2) =  0                 +/- 8.86e-14
# P_bary (ms)      =  N/A
# P'_bary (s/s)    =  N/A
# P''_bary (s/s^2) =  N/A
# P_orb (s)        =  N/A
# asin(i)/c (s)    =  N/A
# eccentricity     =  N/A
# w (rad)          =  N/A
# T_peri           =  N/A
######################################################
   0  -547.3185
   1  -407.0365
   2  -438.016
   3  -243.2011
   4  -120.5841
   5  -433.0392
   6  99.2355
   7  139.9169
   8  -179.6358
   9  -581.3775
  10  -455.7386
  11  -307.5965
  12  -455.4205
  13  -481.6123
  14  -484.0943
  15  -812.291
  16  -840.6097
  17  -559.0952
  18  -525.9977
  19  -354.2538
  20  -562.9937
  21  -346.7853
  22  -453.7045
  23  -594.3152
  24  -334.2409
  25  -219.9312
  26  350.0547
  27  245.5933
  28  58.11094
  29  -377.6754
  30  -373.3313
  31  -120.4938
  32  -210.33
  33  227.3889
  34  -69.79253
  35  -244.4983
  36  -129.2071
  37  -588.4175
  38  -820.8281
  39  -479.0085
  40  -177.8747
  41  -341.1004
  42  -500.3907
  43  -269.6907
  44  -179.2586
  45  -594.6236
  46  -195.1839
  47  -654.2535
  48  -339.847
  49  -269.3682
  50  -500.1667
  51  -380.8408
  52  -737.1555
  53  -622.1833
  54  -394.0804
  55  146.4401
  56  379.6614
  57  199.4049
  58  -267.8983
  59  -377.5169
  60  2.430751
  61  283.5424
  62  491.2608
  63  309.1293
  64  -21.15583
  65  -245.3295
  66  -671.9319
  67  -404.3911
  68  78.41731
  69  -161.3804
  70  -204.3587
  71  158.6183
  72  -246.6062
  73  -351.4432
  74  -661.5614
  75  -277.8639
  76  -209.4327
  77  -275.2589
  78  -12.25231
  79  -198.8789
  80  140.7798
  81  -16.17944
  82  -214.0714
  83  -352.3507
  84  -415.4966
  85  -200.8351
  86  -4.81646
  87  158.8919
  88  212.7425
  89  239.1065
  90  453.2133
  91  195.4304
  92  152.7733
  93  123.7857
  94  139.6723
  95  210.1698
  96  50.94941
  97  248.8855
  98  45.69766
  99  -88.45774
 100  56.64488
 101  -406.1619
 102  -884.3477
 103  -748.1113
 104  -505.4642
 105  -161.3893
 106  129.3482
 107  -112.2441
 108  -284.5878
 109  -289.2434
 110  -225.4278
 111  -603.1335
 112  -403.6844
 113  129.614
 114  264.029
 115  278.8874
 116  81.49871
 117  127.3194
 118  -63.85567
 119  -504.7491
 120  -70.56841
 121  248.3755
 122  377.6683
 123  52.06492
 124  152.2625
 125  -263.3863
 126  -339.8084
 127  70.32959
 128  -503.8468
 129  -375.629
 130  -52.92337
 131  104.559
 132  -393.5744
 133  -381.3701
 134  22.48789
 135  -393.2016
 136  -134.9676
 137  -192.5554
 138  -159.7651
 139  -246.6329
 140  -428.637
 141  -513.9617
 142  23.93045
 143  94.35559
 144  -180.9059
 145  45.67435
 146  -117.9064
 147  -399.3682
 148  -616.0436
 149  -240.4274
 150  -282.2293
 151  -418.4574
 152  -434.0007
 153  -523.8558
 154  -444.891
 155  50.93277
 156  -63.46089
 157  148.1127
 158  159.2912
 159  -393.3247
 160  -583.1262
 161  -683.5447
 162  -499.1892
 163  250.2558
 164  515.4333
 165  449.9161
 166  134.8131
 167  -292.4155
 168  -265.9827
 169  -436.6333
 170  -547.2206
 171  -306.8851
 172  -147.351
 173  -424.8417
 174  -531.1535
 175  -298.5616
 176  -297.5135
 177  -226.9913
 178  -45.89078
 179  -61.72848
 180  15.5442
 181  -179.0612
 182  -101.6335
 183  -118.7739
 184  -417.9373
 185  -611.8267
 186  -419.7379
 187  -279.6843
 188  -19.36351
 189  105.0512
 190  -147.7963
 191  -456.0665
 192  -797.0579
 193  -477.0801
 194  173.7712
 195  125.5808
 196  850.4319
 197  810.6079
 198  787.4471
 199  500.7657
 200  494.6034
 201  1124.314
 202  1252.89
 203  1115.667
 204  1014.082
 205  848.6762
 206  630.3653
 207  775.419
 208  330.1678
 209  552.2281
 210  399.7747
 211  19.86913
 212  -10.25168
 213  -186.5433
 214  452.6075
 215  1240.698
 216  1490.964
 217  1387.212
 218  1332.208
 219  1038.772
 220  269.1078
 221  196.8022
 222  436.8352
 223  786.7228
 224  340.6065
 225  126.8846
 226  -203.1595
 227  -420.9268
 228  383.0629
 229  226.5342
 230  627.1022
 231  439.9071
 232  262.185
 233  -56.68998
 234  -60.22136
 235  91.95235
 236  300.2855
 237  264.6851
 238  411.8622
 239  470.4658
 240  196.2219
 241  -34.86924
 242  88.25875
 243  -11.36829
 244  -241.8476
 245  138.246
 246  -359.2555
 247  -181.7573
 248  2.809476
 249  262.7254
 250  666.2454
 251  613.588
 252  757.5272
 253  808.4923
 254  682.9244
 255  730.392
 256  624.2834
 257  611.1677
 258  797.1558
 259  522.5336
 260  446.0573
 261  377.5568
 262  251.1798
 263  631.6908
 264  795.3538
 265  883.1611
 266  537.9502
 267  116.5082
 268  233.111
 269  523.4125
 270  600.3295
 271  268.1906
 272  369.2295
 273  266.6429
 274  436.5468
 275  552.2534
 276  434.2074
 277  350.516
 278  272.2429
 279  703.9932
 280  530.9684
 281  291.6086
 282  349.1488
 283  182.6708
 284  65.36902
 285  138.5911
 286  494.9712
 287  673.5168
 288  350.0249
 289  267.0883
 290  224.8242
 291  -57.53991
 292  367.7375
 293  338.714
 294  -167.5522
 295  -106.3603
 296  -213.7052
 297  153.5797
 298  147.447
 299  -5.294561
 300  -328.3942
 301  -232.4072
 302  76.04251
 303  -100.5995
 304  -11.88101
 305  -210.3122
 306  9.095586
 307  239.7696
 308  94.59904
 309  -106.9241
 310  -285.2884
 311  170.998
 312  139.7704
 313  80.64179
 314  714.4864
 315  635.2441
 316  142.4046
 317  -338.7141
 318  -74.35285
 319  196.5108
 320  85.35974
 321  205.9025
 322  187.306
 323  165.8276
 324  401.9174
 325  246.4661
 326  -76.08018
 327  -152.537
 328  -310.3096
 329  -277.9441
 330  -206.7755
 331  57.52455
 332  42.54036
 333  -27.96941
 334  241.7498
 335  328.0856
 336  118.1519
 337  35.14077
 338  -255.1255
 339  -352.0772
 340  -596.1093
 341  -700.2889
 342  -442.1364
 343  -119.5723
 344  186.2797
 345  -233.1449
 346  -67.2938
 347  -164.0713
 348  -343.5026
 349  -440.7707
 350  -5.007668
 351  223.728
 352  4.92296
 353  87.01798
 354  94.74725
 355  -67.35454
 356  239.1233
 357  163.6793
 358  83.44025
 359  -379.2319
 360  79.75797
 361  75.6604
 362  -170.3322
 363  -513.1078
 364  6.669176
 365  246.3145
 366  -249.5024
 367  -413.633
 368  -135.0901
 369  -375.4865
 370  -434.8816
 371  -29.951
 372  -363.7125
 373  -582.7503
 374  -514.4094
 375  -444.3317
 376  101.0047
 377  302.1439
 378  586.1432
 379  771.4547
 380  415.7407
 381  102.1207
 382  -312.9711
 383  271.6935
 384  517.6541
 385  142.8572
 386  777.8397
 387  652.4196
 388  341.9457
 389  -27.27499
 390  -159.0124
 391  -320.6797
 392  -224.6538
 393  -513.4574
 394  -1057.796
 395  -846.5193
 396  -425.3505
 397  356.3861
 398  206.6129
 399  -44.62212
 400  57.73674
 401  -367.753
 402  -628.4792
 403  -344.8835
 404  56.95638
 405  350.6796
 406  -14.44314
 407  -185.7916
 408  -516.2349
 409  -503.7834
 410  -137.128
 411  52.83611
 412  184.3354
 413  249.2793
 414  218.5552
 415  -29.32206
 416  -85.98392
 417  -407.7516
 418  7.1495
 419  -92.73712
 420  102.6183
 421  105.5253
 422  299.5934
 423  -170.2515
 424  -515.2717
 425  -537.6826
 426  -237.8525
 427  -287.5832
 428  -653.1656
 429  -340.4741
 430  13.7794
 431  56.21791
 432  -54.3539
 433  114.4626
 434  285.1577
 435  324.7328
 436  158.6307
 437  430.3785
 438  271.3292
 439  290.6932
 440  416.5739
 441  547.6755
 442  495.3114
 443  326.0127
 444  217.2896
 445  522.0926
 446  577.4691
 447  563.5801
 448  233.3548
 449  235.7906
 450  350.5602
 451  518.5455
 452  152.8646
 453  75.89059
 454  383.1852
 455  619.3254
 456  521.6887
 457  276.7177
 458  -31.27223
 459  -492.0367
 460  -301.7029
 461  -420.3502
 462  -299.9546
 463  -328.3348
 464  -51.14335
 465  86.85656
 466  206.0576
 467  75.4993
 468  -41.48015
 469  -62.19063
 470  53.86031
 471  750.7975
 472  563.6412
 473  507.1267
 474  698.7775
 475  400.8062
 476  219.9553
 477  131.6102
 478  333.412
 479  181.2957
 480  -89.49223
 481  -249.1751
 482  -104.7682
 483  -66.63223
 484  105.513
 485  388.0475
 486  529.7673
 487  378.0882
 488  251.6971
 489  122.7467
 490  -184.5278
 491  -388.7015
 492  -433.7771
 493  -356.2141
 494  -256.6606
 495  -238.4813
 496  -9.148241
 497  -50.49218
 498  -123.8283
 499  -274.6004
 500  -776.884
 501  -647.1718
 502  -312.6853
 503  -360.4596
 504  -505.7848
 505  -260.3616
 506  -52.37893
 507  -482.052
 508  -483.2513
 509  -491.4605
 510  -524.1447
 511  -591.3563
