# Input file       =  1193620941.150686_cleaned.dat
# Candidate        =  PSR_0332+5434
# Telescope        =  AR
# Epoch_topo       =  58059.057409151457
# Epoch_bary       =  N/A
# T_sample         =  0.002
# Data Folded      =  7340032
# Data Avg         =  0.017527448373129
# Data StdDev      =  1.00001482236102 
# Profile Bins     =  512
# Profile Avg      =  251.271245816088 
# Profile StdDev   =  119.734811103057 
# Reduced chi-sqr  =  1.179
# Prob(Noise)      <  0.00325   (~2.7 sigma)
# P_topo (ms)      =  714.497014749857  +/- 0.000174
# P'_topo (s/s)    =  -0                +/- 9.21e-11
# P''_topo (s/s^2) =  0                 +/- 4.06e-14
# P_bary (ms)      =  N/A
# P'_bary (s/s)    =  N/A
# P''_bary (s/s^2) =  N/A
# P_orb (s)        =  N/A
# asin(i)/c (s)    =  N/A
# eccentricity     =  N/A
# w (rad)          =  N/A
# T_peri           =  N/A
######################################################
   0  854.0939
   1  664.955
   2  488.9982
   3  319.6243
   4  95.06974
   5  125.3615
   6  143.1162
   7  253.6623
   8  209.7081
   9  204.3071
  10  242.4115
  11  240.5353
  12  290.2121
  13  371.8539
  14  239.0571
  15  274.8394
  16  274.203
  17  99.64316
  18  176.6196
  19  385.3799
  20  343.8278
  21  233.2334
  22  209.6809
  23  156.4538
  24  63.29061
  25  123.7658
  26  266.6308
  27  190.7126
  28  192.0255
  29  295.8342
  30  254.354
  31  289.0396
  32  261.3845
  33  266.3372
  34  244.8708
  35  125.9177
  36  236.6411
  37  311.6512
  38  372.1591
  39  394.5331
  40  282.0256
  41  233.7844
  42  243.4092
  43  245.1123
  44  268.629
  45  199.9314
  46  325.9618
  47  356.5612
  48  271.7548
  49  188.7632
  50  249.705
  51  301.8917
  52  276.1364
  53  265.0665
  54  289.1533
  55  310.7563
  56  385.0037
  57  285.0517
  58  153.9224
  59  243.0118
  60  316.1111
  61  248.3813
  62  374.8386
  63  266.003
  64  244.3759
  65  309.5938
  66  164.8604
  67  256.2292
  68  319.696
  69  274.6315
  70  443.2339
  71  303.7226
  72  196.1693
  73  96.00089
  74  141.2526
  75  159.1543
  76  238.1522
  77  344.287
  78  258.1911
  79  266.9196
  80  190.5889
  81  208.0817
  82  204.4449
  83  165.5118
  84  160.9605
  85  136.9
  86  285.0629
  87  305.3663
  88  447.5928
  89  391.8607
  90  309.0975
  91  148.1027
  92  221.723
  93  289.6615
  94  333.3336
  95  306.7452
  96  308.616
  97  246.0786
  98  217.2387
  99  248.4422
 100  314.4157
 101  478.2023
 102  421.4565
 103  279.8415
 104  300.4243
 105  346.263
 106  312.5827
 107  186.749
 108  192.5087
 109  276.1477
 110  341.4944
 111  209.6042
 112  271.2186
 113  306.9987
 114  129.3764
 115  220.3709
 116  261.6517
 117  179.9513
 118  163.9234
 119  170.9475
 120  193.6561
 121  225.9531
 122  289.1989
 123  165.5976
 124  203.7749
 125  224.3865
 126  345.0658
 127  172.3264
 128  162.6343
 129  254.5092
 130  390.2302
 131  364.7245
 132  237.3368
 133  292.5874
 134  347.9217
 135  314.6409
 136  204.3422
 137  232.1721
 138  301.6779
 139  212.3189
 140  182.0503
 141  220.8857
 142  284.6877
 143  294.6017
 144  265.2905
 145  222.1909
 146  187.2913
 147  155.8126
 148  140.3433
 149  245.958
 150  297.0584
 151  241.1214
 152  236.78
 153  152.2464
 154  146.8112
 155  124.7859
 156  286.5052
 157  284.6211
 158  155.5546
 159  96.41296
 160  69.48508
 161  39.12493
 162  213.0786
 163  258.894
 164  342.6006
 165  294.8424
 166  446.1703
 167  410.7332
 168  356.893
 169  270.6606
 170  257.3072
 171  281.7553
 172  295.9185
 173  170.4782
 174  304.4916
 175  213.071
 176  133.0338
 177  228.9262
 178  213.5547
 179  313.0555
 180  221.7881
 181  279.5639
 182  252.8802
 183  296.7038
 184  296.5399
 185  170.8933
 186  194.5777
 187  327.6916
 188  197.9814
 189  267.9074
 190  291.23
 191  228.4661
 192  244.8491
 193  193.1931
 194  275.7177
 195  198.6273
 196  191.6086
 197  396.9704
 198  359.6531
 199  227.6103
 200  247.8901
 201  283.0167
 202  196.2237
 203  201.7659
 204  145.9948
 205  106.8288
 206  229.1935
 207  219.4774
 208  227.8564
 209  219.541
 210  229.085
 211  234.1941
 212  188.0508
 213  280.4689
 214  226.5499
 215  348.6497
 216  413.3928
 217  411.8912
 218  275.0555
 219  271.7994
 220  348.5606
 221  266.8479
 222  269.6815
 223  290.3049
 224  342.0866
 225  231.8675
 226  112.1967
 227  244.4685
 228  160.8272
 229  166.7672
 230  272.3378
 231  359.7135
 232  283.4373
 233  215.7544
 234  333.9246
 235  267.5245
 236  164.1504
 237  185.9281
 238  262.4476
 239  265.9504
 240  391.5763
 241  417.3526
 242  326.6325
 243  414.8297
 244  387.4507
 245  166.8521
 246  176.6134
 247  305.3822
 248  292.0519
 249  356.2145
 250  194.3571
 251  175.8035
 252  202.8186
 253  221.1838
 254  279.6694
 255  318.3751
 256  305.0716
 257  373.7727
 258  317.118
 259  219.737
 260  290.6051
 261  301.8726
 262  181.7652
 263  251.7112
 264  238.5362
 265  257.2553
 266  243.8004
 267  261.4247
 268  178.0825
 269  173.9671
 270  266.5257
 271  251.9821
 272  102.4537
 273  15.78094
 274  62.41183
 275  89.19616
 276  186.0163
 277  191.7755
 278  189.9214
 279  249.8307
 280  223.6925
 281  285.7853
 282  249.3028
 283  200.213
 284  247.1107
 285  308.6108
 286  197.9376
 287  105.9701
 288  190.6122
 289  199.6252
 290  223.5045
 291  319.5145
 292  268.1997
 293  200.85
 294  141.4442
 295  120.6446
 296  150.61
 297  66.81096
 298  136.3138
 299  92.90819
 300  84.95332
 301  117.1781
 302  110.9112
 303  210.6295
 304  239.0931
 305  311.0821
 306  201.2913
 307  161.8907
 308  231.6724
 309  229.7214
 310  140.2311
 311  120.1258
 312  107.9223
 313  177.8696
 314  312.4065
 315  173.6454
 316  107.5286
 317  240.6088
 318  214.2719
 319  139.5043
 320  271.6736
 321  360.3096
 322  343.2517
 323  400.2394
 324  399.0908
 325  303.6082
 326  330.3369
 327  285.3411
 328  190.1864
 329  182.2978
 330  235.52
 331  242.4194
 332  298.4245
 333  405.7778
 334  234.374
 335  258.1196
 336  193.1187
 337  148.2269
 338  164.8034
 339  197.5475
 340  155.3009
 341  63.87768
 342  122.7092
 343  216.3846
 344  318.0042
 345  127.2872
 346  223.5882
 347  307.7832
 348  178.4903
 349  84.16428
 350  164.1145
 351  257.5325
 352  169.9496
 353  274.3906
 354  395.0311
 355  326.2692
 356  219.3453
 357  251.8834
 358  171.3406
 359  164.2891
 360  275.967
 361  253.7893
 362  214.6185
 363  247.4933
 364  260.8398
 365  241.6716
 366  333.4732
 367  275.0419
 368  228.6706
 369  246.1748
 370  293.2811
 371  353.922
 372  345.0413
 373  337.3877
 374  259.2857
 375  260.273
 376  260.5534
 377  240.976
 378  328.3574
 379  282.7646
 380  241.6746
 381  213.4406
 382  200.5235
 383  227.0736
 384  252.8544
 385  272.3579
 386  207.5872
 387  264.8135
 388  244.3386
 389  181.8042
 390  204.3856
 391  204.7837
 392  129.1586
 393  153.2329
 394  290.1567
 395  266.9153
 396  130.4478
 397  215.9945
 398  318.5468
 399  249.8592
 400  277.476
 401  254.7595
 402  128.211
 403  204.5376
 404  400.0586
 405  231.2505
 406  210.4787
 407  247.2244
 408  177.6413
 409  101.8806
 410  357.3105
 411  352.2098
 412  196.9457
 413  368.9026
 414  320.3177
 415  233.1644
 416  207.5994
 417  327.831
 418  199.1016
 419  87.97701
 420  178.0904
 421  249.1773
 422  194.6664
 423  193.3303
 424  208.0411
 425  285.9398
 426  329.3857
 427  275.1381
 428  276.363
 429  292.8167
 430  281.7546
 431  373.7537
 432  385.8339
 433  260.1848
 434  217.8243
 435  336.2097
 436  329.2144
 437  317.4693
 438  227.3403
 439  221.9612
 440  288.1755
 441  281.9273
 442  296.5407
 443  166.0152
 444  151.3533
 445  240.1322
 446  159.8063
 447  124.834
 448  232.2861
 449  256.7955
 450  274.3341
 451  315.7199
 452  261.6882
 453  263.3523
 454  254.9103
 455  243.4559
 456  239.0797
 457  160.0914
 458  131.9059
 459  180.6087
 460  241.433
 461  268.044
 462  306.9496
 463  171.9388
 464  149.8415
 465  334.8289
 466  391.1283
 467  448.5385
 468  414.2596
 469  324.5619
 470  207.5083
 471  310.0974
 472  286.5781
 473  192.6145
 474  163.318
 475  242.4913
 476  133.5809
 477  185.7632
 478  203.8965
 479  219.7827
 480  209.94
 481  155.8414
 482  201.0964
 483  347.7535
 484  328.429
 485  252.5902
 486  175.7759
 487  124.8195
 488  174.4077
 489  212.2859
 490  328.7712
 491  272.7825
 492  74.7366
 493  170.7751
 494  262.2066
 495  351.5139
 496  226.01
 497  210.32
 498  337.9036
 499  312.5907
 500  322.5439
 501  470.3547
 502  550.8682
 503  428.0891
 504  239.6278
 505  212.1461
 506  221.8031
 507  323.4706
 508  457.76
 509  647.7414
 510  734.9865
 511  776.2224
