# Input file       =  1193951359.083581_cleaned.dat
# Candidate        =  PSR_0332+5434
# Telescope        =  AR
# Epoch_topo       =  58062.881690782189
# Epoch_bary       =  N/A
# T_sample         =  0.002
# Data Folded      =  7340032
# Data Avg         =  0.0577848970507539
# Data StdDev      =  2.75634023924216 
# Profile Bins     =  1024
# Profile Avg      =  414.390247477195 
# Profile StdDev   =  233.362905654881 
# Reduced chi-sqr  =  0.938
# Prob(Noise)      <  0.922   (~0.0 sigma)
# P_topo (ms)      =  714.500266749858  +/- 0.000126
# P'_topo (s/s)    =  -0                +/- 6.66e-11
# P''_topo (s/s^2) =  0                 +/- 2.94e-14
# P_bary (ms)      =  N/A
# P'_bary (s/s)    =  N/A
# P''_bary (s/s^2) =  N/A
# P_orb (s)        =  N/A
# asin(i)/c (s)    =  N/A
# eccentricity     =  N/A
# w (rad)          =  N/A
# T_peri           =  N/A
######################################################
   0  512.9174
   1  657.1493
   2  769.1964
   3  719.3233
   4  556.0594
   5  410.4861
   6  410.9178
   7  469.2075
   8  493.1539
   9  479.2854
  10  344.6199
  11  332.3693
  12  308.7665
  13  283.1396
  14  338.4059
  15  422.3938
  16  441.3954
  17  414.4107
  18  421.4478
  19  475.5384
  20  520.7429
  21  580.9645
  22  662.158
  23  578.0894
  24  540.893
  25  575.085
  26  592.4225
  27  586.313
  28  532.0226
  29  527.9088
  30  479.4015
  31  459.0247
  32  377.1737
  33  394.8537
  34  441.8497
  35  368.6038
  36  344.4964
  37  393.9487
  38  535.2943
  39  481.8079
  40  446.1845
  41  482.0469
  42  511.9719
  43  513.5641
  44  565.8209
  45  628.9067
  46  664.0959
  47  598.1237
  48  551.0078
  49  574.9017
  50  610.7188
  51  637.537
  52  575.9014
  53  494.2151
  54  436.6897
  55  348.2413
  56  402.2079
  57  426.1958
  58  474.5441
  59  445.0796
  60  441.7847
  61  402.1678
  62  440.1902
  63  503.4697
  64  528.2488
  65  516.7614
  66  422.7646
  67  328.7691
  68  209.2851
  69  168.6179
  70  264.101
  71  257.1157
  72  282.3426
  73  296.8463
  74  396.9615
  75  458.259
  76  511.5848
  77  464.2339
  78  324.3168
  79  278.0561
  80  350.2664
  81  405.3339
  82  426.5329
  83  417.2646
  84  400.4063
  85  344.5045
  86  415.2916
  87  421.8861
  88  379.889
  89  357.4585
  90  363.083
  91  442.3692
  92  488.5462
  93  560.0247
  94  536.7397
  95  456.6215
  96  411.5143
  97  411.579
  98  388.6667
  99  466.0298
 100  443.4816
 101  528.6569
 102  403.4788
 103  488.8289
 104  420.7216
 105  468.5576
 106  335.9442
 107  401.6436
 108  387.3595
 109  378.9015
 110  314.123
 111  360.2711
 112  420.5182
 113  491.9017
 114  416.5424
 115  427.7167
 116  381.4925
 117  471.0955
 118  537.7224
 119  730.6399
 120  775.4849
 121  675.6056
 122  489.3216
 123  487.7851
 124  480.8372
 125  392.1505
 126  293.0425
 127  212.874
 128  181.6811
 129  213.7272
 130  237.0928
 131  241.4578
 132  296.9672
 133  412.3047
 134  414.4041
 135  374.6549
 136  297.9706
 137  355.4186
 138  424.2256
 139  505.5495
 140  450.6195
 141  452.3708
 142  399.1134
 143  361.2527
 144  319.8557
 145  298.3778
 146  359.6464
 147  334.0785
 148  373.4485
 149  266.9874
 150  297.3081
 151  336.9041
 152  574.0778
 153  630.3585
 154  554.6899
 155  448.6954
 156  464.8647
 157  485.2165
 158  429.716
 159  410.0204
 160  358.1939
 161  382.3556
 162  387.353
 163  436.3047
 164  440.3264
 165  408.1705
 166  409.0378
 167  496.7953
 168  505.8898
 169  507.7962
 170  482.6932
 171  488.6252
 172  386.3484
 173  294.7889
 174  307.0916
 175  219.7624
 176  165.0664
 177  102.8463
 178  209.8049
 179  290.1736
 180  364.9897
 181  446.1829
 182  499.7741
 183  398.8862
 184  354.2157
 185  345.16
 186  380.2464
 187  366.143
 188  407.7208
 189  425.4034
 190  395.6212
 191  445.1517
 192  491.0253
 193  425.8162
 194  428.5467
 195  487.6689
 196  519.1559
 197  413.9946
 198  301.3192
 199  263.656
 200  275.7782
 201  380.3394
 202  476.0305
 203  447.2757
 204  386.5547
 205  286.8274
 206  351.809
 207  349.9499
 208  454.7693
 209  541.6171
 210  660.712
 211  738.7416
 212  725.3132
 213  684.2353
 214  581.8681
 215  594.6469
 216  679.1387
 217  711.6262
 218  569.1428
 219  326.9633
 220  262.2747
 221  318.2331
 222  350.9944
 223  333.2729
 224  271.4093
 225  236.931
 226  192.6103
 227  289.0854
 228  374.3547
 229  325.3484
 230  268.8656
 231  333.2723
 232  424.2324
 233  361.6223
 234  222.6293
 235  270.2068
 236  325.0716
 237  318.6067
 238  353.508
 239  456.8917
 240  565.3079
 241  415.0318
 242  396.0694
 243  345.047
 244  303.2087
 245  323.8172
 246  346.7033
 247  412.1539
 248  320.1239
 249  268.2279
 250  285.3207
 251  351.86
 252  476.4825
 253  556.0112
 254  551.8776
 255  568.8036
 256  523.6218
 257  519.8904
 258  443.744
 259  372.8652
 260  431.521
 261  457.7137
 262  474.7547
 263  353.9063
 264  347.9229
 265  477.4812
 266  400.6868
 267  348.0216
 268  239.4492
 269  337.4983
 270  316.1073
 271  341.7576
 272  380.6051
 273  493.0432
 274  451.5234
 275  289.0972
 276  193.1397
 277  248.2
 278  214.4137
 279  315.091
 280  313.0024
 281  387.9233
 282  393.426
 283  365.094
 284  399.6112
 285  393.9019
 286  382.924
 287  328.0943
 288  208.3029
 289  196.4957
 290  146.577
 291  143.8444
 292  176.6158
 293  334.7917
 294  437.5107
 295  439.5376
 296  385.4909
 297  343.144
 298  322.9655
 299  281.1133
 300  344.6615
 301  369.1896
 302  444.1154
 303  504.0471
 304  500.0345
 305  452.4767
 306  326.3193
 307  294.2369
 308  287.5106
 309  463.255
 310  551.0672
 311  477.2079
 312  403.6512
 313  346.3177
 314  441.329
 315  424.5641
 316  439.5391
 317  512.0051
 318  534.8531
 319  457.8874
 320  237.6906
 321  193.5717
 322  258.328
 323  294.1409
 324  372.0489
 325  474.351
 326  461.758
 327  284.299
 328  213.5925
 329  312.1607
 330  520.0411
 331  545.6037
 332  550.3522
 333  401.267
 334  329.7148
 335  352.144
 336  400.2462
 337  411.2328
 338  402.2402
 339  496.7409
 340  531.2885
 341  605.3452
 342  610.278
 343  645.7769
 344  558.551
 345  483.9245
 346  459.1813
 347  434.6836
 348  357.7888
 349  235.494
 350  309.6952
 351  291.5047
 352  277.4328
 353  274.4094
 354  370.6511
 355  446.9281
 356  506.9778
 357  563.3345
 358  557.758
 359  509.3059
 360  503.742
 361  513.5076
 362  506.5838
 363  456.746
 364  465.4597
 365  455.4227
 366  410.0066
 367  255.0332
 368  234.7622
 369  280.1459
 370  386.7633
 371  423.5549
 372  432.2386
 373  443.3867
 374  411.8259
 375  404.6592
 376  325.078
 377  272.5019
 378  285.87
 379  371.6192
 380  528.0093
 381  562.2896
 382  499.7499
 383  352.4876
 384  369.9142
 385  346.3967
 386  314.1382
 387  220.8439
 388  256.2746
 389  319.1038
 390  281.3914
 391  273.1487
 392  335.5657
 393  379.0442
 394  387.6012
 395  305.5984
 396  230.6078
 397  187.3667
 398  249.8345
 399  294.2017
 400  301.8331
 401  244.6792
 402  283.0638
 403  251.1108
 404  226.695
 405  305.9872
 406  372.6502
 407  379.9115
 408  276.9189
 409  270.6044
 410  330.7647
 411  322.9377
 412  369.128
 413  359.1055
 414  419.0155
 415  453.0973
 416  436.3777
 417  346.2057
 418  386.4842
 419  494.6811
 420  558.1932
 421  510.3375
 422  457.0698
 423  406.0782
 424  376.9392
 425  394.9057
 426  354.1094
 427  364.3081
 428  369.8449
 429  452.4162
 430  462.6938
 431  413.9918
 432  353.7265
 433  440.8169
 434  510.8357
 435  596.7765
 436  637.6946
 437  649.0842
 438  588.4117
 439  446.4887
 440  372.5767
 441  305.8756
 442  253.3945
 443  261.1623
 444  349.9608
 445  494.7014
 446  509.2232
 447  404.8994
 448  396.2446
 449  432.2857
 450  435.3533
 451  371.194
 452  327.9744
 453  451.7987
 454  464.6378
 455  520.1849
 456  449.3257
 457  419.4201
 458  442.527
 459  446.7885
 460  500.3426
 461  394.8936
 462  416.5452
 463  409.9906
 464  524.0618
 465  582.9954
 466  544.7894
 467  441.2428
 468  303.3268
 469  231.7407
 470  251.5183
 471  326.6689
 472  341.8419
 473  410.1372
 474  466.0036
 475  523.0435
 476  467.5356
 477  369.19
 478  441.2271
 479  435.3589
 480  382.452
 481  250.0334
 482  347.8188
 483  469.519
 484  495.927
 485  365.1749
 486  325.5692
 487  276.0172
 488  383.5421
 489  430.5356
 490  483.1581
 491  417.3634
 492  383.3709
 493  372.0916
 494  347.0282
 495  383.0457
 496  396.5912
 497  454.5728
 498  293.1432
 499  277.6308
 500  222.0092
 501  238.0771
 502  241.2751
 503  316.773
 504  425.5785
 505  433.8196
 506  388.5421
 507  424.6135
 508  407.0214
 509  361.8851
 510  248.2055
 511  254.1175
 512  292.503
 513  401.2464
 514  336.4508
 515  350.4138
 516  405.7983
 517  566.5812
 518  612.3551
 519  413.9682
 520  268.6447
 521  179.5867
 522  291.7486
 523  380.6532
 524  418.0532
 525  356.4938
 526  329.1473
 527  229.4285
 528  214.6405
 529  317.554
 530  422.1927
 531  570.5077
 532  489.755
 533  391.1246
 534  344.0627
 535  415.576
 536  385.6838
 537  359.3488
 538  333.3866
 539  375.5388
 540  263.4178
 541  325.2811
 542  327.8839
 543  369.0762
 544  388.0927
 545  436.7567
 546  418.2037
 547  397.2851
 548  436.1501
 549  447.8394
 550  472.5972
 551  423.4877
 552  422.334
 553  295.4532
 554  314.8859
 555  366.5589
 556  323.7187
 557  225.1407
 558  193.9618
 559  314.0331
 560  474.0273
 561  462.7758
 562  386.1924
 563  371.8763
 564  462.3267
 565  457.0101
 566  387.2868
 567  371.6226
 568  401.7825
 569  420.1411
 570  400.7107
 571  347.4739
 572  422.5956
 573  390.8525
 574  473.9761
 575  469.6394
 576  537.8502
 577  545.7133
 578  466.8524
 579  513.7224
 580  487.142
 581  407.4801
 582  334.3486
 583  330.1443
 584  442.4839
 585  401.0693
 586  365.3956
 587  340.4821
 588  364.8796
 589  298.3904
 590  252.1729
 591  380.6895
 592  457.1643
 593  514.3408
 594  612.0112
 595  549.8381
 596  458.6244
 597  345.42
 598  364.4244
 599  413.7805
 600  355.4594
 601  334.487
 602  268.4058
 603  270.3375
 604  374.804
 605  433.5746
 606  480.0724
 607  462.0574
 608  474.3878
 609  413.9644
 610  431.4096
 611  534.2563
 612  628.717
 613  668.069
 614  610.3104
 615  590.4713
 616  467.1651
 617  335.0035
 618  344.6433
 619  373.0691
 620  392.3905
 621  347.4543
 622  359.0785
 623  441.4912
 624  502.1772
 625  480.3071
 626  603.785
 627  689.1
 628  866.5015
 629  904.2799
 630  1060.469
 631  1119.781
 632  1197.427
 633  1164.842
 634  1074.088
 635  939.0108
 636  986.0483
 637  1052.292
 638  892.9218
 639  627.3254
 640  510.1631
 641  471.8402
 642  440.4061
 643  277.0421
 644  238.2251
 645  226.9403
 646  316.385
 647  344.2761
 648  289.616
 649  299.2785
 650  400.3508
 651  526.679
 652  604.2611
 653  631.3189
 654  619.9418
 655  536.7269
 656  510.1281
 657  471.5951
 658  468.5814
 659  481.2439
 660  463.9199
 661  345.6371
 662  334.6003
 663  449.6086
 664  542.9595
 665  533.5034
 666  528.282
 667  448.8068
 668  365.3365
 669  366.7652
 670  464.2899
 671  522.2214
 672  479.7509
 673  383.9864
 674  405.4341
 675  451.0498
 676  457.4512
 677  417.5533
 678  287.6201
 679  325.3708
 680  307.8675
 681  359.1193
 682  336.3015
 683  338.2492
 684  470.1931
 685  600.6203
 686  488.3682
 687  352.9984
 688  332.5599
 689  406.2968
 690  481.5826
 691  511.4603
 692  539.4749
 693  524.5607
 694  453.5829
 695  487.4783
 696  472.9836
 697  403.9861
 698  377.0602
 699  340.0327
 700  390.9944
 701  396.3165
 702  505.5806
 703  509.5005
 704  387.8057
 705  309.7675
 706  301.5925
 707  383.3942
 708  413.7784
 709  444.0262
 710  450.0049
 711  495.1312
 712  510.5352
 713  467.3576
 714  477.1635
 715  485.9747
 716  444.42
 717  333.6356
 718  260.2207
 719  345.1817
 720  317.2003
 721  410.9484
 722  418.0114
 723  473.9898
 724  460.4299
 725  635.8157
 726  678.5793
 727  517.9625
 728  333.3797
 729  366.2521
 730  453.9621
 731  367.8047
 732  313.9384
 733  262.662
 734  346.4551
 735  365.9666
 736  450.1168
 737  430.1447
 738  445.0797
 739  510.4607
 740  512.5204
 741  461.9599
 742  320.7162
 743  276.8257
 744  322.6684
 745  337.1064
 746  313.4417
 747  368.6326
 748  383.6746
 749  394.6479
 750  411.897
 751  445.0782
 752  435.9938
 753  392.0057
 754  388.8271
 755  315.1335
 756  338.982
 757  411.0645
 758  505.2713
 759  577.701
 760  543.6052
 761  489.6283
 762  462.3185
 763  477.4959
 764  405.3259
 765  374.5557
 766  413.2437
 767  536.6364
 768  551.0691
 769  471.4224
 770  367.665
 771  295.5429
 772  309.019
 773  477.2758
 774  570.8836
 775  660.3675
 776  634.6451
 777  538.7961
 778  410.831
 779  418.5248
 780  534.5023
 781  608.9896
 782  592.778
 783  527.1649
 784  454.7044
 785  362.5085
 786  353.6214
 787  416.7368
 788  498.6335
 789  527.1048
 790  512.1559
 791  459.1162
 792  458.2833
 793  423.6941
 794  442.8464
 795  386.4525
 796  413.4359
 797  340.403
 798  339.028
 799  306.6656
 800  279.4033
 801  194.4024
 802  232.4262
 803  339.3849
 804  509.031
 805  437.0299
 806  387.6219
 807  421.3893
 808  481.1832
 809  443.7875
 810  416.4198
 811  412.0241
 812  486.0066
 813  507.6232
 814  508.0012
 815  424.1927
 816  382.2516
 817  306.2538
 818  326.3592
 819  390.9228
 820  406.3777
 821  297.8992
 822  299.2638
 823  290.5952
 824  317.9673
 825  241.2822
 826  292.039
 827  273.8748
 828  280.1295
 829  259.2351
 830  233.1346
 831  241.082
 832  247.1597
 833  333.5084
 834  373.8096
 835  424.451
 836  432.5417
 837  372.684
 838  340.5021
 839  306.7655
 840  332.0406
 841  389.1719
 842  439.0763
 843  419.4732
 844  272.002
 845  223.347
 846  283.919
 847  366.2663
 848  423.456
 849  437.6993
 850  440.2208
 851  440.4547
 852  444.1069
 853  308.6582
 854  97.7893
 855  89.82429
 856  238.05
 857  354.6194
 858  292.6484
 859  324.6498
 860  296.1552
 861  363.7359
 862  356.8635
 863  350.9725
 864  289.4719
 865  308.9051
 866  477.3599
 867  422.9217
 868  351.6226
 869  326.3796
 870  463.5153
 871  423.4444
 872  351.5392
 873  279.1035
 874  303.2797
 875  372.2448
 876  518.3837
 877  691.0406
 878  637.8217
 879  564.1054
 880  451.1988
 881  442.3388
 882  390.8617
 883  424.1551
 884  441.8172
 885  392.5995
 886  466.8627
 887  488.3738
 888  477.1503
 889  307.204
 890  368.1653
 891  502.2974
 892  507.9568
 893  492.4144
 894  412.6924
 895  477.1423
 896  467.1526
 897  488.5412
 898  384.3821
 899  249.5613
 900  252.4901
 901  268.0366
 902  292.287
 903  194.8802
 904  215.1499
 905  239.5411
 906  335.5488
 907  330.9395
 908  449.2997
 909  432.1948
 910  537.9844
 911  476.1555
 912  432.9469
 913  348.7119
 914  229.0665
 915  277.3364
 916  353.1548
 917  383.7895
 918  272.3313
 919  210.7312
 920  243.4032
 921  289.4958
 922  341.2883
 923  419.2302
 924  518.2868
 925  604.2917
 926  581.8019
 927  530.9276
 928  493.1619
 929  539.2289
 930  542.2797
 931  525.1163
 932  375.6023
 933  364.8018
 934  301.1284
 935  316.5881
 936  262.3598
 937  354.3253
 938  439.632
 939  497.6616
 940  380.7005
 941  338.0895
 942  418.714
 943  403.2367
 944  257.5961
 945  249.0367
 946  402.9661
 947  543.6361
 948  324.5336
 949  308.0408
 950  304.9823
 951  453.089
 952  491.0826
 953  491.0106
 954  457.4283
 955  457.8771
 956  524.0516
 957  517.1535
 958  525.1937
 959  418.3488
 960  386.4856
 961  355.4003
 962  426.1696
 963  398.0332
 964  363.8063
 965  388.0737
 966  404.944
 967  466.3172
 968  503.4604
 969  590.416
 970  602.84
 971  490.1126
 972  407.4256
 973  291.9967
 974  279.3318
 975  172.5081
 976  162.8244
 977  192.0166
 978  307.9915
 979  301.2193
 980  395.486
 981  455.2543
 982  497.9524
 983  390.3657
 984  308.2999
 985  320.2583
 986  293.51
 987  290.0828
 988  247.493
 989  332.3976
 990  385.7033
 991  434.5254
 992  352.5904
 993  296.2742
 994  332.4594
 995  508.282
 996  612.7001
 997  715.7861
 998  723.7906
 999  660.2781
1000  537.4211
1001  426.0665
1002  444.3058
1003  422.6605
1004  452.4714
1005  455.2097
1006  438.6329
1007  366.834
1008  346.2849
1009  268.2547
1010  364.7387
1011  467.2699
1012  576.9562
1013  612.5939
1014  597.2145
1015  475.0448
1016  398.1177
1017  414.0785
1018  588.716
1019  625.267
1020  556.6917
1021  485.707
1022  516.731
1023  551.0677
