# Input file       =  1193175289.14436_cleaned.dat
# Candidate        =  PSR_0332+5434
# Telescope        =  AR
# Epoch_topo       =  58053.899399818984
# Epoch_bary       =  N/A
# T_sample         =  0.002
# Data Folded      =  7340032
# Data Avg         =  0.015931525201736
# Data StdDev      =  0.999750757529713
# Profile Bins     =  512
# Profile Avg      =  228.38779494263  
# Profile StdDev   =  119.703193819005 
# Reduced chi-sqr  =  1.275
# Prob(Noise)      <  2.34e-05   (~4.1 sigma)
# P_topo (ms)      =  714.492032295271  +/- 0.00018
# P'_topo (s/s)    =  -0                +/- 9.5e-11
# P''_topo (s/s^2) =  0                 +/- 4.19e-14
# P_bary (ms)      =  N/A
# P'_bary (s/s)    =  N/A
# P''_bary (s/s^2) =  N/A
# P_orb (s)        =  N/A
# asin(i)/c (s)    =  N/A
# eccentricity     =  N/A
# w (rad)          =  N/A
# T_peri           =  N/A
######################################################
   0  249.1326
   1  217.9573
   2  187.6078
   3  152.2924
   4  150.707
   5  231.989
   6  318.6304
   7  146.5307
   8  166.5017
   9  187.7234
  10  226.0383
  11  207.7776
  12  243.5867
  13  179.4614
  14  281.0035
  15  240.0089
  16  146.2825
  17  196.8764
  18  298.34
  19  252.0877
  20  153.4803
  21  227.2738
  22  199.4432
  23  156.4868
  24  305.9441
  25  252.6905
  26  227.8109
  27  311.2709
  28  255.7177
  29  202.1967
  30  266.1153
  31  337.8128
  32  419.7852
  33  236.4409
  34  142.5862
  35  402.0695
  36  470.6866
  37  423.7626
  38  247.2758
  39  241.1335
  40  267.3881
  41  169.8094
  42  183.2292
  43  199.0725
  44  264.4116
  45  262.0122
  46  293.7335
  47  313.5505
  48  222.683
  49  156.1934
  50  200.3831
  51  266.5804
  52  280.2314
  53  192.6304
  54  252.957
  55  243.1791
  56  281.1414
  57  197.8774
  58  261.0868
  59  386.2029
  60  268.3137
  61  291.4979
  62  294.2375
  63  227.786
  64  139.0623
  65  265.4495
  66  191.2865
  67  179.2821
  68  225.3604
  69  325.5288
  70  302.164
  71  236.484
  72  237.354
  73  301.2177
  74  386.1237
  75  327.2375
  76  241.8856
  77  188.3571
  78  144.7559
  79  239.6526
  80  194.5809
  81  244.917
  82  154.9918
  83  158.7945
  84  120.9661
  85  236.9933
  86  272.7207
  87  76.71409
  88  -4.264255
  89  145.3396
  90  252.0885
  91  359.3189
  92  263.2885
  93  57.05515
  94  145.5972
  95  201.9164
  96  169.9307
  97  191.4679
  98  179.4324
  99  226.1532
 100  132.343
 101  147.3687
 102  125.0362
 103  247.623
 104  305.7505
 105  255.3433
 106  216.3813
 107  62.53974
 108  120.1422
 109  85.91465
 110  74.32623
 111  239.4521
 112  373.6323
 113  260.5851
 114  254.9185
 115  217.7434
 116  265.6323
 117  257.2848
 118  169.9475
 119  281.6111
 120  305.1475
 121  196.5877
 122  219.2833
 123  239.5125
 124  209.295
 125  320.129
 126  236.3297
 127  101.4603
 128  143.7073
 129  366.2768
 130  273.5909
 131  66.79342
 132  177.4511
 133  234.2095
 134  257.056
 135  255.3965
 136  236.3864
 137  181.5111
 138  106.6446
 139  197.5563
 140  222.5051
 141  145.2241
 142  121.4055
 143  206.8339
 144  119.0847
 145  86.38689
 146  124.9958
 147  256.2692
 148  277.5172
 149  228.1179
 150  151.2799
 151  215.9153
 152  190.0596
 153  247.7537
 154  233.6693
 155  219.3365
 156  68.9354
 157  117.4869
 158  184.1038
 159  48.41474
 160  143.7094
 161  189.9048
 162  97.1506
 163  205.0841
 164  327.1637
 165  275.541
 166  133.4442
 167  180.9913
 168  64.71538
 169  205.4267
 170  141.289
 171  175.1112
 172  158.3878
 173  195.4306
 174  232.108
 175  131.2923
 176  224.9009
 177  212.7714
 178  159.3362
 179  139.6375
 180  208.2175
 181  224.3999
 182  206.7145
 183  295.3487
 184  468.8172
 185  482.134
 186  293.9634
 187  195.0954
 188  250.3428
 189  251.5947
 190  390.3299
 191  289.3671
 192  310.9615
 193  274.186
 194  252.4868
 195  285.6765
 196  255.8877
 197  190.8658
 198  256.5753
 199  194.5737
 200  208.8428
 201  171.5226
 202  198.7618
 203  276.9726
 204  305.9095
 205  282.6433
 206  315.3018
 207  163.366
 208  175.0507
 209  190.891
 210  189.0773
 211  274.3087
 212  236.9849
 213  171.2752
 214  286.3808
 215  294.8165
 216  298.2804
 217  173.4283
 218  248.8072
 219  125.9989
 220  170.079
 221  143.598
 222  167.0742
 223  191.6397
 224  175.5771
 225  191.3547
 226  139.0684
 227  126.1162
 228  202.7898
 229  185.9502
 230  82.27052
 231  136.8499
 232  237.1987
 233  254.1868
 234  198.9081
 235  133.104
 236  119.7527
 237  122.1552
 238  12.8556
 239  115.4369
 240  193.4799
 241  315.9741
 242  247.2522
 243  165.3288
 244  152.7797
 245  206.6387
 246  102.9486
 247  234.2388
 248  282.0261
 249  327.2169
 250  379.8277
 251  224.2543
 252  280.2119
 253  337.1631
 254  311.8451
 255  201.1784
 256  164.4805
 257  190.1647
 258  94.83697
 259  100.8033
 260  209.6286
 261  255.8559
 262  223.5726
 263  290.404
 264  244.5073
 265  294.2176
 266  335.7476
 267  114.9443
 268  256.7794
 269  202.7569
 270  151.653
 271  21.73611
 272  131.2443
 273  232.4778
 274  174.1234
 275  123.4822
 276  256.5829
 277  247.299
 278  292.8321
 279  310.4353
 280  425.2213
 281  376.1147
 282  256.9381
 283  211.9492
 284  233.1099
 285  240.9316
 286  219.0353
 287  188.8623
 288  142.9628
 289  305.7118
 290  256.1253
 291  318.9152
 292  230.7983
 293  250.5854
 294  136.1631
 295  169.2344
 296  251.7075
 297  209.581
 298  159.4718
 299  159.0481
 300  242.6728
 301  301.9203
 302  239.5512
 303  84.19211
 304  199.0982
 305  262.0022
 306  274.7531
 307  260.4513
 308  263.8749
 309  244.8014
 310  319.3986
 311  238.625
 312  113.6588
 313  200.2379
 314  119.3508
 315  160.5349
 316  146.4586
 317  134.8962
 318  215.6002
 319  203.2126
 320  153.9925
 321  107.2462
 322  182.9424
 323  181.7883
 324  184.8904
 325  173.8551
 326  261.2586
 327  329.3635
 328  293.5604
 329  221.168
 330  252.4357
 331  283.6404
 332  258.1655
 333  135.6289
 334  19.2888
 335  63.50982
 336  97.69353
 337  185.5674
 338  199.915
 339  311.2716
 340  294.3306
 341  207.2108
 342  247.4282
 343  203.0097
 344  250.4493
 345  304.0539
 346  319.035
 347  211.5472
 348  206.8403
 349  223.2576
 350  263.5734
 351  244.22
 352  198.5093
 353  238.0351
 354  223.0706
 355  199.0605
 356  234.1727
 357  279.8699
 358  309.1358
 359  164.8146
 360  278.3448
 361  310.3814
 362  299.5165
 363  215.3523
 364  325.9738
 365  273.0018
 366  341.9857
 367  466.5631
 368  391.452
 369  675.1235
 370  850.3748
 371  800.0605
 372  831.2346
 373  774.8839
 374  593.1652
 375  458.554
 376  305.1538
 377  294.8827
 378  274.6148
 379  257.9373
 380  216.3369
 381  165.2328
 382  204.3449
 383  183.305
 384  124.5391
 385  232.9411
 386  296.7377
 387  244.0538
 388  283.4845
 389  277.7389
 390  233.0048
 391  168.3368
 392  162.1278
 393  273.3279
 394  101.1744
 395  93.45493
 396  237.4877
 397  225.9082
 398  158.4489
 399  119.7375
 400  4.765347
 401  49.52961
 402  204.6341
 403  220.7557
 404  242.9253
 405  260.2654
 406  385.5686
 407  308.5281
 408  179.8923
 409  358.4133
 410  218.9393
 411  187.6827
 412  147.4157
 413  247.7844
 414  402.3242
 415  256.2648
 416  104.6936
 417  145.2297
 418  150.6817
 419  251.1187
 420  106.6141
 421  221.8194
 422  320.9774
 423  174.5315
 424  213.002
 425  246.3427
 426  243.6908
 427  178.7494
 428  211.0958
 429  317.2132
 430  273.8674
 431  323.7003
 432  356.81
 433  287.2719
 434  364.2841
 435  373.519
 436  219.4656
 437  198.0699
 438  340.8192
 439  222.6544
 440  217.67
 441  185.9601
 442  257.9583
 443  261.3658
 444  292.0201
 445  225.3244
 446  157.7564
 447  141.3019
 448  242.5614
 449  148.1541
 450  140.5187
 451  90.88629
 452  134.4386
 453  137.9948
 454  117.6807
 455  133.7731
 456  111.2717
 457  247.5146
 458  358.1986
 459  257.372
 460  209.595
 461  232.8227
 462  318.0211
 463  244.6095
 464  294.5968
 465  209.4918
 466  221.512
 467  245.5668
 468  208.0181
 469  318.4843
 470  436.9052
 471  304.6189
 472  111.3049
 473  143.9601
 474  244.3119
 475  276.1982
 476  131.4018
 477  75.53314
 478  151.2152
 479  247.3096
 480  240.4852
 481  72.13595
 482  61.45761
 483  88.36363
 484  71.56513
 485  273.737
 486  269.6722
 487  270.6223
 488  160.2372
 489  119.3969
 490  250.921
 491  370.8461
 492  393.1052
 493  351.4598
 494  218.0834
 495  245.3068
 496  153.3659
 497  191.2311
 498  220.9685
 499  227.9763
 500  307.5115
 501  265.0772
 502  251.9826
 503  265.2453
 504  200.8814
 505  187.5323
 506  190.9066
 507  185.7468
 508  233.6317
 509  367.6938
 510  293.438
 511  272.4547
