# Input file       =  1193534798.132602-PSRB0329-2ms-sampling-dd.dat
# Candidate        =  PSR_0332+5434
# Telescope        =  AR
# Epoch_topo       =  58058.060383479191
# Epoch_bary       =  N/A
# T_sample         =  0.002
# Data Folded      =  7340032
# Data Avg         =  2.36875664531186e-10
# Data StdDev      =  4.36705164612472 
# Profile Bins     =  512
# Profile Avg      =  0.00472567310782995
# Profile StdDev   =  522.880353604668 
# Reduced chi-sqr  =  0.714
# Prob(Noise)      <  1   (~0.0 sigma)
# P_topo (ms)      =  714.496101370388  +/- 0.000159
# P'_topo (s/s)    =  -0                +/- 8.38e-11
# P''_topo (s/s^2) =  0                 +/- 3.7e-14
# P_bary (ms)      =  N/A
# P'_bary (s/s)    =  N/A
# P''_bary (s/s^2) =  N/A
# P_orb (s)        =  N/A
# asin(i)/c (s)    =  N/A
# eccentricity     =  N/A
# w (rad)          =  N/A
# T_peri           =  N/A
######################################################
   0  787.8272
   1  358.8882
   2  -90.94774
   3  -632.1851
   4  -541.4009
   5  -322.5132
   6  -289.4996
   7  -615.6826
   8  -263.9911
   9  -224.0917
  10  -547.0096
  11  -490.1584
  12  -254.3216
  13  -258.3075
  14  -289.0773
  15  80.59529
  16  -131.0134
  17  -343.002
  18  -225.966
  19  -7.677749
  20  -303.9464
  21  -286.7538
  22  -218.6137
  23  -404.7745
  24  -503.0671
  25  -673.3715
  26  -430.0405
  27  -613.4037
  28  -303.7989
  29  -295.8565
  30  -488.2051
  31  -358.1673
  32  -69.15628
  33  -214.6532
  34  -656.6094
  35  -472.6579
  36  -167.9768
  37  -131.7084
  38  -255.6694
  39  -402.1081
  40  -284.6863
  41  -331.5919
  42  -343.2913
  43  -161.2908
  44  -199.7495
  45  -361.3577
  46  -321.0551
  47  211.1376
  48  395.3374
  49  462.5706
  50  489.5504
  51  36.01172
  52  36.66917
  53  -221.7948
  54  -373.9379
  55  -84.20383
  56  -172.4398
  57  -158.5854
  58  -112.8704
  59  5.98361
  60  -208.9342
  61  -359.9112
  62  -472.976
  63  -238.487
  64  -85.19502
  65  -259.3266
  66  -49.00927
  67  -295.3063
  68  -135.5561
  69  -243.1984
  70  -370.7561
  71  -194.0007
  72  -544.2177
  73  -646.111
  74  -383.3893
  75  85.83483
  76  19.49758
  77  69.39075
  78  136.3378
  79  -471.8217
  80  -385.3156
  81  101.7238
  82  -58.22234
  83  -132.8162
  84  -150.8546
  85  123.2941
  86  -115.0538
  87  -211.6027
  88  -444.0875
  89  -420.3203
  90  -356.8988
  91  -80.92017
  92  231.7666
  93  -612.9319
  94  -413.0659
  95  -179.5381
  96  -351.9811
  97  -146.6555
  98  -131.6571
  99  -47.97722
 100  50.50528
 101  50.42099
 102  160.4256
 103  -257.1719
 104  -140.1225
 105  -51.4011
 106  -185.1505
 107  -71.29182
 108  -219.2112
 109  -165.1431
 110  177.4463
 111  500.2178
 112  306.2079
 113  124.3983
 114  565.0995
 115  773.7083
 116  412.701
 117  635.6532
 118  331.4698
 119  420.6238
 120  238.0417
 121  106.8328
 122  35.2402
 123  162.1901
 124  504.0057
 125  -263.6904
 126  -509.849
 127  -511.4411
 128  -279.7424
 129  -63.5924
 130  -232.1649
 131  -161.6812
 132  23.86276
 133  -92.14836
 134  -390.3523
 135  -477.134
 136  -188.9705
 137  -230.8134
 138  -83.61687
 139  -49.85138
 140  210.6247
 141  189.7583
 142  -263.7353
 143  -9.230651
 144  277.7625
 145  58.95214
 146  146.1001
 147  128.303
 148  104.5496
 149  -431.9743
 150  -208.865
 151  -129.7777
 152  -13.89665
 153  -47.89978
 154  97.07103
 155  -190.6079
 156  -340.1754
 157  -113.1673
 158  36.78395
 159  -59.3599
 160  -242.09
 161  65.15449
 162  64.6969
 163  -132.9569
 164  -132.7138
 165  -351.7178
 166  -447.0707
 167  -373.0598
 168  -16.31639
 169  -64.47034
 170  160.3473
 171  370.0002
 172  203.1022
 173  16.97554
 174  -251.5964
 175  -295.1978
 176  -314.4876
 177  151.0213
 178  639.8999
 179  411.3854
 180  413.8951
 181  34.64776
 182  -567.7714
 183  -403.5362
 184  -356.8792
 185  97.76873
 186  -83.62532
 187  -185.1251
 188  -459.22
 189  -318.8052
 190  -120.532
 191  -53.8351
 192  321.9471
 193  136.4872
 194  102.6443
 195  42.35116
 196  116.0076
 197  -384.0505
 198  18.94975
 199  288.6053
 200  308.921
 201  -66.062
 202  -217.5345
 203  -84.69843
 204  -130.1255
 205  135.9942
 206  354.1855
 207  565.4681
 208  -50.56859
 209  -117.6513
 210  140.2939
 211  85.8053
 212  121.5669
 213  239.1147
 214  -17.07417
 215  64.42686
 216  136.4437
 217  120.6907
 218  292.8257
 219  725.3774
 220  250.6269
 221  -194.3819
 222  43.98498
 223  -146.9647
 224  -139.6336
 225  124.281
 226  310.8679
 227  437.2297
 228  -0.5882371
 229  49.6062
 230  -90.97707
 231  -362.7411
 232  -233.8671
 233  -261.589
 234  397.8149
 235  800.5754
 236  1027.884
 237  638.9187
 238  642.4835
 239  714.9832
 240  363.9936
 241  387.6802
 242  156.0831
 243  517.7318
 244  657.6842
 245  633.1697
 246  609.678
 247  666.9476
 248  470.228
 249  193.9017
 250  597.069
 251  233.7295
 252  308.3445
 253  439.4497
 254  524.5939
 255  -144.5618
 256  -219.0781
 257  -198.2228
 258  -85.87919
 259  335.2622
 260  406.9935
 261  462.4539
 262  82.35457
 263  -257.7043
 264  -222.4953
 265  -137.4149
 266  70.7235
 267  185.4875
 268  228.6773
 269  276.2221
 270  198.1851
 271  -57.6678
 272  -122.9566
 273  -114.9811
 274  465.798
 275  301.8439
 276  25.37423
 277  22.73108
 278  235.1897
 279  449.0607
 280  51.13911
 281  -51.83675
 282  229.2943
 283  298.1644
 284  137.7489
 285  223.0856
 286  361.403
 287  220.0271
 288  -134.859
 289  -110.348
 290  310.6221
 291  353.6778
 292  -31.49686
 293  172.5179
 294  246.6892
 295  65.25491
 296  -219.4726
 297  -301.4896
 298  -219.5907
 299  -144.9112
 300  -113.7771
 301  -25.34371
 302  -39.1931
 303  -196.3221
 304  -426.6634
 305  -217.9521
 306  40.02024
 307  -226.5413
 308  -375.9756
 309  83.16618
 310  203.1691
 311  -84.14922
 312  -5.422478
 313  224.0861
 314  173.8341
 315  -70.23392
 316  -224.6409
 317  -194.471
 318  -524.8684
 319  -557.8005
 320  126.9352
 321  336.9102
 322  -42.31101
 323  59.34411
 324  -158.7738
 325  -500.1346
 326  89.80437
 327  332.134
 328  158.9906
 329  -249.356
 330  -29.25873
 331  -26.44326
 332  38.97993
 333  192.2223
 334  549.1434
 335  904.319
 336  563.0178
 337  -80.74076
 338  -353.5524
 339  -48.14721
 340  70.53232
 341  308.0961
 342  226.5858
 343  475.3287
 344  279.507
 345  69.63834
 346  215.7284
 347  152.9895
 348  76.75322
 349  -116.8745
 350  154.8459
 351  164.7664
 352  -138.5211
 353  59.50399
 354  216.0482
 355  400.9581
 356  186.997
 357  218.7633
 358  -127.655
 359  -96.44508
 360  190.8979
 361  231.172
 362  212.7188
 363  63.24717
 364  179.6205
 365  367.6601
 366  485.0354
 367  262.5921
 368  166.6621
 369  184.2237
 370  102.7318
 371  48.95581
 372  71.75173
 373  358.5516
 374  274.5434
 375  274.8181
 376  134.4111
 377  182.742
 378  141.7621
 379  -146.3685
 380  76.95551
 381  -212.6081
 382  -55.12965
 383  -103.4485
 384  -322.0677
 385  -123.4857
 386  275.8528
 387  309.3425
 388  -24.75641
 389  -180.5383
 390  -124.7892
 391  -28.6722
 392  -17.32626
 393  -55.39584
 394  -15.95792
 395  315.5724
 396  231.6271
 397  -221.8698
 398  -283.9912
 399  -18.91917
 400  8.276602
 401  241.6967
 402  93.18841
 403  222.9403
 404  -76.09034
 405  -167.5027
 406  -93.70855
 407  84.38557
 408  188.1215
 409  429.6503
 410  30.84523
 411  -35.98443
 412  -265.8775
 413  -249.499
 414  -98.61826
 415  17.09584
 416  -5.691777
 417  -61.86516
 418  -281.0281
 419  -439.5099
 420  -409.1985
 421  -527.647
 422  -402.8423
 423  44.20854
 424  363.8567
 425  -15.21119
 426  -41.92804
 427  -60.79831
 428  244.5354
 429  150.7397
 430  333.3187
 431  212.5881
 432  -255.6193
 433  52.23349
 434  342.3474
 435  223.8362
 436  165.0396
 437  196.2216
 438  280.1801
 439  154.2436
 440  -203.1715
 441  -176.0946
 442  148.5545
 443  -27.09073
 444  -79.63435
 445  -227.7801
 446  -53.05221
 447  90.41672
 448  -186.9256
 449  -39.32145
 450  -233.6965
 451  -458.308
 452  -634.4068
 453  -813.9983
 454  -395.769
 455  34.66172
 456  291.9896
 457  -55.76196
 458  -215.6171
 459  -345.7637
 460  -222.6354
 461  -55.17138
 462  87.17178
 463  -5.575331
 464  337.4344
 465  516.2148
 466  -204.3174
 467  -100.2995
 468  340.5792
 469  363.7814
 470  365.0154
 471  174.7561
 472  -189.4311
 473  -607.922
 474  -433.4239
 475  -54.6114
 476  263.2041
 477  499.7749
 478  245.0136
 479  -191.5187
 480  -392.0291
 481  -115.8829
 482  -53.15668
 483  -157.9451
 484  -201.092
 485  -340.7104
 486  -343.3917
 487  -140.551
 488  -479.7566
 489  -394.4599
 490  24.25987
 491  -69.45013
 492  -123.771
 493  -541.8456
 494  -240.8802
 495  -92.12575
 496  -334.1363
 497  -119.1287
 498  115.0634
 499  168.1717
 500  -219.947
 501  -581.7455
 502  -176.0009
 503  -95.27094
 504  225.5056
 505  479.1898
 506  759.7863
 507  782.6418
 508  935.1932
 509  1314.725
 510  1511.957
 511  1407.479
