# Input file       =  1193002974.143132_cleaned.dat
# Candidate        =  PSR_0332+5434
# Telescope        =  AR
# Epoch_topo       =  58051.905013230695
# Epoch_bary       =  N/A
# T_sample         =  0.002
# Data Folded      =  7340032
# Data Avg         =  0.0234885711810562
# Data StdDev      =  1.00029230374888 
# Profile Bins     =  512
# Profile Avg      =  336.738687542327 
# Profile StdDev   =  119.768034792163 
# Reduced chi-sqr  =  1.197
# Prob(Noise)      <  0.00145   (~3.0 sigma)
# P_topo (ms)      =  714.490292093054  +/- 0.000282
# P'_topo (s/s)    =  -0                +/- 1.49e-10
# P''_topo (s/s^2) =  0                 +/- 6.57e-14
# P_bary (ms)      =  N/A
# P'_bary (s/s)    =  N/A
# P''_bary (s/s^2) =  N/A
# P_orb (s)        =  N/A
# asin(i)/c (s)    =  N/A
# eccentricity     =  N/A
# w (rad)          =  N/A
# T_peri           =  N/A
######################################################
   0  882.9666
   1  814.3196
   2  684.9396
   3  552.483
   4  466.5025
   5  483.3895
   6  387.556
   7  246.0445
   8  333.8256
   9  489.8151
  10  405.8412
  11  471.6051
  12  545.2352
  13  539.4802
  14  473.5966
  15  345.9526
  16  299.8918
  17  343.9232
  18  311.4773
  19  319.926
  20  406.6124
  21  407.0953
  22  414.9504
  23  308.0602
  24  369.774
  25  363.7933
  26  327.7787
  27  281.6915
  28  274.8913
  29  276.6328
  30  326.4219
  31  268.446
  32  336.0821
  33  290.3877
  34  183.5365
  35  237.8985
  36  217.3406
  37  180.9946
  38  232.3099
  39  284.5982
  40  232.3659
  41  390.5459
  42  391.7217
  43  332.4847
  44  348.6846
  45  245.7261
  46  300.4756
  47  264.377
  48  182.6272
  49  281.209
  50  327.0686
  51  364.9598
  52  325.0992
  53  326.7139
  54  363.1076
  55  331.6902
  56  279.242
  57  300.032
  58  295.0488
  59  384.0295
  60  476.0786
  61  412.5163
  62  373.8785
  63  347.5648
  64  301.5086
  65  382.3633
  66  382.7744
  67  320.8285
  68  237.1862
  69  279.1524
  70  194.6927
  71  133.8231
  72  214.5443
  73  277.6142
  74  372.2422
  75  436.054
  76  356.6304
  77  361.0783
  78  372.8401
  79  315.7289
  80  220.5459
  81  378.1212
  82  455.9514
  83  432.1508
  84  273.1312
  85  297.393
  86  280.8483
  87  376.554
  88  483.3683
  89  392.5269
  90  366.0243
  91  463.2096
  92  370.3625
  93  355.2075
  94  270.8203
  95  295.4098
  96  314.2703
  97  365.8458
  98  410.3844
  99  404.9234
 100  337.8336
 101  398.6113
 102  276.921
 103  365.131
 104  392.4391
 105  450.3596
 106  475.8026
 107  439.2596
 108  389.5629
 109  436.9867
 110  366.4355
 111  374.3111
 112  331.1343
 113  221.4091
 114  274.0966
 115  173.2286
 116  295.8248
 117  303.2494
 118  279.6471
 119  319.4632
 120  229.5387
 121  287.1871
 122  396.5219
 123  484.8783
 124  408.5627
 125  433.7131
 126  431.5818
 127  354.7433
 128  398.6729
 129  441.8437
 130  488.7911
 131  432.5757
 132  411.4208
 133  391.9264
 134  365.587
 135  407.3546
 136  412.0128
 137  349.3788
 138  488.0066
 139  542.1187
 140  476.4625
 141  368.7354
 142  355.0305
 143  257.738
 144  189.8169
 145  276.6496
 146  256.9299
 147  153.9279
 148  248.0828
 149  380.6225
 150  478.6025
 151  384.4602
 152  341.0683
 153  297.1093
 154  234.5549
 155  173.4332
 156  287.1602
 157  348.7651
 158  322.7783
 159  226.3806
 160  273.7764
 161  338.8124
 162  267.8203
 163  233.7208
 164  307.0677
 165  303.4267
 166  290.1242
 167  194.963
 168  248.4315
 169  225.9448
 170  167.6662
 171  349.0281
 172  384.4714
 173  321.8828
 174  300.0474
 175  374.2533
 176  372.6231
 177  411.3872
 178  387.5577
 179  466.0039
 180  365.2761
 181  282.2474
 182  331.5981
 183  273.455
 184  289.9095
 185  358.6671
 186  365.3322
 187  379.1561
 188  431.6594
 189  268.9923
 190  269.611
 191  318.1256
 192  395.5779
 193  281.4002
 194  277.8159
 195  348.9657
 196  373.3839
 197  279.7978
 198  269.6481
 199  314.4206
 200  237.9581
 201  260.6986
 202  289.9978
 203  283.4308
 204  215.5256
 205  295.9678
 206  342.5867
 207  320.7863
 208  308.3806
 209  403.6493
 210  405.3871
 211  353.9951
 212  343.4885
 213  277.0701
 214  282.7451
 215  231.5433
 216  254.1468
 217  421.189
 218  352.7179
 219  398.4193
 220  384.5658
 221  290.6072
 222  289.8968
 223  413.6624
 224  463.1657
 225  245.9343
 226  110.4215
 227  265.1956
 228  192.1613
 229  282.2809
 230  342.7471
 231  459.0879
 232  445.4683
 233  401.6772
 234  253.8471
 235  310.7964
 236  470.3284
 237  413.4126
 238  272.1132
 239  356.7122
 240  315.9991
 241  178.9018
 242  146.9974
 243  243.9637
 244  309.9224
 245  244.4759
 246  282.5339
 247  261.0075
 248  382.2581
 249  332.8802
 250  300.8105
 251  377.8448
 252  354.5481
 253  356.4156
 254  414.0926
 255  404.7142
 256  273.4287
 257  336.2909
 258  397.0558
 259  341.4324
 260  238.382
 261  276.3073
 262  285.432
 263  327.9172
 264  329.5377
 265  330.6075
 266  443.4535
 267  408.1794
 268  229.502
 269  261.4867
 270  254.5953
 271  286.9373
 272  359.0212
 273  379.7131
 274  270.248
 275  281.8571
 276  289.3928
 277  331.4795
 278  473.6749
 279  413.8893
 280  254.8918
 281  208.6537
 282  255.437
 283  204.1331
 284  380.2525
 285  371.2775
 286  273.5713
 287  301.4443
 288  278.6094
 289  285.6274
 290  218.796
 291  176.3869
 292  159.4438
 293  126.7853
 294  245.8085
 295  299.4931
 296  359.4047
 297  258.9668
 298  215.5765
 299  220.4861
 300  279.6899
 301  322.0465
 302  421.6748
 303  345.8863
 304  195.0584
 305  271.1705
 306  198.8489
 307  220.2429
 308  236.4085
 309  263.7009
 310  247.0735
 311  195.1187
 312  217.4778
 313  401.688
 314  335.1045
 315  204.7707
 316  247.9592
 317  280.8184
 318  392.1477
 319  348.1706
 320  353.4562
 321  313.8895
 322  365.2729
 323  461.0266
 324  405.8858
 325  315.4526
 326  333.7806
 327  298.5752
 328  322.1351
 329  496.1425
 330  489.4785
 331  434.1538
 332  402.5018
 333  322.5783
 334  460.263
 335  466.3023
 336  407.1935
 337  386.0556
 338  335.2708
 339  292.2798
 340  356.082
 341  319.0968
 342  309.6206
 343  300.5348
 344  310.035
 345  398.337
 346  444.9557
 347  389.6099
 348  315.5996
 349  342.8015
 350  468.7616
 351  391.8376
 352  358.8219
 353  399.5786
 354  258.0185
 355  328.1245
 356  310.2706
 357  358.8308
 358  294.7209
 359  348.7319
 360  341.4633
 361  300.833
 362  405.5063
 363  382.1841
 364  378.2591
 365  372.3964
 366  260.5698
 367  406.215
 368  423.7047
 369  376.9233
 370  312.3852
 371  236.7362
 372  286.5405
 373  327.5647
 374  117.5527
 375  161.1716
 376  308.1807
 377  142.9292
 378  175.5216
 379  222.3062
 380  209.5152
 381  268.4122
 382  272.4064
 383  397.4517
 384  295.6454
 385  375.0582
 386  388.6382
 387  344.9708
 388  276.5806
 389  255.4616
 390  125.4126
 391  294.3925
 392  404.0116
 393  359.0941
 394  354.1457
 395  354.2511
 396  351.2568
 397  362.0574
 398  366.2788
 399  319.9873
 400  392.9566
 401  369.4373
 402  353.0332
 403  230.6045
 404  118.2119
 405  280.9047
 406  312.1721
 407  404.1893
 408  384.9174
 409  316.7686
 410  320.4381
 411  377.3436
 412  276.5381
 413  347.931
 414  363.5986
 415  445.6397
 416  398.4472
 417  358.104
 418  308.535
 419  275.6624
 420  397.0096
 421  438.8044
 422  448.1409
 423  318.6866
 424  401.5834
 425  427.6936
 426  376.4999
 427  440.8726
 428  374.7038
 429  477.206
 430  470.4525
 431  424.2494
 432  352.2653
 433  365.0792
 434  405.7717
 435  502.1633
 436  459.041
 437  393.1307
 438  262.9924
 439  249.8634
 440  335.0036
 441  348.4208
 442  368.6342
 443  449.8886
 444  416.3438
 445  366.5321
 446  365.4016
 447  410.7149
 448  444.0558
 449  342.3076
 450  226.0696
 451  201.8911
 452  260.1035
 453  207.0419
 454  281.4391
 455  269.6211
 456  272.7574
 457  256.0789
 458  187.8477
 459  217.2139
 460  350.4211
 461  374.8514
 462  380.6634
 463  444.8903
 464  280.5152
 465  288.2559
 466  209.874
 467  219.2087
 468  317.6651
 469  374.5409
 470  340.732
 471  421.9789
 472  435.6068
 473  232.1442
 474  239.7363
 475  268.2026
 476  347.7228
 477  284.7221
 478  295.5469
 479  279.9361
 480  246.2695
 481  313.1304
 482  374.0721
 483  408.3103
 484  392.1683
 485  270.7615
 486  270.0685
 487  214.4856
 488  260.8969
 489  340.5405
 490  417.0691
 491  337.3798
 492  336.0238
 493  329.8365
 494  297.2093
 495  240.8909
 496  278.0661
 497  401.2468
 498  381.5122
 499  306.9936
 500  293.9608
 501  279.3165
 502  343.9666
 503  357.6942
 504  457.378
 505  505.0045
 506  479.5607
 507  550.4427
 508  665.6402
 509  701.8017
 510  741.8686
 511  787.4195
