# Input file       =  1193017889.147111-PSRB0329-2ms-sampling-dd.dat
# Candidate        =  PSR_0332+5434
# Telescope        =  AR
# Epoch_topo       =  58052.077640591560
# Epoch_bary       =  N/A
# T_sample         =  0.002
# Data Folded      =  7340032
# Data Avg         =  1.60155325674318e-10
# Data StdDev      =  5.81389069081998 
# Profile Bins     =  512
# Profile Avg      =  0.00513644630969863
# Profile StdDev   =  696.11478557449  
# Reduced chi-sqr  =  0.484
# Prob(Noise)      <  1   (~0.0 sigma)
# P_topo (ms)      =  714.490776134389  +/- 0.000219
# P'_topo (s/s)    =  -0                +/- 1.15e-10
# P''_topo (s/s^2) =  0                 +/- 5.09e-14
# P_bary (ms)      =  N/A
# P'_bary (s/s)    =  N/A
# P''_bary (s/s^2) =  N/A
# P_orb (s)        =  N/A
# asin(i)/c (s)    =  N/A
# eccentricity     =  N/A
# w (rad)          =  N/A
# T_peri           =  N/A
######################################################
   0  -396.715
   1  -308.0078
   2  -299.4196
   3  -185.4457
   4  -367.7404
   5  -220.1159
   6  -170.6509
   7  -550.0576
   8  -917.6653
   9  -563.2892
  10  394.0482
  11  408.9984
  12  415.6277
  13  332.9587
  14  -219.619
  15  -494.1613
  16  -550.7181
  17  -332.4845
  18  114.7801
  19  269.2463
  20  -26.74468
  21  -345.6924
  22  -20.06424
  23  173.9182
  24  -462.2544
  25  -113.2917
  26  -12.61273
  27  -54.47202
  28  -94.33041
  29  -426.6304
  30  41.91914
  31  144.4253
  32  -170.1998
  33  -206.1974
  34  -231.206
  35  -481.9986
  36  -487.1713
  37  -224.9051
  38  -295.2863
  39  -457.8658
  40  -447.8818
  41  -441.2949
  42  -585.5513
  43  -443.832
  44  -117.6959
  45  -44.29584
  46  -122.8804
  47  -190.1341
  48  -15.46944
  49  -127.0523
  50  -17.05498
  51  64.08257
  52  -84.80312
  53  -137.28
  54  -94.32516
  55  -258.2073
  56  -27.21025
  57  -273.8782
  58  -407.4061
  59  121.1235
  60  68.12724
  61  -286.6689
  62  3.781181
  63  296.618
  64  99.18791
  65  4.235004
  66  87.77714
  67  -1.677346
  68  300.4723
  69  16.23438
  70  266.2308
  71  166.251
  72  271.9114
  73  328.8158
  74  13.68612
  75  -362.1153
  76  -291.4555
  77  -180.9617
  78  -194.5084
  79  -271.5171
  80  -303.3967
  81  -132.8548
  82  -76.3857
  83  -314.8717
  84  -117.8103
  85  201.6092
  86  447.0368
  87  460.9834
  88  134.9319
  89  73.41943
  90  5.97416
  91  18.56996
  92  88.81086
  93  65.9762
  94  -36.23198
  95  64.53593
  96  -161.8701
  97  -159.9006
  98  -401.2812
  99  -927.8254
 100  -484.6863
 101  -443.1741
 102  -148.3965
 103  -172.9088
 104  138.4214
 105  122.1558
 106  -357.9948
 107  52.6728
 108  -46.59767
 109  -9.970293
 110  180.0766
 111  100.8521
 112  266.0811
 113  24.72288
 114  -54.08596
 115  -131.9312
 116  -32.24704
 117  156.9661
 118  746.0065
 119  1448.412
 120  1645.176
 121  2001.601
 122  1735.797
 123  1409.229
 124  739.7584
 125  310.9883
 126  359.4347
 127  -41.074
 128  -88.27518
 129  -135.2562
 130  258.2866
 131  77.01163
 132  -125.0737
 133  309.3601
 134  158.5915
 135  31.14242
 136  -13.14688
 137  83.09683
 138  349.5082
 139  146.0629
 140  -398.0957
 141  -499.7668
 142  -170.1695
 143  -93.73943
 144  -257.7999
 145  -587.9
 146  -84.73999
 147  121.4785
 148  62.28325
 149  -62.79068
 150  -222.7646
 151  282.4326
 152  501.1574
 153  507.5802
 154  672.147
 155  112.368
 156  291.5213
 157  508.1083
 158  460.6637
 159  340.9859
 160  238.8761
 161  -366.4484
 162  -169.4458
 163  -64.99402
 164  56.65011
 165  72.12617
 166  -282.8958
 167  -165.8596
 168  -217.8963
 169  -189.9349
 170  -120.9337
 171  -33.80595
 172  -135.7548
 173  -573.1503
 174  -595.144
 175  -447.5865
 176  -286.0017
 177  -28.7968
 178  8.896791
 179  209.5409
 180  43.44871
 181  -188.0426
 182  -423.6892
 183  -563.387
 184  -515.9459
 185  -381.4046
 186  119.1507
 187  -33.82122
 188  -190.3354
 189  -139.2008
 190  -327.4276
 191  -42.95401
 192  -125.8098
 193  180.444
 194  149.19
 195  105.88
 196  231.6596
 197  87.39552
 198  103.4674
 199  61.08988
 200  9.737576
 201  89.82993
 202  70.9229
 203  180.4424
 204  637.2309
 205  324.4795
 206  -114.5343
 207  -307.7246
 208  -359.1637
 209  -108.3891
 210  -450.7537
 211  -305.7786
 212  56.7895
 213  -355.9433
 214  -139.5403
 215  -316.9522
 216  -559.2036
 217  -226.953
 218  -47.501
 219  56.11962
 220  -379.484
 221  -578.4949
 222  -473.7162
 223  -422.0994
 224  -671.4913
 225  -441.6807
 226  -443.478
 227  1.528099
 228  -299.9962
 229  -679.1854
 230  -312.4126
 231  -318.2121
 232  -134.0402
 233  -402.7756
 234  -456.5585
 235  -190.2986
 236  -384.2027
 237  -276.0461
 238  124.536
 239  112.7426
 240  -145.3325
 241  92.15705
 242  224.6022
 243  -282.6672
 244  216.5441
 245  258.4403
 246  -184.0354
 247  -334.603
 248  423.6461
 249  520.2502
 250  -374.3875
 251  -188.8521
 252  146.6243
 253  161.8033
 254  -205.8445
 255  -341.308
 256  -16.42843
 257  -108.7262
 258  -74.04108
 259  -19.95989
 260  -49.35619
 261  -42.83156
 262  39.52832
 263  345.2579
 264  -241.5128
 265  -470.9938
 266  -830.2399
 267  -391.1028
 268  143.9134
 269  420.1021
 270  357.5133
 271  278.8114
 272  302.0099
 273  -54.08498
 274  -184.2215
 275  -508.2078
 276  -234.5018
 277  -173.9151
 278  132.3187
 279  148.1923
 280  307.1752
 281  790.1414
 282  790.1439
 283  456.3325
 284  407.2074
 285  174.9405
 286  79.95664
 287  66.38759
 288  74.94273
 289  3.22177
 290  29.17191
 291  2.849659
 292  -237.3107
 293  -250.3814
 294  -25.45585
 295  200.9387
 296  346.7926
 297  128.8053
 298  1.203911
 299  -304.9325
 300  -129.8519
 301  116.4753
 302  499.4174
 303  255.7206
 304  147.9121
 305  187.4207
 306  143.3841
 307  -178.9749
 308  -70.17824
 309  150.0909
 310  -159.2192
 311  -117.2118
 312  -314.2788
 313  -93.34541
 314  233.4843
 315  214.6676
 316  106.5849
 317  -156.8518
 318  -52.5674
 319  -260.9872
 320  -447.1944
 321  -415.2189
 322  -145.5043
 323  104.2307
 324  -579.6859
 325  -891.28
 326  -849.7153
 327  -428.5151
 328  -223.5127
 329  75.53632
 330  262.9841
 331  89.01327
 332  -107.355
 333  -143.6512
 334  -71.9596
 335  73.79189
 336  182.491
 337  -70.63612
 338  163.9604
 339  64.20012
 340  624.9609
 341  695.265
 342  276.8292
 343  600.6393
 344  497.649
 345  42.02745
 346  -49.15562
 347  1.324459
 348  211.8019
 349  -25.91922
 350  314.6936
 351  422.3734
 352  94.23796
 353  -224.103
 354  -301.6882
 355  -429.9464
 356  -24.30041
 357  85.72067
 358  -102.9906
 359  -570.3679
 360  -311.9157
 361  24.39163
 362  -58.21313
 363  100.0341
 364  1.411064
 365  18.13654
 366  -287.8014
 367  -9.681636
 368  137.6725
 369  642.4298
 370  930.0021
 371  538.9516
 372  656.45
 373  930.2149
 374  652.1593
 375  588.1441
 376  795.9169
 377  473.3702
 378  235.9666
 379  -5.061341
 380  246.9966
 381  145.1458
 382  58.27105
 383  105.746
 384  55.2732
 385  71.69131
 386  -248.3958
 387  -193.3856
 388  134.1514
 389  -13.99097
 390  -124.9925
 391  -340.3774
 392  -460.4968
 393  -820.0157
 394  -508.3891
 395  -672.4624
 396  -240.9102
 397  28.06204
 398  -408.1191
 399  -116.3164
 400  -148.9986
 401  -175.9998
 402  -429.5702
 403  -323.52
 404  -140.4525
 405  -65.80479
 406  183.0525
 407  367.5339
 408  269.0352
 409  331.3364
 410  62.63969
 411  -281.0611
 412  -312.0307
 413  -157.7237
 414  -117.381
 415  40.5917
 416  61.75687
 417  110.3816
 418  154.1369
 419  124.7998
 420  -39.63625
 421  -141.489
 422  -205.8375
 423  118.2423
 424  -123.4676
 425  -255.3072
 426  26.95646
 427  -174.0496
 428  -2.463187
 429  381.8329
 430  304.1593
 431  71.3474
 432  14.29615
 433  96.5962
 434  119.6311
 435  88.00199
 436  47.47106
 437  317.2071
 438  182.7278
 439  452.5072
 440  604.3138
 441  620.8073
 442  365.8587
 443  203.4168
 444  -173.4484
 445  -330.3412
 446  14.09903
 447  -117.3514
 448  205.8422
 449  -234.3329
 450  -38.06651
 451  201.5878
 452  37.64154
 453  79.50226
 454  -60.72012
 455  85.45814
 456  85.38638
 457  -150.0141
 458  193.9356
 459  694.6092
 460  408.1374
 461  -359.592
 462  160.0999
 463  611.2166
 464  263.2589
 465  214.9095
 466  497.753
 467  415.9715
 468  450.0369
 469  206.2265
 470  604.8446
 471  446.7592
 472  427.7773
 473  753.5089
 474  419.8152
 475  474.9925
 476  16.82881
 477  69.38663
 478  147.3053
 479  128.4708
 480  564.0803
 481  732.2732
 482  380.2068
 483  157.8791
 484  -336.5236
 485  -114.5858
 486  -379.323
 487  -108.8835
 488  212.2613
 489  140.7083
 490  199.637
 491  -172.7323
 492  -385.1273
 493  -290.7712
 494  -303.6713
 495  -126.8041
 496  -167.6443
 497  62.55872
 498  -199.4127
 499  -47.16442
 500  226.1548
 501  258.3615
 502  -12.34767
 503  -183.3436
 504  45.70505
 505  412.8711
 506  183.5643
 507  -48.55466
 508  -165.4399
 509  -287.6826
 510  -143.5479
 511  -263.0453
