# Input file       =  1193707102.15065_cleaned.dat
# Candidate        =  PSR_0332+5434
# Telescope        =  AR
# Epoch_topo       =  58060.054642947340
# Epoch_bary       =  N/A
# T_sample         =  0.002
# Data Folded      =  7340032
# Data Avg         =  0.0233703298476598
# Data StdDev      =  1.00007014964951 
# Profile Bins     =  512
# Profile Avg      =  335.095539276456 
# Profile StdDev   =  119.741435607303 
# Reduced chi-sqr  =  1.178
# Prob(Noise)      <  0.00333   (~2.7 sigma)
# P_topo (ms)      =  714.497936731515  +/- 0.000169
# P'_topo (s/s)    =  -0                +/- 8.93e-11
# P''_topo (s/s^2) =  0                 +/- 3.94e-14
# P_bary (ms)      =  N/A
# P'_bary (s/s)    =  N/A
# P''_bary (s/s^2) =  N/A
# P_orb (s)        =  N/A
# asin(i)/c (s)    =  N/A
# eccentricity     =  N/A
# w (rad)          =  N/A
# T_peri           =  N/A
######################################################
   0  901.3117
   1  783.2397
   2  640.9537
   3  423.6024
   4  355.6951
   5  351.3195
   6  344.6124
   7  304.4991
   8  321.2122
   9  306.1866
  10  357.0027
  11  401.178
  12  406.3236
  13  358.7253
  14  412.8305
  15  429.1248
  16  349.9781
  17  270.1824
  18  196.1454
  19  276.6892
  20  371.1563
  21  377.4076
  22  262.4471
  23  117.4944
  24  353.0773
  25  338.8971
  26  285.7383
  27  369.9859
  28  490.092
  29  341.3801
  30  351.2022
  31  425.1063
  32  271.344
  33  357.2631
  34  303.3083
  35  363.9206
  36  308.9078
  37  130.944
  38  249.3432
  39  294.9474
  40  226.6031
  41  270.4951
  42  346.9239
  43  333.0551
  44  269.8098
  45  101.5125
  46  162.6289
  47  213.9284
  48  261.0347
  49  256.6337
  50  256.7951
  51  292.3324
  52  286.1169
  53  219.0505
  54  264.4185
  55  331.5907
  56  303.0448
  57  306.3929
  58  231.9169
  59  223.4782
  60  150.283
  61  277.0773
  62  307.3827
  63  370.5443
  64  295.5392
  65  187.4023
  66  228.8088
  67  513.3343
  68  524.4964
  69  443.838
  70  382.5273
  71  381.3861
  72  328.3907
  73  407.4529
  74  445.9209
  75  435.6819
  76  383.9784
  77  319.1359
  78  296.9716
  79  255.4407
  80  272.7454
  81  334.8313
  82  463.1328
  83  267.4901
  84  219.6934
  85  312.0998
  86  294.6643
  87  220.2177
  88  254.5741
  89  366.0493
  90  344.614
  91  244.1175
  92  275.9759
  93  238.662
  94  209.3178
  95  267.3067
  96  269.3728
  97  165.9944
  98  324.5103
  99  375.7919
 100  273.8461
 101  318.9257
 102  496.8206
 103  534.5101
 104  548.6868
 105  375.3612
 106  264.4805
 107  140.0069
 108  195.861
 109  267.3297
 110  316.5176
 111  247.9053
 112  221.6706
 113  284.2251
 114  293.0438
 115  133.7259
 116  147.2466
 117  304.8663
 118  393.025
 119  366.6289
 120  355.6749
 121  384.9166
 122  360.3433
 123  313.0792
 124  338.4665
 125  418.5131
 126  357.1408
 127  232.5466
 128  170.2694
 129  230.0563
 130  316.1837
 131  280.8156
 132  260.279
 133  110.6201
 134  251.2214
 135  411.5563
 136  331.4407
 137  389.5471
 138  336.8805
 139  342.0686
 140  322.6338
 141  363.6888
 142  297.2076
 143  330.1481
 144  284.5738
 145  175.4653
 146  264.5496
 147  359.9916
 148  343.7485
 149  327.6392
 150  232.4033
 151  210.3105
 152  283.6525
 153  452.0336
 154  397.7252
 155  277.8122
 156  413.5234
 157  441.7659
 158  434.7882
 159  403.931
 160  333.9522
 161  392.3971
 162  451.2309
 163  439.6719
 164  343.1741
 165  308.0163
 166  288.691
 167  328.5902
 168  361.5488
 169  368.0694
 170  355.2469
 171  297.2249
 172  353.3642
 173  329.1973
 174  328.4841
 175  291.8041
 176  243.8648
 177  281.2637
 178  344.4655
 179  289.1072
 180  266.1311
 181  401.0162
 182  366.231
 183  258.0175
 184  332.6993
 185  415.8673
 186  325.8739
 187  178.9461
 188  294.5237
 189  360.6626
 190  402.7606
 191  431.1838
 192  319.6707
 193  288.6373
 194  214.8391
 195  273.709
 196  311.5673
 197  304.7637
 198  361.2407
 199  395.007
 200  408.4838
 201  281.9788
 202  299.8747
 203  444.8583
 204  323.7387
 205  314.4446
 206  327.9976
 207  476.6897
 208  448.2797
 209  388.8225
 210  259.5277
 211  306.3354
 212  212.4998
 213  91.24803
 214  176.4312
 215  287.7874
 216  332.1438
 217  271.0154
 218  322.2457
 219  282.7135
 220  267.8653
 221  301.9618
 222  317.6949
 223  367.4813
 224  341.5385
 225  395.7442
 226  403.1073
 227  354.4937
 228  433.3033
 229  333.8251
 230  208.7953
 231  271.7213
 232  383.9373
 233  340.4506
 234  344.5446
 235  330.0599
 236  291.0342
 237  325.4333
 238  270.6374
 239  189.8329
 240  262.3609
 241  400.8076
 242  338.6501
 243  382.6079
 244  414.9865
 245  475.812
 246  433.6529
 247  443.1306
 248  422.3568
 249  304.0709
 250  429.9867
 251  430.6413
 252  272.6667
 253  222.5823
 254  279.5988
 255  303.5462
 256  276.5143
 257  354.1037
 258  382.6707
 259  360.356
 260  322.5808
 261  476.7196
 262  476.8971
 263  332.5118
 264  367.6544
 265  399.9972
 266  290.1311
 267  342.4193
 268  390.825
 269  322.4063
 270  317.5927
 271  286.9986
 272  308.8963
 273  275.3427
 274  313.1871
 275  437.4544
 276  509.2277
 277  343.8833
 278  329.1996
 279  290.6444
 280  351.1206
 281  398.7849
 282  399.2083
 283  452.7473
 284  538.5972
 285  425.3503
 286  329.9716
 287  345.2904
 288  407.0326
 289  331.476
 290  278.0966
 291  276.7649
 292  374.8846
 293  464.0157
 294  448.9013
 295  351.3151
 296  311.3948
 297  316.0966
 298  401.3757
 299  194.8584
 300  196.9271
 301  272.6364
 302  296.8219
 303  447.4167
 304  391.8116
 305  419.7359
 306  545.0262
 307  438.4952
 308  377.9158
 309  352.617
 310  361.9208
 311  387.9362
 312  412.3253
 313  348.3236
 314  351.8832
 315  315.3597
 316  385.6967
 317  444.2193
 318  399.1961
 319  310.1528
 320  253.0837
 321  224.2783
 322  388.8343
 323  392.5595
 324  352.2668
 325  380.0538
 326  368.7128
 327  236.1842
 328  185.5697
 329  225.984
 330  238.5477
 331  307.6831
 332  274.6322
 333  168.5616
 334  166.8974
 335  317.006
 336  337.5386
 337  342.7517
 338  253.1914
 339  312.7564
 340  199.5778
 341  258.4221
 342  446.3736
 343  324.2247
 344  379.1237
 345  432.1371
 346  345.5854
 347  368.8231
 348  410.1009
 349  400.4496
 350  319.2114
 351  193.4818
 352  322.9919
 353  424.8604
 354  245.5784
 355  338.7774
 356  401.9863
 357  357.2751
 358  386.9491
 359  345.0793
 360  388.3521
 361  395.8322
 362  372.6672
 363  317.5521
 364  386.4104
 365  421.504
 366  335.9892
 367  260.7728
 368  364.7733
 369  317.6198
 370  167.5994
 371  272.0664
 372  401.0648
 373  440.5667
 374  444.9288
 375  332.2348
 376  319.3188
 377  373.8637
 378  288.8419
 379  340.2179
 380  315.7298
 381  389.0922
 382  402.197
 383  208.4319
 384  315.6759
 385  313.507
 386  355.8098
 387  346.1541
 388  357.5336
 389  405.8161
 390  422.4604
 391  401.2853
 392  332.4916
 393  338.8232
 394  398.7601
 395  338.4829
 396  213.7279
 397  239.2008
 398  341.9226
 399  304.4996
 400  319.8868
 401  403.5534
 402  344.0201
 403  446.8854
 404  319.1642
 405  306.3228
 406  293.6977
 407  349.477
 408  436.5995
 409  367.3328
 410  319.6868
 411  292.0005
 412  239.3368
 413  311.4134
 414  339.2443
 415  340.0269
 416  441.7173
 417  347.9932
 418  354.8257
 419  268.4292
 420  346.6565
 421  304.6508
 422  321.93
 423  398.7367
 424  378.3589
 425  354.6629
 426  344.0728
 427  146.3079
 428  224.1598
 429  333.1836
 430  391.0249
 431  493.1392
 432  440.7717
 433  468.4013
 434  433.453
 435  404.6668
 436  296.2435
 437  240.7617
 438  268.6777
 439  217.3773
 440  247.1475
 441  358.5073
 442  441.6223
 443  329.5676
 444  325.9291
 445  356.6747
 446  332.8476
 447  272.9294
 448  299.2458
 449  424.5559
 450  538.7678
 451  509.0637
 452  284.4224
 453  254.534
 454  424.5781
 455  235.2566
 456  298.7499
 457  260.6386
 458  288.7837
 459  382.0161
 460  241.6852
 461  169.9109
 462  284.1105
 463  298.1052
 464  326.0526
 465  387.1011
 466  394.732
 467  327.5766
 468  277.6228
 469  354.5005
 470  429.0926
 471  354.607
 472  322.1808
 473  300.7417
 474  403.2707
 475  306.4551
 476  230.9027
 477  305.621
 478  305.3138
 479  346.216
 480  352.2623
 481  308.8925
 482  160.7655
 483  290.6317
 484  275.8019
 485  420.001
 486  412.642
 487  291.8143
 488  269.6132
 489  275.0541
 490  307.2543
 491  341.7652
 492  365.0911
 493  352.8928
 494  416.3441
 495  398.4444
 496  268.0312
 497  253.1263
 498  238.9672
 499  249.363
 500  391.2163
 501  444.8323
 502  344.411
 503  154.0647
 504  192.5141
 505  281.6718
 506  409.963
 507  484.7065
 508  549.8044
 509  648.9503
 510  849.338
 511  930.4657
