# Input file       =  1193190199.154521-PSRB0329-2ms-sampling-dd.dat
# Candidate        =  PSR_0332+5434
# Telescope        =  AR
# Epoch_topo       =  58054.071969381032
# Epoch_bary       =  N/A
# T_sample         =  0.002
# Data Folded      =  7340032
# Data Avg         =  -9.8010436942541e-10
# Data StdDev      =  4.95310129502662 
# Profile Bins     =  512
# Profile Avg      =  0.0449749037371141
# Profile StdDev   =  593.04985753523  
# Reduced chi-sqr  =  0.598
# Prob(Noise)      <  1   (~0.0 sigma)
# P_topo (ms)      =  714.492518103669  +/- 0.000192
# P'_topo (s/s)    =  -0                +/- 1.01e-10
# P''_topo (s/s^2) =  0                 +/- 4.47e-14
# P_bary (ms)      =  N/A
# P'_bary (s/s)    =  N/A
# P''_bary (s/s^2) =  N/A
# P_orb (s)        =  N/A
# asin(i)/c (s)    =  N/A
# eccentricity     =  N/A
# w (rad)          =  N/A
# T_peri           =  N/A
######################################################
   0  -530.6206
   1  -352.8745
   2  43.99514
   3  233.0136
   4  344.9286
   5  112.2465
   6  -297.5216
   7  -564.6496
   8  -656.1906
   9  -733.2911
  10  -738.512
  11  -778.83
  12  -331.0544
  13  -283.1989
  14  -579.9013
  15  -458.5722
  16  -562.6616
  17  -453.6588
  18  -209.802
  19  -190.9835
  20  -97.37244
  21  92.28033
  22  235.5335
  23  95.98132
  24  9.264744
  25  -253.8826
  26  -507.7737
  27  -404.9208
  28  -251.0284
  29  -153.4068
  30  -161.6919
  31  -132.0408
  32  -332.6959
  33  -481.6665
  34  -547.9968
  35  -831.0259
  36  -476.6954
  37  372.6142
  38  585.6578
  39  -98.03123
  40  -181.6425
  41  -581.3464
  42  -824.3109
  43  -880.9878
  44  -641.6753
  45  153.7849
  46  -222.5505
  47  -72.93597
  48  -159.8254
  49  -374.1269
  50  -190.3702
  51  -277.6165
  52  -88.79536
  53  -395.5001
  54  317.6675
  55  435.2777
  56  141.1295
  57  -83.68031
  58  -354.5192
  59  24.77223
  60  -298.7508
  61  -202.246
  62  180.7138
  63  187.7021
  64  246.1957
  65  460.8515
  66  474.9596
  67  -116.1251
  68  -252.6263
  69  117.9158
  70  257.5005
  71  17.54491
  72  8.890219
  73  -277.0928
  74  -488.1066
  75  -563.3506
  76  -264.7873
  77  -236.6447
  78  -641.4179
  79  -153.9532
  80  -267.6033
  81  -189.0912
  82  -499.4242
  83  -602.4498
  84  -96.38654
  85  -292.1505
  86  -191.5453
  87  24.08905
  88  77.39893
  89  273.5034
  90  -136.6936
  91  -193.517
  92  -149.1331
  93  -115.6782
  94  -323.1488
  95  -107.7897
  96  -83.34426
  97  43.80093
  98  259.3274
  99  -191.8512
 100  -54.89442
 101  158.7973
 102  131.8221
 103  13.87424
 104  -53.40574
 105  325.1466
 106  36.23921
 107  -330.466
 108  -296.5843
 109  -337.0501
 110  -630.3293
 111  -326.8535
 112  -241.1351
 113  -451.168
 114  -66.10922
 115  -77.13108
 116  -180.5404
 117  -321.2229
 118  -400.3574
 119  -148.6463
 120  -293.9031
 121  -117.2784
 122  -1.439
 123  213.7979
 124  76.80309
 125  -91.69145
 126  65.61146
 127  -212.8061
 128  233.269
 129  90.11276
 130  369.8946
 131  126.5035
 132  -24.94848
 133  213.8066
 134  59.1955
 135  42.24917
 136  147.0728
 137  619.9748
 138  567.2314
 139  -23.6351
 140  -138.0351
 141  -568.6445
 142  -693.6095
 143  -259.4458
 144  13.18616
 145  5.200838
 146  -110.6811
 147  1.028159
 148  298.4668
 149  448.5596
 150  315.5551
 151  574.7548
 152  314.1712
 153  -0.8168852
 154  -144.7671
 155  479.0641
 156  489.6292
 157  489.6978
 158  617.7059
 159  269.4119
 160  337.7043
 161  -175.3568
 162  -106.1349
 163  48.21545
 164  45.23674
 165  -155.3921
 166  34.90031
 167  411.6123
 168  208.5555
 169  -279.8518
 170  -416.6342
 171  -276.6318
 172  -193.5236
 173  -29.3318
 174  23.38139
 175  -248.536
 176  -504.5014
 177  -29.01167
 178  -136.4389
 179  -106.5529
 180  -354.9972
 181  112.2285
 182  -84.3922
 183  -139.557
 184  6.105749
 185  -18.16443
 186  45.56495
 187  -160.2501
 188  121.4722
 189  139.2563
 190  -179.832
 191  -102.4612
 192  -176.9569
 193  51.95618
 194  -290.8184
 195  146.0207
 196  117.4998
 197  203.648
 198  162.8563
 199  183.2852
 200  105.9626
 201  -17.07953
 202  -294.33
 203  -320.784
 204  -238.3407
 205  -307.841
 206  86.33185
 207  45.39565
 208  -210.8986
 209  -345.5075
 210  -466.8248
 211  -99.1381
 212  91.88254
 213  -117.8057
 214  -187.0695
 215  -378.1834
 216  -206.8644
 217  -560.2654
 218  -360.4771
 219  -97.06065
 220  -82.14975
 221  -188.5599
 222  -483.8611
 223  -458.1676
 224  -118.1532
 225  -147.4052
 226  406.5809
 227  25.98429
 228  -442.0642
 229  -296.5713
 230  -21.85543
 231  -142.3248
 232  -379.6963
 233  -260.4812
 234  -222.2565
 235  -484.067
 236  -464.3964
 237  -233.6361
 238  75.92866
 239  186.3353
 240  568.9541
 241  293.9759
 242  -172.1977
 243  -88.47244
 244  -21.8189
 245  -120.939
 246  54.25221
 247  -293.4852
 248  185.969
 249  11.40059
 250  -322.6763
 251  11.36604
 252  74.48091
 253  387.9047
 254  125.9036
 255  136.8555
 256  83.44508
 257  105.0934
 258  243.9687
 259  406.2901
 260  376.3908
 261  314.6659
 262  453.0775
 263  42.37741
 264  -41.5022
 265  109.6544
 266  -103.7531
 267  -384.1575
 268  -110.6365
 269  -297.0104
 270  -510.8179
 271  -374.9519
 272  16.22593
 273  155.8813
 274  -363.0294
 275  -279.5612
 276  -91.57098
 277  66.63117
 278  253.2799
 279  147.3651
 280  551.1866
 281  448.6613
 282  571.3296
 283  335.7247
 284  -152.5732
 285  199.5519
 286  363.1356
 287  579.7621
 288  251.4285
 289  60.81736
 290  146.7624
 291  59.77243
 292  367.7916
 293  415.2372
 294  248.7328
 295  182.2367
 296  -96.09533
 297  144.5264
 298  305.6689
 299  207.6826
 300  -100.0808
 301  78.85622
 302  138.4223
 303  -80.16697
 304  -417.4473
 305  -347.5578
 306  -215.6906
 307  -8.917502
 308  121.3781
 309  202.9127
 310  189.9049
 311  -92.35229
 312  -388.8908
 313  -282.2318
 314  -97.69508
 315  -338.3534
 316  -49.73956
 317  -83.60483
 318  -623.4861
 319  -5.571575
 320  124.454
 321  228.8406
 322  364.4781
 323  442.4796
 324  131.7291
 325  -465.73
 326  -186.696
 327  -154.8718
 328  -43.70285
 329  -308.4381
 330  -82.17274
 331  6.120615
 332  -636.6544
 333  -676.877
 334  -425.9369
 335  -125.7302
 336  -101.081
 337  94.85531
 338  203.9583
 339  285.1673
 340  -68.49013
 341  -188.3316
 342  -243.9471
 343  -352.9933
 344  260.6783
 345  401.4925
 346  250.8759
 347  396.096
 348  114.5407
 349  433.6049
 350  135.8611
 351  -45.13257
 352  132.24
 353  112.4823
 354  84.96059
 355  289.9753
 356  388.4603
 357  617.1346
 358  105.8016
 359  -13.37859
 360  251.6639
 361  239.6559
 362  301.7188
 363  180.6931
 364  47.15957
 365  -221.6648
 366  -206.8994
 367  144.29
 368  298.277
 369  216.747
 370  -175.2591
 371  -653.5242
 372  -127.8726
 373  411.4139
 374  124.2897
 375  248.0777
 376  422.7021
 377  733.5326
 378  933.8647
 379  1151.985
 380  1084.987
 381  1675.69
 382  1811.502
 383  1223.342
 384  1009.711
 385  473.2417
 386  304.0908
 387  -133.007
 388  -130.5334
 389  -301.596
 390  -188.8798
 391  170.343
 392  -15.53868
 393  -258.8912
 394  -141.5004
 395  -44.21901
 396  246.2301
 397  191.257
 398  456.6012
 399  362.6502
 400  -170.0873
 401  110.2479
 402  353.5413
 403  72.4381
 404  -248.1394
 405  18.84007
 406  -166.9619
 407  -441.4961
 408  -380.3882
 409  146.1105
 410  297.2131
 411  310.4404
 412  46.21675
 413  -501.8471
 414  3.232748
 415  192.886
 416  266.6526
 417  -278.4277
 418  -132.8664
 419  0.524809
 420  187.8181
 421  32.29517
 422  86.57922
 423  339.8837
 424  297.5949
 425  201.2041
 426  305.0769
 427  447.1057
 428  294.2352
 429  -12.85303
 430  65.24928
 431  14.81929
 432  -13.15313
 433  -245.8933
 434  -120.677
 435  106.9554
 436  73.46826
 437  325.2802
 438  111.6963
 439  70.07107
 440  -22.69732
 441  -74.03059
 442  122.6557
 443  -47.94623
 444  20.39159
 445  -88.4919
 446  117.7645
 447  337.3497
 448  110.0107
 449  643.222
 450  411.7776
 451  197.949
 452  142.7906
 453  147.8627
 454  64.29599
 455  386.0598
 456  462.5212
 457  622.3716
 458  309.7231
 459  -198.1951
 460  102.7127
 461  166.5846
 462  68.2443
 463  -288.7439
 464  201.9203
 465  258.0525
 466  395.2235
 467  323.4023
 468  245.2032
 469  45.39403
 470  -257.8077
 471  -479.4589
 472  -147.1779
 473  481.8335
 474  561.6348
 475  264.1922
 476  518.8845
 477  315.0133
 478  209.1349
 479  227.0028
 480  -88.39642
 481  359.5015
 482  514.5006
 483  698.9701
 484  547.9034
 485  349.4771
 486  -69.85228
 487  -157.734
 488  -69.76003
 489  -477.383
 490  -250.0407
 491  -101.688
 492  458.3497
 493  218.2523
 494  14.15248
 495  -25.16862
 496  -535.2221
 497  -207.1547
 498  -252.3961
 499  49.68156
 500  204.4123
 501  32.41796
 502  108.3589
 503  76.02606
 504  147.0299
 505  -228.5813
 506  -155.2485
 507  -61.39606
 508  -82.08594
 509  -128.6764
 510  -14.83785
 511  -180.1048
