# Input file       =  1193362522.147271_cleaned.dat
# Candidate        =  PSR_0332+5434
# Telescope        =  AR
# Epoch_topo       =  58056.066448463782
# Epoch_bary       =  N/A
# T_sample         =  0.002
# Data Folded      =  7340032
# Data Avg         =  0.0451255959550118
# Data StdDev      =  2.62259059799551 
# Profile Bins     =  1024
# Profile Avg      =  323.451066566594 
# Profile StdDev   =  222.039120417033 
# Reduced chi-sqr  =  1.162
# Prob(Noise)      <  0.000226   (~3.5 sigma)
# P_topo (ms)      =  714.494294788804  +/- 0.00016
# P'_topo (s/s)    =  -0                +/- 8.42e-11
# P''_topo (s/s^2) =  0                 +/- 3.72e-14
# P_bary (ms)      =  N/A
# P'_bary (s/s)    =  N/A
# P''_bary (s/s^2) =  N/A
# P_orb (s)        =  N/A
# asin(i)/c (s)    =  N/A
# eccentricity     =  N/A
# w (rad)          =  N/A
# T_peri           =  N/A
######################################################
   0  226.5515
   1  271.2752
   2  280.3413
   3  241.8089
   4  161.3638
   5  190.7455
   6  322.6632
   7  415.8827
   8  370.6175
   9  399.2867
  10  434.6379
  11  492.4379
  12  447.9374
  13  417.5562
  14  359.9328
  15  195.0924
  16  174.6452
  17  228.6721
  18  341.3182
  19  331.1547
  20  311.168
  21  330.9257
  22  386.9533
  23  358.5193
  24  315.6883
  25  310.018
  26  432.9485
  27  446.2623
  28  378.2766
  29  280.6902
  30  361.1681
  31  452.1207
  32  438.668
  33  298.4339
  34  251.3727
  35  286.7014
  36  324.0002
  37  287.402
  38  253.6557
  39  138.3806
  40  188.0605
  41  266.5429
  42  313.6033
  43  300.8906
  44  359.2566
  45  482.1578
  46  377.4061
  47  311.6802
  48  386.5664
  49  488.6878
  50  580.426
  51  513.9272
  52  451.3878
  53  355.9373
  54  339.748
  55  326.4529
  56  386.8058
  57  459.6176
  58  485.5258
  59  384.994
  60  285.8113
  61  335.5778
  62  372.1142
  63  435.2014
  64  476.9244
  65  465.8011
  66  405.9691
  67  402.5828
  68  406.8315
  69  437.0245
  70  352.2012
  71  328.6738
  72  325.573
  73  391.5635
  74  497.1452
  75  474.1652
  76  450.9481
  77  297.3288
  78  264.1104
  79  120.831
  80  156.4049
  81  176.3399
  82  264.8137
  83  214.7756
  84  244.7387
  85  277.1222
  86  238.1152
  87  253.4444
  88  170.391
  89  178.6057
  90  142.488
  91  237.624
  92  185.0536
  93  99.57272
  94  228.1786
  95  374.2316
  96  509.7115
  97  474.9446
  98  479.7287
  99  333.5802
 100  233.1197
 101  237.2299
 102  339.8093
 103  250.0343
 104  270.3924
 105  285.6839
 106  414.73
 107  357.6061
 108  442.961
 109  399.2538
 110  441.096
 111  403.4249
 112  431.0024
 113  378.4725
 114  302.3561
 115  222.5358
 116  157.9205
 117  186.4653
 118  286.1841
 119  318.5554
 120  278.3531
 121  239.9121
 122  226.0078
 123  327.0793
 124  403.5256
 125  368.7653
 126  292.3202
 127  325.5459
 128  329.1176
 129  284.5504
 130  263.9476
 131  429.0216
 132  442.5945
 133  523.0145
 134  485.1221
 135  500.0896
 136  395.6787
 137  406.0106
 138  415.1562
 139  342.4182
 140  277.5535
 141  312.214
 142  414.8429
 143  420.4342
 144  248.6294
 145  328.2315
 146  364.0403
 147  504.3651
 148  503.7628
 149  584.1138
 150  463.2031
 151  353.1272
 152  351.2493
 153  415.3499
 154  380.5904
 155  311.8516
 156  282.1411
 157  210.976
 158  143.4962
 159  148.9195
 160  194.7447
 161  107.6777
 162  192.4321
 163  239.9615
 164  337.8854
 165  301.9522
 166  360.4117
 167  412.3304
 168  391.6319
 169  436.9006
 170  459.611
 171  413.0745
 172  329.8096
 173  313.7863
 174  321.5764
 175  336.4756
 176  329.4351
 177  365.6056
 178  277.5206
 179  240.2001
 180  335.8025
 181  398.7672
 182  304.4493
 183  121.8705
 184  126.4767
 185  149.1314
 186  176.9336
 187  108.1679
 188  99.70222
 189  162.3167
 190  265.3532
 191  258.8958
 192  211.3619
 193  164.1042
 194  141.1883
 195  110.9113
 196  176.147
 197  276.7838
 198  461.1459
 199  521.9908
 200  438.6083
 201  172.5079
 202  59.62988
 203  45.82659
 204  200.0708
 205  293.651
 206  411.8107
 207  372.1805
 208  318.9439
 209  338.5348
 210  350.1898
 211  289.8295
 212  248.51
 213  234.3584
 214  282.5354
 215  265.2897
 216  285.7342
 217  389.4056
 218  401.3282
 219  493.9403
 220  477.0983
 221  388.2605
 222  170.4384
 223  167.9901
 224  270.5287
 225  327.6018
 226  330.1968
 227  388.201
 228  430.3699
 229  441.7186
 230  324.1522
 231  266.8013
 232  158.5391
 233  89.97587
 234  233.8494
 235  355.6417
 236  475.7792
 237  336.9615
 238  328.9045
 239  352.2392
 240  480.6298
 241  505.3399
 242  533.3766
 243  507.1974
 244  453.6736
 245  459.0161
 246  381.3957
 247  396.2534
 248  289.4413
 249  354.7633
 250  353.0473
 251  388.651
 252  332.6697
 253  375.9518
 254  355.9872
 255  393.0964
 256  397.8663
 257  426.5337
 258  399.4718
 259  403.8112
 260  440.1943
 261  374.0372
 262  373.1967
 263  439.7908
 264  471.6491
 265  322.7399
 266  215.7032
 267  242.1295
 268  275.3691
 269  393.5142
 270  483.4608
 271  516.8541
 272  460.1156
 273  492.3689
 274  527.7373
 275  493.7301
 276  392.7885
 277  335.4501
 278  372.0554
 279  337.4853
 280  213.0988
 281  298.7431
 282  354.5252
 283  444.9536
 284  452.6705
 285  566.7333
 286  560.9431
 287  487.3828
 288  430.9972
 289  377.4281
 290  392.5229
 291  439.0986
 292  383.8073
 293  313.2952
 294  211.5456
 295  166.7523
 296  95.37095
 297  106.8324
 298  257.2055
 299  374.3098
 300  282.4821
 301  214.1052
 302  296.5142
 303  329.834
 304  289.0338
 305  253.0747
 306  240.2322
 307  334.6948
 308  474.3363
 309  603.707
 310  493.8233
 311  273.044
 312  257.4798
 313  199.3153
 314  203.7294
 315  77.31218
 316  189.0574
 317  202.3913
 318  230.7003
 319  263.1934
 320  431.5843
 321  503.6755
 322  454.6778
 323  454.7142
 324  464.6358
 325  451.6331
 326  350.1183
 327  408.1962
 328  416.9444
 329  293.6033
 330  201.2643
 331  159.1108
 332  236.8019
 333  285.4573
 334  384.0969
 335  443.1599
 336  340.4688
 337  308.4045
 338  378.1964
 339  363.1895
 340  351.621
 341  339.5441
 342  376.2779
 343  340.514
 344  255.9088
 345  274.5669
 346  256.6244
 347  214.7155
 348  198.2735
 349  179.6992
 350  187.3702
 351  180.3712
 352  181.5846
 353  186.5188
 354  140.8062
 355  171.9114
 356  255.7599
 357  362.8917
 358  544.6653
 359  538.7172
 360  464.5084
 361  315.4951
 362  322.9066
 363  496.7282
 364  593.1312
 365  651.1529
 366  472.0226
 367  398.5549
 368  316.0379
 369  372.7834
 370  370.3327
 371  351.9467
 372  244.813
 373  142.5988
 374  177.9919
 375  307.6234
 376  443.7508
 377  405.8534
 378  344.8329
 379  295.8582
 380  228.809
 381  266.0816
 382  325.1262
 383  322.2545
 384  364.6452
 385  324.7129
 386  214.3522
 387  140.973
 388  271.9259
 389  347.0145
 390  341.4785
 391  351.6819
 392  414.4639
 393  434.2272
 394  379.8129
 395  319.8711
 396  199.2822
 397  112.7712
 398  122.4304
 399  254.8811
 400  328.5042
 401  396.6275
 402  331.7647
 403  312.0894
 404  347.9618
 405  469.0299
 406  381.172
 407  246.5587
 408  193.7387
 409  359.7314
 410  316.1368
 411  310.7684
 412  289.8854
 413  427.8398
 414  414.4117
 415  280.2261
 416  119.6739
 417  127.9919
 418  166.0137
 419  234.4552
 420  316.9777
 421  481.5935
 422  470.1599
 423  347.4045
 424  282.9962
 425  305.6658
 426  293.5748
 427  294.9636
 428  361.1646
 429  411.748
 430  376.0161
 431  328.3829
 432  323.6414
 433  273.8769
 434  345.2633
 435  374.9143
 436  495.8208
 437  446.11
 438  329.2088
 439  197.2261
 440  261.8553
 441  462.7721
 442  546.0199
 443  504.856
 444  375.0853
 445  336.657
 446  222.0559
 447  137.0437
 448  82.29021
 449  160.9238
 450  265.2316
 451  349.9173
 452  310.1293
 453  256.7166
 454  212.3525
 455  280.1759
 456  287.7054
 457  256.7704
 458  270.4076
 459  332.2741
 460  369.8352
 461  344.0171
 462  363.1913
 463  249.2016
 464  261.4622
 465  105.4012
 466  193.1681
 467  171.0158
 468  283.2096
 469  416.9972
 470  533.9234
 471  539.7377
 472  448.908
 473  440.6335
 474  439.0043
 475  411.3217
 476  328.6155
 477  333.8733
 478  278.6072
 479  251.7421
 480  218.6885
 481  215.5319
 482  191.251
 483  223.6756
 484  276.421
 485  278.4835
 486  345.6327
 487  348.2184
 488  359.658
 489  271.3786
 490  283.1625
 491  231.1477
 492  260.1404
 493  181.2765
 494  290.1869
 495  316.1511
 496  455.6877
 497  448.5145
 498  400.0727
 499  370.2396
 500  275.3364
 501  158.493
 502  77.982
 503  200.1674
 504  312.1193
 505  327.0271
 506  239.1017
 507  323.5179
 508  273.8682
 509  335.7266
 510  284.1344
 511  346.4758
 512  306.2522
 513  307.9222
 514  349.6381
 515  281.3065
 516  275.8195
 517  272.6772
 518  397.8626
 519  351.0519
 520  283.0074
 521  266.9728
 522  283.9352
 523  319.625
 524  283.596
 525  304.3651
 526  302.65
 527  437.2292
 528  431.1457
 529  415.7479
 530  440.9769
 531  410.4398
 532  390.5061
 533  198.8869
 534  228.2222
 535  239.4909
 536  401.3956
 537  402.313
 538  354.5901
 539  285.6327
 540  227.3829
 541  373.1756
 542  438.2042
 543  450.8517
 544  336.1816
 545  296.8091
 546  282.5972
 547  270.3097
 548  261.9385
 549  229.8031
 550  256.6442
 551  295.5136
 552  319.7413
 553  263.3226
 554  186.3792
 555  229.8034
 556  389.6969
 557  442.1848
 558  349.4554
 559  262.8534
 560  330.0546
 561  367.5056
 562  203.488
 563  206.3573
 564  284.0263
 565  457.5463
 566  490.7652
 567  476.9628
 568  275.5739
 569  162.4897
 570  142.5469
 571  315.3537
 572  286.7623
 573  288.4458
 574  156.8065
 575  280.7964
 576  269.1427
 577  252.2478
 578  162.4785
 579  200.0182
 580  240.4184
 581  240.5574
 582  208.3612
 583  171.2791
 584  196.0664
 585  205.1634
 586  159.1073
 587  45.25644
 588  88.65739
 589  162.362
 590  193.8024
 591  111.8187
 592  155.8004
 593  190.474
 594  219.5773
 595  182.4686
 596  267.7225
 597  337.762
 598  418.2881
 599  280.4651
 600  211.6899
 601  172.4074
 602  359.215
 603  443.2699
 604  431.4666
 605  336.4983
 606  307.0887
 607  339.8306
 608  316.0142
 609  355.8605
 610  292.7499
 611  306.5844
 612  372.4507
 613  457.0588
 614  515.3059
 615  342.7139
 616  282.455
 617  233.9511
 618  269.0678
 619  381.9917
 620  552.841
 621  598.3882
 622  498.6407
 623  355.8116
 624  393.315
 625  486.4958
 626  477.5341
 627  533.5557
 628  708.6788
 629  868.7491
 630  853.0085
 631  900.1353
 632  1083.359
 633  1178.212
 634  1217.124
 635  1226.887
 636  1167.065
 637  1044.695
 638  808.4399
 639  702.1658
 640  660.117
 641  544.7573
 642  465.7588
 643  343.4125
 644  308.4166
 645  207.4284
 646  158.4769
 647  184.1797
 648  269.0752
 649  376.9423
 650  542.0548
 651  453.0338
 652  388.3548
 653  293.6074
 654  326.529
 655  333.0632
 656  377.5645
 657  406.8247
 658  328.8051
 659  348.8927
 660  362.7299
 661  413.2198
 662  296.7361
 663  330.1566
 664  315.3221
 665  356.5061
 666  257.7433
 667  285.0293
 668  375.6944
 669  434.9614
 670  417.7113
 671  264.5335
 672  192.229
 673  187.5077
 674  298.6267
 675  273.8716
 676  199.3279
 677  105.9596
 678  37.35187
 679  100.7196
 680  157.1449
 681  211.045
 682  227.1092
 683  292.1939
 684  365.9457
 685  351.974
 686  293.6679
 687  299.4198
 688  255.6804
 689  245.6551
 690  171.8681
 691  236.854
 692  121.6545
 693  181.11
 694  153.0946
 695  132.9713
 696  24.47391
 697  3.353387
 698  184.6621
 699  253.1214
 700  270.4524
 701  210.686
 702  287.2794
 703  312.1323
 704  288.6079
 705  237.7871
 706  263.0796
 707  271.4935
 708  294.2079
 709  244.6163
 710  271.3308
 711  233.4617
 712  221.1407
 713  110.817
 714  149.9208
 715  148.4677
 716  148.3386
 717  81.63766
 718  170.3922
 719  325.1759
 720  432.5604
 721  441.7609
 722  333.6078
 723  285.4294
 724  400.3424
 725  481.2271
 726  417.0782
 727  274.6387
 728  308.0465
 729  340.3025
 730  269.1511
 731  197.3477
 732  162.2021
 733  263.8931
 734  280.5393
 735  346.9796
 736  247.7534
 737  229.0488
 738  164.3272
 739  210.1234
 740  269.5166
 741  305.4279
 742  331.2209
 743  302.6104
 744  269.706
 745  128.4894
 746  224.1751
 747  290.5831
 748  390.0925
 749  195.7096
 750  108.5388
 751  103.2213
 752  282.7066
 753  475.354
 754  471.3962
 755  394.3825
 756  331.3983
 757  449.5915
 758  433.2009
 759  405.2137
 760  454.4696
 761  512.3117
 762  533.3857
 763  423.8834
 764  395.2208
 765  316.0958
 766  258.2879
 767  219.8176
 768  267.6273
 769  420.0357
 770  399.9521
 771  452.9178
 772  324.3491
 773  379.1479
 774  399.3729
 775  380.4146
 776  268.6532
 777  199.472
 778  290.1711
 779  455.2938
 780  470.8324
 781  513.6468
 782  464.9862
 783  416.1034
 784  307.2961
 785  255.3471
 786  176.2227
 787  112.9026
 788  56.42172
 789  141.1985
 790  196.2265
 791  277.9196
 792  263.315
 793  268.6915
 794  269.7904
 795  265.2648
 796  316.6048
 797  309.5809
 798  282.9474
 799  266.7497
 800  256.1916
 801  177.2972
 802  142.4254
 803  174.3406
 804  322.8912
 805  403.2798
 806  539.1774
 807  512.1096
 808  361.0805
 809  184.1229
 810  130.6922
 811  209.4669
 812  253.5382
 813  286.5311
 814  324.2637
 815  377.5176
 816  455.4015
 817  434.2338
 818  533.3645
 819  520.9432
 820  581.2578
 821  564.3879
 822  563.4404
 823  451.3887
 824  245.8427
 825  135.7853
 826  224.5411
 827  444.2727
 828  502.4998
 829  307.6342
 830  182.3053
 831  114.4026
 832  193.9557
 833  178.0674
 834  206.7047
 835  340.3046
 836  442.5758
 837  424.9182
 838  325.4547
 839  339.4084
 840  379.0617
 841  294.4059
 842  291.035
 843  211.472
 844  281.9161
 845  231.546
 846  288.0187
 847  337.0558
 848  404.6392
 849  372.6784
 850  302.2698
 851  226.4693
 852  293.3765
 853  250.4221
 854  336.5925
 855  294.5838
 856  206.1221
 857  176.5008
 858  316.7245
 859  459.2134
 860  357.691
 861  299.3035
 862  307.5954
 863  348.6548
 864  482.3589
 865  406.2726
 866  378.1184
 867  220.4692
 868  294.3033
 869  328.2381
 870  346.68
 871  333.3131
 872  306.0388
 873  320.59
 874  317.4408
 875  327.2662
 876  284.4199
 877  149.0894
 878  128.8374
 879  182.254
 880  248.5963
 881  166.9166
 882  156.5746
 883  262.2079
 884  285.3389
 885  199.1582
 886  75.98071
 887  116.0866
 888  275.8544
 889  414.3206
 890  493.1969
 891  520.5444
 892  563.3604
 893  524.8464
 894  461.5128
 895  372.3052
 896  472.6998
 897  526.1068
 898  535.4671
 899  419.2854
 900  269.4391
 901  402.8022
 902  470.188
 903  418.6906
 904  298.5164
 905  227.6826
 906  300.1336
 907  202.9999
 908  238.6772
 909  344.7084
 910  416.9029
 911  362.5676
 912  319.9097
 913  368.2492
 914  485.825
 915  481.9466
 916  398.6737
 917  249.228
 918  120.7951
 919  221.4933
 920  342.4307
 921  542.8459
 922  492.1236
 923  376.2704
 924  231.0518
 925  306.9734
 926  258.8619
 927  332.4934
 928  382.239
 929  465.8262
 930  280.2143
 931  262.468
 932  308.7769
 933  460.3199
 934  374.9459
 935  336.8986
 936  316.4413
 937  326.7405
 938  340.7515
 939  350.192
 940  423.3652
 941  370.2094
 942  303.2005
 943  189.4988
 944  247.3931
 945  307.2556
 946  382.4169
 947  475.3691
 948  428.4437
 949  422.4646
 950  293.5414
 951  275.9633
 952  255.3089
 953  140.8865
 954  155.8867
 955  153.0535
 956  284.7879
 957  350.6991
 958  389.8345
 959  347.9828
 960  180.352
 961  181.9413
 962  148.6397
 963  147.5369
 964  168.1996
 965  170.2916
 966  172.2726
 967  -29.34905
 968  -1.942464
 969  158.868
 970  330.8212
 971  335.8987
 972  291.9849
 973  292.9723
 974  419.4689
 975  448.0406
 976  375.3907
 977  211.5368
 978  175.2459
 979  175.3112
 980  248.6728
 981  275.8699
 982  229.8111
 983  92.96036
 984  138.9049
 985  245.7798
 986  294.5579
 987  187.7798
 988  146.5753
 989  186.6057
 990  213.946
 991  319.8882
 992  346.7289
 993  452.2455
 994  377.3937
 995  424.5259
 996  384.4059
 997  363.2826
 998  319.0874
 999  336.2246
1000  422.9708
1001  345.2665
1002  286.9975
1003  299.6391
1004  346.7569
1005  405.3841
1006  373.5977
1007  331.1309
1008  260.2745
1009  329.3547
1010  386.3918
1011  323.7096
1012  246.345
1013  200.9368
1014  257.8275
1015  278.8162
1016  320.868
1017  322.4743
1018  352.4275
1019  349.3553
1020  302.7909
1021  292.2978
1022  249.4163
1023  303.4421
