# Input file       =  1193707102.150650-PSRB0329-2ms-sampling-dd.dat
# Candidate        =  PSR_0332+5434
# Telescope        =  AR
# Epoch_topo       =  58060.054642947340
# Epoch_bary       =  N/A
# T_sample         =  0.002
# Data Folded      =  7340032
# Data Avg         =  -1.74854355099472e-10
# Data StdDev      =  5.66289187714115 
# Profile Bins     =  512
# Profile Avg      =  0.383994217847139
# Profile StdDev   =  678.035239123435 
# Reduced chi-sqr  =  0.513
# Prob(Noise)      <  1   (~0.0 sigma)
# P_topo (ms)      =  714.497937903877  +/- 9.86e-05
# P'_topo (s/s)    =  -0                +/- 5.2e-11
# P''_topo (s/s^2) =  0                 +/- 2.3e-14
# P_bary (ms)      =  N/A
# P'_bary (s/s)    =  N/A
# P''_bary (s/s^2) =  N/A
# P_orb (s)        =  N/A
# asin(i)/c (s)    =  N/A
# eccentricity     =  N/A
# w (rad)          =  N/A
# T_peri           =  N/A
######################################################
   0  165.3542
   1  -47.29837
   2  -193.0191
   3  176.1434
   4  324.0042
   5  385.1613
   6  -8.250435
   7  -334.6165
   8  -26.24714
   9  215.9456
  10  -1.634938
  11  -245.269
  12  23.91938
  13  51.74249
  14  -100.0187
  15  186.6219
  16  18.35353
  17  -26.14587
  18  -474.4841
  19  -407.1048
  20  -185.6868
  21  -189.9638
  22  -178.2929
  23  -52.94536
  24  186.0514
  25  17.31491
  26  -377.6827
  27  -221.3699
  28  -68.60288
  29  -161.8616
  30  -334.2976
  31  41.97458
  32  557.5728
  33  133.5043
  34  -447.771
  35  -203.9225
  36  -264.8136
  37  2.765747
  38  83.36848
  39  370.9372
  40  122.0645
  41  81.76706
  42  -60.52731
  43  -166.1087
  44  -332.2792
  45  53.78973
  46  315.3935
  47  275.2015
  48  -91.96723
  49  196.642
  50  424.2925
  51  -451.5304
  52  -195.9417
  53  126.7697
  54  789.8215
  55  421.5302
  56  384.2112
  57  260.6903
  58  32.55526
  59  -479.1897
  60  -818.5831
  61  -102.238
  62  248.8447
  63  -7.528413
  64  -282.6794
  65  -59.5642
  66  -218.1755
  67  -385.6172
  68  -320.2259
  69  128.3973
  70  373.3531
  71  148.5216
  72  -10.07148
  73  174.304
  74  1.082884
  75  -7.601629
  76  -337.9602
  77  -285.2746
  78  -108.1195
  79  34.86131
  80  -243.7048
  81  -277.8662
  82  71.92639
  83  125.1434
  84  187.6993
  85  -412.3904
  86  -445.0989
  87  -231.1328
  88  -127.9833
  89  -141.0407
  90  515.7983
  91  657.0788
  92  605.6815
  93  302.7191
  94  512.3793
  95  310.6691
  96  186.3756
  97  560.2542
  98  489.1122
  99  248.9899
 100  213.7513
 101  157.9332
 102  23.92816
 103  28.33112
 104  -1.121348
 105  -148.812
 106  -58.10767
 107  385.677
 108  676.0018
 109  184.2237
 110  -213.0149
 111  -286.1805
 112  -257.8651
 113  -203.6838
 114  351.753
 115  745.458
 116  578.8578
 117  78.32242
 118  -361.9876
 119  -234.8527
 120  -381.9054
 121  -48.39436
 122  332.0963
 123  549.0525
 124  227.8679
 125  -117.1108
 126  -2.06082
 127  49.38317
 128  404.5291
 129  199.2669
 130  622.1796
 131  758.9549
 132  193.0222
 133  -79.5853
 134  -137.9648
 135  -35.47491
 136  130.0175
 137  39.57247
 138  -347.1515
 139  -295.8392
 140  161.2331
 141  -35.59881
 142  -495.404
 143  -412.1478
 144  -214.8601
 145  -288.1212
 146  -805.1605
 147  -652.4846
 148  -346.9715
 149  -33.56001
 150  116.2683
 151  -369.9407
 152  158.1928
 153  272.8892
 154  -216.9721
 155  -85.17683
 156  226.8938
 157  233.1192
 158  227.6997
 159  75.97862
 160  17.64309
 161  -228.1447
 162  -48.50152
 163  165.4897
 164  457.6078
 165  249.4976
 166  95.51209
 167  -254.5107
 168  -298.1644
 169  26.80337
 170  -34.1054
 171  -134.4368
 172  42.89459
 173  127.9401
 174  -123.226
 175  -273.127
 176  -331.257
 177  -184.6748
 178  -456.8406
 179  -711.2225
 180  -879.7021
 181  -2.696851
 182  551.5715
 183  399.3589
 184  84.01032
 185  -304.3052
 186  -518.3188
 187  -1092.291
 188  -418.7943
 189  511.4657
 190  449.8936
 191  531.1564
 192  186.7188
 193  -73.43948
 194  60.53241
 195  -62.46535
 196  204.3074
 197  277.2015
 198  54.99717
 199  375.9282
 200  162.8465
 201  -239.0857
 202  202.8595
 203  502.0005
 204  551.6982
 205  351.4258
 206  284.2855
 207  175.1841
 208  51.83034
 209  -250.1023
 210  -174.5595
 211  306.8662
 212  124.0916
 213  -90.21538
 214  -91.40518
 215  331.4773
 216  -176.0466
 217  -418.607
 218  88.29267
 219  584.2701
 220  234.4033
 221  -114.2001
 222  -10.50564
 223  269.8555
 224  352.8456
 225  -96.42185
 226  1.46914
 227  -69.72782
 228  -96.00992
 229  -431.8344
 230  -440.5303
 231  94.27131
 232  66.44711
 233  147.5348
 234  111.2826
 235  -123.2456
 236  -128.4187
 237  -153.999
 238  160.2998
 239  120.2185
 240  377.0886
 241  299.4387
 242  -22.61372
 243  -562.0048
 244  -549.2426
 245  -417.7592
 246  -559.366
 247  51.86578
 248  205.4445
 249  122.1619
 250  111.9063
 251  -290.5766
 252  -339.8208
 253  -584.4588
 254  -384.6046
 255  51.85985
 256  459.6877
 257  157.4078
 258  -62.83315
 259  -315.9849
 260  -240.415
 261  -291.1123
 262  -182.1162
 263  636.0367
 264  478.8058
 265  254.927
 266  -60.7712
 267  -212.4422
 268  -720.2663
 269  -621.8723
 270  -103.252
 271  -1.950691
 272  393.4555
 273  43.4351
 274  -648.1266
 275  -637.8025
 276  -243.8452
 277  374.7854
 278  337.4055
 279  167.0199
 280  264.936
 281  177.1224
 282  239.7279
 283  -297.6509
 284  -76.62294
 285  -0.2472717
 286  -96.35575
 287  -82.83717
 288  22.38959
 289  324.4168
 290  -317.4098
 291  -79.79284
 292  -185.205
 293  -237.0906
 294  -575.0449
 295  -714.7607
 296  -16.55222
 297  432.7168
 298  338.6443
 299  -511.7237
 300  9.982655
 301  -32.68999
 302  -461.6866
 303  -156.149
 304  2.652191
 305  210.8727
 306  324.8434
 307  -108.6011
 308  -758.4813
 309  -381.6277
 310  -285.3265
 311  -127.2396
 312  34.73813
 313  93.87793
 314  73.01976
 315  -562.0805
 316  -348.2201
 317  -110.3843
 318  -30.4333
 319  -173.7077
 320  -168.3304
 321  406.1916
 322  -19.36056
 323  4.896146
 324  0.4026123
 325  84.3526
 326  136.5995
 327  90.87341
 328  -251.4528
 329  -313.8826
 330  -110.9722
 331  -89.34272
 332  358.3374
 333  124.4358
 334  -251.1778
 335  -431.493
 336  -475.2195
 337  -183.5641
 338  47.50672
 339  304.5298
 340  237.9094
 341  326.5838
 342  232.6162
 343  -314.6321
 344  -208.7529
 345  -473.8329
 346  -6.707864
 347  256.9854
 348  334.5722
 349  -343.329
 350  -941.6179
 351  -459.9863
 352  -222.624
 353  28.63258
 354  126.6546
 355  695.5394
 356  993.9129
 357  1095.197
 358  1581.327
 359  1688.291
 360  1406.369
 361  504.7355
 362  -24.43546
 363  6.563277
 364  -283.5365
 365  -4.393259
 366  -246.0669
 367  213.7339
 368  114.9847
 369  389.0204
 370  417.659
 371  260.4565
 372  300.3558
 373  35.3119
 374  262.239
 375  118.1673
 376  -6.236638
 377  -473.5169
 378  -202.0171
 379  -193.8133
 380  -337.9952
 381  -738.8903
 382  -753.5295
 383  163.4263
 384  194.062
 385  399.1731
 386  536.6975
 387  598.6494
 388  180.3046
 389  269.4383
 390  345.2723
 391  15.34731
 392  611.2
 393  301.3904
 394  435.4091
 395  -120.1041
 396  -449.3516
 397  12.91541
 398  -41.85738
 399  42.61707
 400  345.2788
 401  447.1762
 402  263.1316
 403  -299.87
 404  -435.84
 405  -72.01884
 406  -163.4182
 407  -219.0294
 408  -351.7661
 409  -26.38835
 410  145.9332
 411  -14.36014
 412  -105.9608
 413  142.4941
 414  164.415
 415  1.289014
 416  41.91802
 417  67.54412
 418  190.3019
 419  24.23289
 420  239.5558
 421  170.1153
 422  250.5517
 423  -371.2434
 424  -491.8611
 425  240.1333
 426  981.6383
 427  875.6356
 428  344.0594
 429  302.6688
 430  66.4648
 431  -93.22008
 432  184.5396
 433  553.9059
 434  714.2795
 435  -0.7274002
 436  -195.4436
 437  -191.9108
 438  -152.056
 439  -26.27922
 440  142.377
 441  577.5877
 442  -252.0242
 443  -435.2263
 444  -664.1733
 445  -700.676
 446  -396.8656
 447  -190.4519
 448  191.1072
 449  -16.6347
 450  -155.7206
 451  20.47022
 452  -415.1293
 453  -377.1297
 454  -100.5279
 455  -192.5763
 456  -631.825
 457  32.71884
 458  271.0663
 459  162.8436
 460  146.7208
 461  521.6826
 462  382.371
 463  -58.7297
 464  -813.9535
 465  -780.9864
 466  -427.4087
 467  190.9285
 468  469.7749
 469  289.9162
 470  -154.9689
 471  -246.6593
 472  -243.7578
 473  -191.2193
 474  -535.1664
 475  -138.3939
 476  232.7041
 477  316.2872
 478  127.3855
 479  428.6719
 480  187.0117
 481  46.60569
 482  49.7706
 483  427.0681
 484  515.8525
 485  343.0717
 486  -359.0029
 487  -635.0345
 488  -296.2467
 489  -393.0767
 490  -241.1415
 491  -130.7714
 492  -66.28053
 493  138.1832
 494  24.52028
 495  -104.6743
 496  -85.65693
 497  -272.962
 498  -250.0032
 499  258.5865
 500  368.7471
 501  259.073
 502  157.603
 503  -169.7916
 504  -666.7932
 505  -714.7571
 506  -379.7103
 507  -132.5387
 508  -173.1232
 509  -340.776
 510  -386.7255
 511  -155.0839
