# Input file       =  1193778978.151512_cleaned.dat
# Candidate        =  PSR_0332+5434
# Telescope        =  AR
# Epoch_topo       =  58060.886541105465
# Epoch_bary       =  N/A
# T_sample         =  0.002
# Data Folded      =  7340032
# Data Avg         =  0.0271540721959495
# Data StdDev      =  0.999950500269654
# Profile Bins     =  512
# Profile Avg      =  389.28180450055  
# Profile StdDev   =  119.727109623752 
# Reduced chi-sqr  =  1.183
# Prob(Noise)      <  0.00271   (~2.8 sigma)
# P_topo (ms)      =  714.498388715453  +/- 0.000307
# P'_topo (s/s)    =  -0                +/- 1.62e-10
# P''_topo (s/s^2) =  0                 +/- 7.14e-14
# P_bary (ms)      =  N/A
# P'_bary (s/s)    =  N/A
# P''_bary (s/s^2) =  N/A
# P_orb (s)        =  N/A
# asin(i)/c (s)    =  N/A
# eccentricity     =  N/A
# w (rad)          =  N/A
# T_peri           =  N/A
######################################################
   0  261.389
   1  353.8839
   2  372.4184
   3  292.9915
   4  388.4177
   5  425.1436
   6  314.7206
   7  356.9761
   8  290.7414
   9  273.657
  10  354.7149
  11  336.573
  12  307.6113
  13  300.7338
  14  174.3627
  15  269.7346
  16  421.3904
  17  479.0543
  18  438.3263
  19  361.9491
  20  326.5743
  21  351.5671
  22  358.4203
  23  281.7089
  24  470.9217
  25  491.8686
  26  403.9273
  27  366.3707
  28  358.7862
  29  506.8875
  30  581.5645
  31  592.3591
  32  502.5772
  33  438.8931
  34  464.1224
  35  538.9586
  36  499.1899
  37  426.6034
  38  414.0873
  39  442.2516
  40  423.1738
  41  396.6992
  42  314.7173
  43  401.0913
  44  421.8304
  45  355.3214
  46  318.2969
  47  363.9176
  48  460.3278
  49  504.3031
  50  543.2404
  51  445.1947
  52  313.6173
  53  381.323
  54  443.6133
  55  508.9291
  56  478.2692
  57  428.5032
  58  364.9136
  59  363.5557
  60  420.7737
  61  373.7188
  62  399.1259
  63  411.9399
  64  371.6282
  65  298.2158
  66  232.6183
  67  337.6642
  68  314.6851
  69  309.4076
  70  444.1154
  71  545.5399
  72  352.1551
  73  301.9536
  74  463.3621
  75  480.6902
  76  368.9689
  77  435.1798
  78  335.4504
  79  243.9949
  80  454.2264
  81  450.1882
  82  386.3452
  83  288.5391
  84  299.5735
  85  328.2701
  86  378.6991
  87  396.7782
  88  295.2341
  89  301.434
  90  322.0947
  91  396.2903
  92  501.2128
  93  406.2033
  94  355.1698
  95  467.5845
  96  486.2573
  97  385.1533
  98  384.6936
  99  390.7221
 100  379.9269
 101  346.5769
 102  285.989
 103  312.0601
 104  235.7911
 105  321.3245
 106  404.9597
 107  351.142
 108  320.1057
 109  354.1577
 110  372.3748
 111  356.1218
 112  300.0551
 113  209.7214
 114  269.812
 115  433.1198
 116  395.9859
 117  461.9985
 118  446.734
 119  504.6779
 120  560.3066
 121  679.1898
 122  891.1582
 123  844.7706
 124  991.9561
 125  1001.016
 126  917.6689
 127  586.8859
 128  377.4415
 129  363.1085
 130  297.9182
 131  325.0679
 132  394.4453
 133  248.1279
 134  280.7405
 135  481.4478
 136  539.8624
 137  441.5746
 138  375.216
 139  437.4782
 140  328.1441
 141  334.7775
 142  273.4637
 143  283.9132
 144  269.7226
 145  327.9236
 146  294.9113
 147  224.7625
 148  323.7189
 149  404.233
 150  284.2903
 151  245.4187
 152  395.9214
 153  431.9578
 154  292.2589
 155  320.8289
 156  303.6399
 157  328.1295
 158  406.312
 159  414.1951
 160  462.6041
 161  499.7326
 162  420.4906
 163  301.4157
 164  260.7773
 165  359.0479
 166  385.6777
 167  379.8099
 168  346.0797
 169  430.209
 170  408.1849
 171  331.2893
 172  363.455
 173  385.2828
 174  503.2429
 175  452.6182
 176  414.2701
 177  363.5111
 178  290.4058
 179  263.4552
 180  415.7228
 181  376.2777
 182  315.6365
 183  327.3587
 184  312.0895
 185  313.6503
 186  334.0775
 187  290.7108
 188  280.9145
 189  331.9086
 190  368.6203
 191  266.3502
 192  276.2863
 193  360.1861
 194  294.2901
 195  416.6
 196  575.7025
 197  508.4674
 198  309.2695
 199  312.2675
 200  463.41
 201  493.3071
 202  454.5184
 203  402.1026
 204  351.0019
 205  292.6624
 206  393.3669
 207  454.0792
 208  508.9341
 209  471.1628
 210  468.4373
 211  458.5754
 212  515.4849
 213  485.8882
 214  410.2442
 215  374.3787
 216  362.0054
 217  366.9885
 218  397.8663
 219  491.3408
 220  369.7722
 221  303.3354
 222  382.2101
 223  391.8101
 224  371.7029
 225  458.2715
 226  426.5429
 227  406.8803
 228  336.949
 229  300.9316
 230  216.6782
 231  278.4418
 232  365.3627
 233  436.909
 234  429.857
 235  404.0831
 236  401.1015
 237  404.0581
 238  433.294
 239  400.5568
 240  358.1898
 241  505.0061
 242  492.546
 243  535.1369
 244  482.9554
 245  377.3835
 246  358.4193
 247  388.5008
 248  393.4107
 249  472.3493
 250  511.7056
 251  425.708
 252  480.5179
 253  513.3345
 254  509.5054
 255  451.1249
 256  358.1234
 257  480.4261
 258  544.1358
 259  353.1664
 260  305.4249
 261  249.4418
 262  363.8656
 263  402.8507
 264  417.6462
 265  355.5015
 266  412.7204
 267  370.8984
 268  254.3533
 269  420.6786
 270  396.107
 271  415.0201
 272  458.6225
 273  411.9811
 274  357.3343
 275  453.7024
 276  406.0772
 277  473.9873
 278  467.1209
 279  495.2917
 280  451.7151
 281  382.3546
 282  335.442
 283  372.3502
 284  420.6544
 285  433.6505
 286  350.2334
 287  377.0245
 288  394.889
 289  451.5574
 290  393.8177
 291  398.3276
 292  370.5159
 293  488.5689
 294  422.2403
 295  389.5403
 296  372.1503
 297  334.7682
 298  551.7224
 299  475.1386
 300  484.2535
 301  511.5914
 302  450.4506
 303  486.2791
 304  475.0285
 305  356.9555
 306  419.8644
 307  403.6841
 308  419.337
 309  350.4814
 310  219.5347
 311  268.4606
 312  275.9966
 313  321.613
 314  411.2502
 315  329.8556
 316  326.2294
 317  356.1415
 318  438.2846
 319  447.8214
 320  360.9777
 321  389.3723
 322  418.2386
 323  425.9809
 324  323.4561
 325  284.5802
 326  285.5703
 327  305.5525
 328  298.9871
 329  329.3293
 330  406.5869
 331  428.2759
 332  480.6603
 333  503.2639
 334  467.7439
 335  309.1598
 336  354.3499
 337  395.0177
 338  298.1031
 339  416.689
 340  402.1555
 341  403.7856
 342  506.3981
 343  412.8345
 344  402.9802
 345  403.5969
 346  484.8744
 347  481.9282
 348  344.0778
 349  308.0082
 350  342.298
 351  425.929
 352  408.4787
 353  281.5327
 354  249.0203
 355  348.5844
 356  399.7776
 357  488.5013
 358  452.7902
 359  392.4493
 360  414.5834
 361  383.8597
 362  334.6896
 363  325.2262
 364  282.6909
 365  279.9742
 366  337.1589
 367  399.5861
 368  347.8317
 369  269.9421
 370  303.1465
 371  423.0537
 372  405.4939
 373  338.505
 374  362.0704
 375  397.002
 376  349.9053
 377  399.7351
 378  434.8734
 379  409.0679
 380  468.6678
 381  445.1295
 382  563.0598
 383  416.0842
 384  442.2637
 385  488.8385
 386  448.1408
 387  333.8142
 388  327.005
 389  286.6592
 390  266.9602
 391  343.5283
 392  357.6516
 393  286.4513
 394  369.1312
 395  475.8302
 396  522.6127
 397  398.8631
 398  350.7789
 399  429.7879
 400  402.7438
 401  262.356
 402  269.7186
 403  381.9013
 404  449.7394
 405  478.6364
 406  475.2387
 407  346.6876
 408  151.2288
 409  315.0208
 410  323.2614
 411  358.6928
 412  358.7986
 413  380.1087
 414  502.8604
 415  481.3397
 416  379.7777
 417  302.8034
 418  453.2016
 419  349.3774
 420  365.4181
 421  272.3044
 422  314.3137
 423  319.0083
 424  276.2624
 425  462.7277
 426  392.1042
 427  400.3245
 428  349.9791
 429  359.6221
 430  421.9027
 431  339.5791
 432  291.8877
 433  261.6073
 434  387.62
 435  402.746
 436  413.3741
 437  338.5643
 438  400.4914
 439  411.5986
 440  354.8396
 441  417.6485
 442  379.3407
 443  392.0093
 444  347.167
 445  390.23
 446  362.9116
 447  358.0822
 448  306.2487
 449  252.6866
 450  368.5992
 451  285.9819
 452  300.0245
 453  377.4011
 454  447.4542
 455  388.9403
 456  337.1917
 457  272.7929
 458  329.6567
 459  275.864
 460  273.9432
 461  319.2838
 462  257.4454
 463  380.3092
 464  316.8264
 465  320.5345
 466  404.6543
 467  311.6804
 468  315.022
 469  237.9675
 470  282.2697
 471  338.2372
 472  281.9025
 473  389.2396
 474  338.465
 475  312.3645
 476  381.9695
 477  333.1776
 478  363.067
 479  363.9751
 480  445.4823
 481  494.1619
 482  498.5836
 483  433.4594
 484  442.3099
 485  434.9639
 486  394.4536
 487  421.2921
 488  548.9873
 489  574.8036
 490  456.2054
 491  329.0869
 492  395.6866
 493  534.0029
 494  552.7051
 495  603.1357
 496  523.197
 497  416.9152
 498  447.3821
 499  392.9839
 500  414.9619
 501  443.6718
 502  325.0303
 503  340.224
 504  448.4063
 505  411.7353
 506  373.1134
 507  329.9716
 508  292.4201
 509  249.2981
 510  264.4037
 511  297.2054
