# Input file       =  1193175289.14436_cleaned.dat
# Candidate        =  PSR_0332+5434
# Telescope        =  AR
# Epoch_topo       =  58053.899399818984
# Epoch_bary       =  N/A
# T_sample         =  0.002
# Data Folded      =  7340032
# Data Avg         =  0.0421151006022617
# Data StdDev      =  2.42502612576485 
# Profile Bins     =  1024
# Profile Avg      =  301.866944035036 
# Profile StdDev   =  205.312513651464 
# Reduced chi-sqr  =  1.083
# Prob(Noise)      <  0.0331   (~1.8 sigma)
# P_topo (ms)      =  714.492032295271  +/- 0.000151
# P'_topo (s/s)    =  -0                +/- 7.98e-11
# P''_topo (s/s^2) =  0                 +/- 3.53e-14
# P_bary (ms)      =  N/A
# P'_bary (s/s)    =  N/A
# P''_bary (s/s^2) =  N/A
# P_orb (s)        =  N/A
# asin(i)/c (s)    =  N/A
# eccentricity     =  N/A
# w (rad)          =  N/A
# T_peri           =  N/A
######################################################
   0  354.4496
   1  305.8296
   2  350.7271
   3  303.1376
   4  359.6933
   5  357.0073
   6  312.2944
   7  223.1571
   8  233.0879
   9  363.1866
  10  407.6118
  11  492.7221
  12  329.9633
  13  399.7027
  14  329.2076
  15  423.3465
  16  351.3044
  17  394.209
  18  365.9847
  19  279.5592
  20  173.0336
  21  218.3357
  22  286.9789
  23  330.4821
  24  272.007
  25  215.2363
  26  210.0099
  27  226.0505
  28  278.7726
  29  292.3012
  30  379.9628
  31  422.8929
  32  448.8318
  33  318.4772
  34  350.2541
  35  282.8963
  36  378.1782
  37  285.055
  38  369.9997
  39  408.347
  40  442.573
  41  471.3226
  42  405.4357
  43  375.4204
  44  342.8546
  45  316.1771
  46  294.4142
  47  258.6729
  48  207.161
  49  264.8472
  50  282.1104
  51  395.0606
  52  311.95
  53  281.5736
  54  271.5666
  55  344.9649
  56  278.3649
  57  165.6398
  58  165.6316
  59  232.6938
  60  204.6539
  61  98.43871
  62  249.3241
  63  335.2498
  64  444.6596
  65  312.4305
  66  228.6548
  67  96.04588
  68  46.9789
  69  70.26101
  70  230.5654
  71  269.6535
  72  385.8656
  73  361.3271
  74  469.5909
  75  482.7963
  76  407.2848
  77  308.9106
  78  145.8206
  79  63.15586
  80  122.9485
  81  276.6955
  82  310.2125
  83  271.3128
  84  202.7138
  85  209.0283
  86  228.2477
  87  249.3395
  88  202.3681
  89  259.0893
  90  239.1891
  91  290.8626
  92  192.9834
  93  175.7414
  94  184.5479
  95  262.6398
  96  207.6388
  97  191.5529
  98  216.4273
  99  361.805
 100  368.1248
 101  366.1541
 102  288.3395
 103  303.3384
 104  311.037
 105  231.4824
 106  149.7237
 107  84.88869
 108  179.2687
 109  130.2547
 110  166.4014
 111  81.1531
 112  116.3434
 113  87.03306
 114  262.5233
 115  369.8976
 116  501.2449
 117  479.1584
 118  380.7683
 119  358.971
 120  331.5232
 121  320.8531
 122  303.1654
 123  287.9635
 124  314.7322
 125  362.3016
 126  318.4475
 127  344.5932
 128  258.3672
 129  268.6743
 130  327.3633
 131  460.1405
 132  499.6335
 133  393.5866
 134  270.7777
 135  322.9786
 136  294.4821
 137  369.9082
 138  299.5513
 139  362.255
 140  298.4561
 141  291.0433
 142  401.5989
 143  433.8938
 144  418.2681
 145  262.7242
 146  177.3273
 147  142.1509
 148  128.438
 149  247.8062
 150  414.6663
 151  491.1603
 152  474.2179
 153  271.0804
 154  170.1618
 155  82.20529
 156  203.0454
 157  232.4982
 158  289.1638
 159  311.5983
 160  361.2476
 161  344.2797
 162  336.2024
 163  345.7988
 164  354.4193
 165  297.6439
 166  251.5247
 167  216.8939
 168  126.6259
 169  185.8785
 170  236.5266
 171  327.4485
 172  271.5376
 173  235.4101
 174  212.1374
 175  155.6484
 176  158.6286
 177  158.0988
 178  249.2304
 179  232.2891
 180  197.3431
 181  138.1102
 182  163.3291
 183  128.3009
 184  148.6629
 185  192.1082
 186  276.0491
 187  312.903
 188  350.7562
 189  286.6328
 190  311.6689
 191  210.1546
 192  230.8263
 193  172.4313
 194  269.3322
 195  230.9344
 196  225.5709
 197  233.1216
 198  278.2592
 199  295.7354
 200  288.2813
 201  317.0216
 202  315.9503
 203  223.9416
 204  125.1003
 205  97.02426
 206  125.9066
 207  204.9022
 208  243.4237
 209  193.6722
 210  105.5528
 211  72.96564
 212  107.742
 213  270.7631
 214  265.7354
 215  230.8009
 216  152.4618
 217  119.016
 218  205.0748
 219  273.7155
 220  381.0613
 221  435.7887
 222  423.6584
 223  263.9534
 224  168.886
 225  137.8531
 226  265.1951
 227  159.9372
 228  78.83035
 229  66.19422
 230  260.0323
 231  254.4058
 232  217.0773
 233  160.993
 234  234.4163
 235  216.8145
 236  217.1056
 237  199.8386
 238  238.9704
 239  265.7664
 240  323.3689
 241  270.8215
 242  175.6353
 243  195.7767
 244  247.4533
 245  331.8081
 246  227.5488
 247  343.1978
 248  208.0033
 249  243.4801
 250  147.683
 251  251.6843
 252  238.0275
 253  291.0027
 254  291.9474
 255  282.2192
 256  241.7454
 257  244.0661
 258  304.2049
 259  424.9074
 260  540.9392
 261  566.7938
 262  608.0984
 263  533.8806
 264  490.6136
 265  288.2921
 266  259.0822
 267  223.8971
 268  304.183
 269  263.1584
 270  260.0067
 271  263.6916
 272  417.006
 273  480.557
 274  412.2952
 275  328.3651
 276  340.0894
 277  456.2646
 278  392.3804
 279  374.7305
 280  300.3024
 281  350.5569
 282  317.7185
 283  381.6188
 284  334.4983
 285  346.1279
 286  254.7119
 287  287.1458
 288  292.5358
 289  368.7774
 290  293.2582
 291  234.329
 292  268.2197
 293  301.6419
 294  243.9908
 295  155.6304
 296  163.5625
 297  261.4119
 298  300.1114
 299  366.8266
 300  396.422
 301  336.514
 302  337.7391
 303  336.548
 304  419.9891
 305  327.756
 306  291.0858
 307  180.6973
 308  262.4424
 309  217.7591
 310  266.0938
 311  228.7589
 312  214.8676
 313  188.5111
 314  248.4017
 315  310.875
 316  311.1337
 317  216.6456
 318  176.8095
 319  220.6046
 320  310.6159
 321  362.5257
 322  313.1524
 323  421.7769
 324  406.3849
 325  392.2661
 326  221.337
 327  243.1205
 328  282.8613
 329  324.8257
 330  182.6347
 331  131.0681
 332  143.8161
 333  258.0816
 334  213.3406
 335  178.9155
 336  173.4777
 337  233.8585
 338  271.3986
 339  243.5936
 340  245.188
 341  224.2651
 342  279.8607
 343  268.2755
 344  218.0445
 345  162.5162
 346  184.0786
 347  175.7434
 348  277.3544
 349  281.1061
 350  314.1842
 351  163.6087
 352  134.4529
 353  149.4399
 354  208.1605
 355  209.7077
 356  263.9005
 357  333.7979
 358  313.8808
 359  308.3036
 360  224.2374
 361  238.7379
 362  192.4969
 363  143.1471
 364  142.2711
 365  147.592
 366  157.7874
 367  117.4762
 368  1.076772
 369  52.75127
 370  74.2346
 371  190.6337
 372  168.7583
 373  257.5583
 374  370.4498
 375  387.7217
 376  343.0822
 377  292.0811
 378  281.2796
 379  167.809
 380  187.1393
 381  217.2777
 382  330.9447
 383  211.1926
 384  160.0019
 385  155.4724
 386  286.1057
 387  350.429
 388  412.5263
 389  361.8783
 390  396.5179
 391  460.5253
 392  508.9859
 393  451.2327
 394  324.4781
 395  331.5842
 396  352.8416
 397  406.664
 398  395.4263
 399  458.2682
 400  429.502
 401  388.8535
 402  276.1947
 403  262.9001
 404  209.933
 405  204.1753
 406  236.1912
 407  270.3335
 408  188.097
 409  129.8358
 410  94.75434
 411  174.5868
 412  237.6982
 413  310.3006
 414  381.1066
 415  362.122
 416  363.1956
 417  363.4309
 418  413.182
 419  394.937
 420  384.8163
 421  271.9662
 422  332.683
 423  343.4343
 424  483.8763
 425  347.8489
 426  226.367
 427  138.3447
 428  299.5247
 429  359.656
 430  376.3294
 431  232.1794
 432  273.2874
 433  197.2497
 434  86.50267
 435  33.54117
 436  120.9095
 437  279.1681
 438  290.4106
 439  390.0836
 440  276.7296
 441  255.3062
 442  126.426
 443  273.0721
 444  300.4961
 445  438.3315
 446  371.9706
 447  391.799
 448  361.935
 449  445.4646
 450  370.963
 451  411.9706
 452  464.7243
 453  548.5847
 454  524.3195
 455  410.2071
 456  350.4088
 457  314.0986
 458  343.2979
 459  287.1078
 460  327.4539
 461  351.7261
 462  350.9462
 463  289.896
 464  267.6392
 465  287.3408
 466  267.3512
 467  214.3147
 468  160.9247
 469  216.7089
 470  328.5349
 471  426.6556
 472  375.1429
 473  318.3546
 474  382.8039
 475  448.8901
 476  392.9041
 477  237.828
 478  253.1184
 479  363.813
 480  292.4374
 481  161.3406
 482  141.8756
 483  330.2136
 484  357.4533
 485  375.9389
 486  296.1422
 487  337.5348
 488  213.075
 489  229.0701
 490  203.9576
 491  271.7951
 492  279.5138
 493  330.3039
 494  381.9482
 495  368.662
 496  347.9092
 497  257.323
 498  127.027
 499  111.3173
 500  228.9099
 501  285.1478
 502  392.12
 503  298.071
 504  382.4165
 505  305.2612
 506  362.6491
 507  253.8583
 508  314.5857
 509  290.0357
 510  318.8217
 511  313.8193
 512  423.5454
 513  467.8513
 514  462.7421
 515  298.2853
 516  172.915
 517  193.6059
 518  261.4264
 519  261.9979
 520  115.0111
 521  216.4431
 522  181.6779
 523  250.9562
 524  185.4459
 525  235.2823
 526  175.6615
 527  235.8157
 528  272.2708
 529  283.9451
 530  251.9595
 531  265.281
 532  230.1658
 533  201.5453
 534  147.898
 535  189.1677
 536  222.997
 537  294.6443
 538  258.1001
 539  267.3666
 540  269.065
 541  303.1772
 542  289.8237
 543  272.7869
 544  365.3721
 545  378.7675
 546  481.225
 547  426.9358
 548  427.7758
 549  385.5767
 550  338.0923
 551  314.1757
 552  321.7535
 553  341.2534
 554  346.4139
 555  384.8934
 556  351.4009
 557  316.7419
 558  233.111
 559  175.9375
 560  91.40837
 561  83.80337
 562  103.4794
 563  118.0295
 564  74.32597
 565  184.9617
 566  209.4015
 567  275.9066
 568  243.6385
 569  305.5424
 570  373.2991
 571  389.7424
 572  405.4948
 573  388.3358
 574  335.2055
 575  291.2845
 576  321.9838
 577  334.9622
 578  313.8251
 579  190.5823
 580  274.5095
 581  310.8852
 582  415.5712
 583  387.9948
 584  454.5474
 585  309.1757
 586  298.0481
 587  204.2095
 588  296.7956
 589  259.0566
 590  321.903
 591  297.9435
 592  315.9668
 593  347.2739
 594  304.5797
 595  279.6266
 596  234.2607
 597  296.6365
 598  307.7602
 599  334.1768
 600  284.1662
 601  290.1452
 602  231.1537
 603  279.3604
 604  279.3192
 605  364.4106
 606  344.7281
 607  391.4546
 608  416.2193
 609  429.7389
 610  276.4893
 611  228.5636
 612  305.197
 613  417.333
 614  463.5276
 615  354.1423
 616  391.7604
 617  370.9431
 618  338.3123
 619  281.9998
 620  385.9287
 621  460.093
 622  440.368
 623  302.1124
 624  403.4816
 625  434.778
 626  547.7032
 627  534.6267
 628  484.0006
 629  470.4367
 630  685.7421
 631  897.0672
 632  980.6609
 633  975.3328
 634  909.6545
 635  896.8689
 636  890.225
 637  997.8477
 638  964.4528
 639  847.6304
 640  737.2137
 641  727.8822
 642  607.3622
 643  534.069
 644  378.4858
 645  402.8775
 646  373.1941
 647  423.1023
 648  370.899
 649  346.7852
 650  297.0353
 651  317.4264
 652  281.6664
 653  268.8679
 654  244.4034
 655  219.6516
 656  282.6994
 657  262.3547
 658  288.3625
 659  171.6837
 660  186.715
 661  215.4991
 662  288.0715
 663  355.323
 664  367.0946
 665  379.6422
 666  302.4231
 667  317.8226
 668  323.06
 669  341.7888
 670  325.9895
 671  356.6084
 672  347.6726
 673  286.7887
 674  240.5126
 675  197.3299
 676  190.1492
 677  268.474
 678  335.6577
 679  421.3194
 680  208.7609
 681  100.3211
 682  73.77079
 683  198.2711
 684  282.1063
 685  397.3856
 686  383.6981
 687  308.423
 688  207.2112
 689  235.083
 690  235.7743
 691  159.0203
 692  67.65351
 693  60.15031
 694  79.6739
 695  130.9946
 696  275.151
 697  313.3335
 698  363.1454
 699  302.4759
 700  368.8762
 701  329.9561
 702  375.6868
 703  412.4143
 704  538.7645
 705  555.1586
 706  513.1102
 707  397.2412
 708  292.2028
 709  294.4955
 710  408.2929
 711  558.442
 712  382.2824
 713  292.0475
 714  216.4753
 715  317.0302
 716  191.5409
 717  249.662
 718  276.6586
 719  412.9447
 720  469.1249
 721  591.9697
 722  460.7043
 723  291.4492
 724  117.4818
 725  212.8342
 726  214.6259
 727  230.8409
 728  156.5084
 729  282.9513
 730  366.1534
 731  384.5516
 732  341.0059
 733  159.4317
 734  305.6304
 735  378.4968
 736  531.0189
 737  307.9749
 738  272.7228
 739  208.1156
 740  344.7397
 741  274.7022
 742  318.244
 743  348.5668
 744  414.4959
 745  339.907
 746  292.5879
 747  278.642
 748  267.1441
 749  300.4102
 750  408.9046
 751  404.1146
 752  395.4726
 753  323.0759
 754  362.8696
 755  446.3282
 756  446.125
 757  411.0145
 758  345.4652
 759  360.3596
 760  366.9527
 761  507.4712
 762  480.5093
 763  412.9732
 764  274.8323
 765  264.4503
 766  225.1628
 767  302.5671
 768  402.7803
 769  456.5247
 770  320.2253
 771  289.7633
 772  331.4943
 773  291.8489
 774  316.2418
 775  263.7147
 776  382.8
 777  307.8963
 778  327.5308
 779  288.4911
 780  353.3862
 781  324.1378
 782  296.4248
 783  308.5672
 784  294.1322
 785  196.1845
 786  178.4229
 787  241.4013
 788  351.3376
 789  285.7075
 790  219.7036
 791  233.6007
 792  226.3687
 793  208.8925
 794  168.8061
 795  142.8593
 796  208.0614
 797  227.7377
 798  258.8011
 799  192.01
 800  158.3373
 801  202.4496
 802  244.7584
 803  185.764
 804  138.1509
 805  242.1116
 806  315.5466
 807  369.5296
 808  444.3741
 809  462.2046
 810  376.1772
 811  302.5148
 812  317.0408
 813  288.3392
 814  256.9968
 815  341.0803
 816  423.8944
 817  376.0646
 818  364.4056
 819  345.269
 820  494.2711
 821  346.3437
 822  370.4406
 823  194.2413
 824  289.0857
 825  291.4041
 826  322.72
 827  313.7147
 828  262.7563
 829  258.1638
 830  362.268
 831  460.3854
 832  555.2411
 833  544.1511
 834  490.8376
 835  298.9292
 836  139.9254
 837  122.8313
 838  129.0977
 839  189.1297
 840  203.6638
 841  311.959
 842  350.8009
 843  279.3642
 844  225.9623
 845  205.8502
 846  180.7317
 847  162.2572
 848  179.6829
 849  288.0535
 850  334.7249
 851  353.4447
 852  395.887
 853  253.0971
 854  147.6178
 855  67.11629
 856  74.80529
 857  97.99132
 858  151.0479
 859  128.2561
 860  124.6795
 861  116.3358
 862  312.9783
 863  415.5739
 864  389.6633
 865  300.5581
 866  328.3204
 867  364.9091
 868  282.7132
 869  193.5363
 870  136.2453
 871  212.2837
 872  248.1048
 873  407.0051
 874  423.2659
 875  455.7097
 876  411.5938
 877  533.485
 878  494.0132
 879  425.3784
 880  330.5372
 881  337.5614
 882  361.7006
 883  303.6573
 884  213.4561
 885  188.2643
 886  195.4167
 887  302.462
 888  322.2762
 889  324.584
 890  297.774
 891  311.4841
 892  354.8572
 893  398.0348
 894  407.6881
 895  328.7072
 896  351.4626
 897  287.3174
 898  381.976
 899  284.1472
 900  308.798
 901  222.1481
 902  294.7479
 903  257.89
 904  271.1466
 905  230.6659
 906  261.901
 907  259.4939
 908  299.7967
 909  356.7043
 910  437.4998
 911  455.2434
 912  401.6165
 913  322.0918
 914  297.207
 915  346.7133
 916  294.4379
 917  350.2944
 918  320.6577
 919  307.3247
 920  264.2506
 921  214.0457
 922  232.7223
 923  228.8151
 924  257.3629
 925  186.0346
 926  233.8991
 927  394.2076
 928  484.3693
 929  345.7162
 930  248.014
 931  193.8187
 932  225.8591
 933  244.2847
 934  259.8853
 935  276.9991
 936  285.9199
 937  345.7965
 938  320.8105
 939  282.5693
 940  338.0407
 941  303.8791
 942  265.0743
 943  178.4777
 944  318.2769
 945  358.8865
 946  339.1567
 947  269.2001
 948  207.7569
 949  162.2911
 950  197.1591
 951  324.2566
 952  319.6411
 953  410.2077
 954  322.9505
 955  283.8178
 956  162.253
 957  197.8324
 958  245.2051
 959  318.6674
 960  296.2801
 961  249.1466
 962  164.485
 963  297.915
 964  368.3804
 965  435.0242
 966  382.5677
 967  299.1346
 968  266.0222
 969  259.9458
 970  368.8482
 971  372.5868
 972  378.89
 973  252.5924
 974  261.1612
 975  274.7411
 976  337.6647
 977  330.5349
 978  435.2689
 979  391.9192
 980  517.3343
 981  526.666
 982  445.0979
 983  221.2807
 984  139.7235
 985  242.1612
 986  421.7312
 987  536.626
 988  584.8538
 989  579.0518
 990  632.8209
 991  544.4128
 992  407.6143
 993  312.923
 994  274.7196
 995  400.0231
 996  360.0798
 997  387.4283
 998  228.9383
 999  230.1215
1000  247.7429
1001  285.8219
1002  286.0358
1003  262.5969
1004  327.5028
1005  354.7166
1006  335.0516
1007  342.3186
1008  370.8207
1009  402.754
1010  435.7914
1011  407.8626
1012  357.1157
1013  291.9962
1014  247.8063
1015  242.3588
1016  276.358
1017  301.1061
1018  319.93
1019  391.5999
1020  414.2937
1021  320.1767
1022  293.9876
1023  251.034
