# Input file       =  1193606032.151142_cleaned.dat
# Candidate        =  PSR_0332+5434
# Telescope        =  AR
# Epoch_topo       =  58058.884851286362
# Epoch_bary       =  N/A
# T_sample         =  0.002
# Data Folded      =  7340032
# Data Avg         =  0.0234529973238291
# Data StdDev      =  0.999848194209533
# Profile Bins     =  512
# Profile Avg      =  336.224882791112 
# Profile StdDev   =  119.714860208534 
# Reduced chi-sqr  =  1.566
# Prob(Noise)      <  3.81e-15   (~7.8 sigma)
# P_topo (ms)      =  714.496524180198  +/- 0.000234
# P'_topo (s/s)    =  -0                +/- 1.24e-10
# P''_topo (s/s^2) =  0                 +/- 5.46e-14
# P_bary (ms)      =  N/A
# P'_bary (s/s)    =  N/A
# P''_bary (s/s^2) =  N/A
# P_orb (s)        =  N/A
# asin(i)/c (s)    =  N/A
# eccentricity     =  N/A
# w (rad)          =  N/A
# T_peri           =  N/A
######################################################
   0  201.4911
   1  301.4094
   2  435.3813
   3  418.3609
   4  271.5476
   5  282.844
   6  375.6898
   7  319.7943
   8  323.1887
   9  389.5435
  10  348.0434
  11  290.8181
  12  369.6926
  13  369.2924
  14  311.7354
  15  314.7773
  16  186.8133
  17  148.8005
  18  267.9953
  19  312.4973
  20  361.3134
  21  353.2794
  22  395.4196
  23  360.1883
  24  329.0587
  25  173.6942
  26  245.6326
  27  283.8155
  28  313.7935
  29  333.4449
  30  471.4045
  31  492.4749
  32  340.2988
  33  430.8365
  34  344.8057
  35  359.7653
  36  294.5858
  37  310.952
  38  254.7003
  39  357.6052
  40  480.6225
  41  424.9577
  42  450.6028
  43  287.6441
  44  221.5585
  45  304.3993
  46  311.892
  47  354.3098
  48  477.3123
  49  304.3888
  50  152.5739
  51  321.5429
  52  442.9274
  53  328.7698
  54  375.8269
  55  493.1429
  56  383.8078
  57  233.9741
  58  255.0955
  59  315.9572
  60  332.7203
  61  283.6227
  62  231.7718
  63  355.8646
  64  364.2301
  65  365.7932
  66  321.9456
  67  286.1371
  68  242.5284
  69  168.9362
  70  300.5432
  71  256.212
  72  273.6691
  73  327.8239
  74  384.1446
  75  210.2213
  76  227.4801
  77  260.7496
  78  238.9355
  79  244.5267
  80  291.3894
  81  287.0182
  82  343.0968
  83  385.9119
  84  266.6216
  85  351.6828
  86  324.9198
  87  376.0146
  88  372.3388
  89  144.8148
  90  295.0641
  91  375.2193
  92  463.3297
  93  322.9632
  94  361.1935
  95  230.8112
  96  174.9501
  97  241.5462
  98  111.3217
  99  226.5689
 100  206.2088
 101  358.1884
 102  311.7311
 103  285.6685
 104  485.7218
 105  412.167
 106  311.1216
 107  313.4646
 108  261.059
 109  241.9456
 110  278.8759
 111  316.4714
 112  282.3143
 113  153.2542
 114  228.8983
 115  333.3613
 116  250.4511
 117  213.6701
 118  168.7529
 119  121.4142
 120  225.9808
 121  280.7371
 122  203.0862
 123  251.5905
 124  300.832
 125  310.2238
 126  223.3798
 127  419.3328
 128  465.3907
 129  301.525
 130  291.541
 131  244.6899
 132  291.1648
 133  143.3687
 134  123.5548
 135  355.6448
 136  251.7405
 137  237.4594
 138  282.7909
 139  215.7094
 140  251.8441
 141  247.1206
 142  339.6373
 143  222.4623
 144  334.4634
 145  370.7052
 146  179.1115
 147  270.7625
 148  258.6783
 149  279.9611
 150  316.9532
 151  286.6278
 152  318.2027
 153  390.5352
 154  413.4428
 155  369.7592
 156  243.5157
 157  294.2381
 158  542.5346
 159  542.5695
 160  329.0961
 161  149.4183
 162  318.6576
 163  292.3826
 164  431.8994
 165  513.9481
 166  462.4635
 167  277.4197
 168  306.6628
 169  379.6717
 170  371.8892
 171  383.0338
 172  325.7354
 173  356.6359
 174  255.2927
 175  279.6282
 176  314.785
 177  296.082
 178  324.3215
 179  267.4717
 180  277.9785
 181  277.735
 182  285.719
 183  264.6002
 184  256.7627
 185  116.8946
 186  197.988
 187  326.2431
 188  432.3023
 189  381.1812
 190  492.0624
 191  372.8782
 192  278.3351
 193  313.0223
 194  260.2085
 195  255.6145
 196  323.2923
 197  377.7342
 198  440.7183
 199  398.7406
 200  311.6011
 201  360.7034
 202  337.2851
 203  173.844
 204  87.02644
 205  223.8655
 206  367.3159
 207  315.1331
 208  157.673
 209  119.0105
 210  201.7793
 211  344.9111
 212  312.4941
 213  310.8359
 214  254.4066
 215  240.3237
 216  223.6486
 217  244.4125
 218  290.2675
 219  313.3814
 220  376.6089
 221  382.1016
 222  364.4446
 223  316.6606
 224  358.0061
 225  347.2308
 226  252.3355
 227  268.8178
 228  253.2909
 229  176.9666
 230  351.3334
 231  374.3272
 232  284.0286
 233  289.6719
 234  346.4471
 235  325.1102
 236  331.944
 237  354.8883
 238  318.7053
 239  340.1397
 240  409.459
 241  274.8822
 242  134.5213
 243  287.5083
 244  327.3238
 245  177.8938
 246  268.5095
 247  149.854
 248  189.4196
 249  291.6414
 250  199.1642
 251  305.6715
 252  335.7871
 253  301.4306
 254  191.6803
 255  213.4869
 256  334.062
 257  294.8686
 258  220.1781
 259  147.2146
 260  125.8959
 261  277.9831
 262  261.8643
 263  334.8412
 264  334.5551
 265  374.572
 266  323.623
 267  410.8687
 268  387.6964
 269  327.8663
 270  163.4128
 271  231.3033
 272  359.4215
 273  407.1941
 274  482.6393
 275  470.7416
 276  460.8699
 277  317.7248
 278  327.175
 279  270.0333
 280  297.4708
 281  228.8478
 282  259.3709
 283  350.2974
 284  249.5024
 285  358.1286
 286  297.5619
 287  259.8495
 288  250.2565
 289  271.878
 290  325.1578
 291  352.7473
 292  385.1868
 293  366.7351
 294  320.6503
 295  309.329
 296  408.0353
 297  338.4984
 298  338.045
 299  454.7284
 300  496.7696
 301  435.7154
 302  316.6508
 303  229.1066
 304  414.2755
 305  501.0777
 306  489.1087
 307  412.2214
 308  399.7312
 309  506.988
 310  434.0487
 311  385.5001
 312  461.7781
 313  465.4094
 314  461.3267
 315  457.4026
 316  432.0526
 317  469.8529
 318  497.0051
 319  490.7737
 320  292.6149
 321  332.0959
 322  356.9291
 323  442.8471
 324  394.8324
 325  228.0414
 326  322.1017
 327  407.5845
 328  314.0467
 329  272.9464
 330  328.6127
 331  415.3644
 332  486.4486
 333  366.991
 334  378.834
 335  311.2672
 336  405.2702
 337  432.2748
 338  411.1884
 339  425.9227
 340  449.7632
 341  440.8315
 342  373.3985
 343  352.2555
 344  328.0393
 345  277.3726
 346  414.133
 347  386.3228
 348  291.6841
 349  445.6253
 350  488.1175
 351  329.8379
 352  299.7097
 353  336.1211
 354  442.4856
 355  456.8051
 356  366.7193
 357  342.9911
 358  291.7038
 359  411.8869
 360  412.7346
 361  350.855
 362  351.91
 363  376.9521
 364  415.6385
 365  444.9213
 366  286.8701
 367  336.7488
 368  458.8921
 369  353.7721
 370  430.7761
 371  278.6216
 372  207.066
 373  257.0682
 374  450.7055
 375  501.28
 376  453.4712
 377  341.7787
 378  404.537
 379  425.8546
 380  492.0391
 381  430.8539
 382  455.8411
 383  569.062
 384  482.8725
 385  449.5362
 386  481.9122
 387  380.4705
 388  332.2502
 389  423.4401
 390  428.9868
 391  424.1585
 392  388.6525
 393  441.0192
 394  389.908
 395  296.0926
 396  315.5863
 397  372.6451
 398  512.7837
 399  655.4739
 400  601.0283
 401  674.0645
 402  915.9413
 403  973.2961
 404  1025.693
 405  976.0337
 406  781.8693
 407  654.4998
 408  535.6828
 409  563.3116
 410  427.2587
 411  417.3772
 412  412.3933
 413  482.3532
 414  391.911
 415  382.2514
 416  458.3471
 417  344.2112
 418  363.3049
 419  364.9087
 420  359.4597
 421  425.9363
 422  205.7354
 423  232.5712
 424  347.002
 425  280.4502
 426  278.9629
 427  307.0426
 428  239.6319
 429  292.6356
 430  247.6638
 431  372.6685
 432  297.1008
 433  347.2732
 434  421.8225
 435  308.7935
 436  216.2707
 437  366.6985
 438  406.933
 439  334.1974
 440  331.8482
 441  362.6413
 442  300.8709
 443  390.2236
 444  229.742
 445  287.1517
 446  218.9174
 447  227.3099
 448  318.6268
 449  544.3129
 450  474.9403
 451  308.301
 452  277.402
 453  271.9335
 454  241.5981
 455  276.2625
 456  352.3305
 457  343.8682
 458  269.2148
 459  262.9871
 460  321.9614
 461  217.1612
 462  260.4728
 463  285.9552
 464  337.6264
 465  324.3124
 466  269.0272
 467  392.9088
 468  466.8107
 469  279.8472
 470  286.8289
 471  335.9132
 472  259.2123
 473  311.4792
 474  244.6228
 475  345.8299
 476  261.037
 477  150.5225
 478  258.0258
 479  376.7279
 480  407.3649
 481  276.186
 482  291.3452
 483  214.5809
 484  323.5255
 485  270.4416
 486  296.3659
 487  428.9572
 488  390.787
 489  305.4838
 490  337.9821
 491  417.1599
 492  283.5342
 493  198.2881
 494  160.0528
 495  335.1169
 496  279.6128
 497  323.9261
 498  298.2836
 499  311.8697
 500  327.6995
 501  317.4502
 502  281.8795
 503  338.5886
 504  404.1429
 505  387.7221
 506  364.2334
 507  415.088
 508  280.0681
 509  286.7635
 510  376.3497
 511  315.155
