# Input file       =  1193448663.162481_cleaned.dat
# Candidate        =  PSR_0332+5434
# Telescope        =  AR
# Epoch_topo       =  58057.063450954643
# Epoch_bary       =  N/A
# T_sample         =  0.002
# Data Folded      =  7340032
# Data Avg         =  0.015829335666787
# Data StdDev      =  0.999971113145072
# Profile Bins     =  512
# Profile Avg      =  226.943759481771 
# Profile StdDev   =  119.729577665914 
# Reduced chi-sqr  =  1.430
# Prob(Noise)      <  5.33e-10   (~6.1 sigma)
# P_topo (ms)      =  714.495194556195  +/- 0.000195
# P'_topo (s/s)    =  -0                +/- 1.03e-10
# P''_topo (s/s^2) =  0                 +/- 4.54e-14
# P_bary (ms)      =  N/A
# P'_bary (s/s)    =  N/A
# P''_bary (s/s^2) =  N/A
# P_orb (s)        =  N/A
# asin(i)/c (s)    =  N/A
# eccentricity     =  N/A
# w (rad)          =  N/A
# T_peri           =  N/A
######################################################
   0  362.8995
   1  416.8432
   2  426.5858
   3  385.4507
   4  372.9565
   5  262.7776
   6  293.6337
   7  260.4918
   8  279.2001
   9  277.3523
  10  291.398
  11  323.7882
  12  245.1461
  13  219.8438
  14  198.3331
  15  250.9979
  16  185.2361
  17  157.5855
  18  128.2913
  19  182.049
  20  274.1505
  21  231.711
  22  237.8439
  23  324.0235
  24  282.5006
  25  99.75996
  26  127.4972
  27  201.3537
  28  194.0256
  29  323.1288
  30  375.9392
  31  286.1466
  32  214.6043
  33  147.4134
  34  177.9959
  35  147.5963
  36  123.0089
  37  195.4642
  38  252.628
  39  264.9012
  40  277.4334
  41  342.3183
  42  198.078
  43  207.0446
  44  296.2489
  45  279.2703
  46  303.537
  47  210.4202
  48  203.0405
  49  158.6682
  50  79.99258
  51  259.0287
  52  301.3187
  53  231.7919
  54  85.64599
  55  142.2074
  56  221.1892
  57  201.3902
  58  304.06
  59  262.5915
  60  297.0512
  61  264.1958
  62  267.4984
  63  113.5872
  64  27.73381
  65  145.306
  66  228.4599
  67  131.6272
  68  143.9876
  69  105.5657
  70  150.351
  71  98.80947
  72  158.0188
  73  216.5824
  74  232.3615
  75  337.8224
  76  348.6999
  77  178.185
  78  168.5548
  79  223.5843
  80  301.285
  81  300.8914
  82  284.206
  83  161.7556
  84  209.4515
  85  224.7857
  86  198.6093
  87  174.3024
  88  198.6972
  89  352.8692
  90  389.7309
  91  428.7423
  92  307.8036
  93  167.3498
  94  128.9899
  95  239.5012
  96  172.6908
  97  184.3373
  98  121.4262
  99  181.4381
 100  171.2379
 101  258.2016
 102  149.1422
 103  147.4054
 104  281.1915
 105  248.3625
 106  141.9762
 107  66.71919
 108  79.15477
 109  98.80547
 110  113.1292
 111  232.6687
 112  171.8016
 113  142.3878
 114  99.67784
 115  7.524647
 116  55.8546
 117  151.6038
 118  273.3183
 119  237.6272
 120  202.5862
 121  188.3434
 122  179.8583
 123  248.2786
 124  122.1214
 125  267.0179
 126  245.5886
 127  158.6209
 128  160.2713
 129  121.3618
 130  189.5139
 131  284.1935
 132  350.9591
 133  289.3589
 134  242.9113
 135  258.7125
 136  227.2764
 137  107.4218
 138  227.4338
 139  107.6446
 140  66.83999
 141  85.37048
 142  189.5415
 143  60.27518
 144  144.0207
 145  249.3484
 146  257.5911
 147  103.1714
 148  148.4764
 149  205.2758
 150  193.3575
 151  213.5898
 152  235.4536
 153  260.8044
 154  131.2891
 155  153.6423
 156  139.9032
 157  202.1904
 158  121.8383
 159  186.3462
 160  253.3007
 161  321.8707
 162  251.938
 163  216.5734
 164  237.4967
 165  256.374
 166  281.7197
 167  314.0035
 168  141.4347
 169  247.5917
 170  309.9957
 171  334.6436
 172  232.3882
 173  194.3049
 174  270.0083
 175  222.8471
 176  159.82
 177  155.9277
 178  144.8961
 179  90.57107
 180  110.8263
 181  234.0047
 182  172.3817
 183  231.3596
 184  310.9224
 185  186.1645
 186  287.8582
 187  255.2564
 188  196.7422
 189  174.4978
 190  191.9887
 191  201.0435
 192  271.9318
 193  170.5451
 194  110.4501
 195  182.8312
 196  313.9773
 197  342.9956
 198  341.726
 199  254.6087
 200  113.279
 201  197.8507
 202  388.4161
 203  371.4371
 204  438.5917
 205  330.1374
 206  270.5879
 207  206.9823
 208  121.4078
 209  276.1452
 210  315.4114
 211  265.9608
 212  193.536
 213  3.101339
 214  113.8052
 215  270.8348
 216  288.564
 217  422.6994
 218  213.1319
 219  269.9563
 220  249.5793
 221  155.5233
 222  122.4965
 223  279.8396
 224  271.1972
 225  93.245
 226  306.3506
 227  502.7848
 228  349.7105
 229  136.2915
 230  223.8181
 231  324.4684
 232  206.7518
 233  264.8096
 234  295.3784
 235  267.578
 236  211.6224
 237  266.0056
 238  242.3074
 239  143.7674
 240  160.5925
 241  260.3432
 242  269.3359
 243  219.2213
 244  163.9312
 245  235.0514
 246  158.0035
 247  101.9391
 248  89.09461
 249  73.51709
 250  194.0823
 251  257.8364
 252  354.8283
 253  354.5604
 254  243.0203
 255  21.18826
 256  166.2014
 257  184.6691
 258  345.489
 259  336.1027
 260  311.0985
 261  196.4803
 262  241.7106
 263  249.4021
 264  239.5277
 265  298.8904
 266  288.2267
 267  457.7783
 268  796.624
 269  969.9878
 270  943.6513
 271  839.9385
 272  628.5317
 273  391.9724
 274  218.8273
 275  214.6934
 276  255.4155
 277  375.9323
 278  253.1888
 279  195.0664
 280  203.688
 281  232.3581
 282  229.7015
 283  275.8511
 284  262.011
 285  304.8574
 286  201.3183
 287  280.4926
 288  284.8366
 289  174.7755
 290  110.4647
 291  127.5806
 292  209.4629
 293  235.879
 294  91.37947
 295  81.27681
 296  248.7512
 297  270.3122
 298  193.7943
 299  222.7709
 300  333.222
 301  222.6234
 302  74.38212
 303  170.2198
 304  280.7969
 305  199.2765
 306  178.4547
 307  89.71471
 308  -6.821957
 309  200.9074
 310  281.6138
 311  198.8205
 312  199.1169
 313  198.8954
 314  113.2768
 315  120.1776
 316  288.8766
 317  296.2099
 318  183.0492
 319  162.8854
 320  113.4201
 321  310.3589
 322  335.2315
 323  167.927
 324  245.0476
 325  269.4684
 326  189.7375
 327  137.2192
 328  192.4415
 329  179.6987
 330  240.7928
 331  188.6735
 332  143.5305
 333  162.4664
 334  269.7786
 335  252.0078
 336  316.7783
 337  342.1666
 338  211.8565
 339  306.5049
 340  81.4486
 341  153.2006
 342  126.9554
 343  203.3288
 344  298.9983
 345  243.6306
 346  275.3957
 347  384.0202
 348  385.8747
 349  299.3378
 350  279.3685
 351  232.3335
 352  223.499
 353  214.4526
 354  191.1538
 355  304.2576
 356  246.0451
 357  236.407
 358  244.9694
 359  205.8303
 360  297.6713
 361  322.0671
 362  186.231
 363  273.2432
 364  417.3377
 365  317.8055
 366  343.3519
 367  263.8484
 368  140.1476
 369  73.40588
 370  131.6938
 371  174.9375
 372  109.8612
 373  60.65768
 374  215.3921
 375  370.1136
 376  310.9257
 377  280.0252
 378  201.2578
 379  295.2035
 380  342.2639
 381  348.7346
 382  282.2612
 383  161.9992
 384  179.715
 385  233.3846
 386  219.4753
 387  215.2732
 388  211.7107
 389  273.4102
 390  276.8314
 391  338.1737
 392  419.4577
 393  317.0359
 394  215.6332
 395  298.7324
 396  388.4319
 397  276.832
 398  165.3139
 399  307.1101
 400  403.3491
 401  311.1877
 402  347.1103
 403  180.0888
 404  137.8056
 405  264.2281
 406  343.6049
 407  319.8497
 408  312.0542
 409  360.4017
 410  274.6637
 411  178.7523
 412  166.8515
 413  177.235
 414  81.92168
 415  271.9068
 416  336.6975
 417  227.7807
 418  258.0856
 419  216.3154
 420  283.2816
 421  137.1504
 422  101.1189
 423  112.3646
 424  107.2172
 425  246.6781
 426  225.4747
 427  233.8058
 428  283.6063
 429  259.9054
 430  106.2784
 431  121.0746
 432  144.3385
 433  29.53356
 434  104.2023
 435  158.561
 436  220.9587
 437  168.9432
 438  218.8063
 439  276.8539
 440  269.3604
 441  190.9188
 442  237.4466
 443  95.59055
 444  67.78358
 445  226.9447
 446  277.5142
 447  235.0491
 448  309.143
 449  275.097
 450  136.5619
 451  55.39764
 452  112.45
 453  213.5021
 454  130.9829
 455  75.67103
 456  257.6646
 457  172.5984
 458  225.8332
 459  273.218
 460  131.6384
 461  93.64092
 462  216.3069
 463  186.3748
 464  310.4615
 465  167.5155
 466  125.6009
 467  200.642
 468  133.1063
 469  211.4533
 470  187.3777
 471  196.0441
 472  219.1392
 473  87.21059
 474  189.2301
 475  284.0167
 476  216.9574
 477  283.2278
 478  219.8716
 479  234.6608
 480  160.563
 481  89.32766
 482  165.5161
 483  201.6807
 484  274.0714
 485  159.1159
 486  102.1257
 487  188.4579
 488  238.7995
 489  327.0698
 490  370.4143
 491  318.1032
 492  271.6243
 493  280.5091
 494  345.8759
 495  348.7832
 496  333.8787
 497  181.1765
 498  150.0959
 499  219.9263
 500  223.1947
 501  119.0732
 502  191.1127
 503  190.4037
 504  151.754
 505  73.15086
 506  178.2454
 507  187.5247
 508  91.19903
 509  117.0976
 510  120.8143
 511  180.0455
