# Input file       =  1193606032.151142_cleaned.dat
# Candidate        =  PSR_0332+5434
# Telescope        =  AR
# Epoch_topo       =  58058.884851286362
# Epoch_bary       =  N/A
# T_sample         =  0.002
# Data Folded      =  7340032
# Data Avg         =  0.0234529973238291
# Data StdDev      =  0.999848194209533
# Profile Bins     =  512
# Profile Avg      =  336.224882160503 
# Profile StdDev   =  119.714860208534 
# Reduced chi-sqr  =  1.560
# Prob(Noise)      <  7.11e-15   (~7.7 sigma)
# P_topo (ms)      =  714.496523049749  +/- 0.000236
# P'_topo (s/s)    =  -0                +/- 1.24e-10
# P''_topo (s/s^2) =  0                 +/- 5.49e-14
# P_bary (ms)      =  N/A
# P'_bary (s/s)    =  N/A
# P''_bary (s/s^2) =  N/A
# P_orb (s)        =  N/A
# asin(i)/c (s)    =  N/A
# eccentricity     =  N/A
# w (rad)          =  N/A
# T_peri           =  N/A
######################################################
   0  1019.365
   1  989.0373
   2  807.7879
   3  665.2892
   4  540.1842
   5  578.3843
   6  436.3063
   7  424.1321
   8  396.9751
   9  481.4979
  10  406.1338
  11  374.6836
  12  457.1063
  13  368.5428
  14  346.9854
  15  375.8729
  16  341.9602
  17  440.8066
  18  228.1268
  19  215.2785
  20  338.5999
  21  300.8391
  22  266.4099
  23  310.7624
  24  246.2436
  25  292.9784
  26  236.1867
  27  364.9735
  28  309.9273
  29  335.6848
  30  416.2963
  31  328.3297
  32  215.755
  33  340.8649
  34  416.0483
  35  341.4342
  36  324.4593
  37  379.5688
  38  286.5493
  39  395.0335
  40  235.0876
  41  287.1306
  42  230.7377
  43  221.0892
  44  297.2827
  45  523.1989
  46  504.0255
  47  312.3884
  48  273.4422
  49  286.4376
  50  234.3968
  51  275.2426
  52  338.6107
  53  360.566
  54  267.6912
  55  271.0193
  56  311.0212
  57  237.1643
  58  237.5167
  59  294.8259
  60  326.6587
  61  333.7823
  62  269.3745
  63  364.2065
  64  481.7908
  65  294.6234
  66  279.4579
  67  338.9836
  68  265.9343
  69  299.0897
  70  249.2687
  71  343.3257
  72  277.3963
  73  153.3789
  74  232.1346
  75  372.154
  76  418.701
  77  286.6722
  78  285.9759
  79  213.0285
  80  314.2666
  81  287.2543
  82  283.2919
  83  411.5783
  84  412.4447
  85  305.6194
  86  325.8112
  87  420.1952
  88  292.5118
  89  218.3842
  90  147.588
  91  322.7685
  92  282.5093
  93  318.5035
  94  302.679
  95  304.5811
  96  331.9998
  97  328.1507
  98  275.1511
  99  331.9188
 100  395.004
 101  391.8684
 102  362.2459
 103  422.0235
 104  293.209
 105  278.0348
 106  368.2867
 107  333.5045
 108  205.5824
 109  286.1935
 110  417.5851
 111  442.839
 112  279.3156
 113  266.5305
 114  370.4254
 115  329.839
 116  317.4856
 117  389.0037
 118  359.8427
 119  291.3439
 120  354.7852
 121  370.7691
 122  324.5888
 123  315.3762
 124  207.9257
 125  131.4883
 126  257.8743
 127  299.4574
 128  369.4628
 129  350.3287
 130  389.5902
 131  364.0341
 132  348.3041
 133  185.2003
 134  232.6039
 135  272.6584
 136  319.6858
 137  316.6402
 138  458.4227
 139  507.0052
 140  345.6289
 141  427.4909
 142  351.7768
 143  360.68
 144  288.829
 145  329.1828
 146  247.599
 147  338.6534
 148  471.6023
 149  436.8343
 150  450.1761
 151  319.1395
 152  210.0788
 153  295.8974
 154  317.6928
 155  335.4438
 156  473.8356
 157  335.5945
 158  163.0991
 159  279.5505
 160  455.532
 161  335.7931
 162  360.7091
 163  483.4927
 164  411.9079
 165  242.092
 166  245.8773
 167  311.7541
 168  328.3596
 169  297.8809
 170  228.699
 171  341.3915
 172  367.0797
 173  367.5602
 174  333.1873
 175  282.3031
 176  258.5782
 177  163.7071
 178  285.3119
 179  268.7726
 180  265.1379
 181  313.857
 182  400.4287
 183  223.7473
 184  226.7917
 185  251.3977
 186  242.4008
 187  241.0794
 188  294.8969
 189  290.015
 190  318.1366
 191  397.131
 192  269.575
 193  342.0403
 194  324.4111
 195  364.6489
 196  394.9648
 197  163.2531
 198  265.5171
 199  368.3848
 200  465.1979
 201  333.4212
 202  363.1755
 203  252.7589
 204  171.9134
 205  241.2012
 206  115.2358
 207  212.348
 208  206.576
 209  335.5847
 210  328.9304
 211  273.6705
 212  464.2197
 213  433.0421
 214  310.826
 215  320.336
 216  270.972
 217  239.7724
 218  273.6083
 219  317.0731
 220  293.6288
 221  161.3709
 222  213.77
 223  324.7931
 224  271.2967
 225  200.5502
 226  189.121
 227  116.5569
 228  212.2062
 229  278.2431
 230  212.7733
 231  245.141
 232  291.5553
 233  317.9031
 234  221.6595
 235  394.9617
 236  478.1872
 237  316.0711
 238  290.8653
 239  241.8398
 240  295.5783
 241  164.0054
 242  107.0375
 243  333.2935
 244  281.0355
 245  220.8192
 246  283.9522
 247  228.3141
 248  246.7544
 249  242.2659
 250  330.3192
 251  237.6155
 252  310.3069
 253  385.1561
 254  196.7553
 255  248.7508
 256  274.7404
 257  264.9568
 258  320.1344
 259  289.153
 260  311.597
 261  380.1623
 262  412.4832
 263  379.542
 264  263.2286
 265  261.2223
 266  521.6995
 267  559.3275
 268  358.8226
 269  165.0792
 270  291.6465
 271  302.2755
 272  391.54
 273  520.8803
 274  480.9854
 275  296.7299
 276  290.2615
 277  371.1986
 278  376.3528
 279  388.0533
 280  326.474
 281  358.1443
 282  271.0674
 283  272.2233
 284  304.936
 285  300.9854
 286  317.0425
 287  281.2928
 288  272.9602
 289  273.3173
 290  293.1241
 291  260.8681
 292  268.5391
 293  130.7106
 294  176.7406
 295  307.2784
 296  434.0343
 297  378.7489
 298  483.2815
 299  399.6688
 300  278.0926
 301  309.9828
 302  261.988
 303  253.6306
 304  321.0643
 305  372.8824
 306  429.4802
 307  410.6677
 308  321.5006
 309  347.9255
 310  357.2724
 311  190.5256
 312  79.0302
 313  201.8844
 314  358.9135
 315  335.2725
 316  169.9891
 317  124.3079
 318  180.3175
 319  331.8256
 320  316.2754
 321  319.8521
 322  257.8339
 323  242.7415
 324  225.0269
 325  236.2713
 326  284.646
 327  312.0264
 328  366.2465
 329  388.0588
 330  360.9238
 331  318.8144
 332  358.1037
 333  353.7679
 334  267.6335
 335  251.9571
 336  274.317
 337  164.3256
 338  340.2818
 339  377.9626
 340  295.5791
 341  278.2529
 342  343.2602
 343  327.2458
 344  330.7902
 345  356.351
 346  323.6309
 347  329.4782
 348  408.0232
 349  305.5192
 350  132.2231
 351  261.9274
 352  341.7598
 353  186.2702
 354  262.7697
 355  164.0439
 356  173.3817
 357  283.4642
 358  210.5736
 359  286.1642
 360  350.093
 361  304.1655
 362  196.7486
 363  195.8248
 364  332.3205
 365  306.2618
 366  222.3579
 367  170.9037
 368  111.2656
 369  264.1536
 370  266.2276
 371  315.9771
 372  347.2233
 373  362.22
 374  328.3456
 375  394.5418
 376  403.286
 377  340.1148
 378  183.828
 379  209.144
 380  343.1362
 381  405.6725
 382  470.6072
 383  474.3257
 384  464.1457
 385  330.8833
 386  332.4221
 387  270.7657
 388  302.3505
 389  227.6072
 390  260.4712
 391  342.3531
 392  263.9621
 393  337.8907
 394  313.1106
 395  264.0269
 396  244.9764
 397  265.9664
 398  312.6551
 399  366.6632
 400  366.375
 401  382.7579
 402  312.4102
 403  322.364
 404  390.311
 405  355.3296
 406  326.3366
 407  443.1649
 408  495.3593
 409  440.4716
 410  344.6256
 411  222.9574
 412  390.9118
 413  497.2548
 414  489.9637
 415  424.508
 416  388.37
 417  504.9875
 418  443.8838
 419  384.2652
 420  451.2436
 421  474.7076
 422  454.5224
 423  467.9561
 424  423.7802
 425  473.9369
 426  484.7481
 427  510.0456
 428  305.0502
 429  322.7961
 430  345.453
 431  441.3847
 432  411.0983
 433  248.1127
 434  288.1277
 435  424.5878
 436  312.0963
 437  283.2082
 438  308.5306
 439  412.6993
 440  476.2029
 441  390.6378
 442  370.7272
 443  316.6639
 444  389.83
 445  436.9104
 446  416.5456
 447  418.9265
 448  442.6974
 449  446.524
 450  380.5992
 451  352.4861
 452  340.2017
 453  275.6517
 454  394.1674
 455  411.4732
 456  283.2972
 457  430.2507
 458  489.9564
 459  359.4506
 460  284.0674
 461  330.9291
 462  426.5395
 463  469.9497
 464  366.6481
 465  347.6573
 466  291.0763
 467  399.7876
 468  421.2807
 469  362.5587
 470  333.2957
 471  384.3493
 472  403.8398
 473  459.1284
 474  300.0385
 475  312.5746
 476  463.3553
 477  357.9878
 478  420.1414
 479  311.0805
 480  207.9179
 481  241.5467
 482  426.6604
 483  505.9752
 484  464.0749
 485  350.1678
 486  389.1443
 487  424.8207
 488  490.1668
 489  436.1017
 490  439.0509
 491  567.8808
 492  492.466
 493  451.89
 494  480.6171
 495  396.2796
 496  332.9554
 497  417.8273
 498  422.1421
 499  427.8271
 500  382.8465
 501  448.0667
 502  400.3447
 503  310.7434
 504  295.4384
 505  378.3654
 506  478.4016
 507  652.9075
 508  598.8304
 509  654.9136
 510  892.5699
 511  970.4944
