# Input file       =  1193347623.151681_cleaned.dat
# Candidate        =  PSR_0332+5434
# Telescope        =  AR
# Epoch_topo       =  58055.894006385199
# Epoch_bary       =  N/A
# T_sample         =  0.002
# Data Folded      =  7340032
# Data Avg         =  0.0641625097611853
# Data StdDev      =  2.75187556619571 
# Profile Bins     =  256
# Profile Avg      =  1838.71812160752 
# Profile StdDev   =  465.969816777531 
# Reduced chi-sqr  =  1.601
# Prob(Noise)      <  3.45e-09   (~5.8 sigma)
# P_topo (ms)      =  714.493806388775  +/- 0.00032
# P'_topo (s/s)    =  -0                +/- 1.69e-10
# P''_topo (s/s^2) =  0                 +/- 7.46e-14
# P_bary (ms)      =  N/A
# P'_bary (s/s)    =  N/A
# P''_bary (s/s^2) =  N/A
# P_orb (s)        =  N/A
# asin(i)/c (s)    =  N/A
# eccentricity     =  N/A
# w (rad)          =  N/A
# T_peri           =  N/A
######################################################
   0  1305.954
   1  1193.189
   2  1888.031
   3  1849.098
   4  1286.784
   5  1437.843
   6  1660.162
   7  1329.683
   8  1684.161
   9  1654.336
  10  1800.363
  11  1797.57
  12  1787.379
  13  2438.656
  14  1773.492
  15  1520.338
  16  1326.244
  17  2734.61
  18  2501.876
  19  1904.785
  20  1984.964
  21  2185.673
  22  2106.357
  23  2139.233
  24  2184.469
  25  1714.976
  26  1758.398
  27  1928.179
  28  1951.545
  29  1279.219
  30  1662.754
  31  2058.998
  32  1842.407
  33  1480.473
  34  1663.806
  35  1682.06
  36  1796.617
  37  907.3166
  38  1139.959
  39  1562.691
  40  1508.28
  41  1482.951
  42  1948.36
  43  1735.259
  44  1361.098
  45  1829.163
  46  1593.756
  47  1798.193
  48  1418.486
  49  1792.03
  50  1840.449
  51  1499.759
  52  1764.078
  53  1604.826
  54  1924.53
  55  2069.898
  56  1385.48
  57  1907.965
  58  2261.9
  59  1766.719
  60  2192.844
  61  1700.452
  62  1595.233
  63  1783.664
  64  1617.019
  65  2048.036
  66  1846.706
  67  1648.95
  68  1514.834
  69  1814.183
  70  2272.268
  71  2556.856
  72  2144.832
  73  1667.766
  74  2648.89
  75  2749.845
  76  1884.197
  77  1899.598
  78  2075.111
  79  2218.947
  80  1457.315
  81  1652.4
  82  1996.337
  83  1889.872
  84  1516.822
  85  2089.705
  86  1903.784
  87  2076.152
  88  2226.371
  89  1737.146
  90  1995.217
  91  2262.276
  92  2703.475
  93  2042.548
  94  1048.78
  95  1549.573
  96  1746.556
  97  1749.084
  98  1943.766
  99  1922.721
 100  2143.591
 101  2186.528
 102  2040.454
 103  2387.005
 104  1735.663
 105  1540.869
 106  1628.886
 107  1202.251
 108  1361.464
 109  1124.126
 110  1190.852
 111  1277.971
 112  724.4343
 113  1199.289
 114  1429.949
 115  1574.602
 116  1933.619
 117  2131.365
 118  1448.001
 119  1738.768
 120  2414.589
 121  2193.278
 122  2090.261
 123  1960.722
 124  2047.137
 125  1644.51
 126  2445.005
 127  1672.947
 128  1532.96
 129  1773.869
 130  2110.417
 131  1480.73
 132  2106.979
 133  1903.979
 134  1162.592
 135  846.3926
 136  780.9875
 137  489.7166
 138  1244.45
 139  1684.851
 140  2349.156
 141  1503.365
 142  2155.267
 143  2129.095
 144  2027.743
 145  1686.371
 146  2181.157
 147  1572.009
 148  1638.577
 149  1953.225
 150  1522.146
 151  1689.581
 152  2369.692
 153  1974.779
 154  2222.357
 155  2136.12
 156  2422.013
 157  4111.011
 158  5367.956
 159  5050.435
 160  3211.364
 161  1990.113
 162  1971.042
 163  2613.831
 164  2458.881
 165  1729.718
 166  1884.555
 167  2120.226
 168  1701.864
 169  2051.002
 170  1641.395
 171  1570.689
 172  2240.831
 173  1864.929
 174  1485.867
 175  2007.542
 176  1660.846
 177  2055.394
 178  1510.282
 179  1924.764
 180  1893.22
 181  1747.94
 182  2223.958
 183  1614.443
 184  1593.05
 185  1874.347
 186  1817.675
 187  1453.094
 188  1880.067
 189  2017.147
 190  1351.28
 191  1882.431
 192  1393.745
 193  1607.986
 194  1819.526
 195  1786.921
 196  2169.688
 197  1826.773
 198  1150.73
 199  2222.538
 200  1519.825
 201  1324.612
 202  1945.537
 203  2379.057
 204  1790.969
 205  1845.887
 206  1889.514
 207  1643.118
 208  1873.501
 209  1916.514
 210  2159.098
 211  1839.455
 212  1613.166
 213  1668.731
 214  2399.44
 215  1662.665
 216  2100.654
 217  1392.54
 218  1501.085
 219  1925.135
 220  2111.631
 221  1576.579
 222  1377.179
 223  1856.891
 224  1796.581
 225  1604.623
 226  1980.694
 227  2103.997
 228  2211.516
 229  1449.284
 230  1688.431
 231  1944.385
 232  1985.442
 233  2277.654
 234  2173.372
 235  2511.372
 236  2064.559
 237  2020.103
 238  1467.076
 239  1372.163
 240  1344.89
 241  1480.242
 242  1736.649
 243  2085.731
 244  1402.673
 245  886.9611
 246  1546.249
 247  2607.525
 248  2528.87
 249  1917.357
 250  1457.231
 251  1983.4
 252  1602.844
 253  724.6245
 254  1290.235
 255  1694.541
