# Input file       =  1193362522.147271_cleaned.dat
# Candidate        =  PSR_0332+5434
# Telescope        =  AR
# Epoch_topo       =  58056.066448463782
# Epoch_bary       =  N/A
# T_sample         =  0.002
# Data Folded      =  7340032
# Data Avg         =  0.0165198167238993
# Data StdDev      =  1.00006395820774 
# Profile Bins     =  512
# Profile Avg      =  236.818848325958 
# Profile StdDev   =  119.74069428718  
# Reduced chi-sqr  =  1.367
# Prob(Noise)      <  6.16e-08   (~5.3 sigma)
# P_topo (ms)      =  714.494293580079  +/- 0.000166
# P'_topo (s/s)    =  -0                +/- 8.75e-11
# P''_topo (s/s^2) =  0                 +/- 3.86e-14
# P_bary (ms)      =  N/A
# P'_bary (s/s)    =  N/A
# P''_bary (s/s^2) =  N/A
# P_orb (s)        =  N/A
# asin(i)/c (s)    =  N/A
# eccentricity     =  N/A
# w (rad)          =  N/A
# T_peri           =  N/A
######################################################
   0  988.5046
   1  817.7181
   2  544.1298
   3  397.1021
   4  261.5741
   5  180.4837
   6  123.9845
   7  253.8148
   8  351.1695
   9  237.5686
  10  307.7354
  11  358.0452
  12  297.0292
  13  288.8432
  14  235.0308
  15  277.3283
  16  224.9335
  17  320.3677
  18  210.1858
  19  147.4221
  20  198.4754
  21  60.35634
  22  57.9453
  23  136.4393
  24  187.0567
  25  265.2507
  26  208.8003
  27  164.7696
  28  170.1647
  29  110.6469
  30  80.34596
  31  23.21797
  32  206.3697
  33  186.4853
  34  211.5566
  35  177.8302
  36  205.1502
  37  188.0548
  38  169.1941
  39  107.5296
  40  132.2699
  41  83.02271
  42  235.4808
  43  315.0548
  44  214.1502
  45  351.9263
  46  254.0384
  47  273.4392
  48  161.0949
  49  181.3193
  50  228.5549
  51  168.672
  52  160.6772
  53  256.9077
  54  254.1036
  55  134.2762
  56  238.1675
  57  182.2672
  58  106.6543
  59  350.6238
  60  305.4337
  61  282.8613
  62  290.3203
  63  409.0256
  64  351.4453
  65  230.5522
  66  167.0524
  67  270.1648
  68  299.1257
  69  263.63
  70  288.7074
  71  131.0793
  72  288.4153
  73  361.1751
  74  293.3798
  75  206.1677
  76  86.04471
  77  102.1345
  78  191.3047
  79  199.2049
  80  220.9856
  81  231.0511
  82  207.5111
  83  160.5698
  84  154.0643
  85  292.3592
  86  377.1085
  87  132.4182
  88  126.4322
  89  180.89
  90  292.661
  91  360.1952
  92  418.5478
  93  448.5647
  94  361.1053
  95  97.73265
  96  329.7733
  97  267.1563
  98  93.65252
  99  138.1423
 100  246.757
 101  319.4243
 102  248.7597
 103  235.5329
 104  170.3319
 105  178.9221
 106  247.6408
 107  267.899
 108  194.5816
 109  218.0771
 110  185.6696
 111  135.5176
 112  294.6695
 113  204.1482
 114  267.2981
 115  337.4931
 116  213.105
 117  232.2829
 118  245.1011
 119  212.8632
 120  202.1211
 121  134.7065
 122  152.653
 123  134.0912
 124  149.1197
 125  126.2933
 126  67.73841
 127  249.2077
 128  381.05
 129  396.2222
 130  287.5477
 131  377.7379
 132  282.3557
 133  260.8806
 134  289.6252
 135  168.7442
 136  146.4294
 137  226.4677
 138  251.2967
 139  268.7575
 140  351.0064
 141  174.7208
 142  124.8742
 143  350.1668
 144  236.04
 145  161.9915
 146  230.0186
 147  305.1019
 148  174.1831
 149  306.8265
 150  249.651
 151  214.812
 152  221.1
 153  252.8155
 154  150.1767
 155  218.4105
 156  325.9396
 157  321.912
 158  220.9845
 159  111.4326
 160  108.9164
 161  239.5587
 162  225.5182
 163  100.2814
 164  96.63246
 165  112.0855
 166  0.4478563
 167  136.4905
 168  268.9389
 169  214.7132
 170  312.0689
 171  184.1219
 172  123.1331
 173  221.1836
 174  88.43531
 175  126.0433
 176  85.31163
 177  102.6181
 178  196.5
 179  257.3393
 180  259.4416
 181  268.1331
 182  233.1775
 183  241.244
 184  214.1414
 185  282.5217
 186  227.7786
 187  219.2198
 188  249.3693
 189  154.0164
 190  187.5511
 191  230.5313
 192  250.6408
 193  217.8974
 194  195.1386
 195  211.9239
 196  146.7987
 197  121.4968
 198  288.6915
 199  290.1848
 200  357.0801
 201  320.4958
 202  172.1222
 203  192.4419
 204  256.2718
 205  220.5906
 206  250.6754
 207  241.0898
 208  314.4484
 209  227.8145
 210  319.7315
 211  215.3329
 212  195.6312
 213  204.9232
 214  113.3328
 215  177.6166
 216  225.3754
 217  318.3423
 218  256.1632
 219  308.0856
 220  376.5924
 221  273.9866
 222  251.5612
 223  323.8878
 224  256.8273
 225  211.5909
 226  324.9014
 227  364.5844
 228  308.4117
 229  335.7879
 230  261.2496
 231  292.068
 232  354.4056
 233  245.1446
 234  108.3892
 235  146.5689
 236  186.2536
 237  205.7696
 238  160.1007
 239  100.0263
 240  130.2154
 241  51.19877
 242  254.1986
 243  376.5804
 244  269.7535
 245  217.676
 246  200.3939
 247  208.5912
 248  293.941
 249  304.7624
 250  320.1238
 251  296.0966
 252  173.1618
 253  148.3857
 254  221.485
 255  161.9177
 256  225.8322
 257  261.9697
 258  214.3054
 259  182.1452
 260  284.483
 261  396.0279
 262  377.3101
 263  294.0039
 264  235.5416
 265  210.0816
 266  296.393
 267  222.2195
 268  320.8524
 269  393.742
 270  257.1546
 271  277.5348
 272  238.3919
 273  157.3615
 274  124.094
 275  123.3242
 276  177.0646
 277  224.0191
 278  301.5118
 279  339.9703
 280  315.0793
 281  251.2851
 282  264.6815
 283  247.1239
 284  175.8652
 285  279.243
 286  111.9073
 287  104.7756
 288  99.39441
 289  143.6689
 290  195.6811
 291  139.9953
 292  82.57359
 293  206.0297
 294  407.9415
 295  163.2348
 296  34.81627
 297  201.3495
 298  274.3358
 299  244.1591
 300  220.9597
 301  189.5934
 302  195.0625
 303  246.6131
 304  355.7299
 305  277.0577
 306  115.2624
 307  218.4834
 308  271.3981
 309  310.7429
 310  178.6942
 311  81.93503
 312  227.4855
 313  228.229
 314  261.6325
 315  348.5738
 316  373.9515
 317  326.1893
 318  250.2779
 319  222.4317
 320  247.0427
 321  215.5809
 322  243.6882
 323  300.8068
 324  264.7932
 325  259.193
 326  305.3452
 327  270.632
 328  200.5718
 329  280.7299
 330  383.8372
 331  347.63
 332  376.0051
 333  267.4896
 334  229.0721
 335  192.7355
 336  315.5871
 337  415.7795
 338  360.0536
 339  302.6856
 340  324.6912
 341  205.8956
 342  102.0276
 343  89.91664
 344  267.852
 345  174.1176
 346  234.9722
 347  188.2193
 348  270.7288
 349  428.059
 350  219.6795
 351  177.4889
 352  79.24866
 353  144.4208
 354  214.79
 355  378.1156
 356  321.892
 357  299.2395
 358  276.0326
 359  236.3709
 360  131.2245
 361  204.4982
 362  306.5651
 363  216.5305
 364  238.9388
 365  232.7463
 366  238.0717
 367  226.4822
 368  188.9759
 369  157.5304
 370  126.8979
 371  104.4699
 372  148.7225
 373  286.4395
 374  401.0612
 375  227.8366
 376  363.722
 377  449.5523
 378  260.0966
 379  240.3491
 380  240.4584
 381  128.962
 382  189.2699
 383  316.7397
 384  187.8342
 385  178.0598
 386  223.3219
 387  225.9108
 388  117.2809
 389  251.5412
 390  283.7469
 391  316.2504
 392  225.6544
 393  81.64803
 394  152.3759
 395  289.7994
 396  205.5028
 397  306.5385
 398  168.049
 399  199.9298
 400  210.5701
 401  322.7815
 402  241.0943
 403  94.67593
 404  176.4982
 405  342.1268
 406  278.6277
 407  202.1047
 408  213.5443
 409  290.1938
 410  254.5255
 411  242.0011
 412  299.5423
 413  319.2212
 414  179.3977
 415  338.3279
 416  373.1433
 417  233.175
 418  106.1828
 419  105.9575
 420  242.2526
 421  170.268
 422  212.0297
 423  228.9607
 424  288.6893
 425  284.9525
 426  173.6272
 427  74.58672
 428  147.2402
 429  292.5985
 430  376.5305
 431  318.6749
 432  292.3865
 433  249.9055
 434  212.8664
 435  163.723
 436  173.0314
 437  204.3
 438  256.5123
 439  217.7268
 440  194.9149
 441  176.0988
 442  252.7674
 443  310.4987
 444  244.4944
 445  134.9878
 446  127.391
 447  249.2336
 448  225.3624
 449  212.3642
 450  252.0764
 451  256.0705
 452  217.933
 453  217.5496
 454  253.4469
 455  190.3104
 456  221.6293
 457  200.3566
 458  298.3148
 459  302.0551
 460  296.675
 461  172.2193
 462  200.6496
 463  311.0793
 464  206.1548
 465  255.2722
 466  293.0935
 467  193.9324
 468  201.1206
 469  215.6105
 470  243.6819
 471  189.4472
 472  199.0752
 473  333.2088
 474  189.2364
 475  245.215
 476  162.2462
 477  336.1047
 478  318.8677
 479  108.5483
 480  209.8745
 481  203.8302
 482  164.387
 483  206.0662
 484  149.2576
 485  160.9848
 486  144.1737
 487  119.3627
 488  35.39404
 489  98.0769
 490  96.39503
 491  128.2607
 492  149.1011
 493  274.2904
 494  249.1671
 495  180.8061
 496  316.2084
 497  239.6274
 498  225.1339
 499  243.5363
 500  205.2724
 501  333.403
 502  272.2066
 503  198.4819
 504  308.4331
 505  515.9875
 506  325.3606
 507  342.534
 508  406.5698
 509  644.0621
 510  747.7682
 511  976.8736
