# Input file       =  1193534798.132602_cleaned.dat
# Candidate        =  PSR_0332+5434
# Telescope        =  AR
# Epoch_topo       =  58058.060383479191
# Epoch_bary       =  N/A
# T_sample         =  0.002
# Data Folded      =  7340032
# Data Avg         =  0.048126256244099
# Data StdDev      =  2.53682818438955 
# Profile Bins     =  1024
# Profile Avg      =  344.968062702652 
# Profile StdDev   =  214.778127833416 
# Reduced chi-sqr  =  1.219
# Prob(Noise)      <  1.68e-06   (~4.6 sigma)
# P_topo (ms)      =  714.496101370388  +/- 0.000262
# P'_topo (s/s)    =  -0                +/- 1.38e-10
# P''_topo (s/s^2) =  0                 +/- 6.11e-14
# P_bary (ms)      =  N/A
# P'_bary (s/s)    =  N/A
# P''_bary (s/s^2) =  N/A
# P_orb (s)        =  N/A
# asin(i)/c (s)    =  N/A
# eccentricity     =  N/A
# w (rad)          =  N/A
# T_peri           =  N/A
######################################################
   0  349.7997
   1  360.0605
   2  313.2102
   3  249.1018
   4  302.9497
   5  479.1101
   6  540.1529
   7  414.0518
   8  297.4932
   9  325.5883
  10  367.1624
  11  426.3866
  12  423.7865
  13  469.7583
  14  418.4377
  15  327.2981
  16  264.5728
  17  272.3027
  18  271.9417
  19  267.1869
  20  228.3714
  21  285.3177
  22  277.7898
  23  322.5064
  24  347.2204
  25  274.0061
  26  274.578
  27  354.6219
  28  463.0543
  29  376.5629
  30  277.3285
  31  238.4146
  32  270.7724
  33  247.5247
  34  337.357
  35  396.2453
  36  423.9319
  37  396.2782
  38  414.5471
  39  406.4368
  40  348.9138
  41  315.1377
  42  239.4132
  43  190.7609
  44  174.4005
  45  283.896
  46  378.4939
  47  308.5855
  48  230.347
  49  237.7583
  50  322.2056
  51  480.1905
  52  578.5197
  53  603.5607
  54  467.1135
  55  293.6944
  56  244.6226
  57  282.6864
  58  403.1315
  59  391.8592
  60  338.6229
  61  281.1364
  62  352.7826
  63  427.4484
  64  481.5957
  65  458.2543
  66  459.2739
  67  471.114
  68  473.3436
  69  292.349
  70  231.4607
  71  225.2016
  72  362.274
  73  294.5125
  74  354.3287
  75  310.4643
  76  286.8722
  77  252.6241
  78  265.8821
  79  252.4077
  80  195.3657
  81  260.7055
  82  387.3624
  83  489.2063
  84  560.1172
  85  617.7633
  86  646.6724
  87  453.2447
  88  484.1074
  89  422.1486
  90  541.1199
  91  500.8434
  92  549.5165
  93  454.5905
  94  392.6683
  95  387.5131
  96  408.0854
  97  294.555
  98  211.067
  99  205.54
 100  288.1512
 101  345.1624
 102  376.0765
 103  352.5238
 104  279.3866
 105  242.8444
 106  281.9274
 107  254.24
 108  215.7797
 109  320.8577
 110  320.5492
 111  410.5945
 112  366.2915
 113  447.5761
 114  453.2458
 115  488.0163
 116  422.1356
 117  387.3361
 118  372.4233
 119  359.7362
 120  375.6651
 121  358.6
 122  400.8629
 123  314.6591
 124  242.0114
 125  153.9483
 126  242.4291
 127  284.1622
 128  238.2331
 129  125.5722
 130  219.5889
 131  362.9395
 132  394.081
 133  395.8984
 134  369.0968
 135  321.612
 136  207.8712
 137  194.7784
 138  240.1244
 139  124.7302
 140  65.4431
 141  84.59378
 142  146.8988
 143  68.72892
 144  72.24252
 145  192.2396
 146  274.1351
 147  359.4016
 148  333.166
 149  308.8575
 150  213.813
 151  206.4146
 152  259.5392
 153  311.4138
 154  324.0917
 155  306.0988
 156  206.4326
 157  187.4053
 158  127.767
 159  59.31865
 160  38.87015
 161  48.52414
 162  200.8577
 163  298.9659
 164  299.7389
 165  215.2392
 166  179.6957
 167  167.1364
 168  180.5911
 169  239.0982
 170  337.6251
 171  456.4191
 172  485.7888
 173  430.3857
 174  298.0311
 175  225.7027
 176  237.9828
 177  298.2141
 178  344.8641
 179  381.4417
 180  384.3672
 181  286.2781
 182  266.2687
 183  258.9187
 184  430.1023
 185  433.1469
 186  525.2301
 187  447.7633
 188  442.0782
 189  376.0456
 190  371.1959
 191  297.9479
 192  203.5507
 193  258.6026
 194  353.9168
 195  465.6451
 196  348.7172
 197  326.2316
 198  235.6866
 199  277.1485
 200  360.9754
 201  420.6269
 202  333.3203
 203  256.2881
 204  264.9332
 205  322.6755
 206  255.3167
 207  268.2753
 208  219.574
 209  295.1271
 210  244.7983
 211  259.1212
 212  302.5397
 213  325.2117
 214  375.5772
 215  287.118
 216  308.0737
 217  285.3133
 218  256.9909
 219  281.8488
 220  264.5786
 221  218.4981
 222  217.7728
 223  307.2559
 224  354.8035
 225  317.9258
 226  328.1373
 227  347.8
 228  282.4333
 229  204.9201
 230  151.9531
 231  204.9659
 232  306.5714
 233  311.4576
 234  234.2497
 235  220.1576
 236  202.6626
 237  217.4564
 238  207.216
 239  205.9276
 240  268.1806
 241  406.1814
 242  447.0851
 243  497.1783
 244  418.7242
 245  432.0298
 246  339.1072
 247  315.9817
 248  289.5791
 249  323.9923
 250  231.3019
 251  197.9929
 252  80.9794
 253  163.724
 254  233.2072
 255  426.7848
 256  502.0489
 257  431.6725
 258  377.1753
 259  342.3748
 260  349.171
 261  313.5408
 262  253.8088
 263  207.955
 264  167.3831
 265  275.3502
 266  382.7275
 267  491.4823
 268  505.4641
 269  438.4602
 270  373.5491
 271  340.2067
 272  306.0409
 273  360.531
 274  367.7998
 275  454.445
 276  381.9711
 277  436.4687
 278  410.1772
 279  392.463
 280  348.1978
 281  439.4616
 282  541.3008
 283  604.3416
 284  618.7307
 285  617.3347
 286  595.3863
 287  510.4575
 288  361.7093
 289  306.6211
 290  242.7387
 291  284.3778
 292  271.7377
 293  299.526
 294  257.9005
 295  346.331
 296  414.8032
 297  418.0103
 298  340.8995
 299  329.1181
 300  382.4694
 301  411.0504
 302  369.9211
 303  279.7842
 304  279.9119
 305  297.1702
 306  405.6284
 307  332.4984
 308  358.7473
 309  353.4774
 310  373.9086
 311  300.4968
 312  306.7263
 313  431.4075
 314  508.6545
 315  514.2918
 316  490.9583
 317  474.1722
 318  296.5646
 319  207.9479
 320  259.8195
 321  298.6191
 322  371.044
 323  363.832
 324  401.8136
 325  337.8773
 326  352.8689
 327  379.3684
 328  390.0617
 329  351.2029
 330  358.0872
 331  289.8781
 332  274.4314
 333  312.0644
 334  320.9855
 335  312.1521
 336  218.3256
 337  267.4123
 338  229.6901
 339  230.3925
 340  245.047
 341  297.7124
 342  382.2716
 343  377.7557
 344  415.6431
 345  471.6601
 346  518.5012
 347  525.1245
 348  436.5697
 349  376.6816
 350  356.9561
 351  321.7847
 352  356.9741
 353  397.422
 354  416.7593
 355  381.4025
 356  369.1975
 357  332.1902
 358  349.7373
 359  287.1425
 360  357.146
 361  370.1259
 362  384.8204
 363  358.6144
 364  328.2995
 365  332.867
 366  303.1429
 367  324.7283
 368  386.8334
 369  426.7289
 370  444.1991
 371  331.7294
 372  280.9824
 373  308.5642
 374  308.3116
 375  287.4548
 376  246.4896
 377  290.6464
 378  354.4452
 379  354.0045
 380  402.1158
 381  414.7782
 382  393.2406
 383  333.2987
 384  385.4167
 385  479.2547
 386  561.9968
 387  542.2601
 388  565.1858
 389  535.2281
 390  462.7386
 391  324.7767
 392  256.6126
 393  276.2407
 394  302.992
 395  373.9395
 396  480.2328
 397  542.3271
 398  491.8279
 399  394.1599
 400  374.194
 401  221.2666
 402  216.2337
 403  198.6359
 404  425.7832
 405  455.0959
 406  415.287
 407  329.6139
 408  211.9259
 409  117.8467
 410  192.4092
 411  260.7449
 412  402.0533
 413  402.073
 414  459.2632
 415  520.4862
 416  527.5569
 417  550.1674
 418  468.0142
 419  407.1615
 420  450.2242
 421  495.9529
 422  426.0336
 423  304.3191
 424  295.1382
 425  309.788
 426  336.938
 427  355.5287
 428  440.5251
 429  431.1356
 430  449.729
 431  521.3084
 432  605.3127
 433  505.4307
 434  375.3951
 435  336.8721
 436  388.6592
 437  362.524
 438  320.4722
 439  349.4089
 440  337.4511
 441  371.4798
 442  395.107
 443  422.8974
 444  421.9596
 445  380.3448
 446  385.8012
 447  410.0654
 448  459.1187
 449  465.6945
 450  381.7061
 451  316.9635
 452  270.4229
 453  313.9677
 454  270.9487
 455  265.8853
 456  205.1758
 457  237.6771
 458  184.4369
 459  266.4714
 460  358.7913
 461  447.7124
 462  512.1819
 463  490.8113
 464  433.8828
 465  411.2691
 466  393.9758
 467  296.5381
 468  199.87
 469  250.2984
 470  388.768
 471  398.8264
 472  405.6006
 473  392.792
 474  453.6903
 475  461.6019
 476  411.9988
 477  329.6493
 478  281.5046
 479  359.4602
 480  418.3767
 481  447.9207
 482  499.1896
 483  457.3351
 484  339.1982
 485  245.6745
 486  319.751
 487  396.8526
 488  405.1379
 489  384.4743
 490  398.4772
 491  358.2388
 492  320.9536
 493  257.499
 494  199.5895
 495  185.5289
 496  199.4809
 497  270.3388
 498  263.3188
 499  289.721
 500  211.9895
 501  301.3291
 502  289.0496
 503  304.3181
 504  172.2948
 505  192.51
 506  258.3167
 507  386.9875
 508  440.873
 509  352.3565
 510  285.0772
 511  355.7605
 512  340.3604
 513  339.3235
 514  226.5696
 515  279.496
 516  275.33
 517  317.7948
 518  206.4017
 519  112.4412
 520  156.7908
 521  201.3255
 522  240.5635
 523  283.9492
 524  349.5336
 525  449.9933
 526  443.2411
 527  450.0308
 528  335.1589
 529  274.8593
 530  282.7763
 531  263.1677
 532  253.9237
 533  312.9273
 534  258.239
 535  240.5643
 536  192.3972
 537  306.3033
 538  327.9945
 539  305.9303
 540  237.6433
 541  249.4745
 542  218.8185
 543  352.449
 544  383.462
 545  460.3718
 546  253.7903
 547  148.897
 548  195.6765
 549  292.8954
 550  401.1681
 551  364.2335
 552  419.0616
 553  420.9393
 554  469.584
 555  478.0663
 556  365.8674
 557  339.2332
 558  250.0503
 559  253.5314
 560  178.6121
 561  171.2856
 562  241.32
 563  305.1277
 564  330.2657
 565  371.4341
 566  381.1019
 567  453.2921
 568  390.2807
 569  473.8267
 570  389.5706
 571  324.0794
 572  245.862
 573  183.0202
 574  232.0779
 575  269.4273
 576  393.6011
 577  373.5876
 578  329.8637
 579  350.0934
 580  303.9916
 581  318.1516
 582  287.9758
 583  317.313
 584  315.3443
 585  267.3353
 586  211.7939
 587  347.4686
 588  427.6463
 589  399.1571
 590  216.1004
 591  175.0963
 592  171.8631
 593  255.3524
 594  389.5924
 595  418.917
 596  393.3078
 597  403.0795
 598  432.2752
 599  367.6854
 600  250.3354
 601  266.0276
 602  311.7932
 603  375.3259
 604  358.8307
 605  360.968
 606  260.5847
 607  231.965
 608  229.4621
 609  306.3644
 610  283.7488
 611  376.146
 612  438.4361
 613  451.0894
 614  379.2404
 615  289.0514
 616  203.6868
 617  233.9594
 618  349.3383
 619  399.3494
 620  437.17
 621  422.813
 622  507.5667
 623  513.8307
 624  570.5237
 625  635.6835
 626  668.5524
 627  649.9502
 628  684.4911
 629  835.8802
 630  991.4845
 631  978.3949
 632  1003.197
 633  1162.234
 634  1231.188
 635  1259.549
 636  1220.386
 637  1198.729
 638  1034.073
 639  822.3435
 640  711.2783
 641  559.2116
 642  514.6294
 643  497.2431
 644  369.6407
 645  330.8971
 646  241.2604
 647  362.0198
 648  431.188
 649  528.5844
 650  484.493
 651  371.2007
 652  344.6121
 653  395.5074
 654  525.1121
 655  523.5432
 656  492.8363
 657  469.6654
 658  423.6665
 659  381.1421
 660  329.6495
 661  346.7519
 662  394.5799
 663  427.4861
 664  418.5046
 665  388.7101
 666  375.9219
 667  431.25
 668  528.5546
 669  541.6514
 670  467.2048
 671  347.5959
 672  396.3118
 673  420.5327
 674  359.1032
 675  283.4085
 676  363.9136
 677  276.7975
 678  281.589
 679  214.8792
 680  357.2392
 681  320.4536
 682  371.2641
 683  297.4
 684  360.3354
 685  349.6287
 686  378.7367
 687  311.6029
 688  197.779
 689  175.3948
 690  147.7148
 691  189.0084
 692  94.63198
 693  101.0448
 694  223.5128
 695  323.1638
 696  326.2603
 697  295.042
 698  331.2888
 699  341.2332
 700  407.3235
 701  470.9627
 702  610.3058
 703  588.1581
 704  533.2998
 705  404.8386
 706  331.036
 707  280.7462
 708  258.2551
 709  337.793
 710  395.1728
 711  378.6124
 712  389.3088
 713  399.3076
 714  458.0779
 715  396.6728
 716  329.5222
 717  324.1742
 718  390.5894
 719  397.0681
 720  393.9067
 721  358.7426
 722  371.1474
 723  373.6453
 724  364.517
 725  410.1259
 726  420.1142
 727  374.2716
 728  280.8763
 729  180.3026
 730  190.8769
 731  314.7585
 732  463.0578
 733  535.7234
 734  448.9025
 735  441.7304
 736  476.8217
 737  605.4106
 738  644.7478
 739  536.8818
 740  430.6097
 741  397.887
 742  361.1848
 743  318.2371
 744  254.5204
 745  280.0387
 746  285.0638
 747  272.4746
 748  361.3412
 749  311.2762
 750  210.8168
 751  198.3295
 752  218.678
 753  290.4759
 754  202.8962
 755  219.3546
 756  294.8163
 757  349.9513
 758  317.4577
 759  263.4483
 760  242.4659
 761  212.4273
 762  200.7812
 763  246.0818
 764  357.3904
 765  409.502
 766  412.1672
 767  378.3279
 768  337.4111
 769  342.5279
 770  413.6788
 771  444.4652
 772  339.616
 773  289.0003
 774  371.856
 775  425.862
 776  384.6608
 777  255.5136
 778  189.0608
 779  163.294
 780  291.6958
 781  286.8328
 782  146.2245
 783  58.22471
 784  36.8957
 785  117.7623
 786  236.4415
 787  428.1908
 788  533.9415
 789  516.2225
 790  469.5146
 791  395.1371
 792  333.9764
 793  285.2685
 794  319.4676
 795  332.1638
 796  192.8465
 797  78.81639
 798  121.5566
 799  263.5209
 800  421.3696
 801  358.501
 802  340.7953
 803  256.7538
 804  287.6829
 805  281.4984
 806  253.227
 807  289.2363
 808  257.4028
 809  294.5114
 810  350.92
 811  360.2199
 812  313.8847
 813  234.121
 814  196.6944
 815  133.9721
 816  199.7618
 817  269.1828
 818  311.8799
 819  333.8638
 820  421.5074
 821  527.3485
 822  572.5198
 823  394.0754
 824  283.7187
 825  107.901
 826  199.8605
 827  262.5974
 828  297.8893
 829  305.1308
 830  261.2324
 831  304.3742
 832  350.5379
 833  425.9626
 834  388.6953
 835  284.1588
 836  280.916
 837  344.3272
 838  430.5071
 839  536.0511
 840  572.1436
 841  502.2881
 842  419.0644
 843  330.3329
 844  170.6166
 845  121.9739
 846  196.0025
 847  348.3841
 848  391.9796
 849  314.9019
 850  284.8991
 851  240.706
 852  298.4146
 853  309.6521
 854  376.8061
 855  267.1379
 856  164.1171
 857  184.0565
 858  349.8376
 859  465.9791
 860  504.0823
 861  486.1981
 862  424.5872
 863  355.251
 864  294.9048
 865  316.2035
 866  397.209
 867  626.7478
 868  735.5462
 869  632.6796
 870  555.7985
 871  448.8375
 872  561.9064
 873  463.1807
 874  424.021
 875  374.6041
 876  409.3179
 877  433.124
 878  406.8973
 879  362.0673
 880  352.6434
 881  356.885
 882  313.394
 883  226.7348
 884  273.1313
 885  444.621
 886  477.6522
 887  402.3087
 888  303.8584
 889  236.1887
 890  174.4155
 891  159.5145
 892  218.7486
 893  239.4749
 894  287.2002
 895  287.6995
 896  250.6226
 897  273.6206
 898  222.1951
 899  174.4144
 900  173.8577
 901  222.279
 902  301.782
 903  344.3381
 904  376.8409
 905  369.6795
 906  267.3244
 907  254.2609
 908  219.0863
 909  231.877
 910  270.3617
 911  200.053
 912  186.3031
 913  230.979
 914  348.6028
 915  443.7511
 916  442.8887
 917  404.7907
 918  410.8317
 919  446.45
 920  407.5851
 921  284.864
 922  272.1975
 923  274.8068
 924  328.0903
 925  200.0717
 926  330.2331
 927  165.3229
 928  242.6418
 929  251.1437
 930  311.5805
 931  227.8594
 932  213.4529
 933  277.0041
 934  348.3448
 935  228.4075
 936  144.1078
 937  57.89502
 938  185.8396
 939  194.1469
 940  157.6257
 941  191.8056
 942  293.4579
 943  403.7791
 944  359.4269
 945  340.4428
 946  357.975
 947  302.7165
 948  216.7333
 949  101.6217
 950  178.3275
 951  223.7383
 952  315.1205
 953  350.7375
 954  413.7704
 955  398.4117
 956  322.4099
 957  233.6188
 958  201.3121
 959  282.6535
 960  326.0398
 961  422.7776
 962  398.8398
 963  365.9088
 964  324.829
 965  302.9449
 966  284.8787
 967  332.6518
 968  262.847
 969  197.818
 970  196.409
 971  265.7319
 972  258.1432
 973  297.9049
 974  388.7894
 975  453.2691
 976  367.6504
 977  327.6337
 978  339.7347
 979  379.8391
 980  423.7599
 981  441.0601
 982  431.2922
 983  391.7843
 984  395.8236
 985  315.4183
 986  258.1787
 987  313.6551
 988  406.8431
 989  375.8499
 990  263.8634
 991  314.5941
 992  405.4251
 993  453.6898
 994  432.1923
 995  470.8939
 996  480.711
 997  458.9163
 998  533.2123
 999  447.0601
1000  403.3063
1001  274.1911
1002  224.2139
1003  194.7408
1004  206.8033
1005  186.9554
1006  207.4488
1007  281.3522
1008  322.8623
1009  305.2961
1010  238.5515
1011  240.7777
1012  202.6989
1013  204.7476
1014  165.9035
1015  185.4639
1016  314.503
1017  461.0073
1018  519.648
1019  377.353
1020  317.8019
1021  336.6909
1022  449.2424
1023  402.5214
