# Input file       =  1193332959.148284_cleaned.dat
# Candidate        =  PSR_0332+5434
# Telescope        =  AR
# Epoch_topo       =  58055.724284123658
# Epoch_bary       =  N/A
# T_sample         =  0.002
# Data Folded      =  7208960
# Data Avg         =  0.0160034164129743
# Data StdDev      =  1.00004635051073 
# Profile Bins     =  512
# Profile Avg      =  225.4107775999   
# Profile StdDev   =  118.664675706931 
# Reduced chi-sqr  =  1.371
# Prob(Noise)      <  4.5e-08   (~5.3 sigma)
# P_topo (ms)      =  714.493643289341  +/- 0.000346
# P'_topo (s/s)    =  -0                +/- 1.86e-10
# P''_topo (s/s^2) =  0                 +/- 8.36e-14
# P_bary (ms)      =  N/A
# P'_bary (s/s)    =  N/A
# P''_bary (s/s^2) =  N/A
# P_orb (s)        =  N/A
# asin(i)/c (s)    =  N/A
# eccentricity     =  N/A
# w (rad)          =  N/A
# T_peri           =  N/A
######################################################
   0  294.8555
   1  161.5947
   2  156.9043
   3  172.1669
   4  137.3779
   5  136.1478
   6  281.5774
   7  297.5314
   8  256.8147
   9  331.3959
  10  254.4059
  11  256.3551
  12  132.2812
  13  182.8568
  14  335.3626
  15  252.7278
  16  363.804
  17  396.8463
  18  399.3672
  19  236.3514
  20  157.4745
  21  271.2471
  22  299.8265
  23  237.1953
  24  81.44037
  25  380.3595
  26  256.1872
  27  342.346
  28  290.1772
  29  200.6829
  30  281.7831
  31  266.7249
  32  403.5712
  33  402.3977
  34  230.552
  35  273.9487
  36  247.9833
  37  364.0217
  38  377.0882
  39  193.7147
  40  282.9636
  41  209.0116
  42  372.7742
  43  336.1336
  44  347.0637
  45  364.6264
  46  249.01
  47  209.5521
  48  137.3207
  49  139.7546
  50  265.722
  51  364.5399
  52  376.5938
  53  316.6365
  54  284.449
  55  322.6184
  56  216.8062
  57  206.5355
  58  254.6617
  59  181.7219
  60  143.1376
  61  214.6613
  62  315.5838
  63  206.213
  64  132.7625
  65  39.04404
  66  99.68555
  67  258.0206
  68  258.2573
  69  273.172
  70  252.759
  71  224.407
  72  156.0399
  73  174.7227
  74  176.2958
  75  307.2862
  76  289.3018
  77  186.8505
  78  180.0856
  79  39.13522
  80  120.2804
  81  138.9626
  82  231.9908
  83  322.3713
  84  225.8696
  85  217.8718
  86  143.3235
  87  139.089
  88  223.8535
  89  138.5831
  90  156.0151
  91  202.2378
  92  199.1891
  93  146.1564
  94  200.567
  95  210.5129
  96  154.3301
  97  193.2931
  98  242.9517
  99  224.0706
 100  215.1655
 101  194.8113
 102  177.237
 103  223.153
 104  263.5362
 105  345.2946
 106  227.4301
 107  301.8774
 108  213.2161
 109  236.0685
 110  183.0206
 111  94.53806
 112  55.5289
 113  97.11726
 114  218.5454
 115  242.8993
 116  246.5984
 117  267.5485
 118  338.361
 119  241.6377
 120  170.8783
 121  98.97318
 122  137.1103
 123  196.8595
 124  112.7089
 125  192.5635
 126  78.95941
 127  88.234
 128  142.1255
 129  170.5672
 130  138.6286
 131  159.0141
 132  237.3004
 133  184.2509
 134  211.5092
 135  234.7745
 136  208.2232
 137  270.2934
 138  146.8225
 139  124.9341
 140  173.3071
 141  239.71
 142  158.9075
 143  106.8755
 144  129.7617
 145  261.3398
 146  217.2325
 147  223.0168
 148  243.4581
 149  80.23671
 150  91.2933
 151  170.7332
 152  213.7359
 153  310.618
 154  355.5963
 155  230.7063
 156  200.1883
 157  156.6552
 158  132.4943
 159  344.444
 160  118.8439
 161  -3.762435
 162  78.7346
 163  213.9019
 164  201.4319
 165  117.2007
 166  173.4465
 167  78.38348
 168  42.16454
 169  113.524
 170  177.4807
 171  77.719
 172  157.0437
 173  258.9114
 174  274.8272
 175  276.4524
 176  347.241
 177  210.8477
 178  205.628
 179  293.9831
 180  307.0986
 181  253.4584
 182  184.211
 183  258.9066
 184  162.6048
 185  209.9734
 186  244.0442
 187  260.4966
 188  167.7619
 189  137.4082
 190  168.6017
 191  253.204
 192  203.9902
 193  132.1981
 194  245.6495
 195  196.9102
 196  147.9105
 197  162.4359
 198  255.2233
 199  224.199
 200  257.2321
 201  307.1372
 202  258.3481
 203  344.4548
 204  289.5151
 205  357.3664
 206  374.8602
 207  381.8222
 208  259.514
 209  192.0981
 210  43.48177
 211  192.9881
 212  301.0449
 213  217.7312
 214  204.8351
 215  242.1109
 216  259.3737
 217  350.5097
 218  157.5421
 219  185.0424
 220  227.1269
 221  183.735
 222  111.1618
 223  163.5358
 224  96.19116
 225  81.56894
 226  135.1086
 227  119.2159
 228  110.605
 229  215.4126
 230  174.6682
 231  175.1389
 232  121.1976
 233  197.5997
 234  258.5132
 235  240.8231
 236  292.9881
 237  231.3242
 238  314.0914
 239  292.3098
 240  154.4262
 241  156.6028
 242  195.2668
 243  284.8399
 244  244.086
 245  255.0627
 246  342.546
 247  357.9783
 248  265.8822
 249  92.63264
 250  150.3382
 251  179.473
 252  207.2652
 253  123.6446
 254  219.6495
 255  141.4525
 256  83.98862
 257  357.6964
 258  406.4315
 259  310.9066
 260  295.7902
 261  236.9766
 262  295.339
 263  237.0858
 264  154.5483
 265  87.02432
 266  215.3863
 267  247.4118
 268  276.8698
 269  187.9371
 270  146.2026
 271  167.8827
 272  287.0076
 273  297.4087
 274  251.7008
 275  178.1276
 276  185.9093
 277  174.8834
 278  280.0887
 279  254.2022
 280  184.515
 281  153.5376
 282  188.3863
 283  226.9298
 284  227.8666
 285  225.7309
 286  189.3785
 287  210.1146
 288  319.9797
 289  248.9109
 290  198.3236
 291  104.6161
 292  68.3737
 293  239.3383
 294  198.6803
 295  79.74151
 296  145.4661
 297  86.90749
 298  163.2503
 299  186.3649
 300  302.9098
 301  232.4721
 302  153.0361
 303  96.33125
 304  147.7397
 305  108.1211
 306  151.598
 307  252.4922
 308  201.2895
 309  134.3572
 310  86.33138
 311  72.10472
 312  123.9355
 313  157.3438
 314  246.5389
 315  289.9524
 316  230.1789
 317  111.8751
 318  210.8232
 319  283.3647
 320  210.298
 321  216.1954
 322  164.0639
 323  157.3574
 324  208.0662
 325  306.9106
 326  291.4968
 327  319.692
 328  273.39
 329  251.5983
 330  180.308
 331  154.3175
 332  105.1133
 333  109.2506
 334  61.35155
 335  122.5362
 336  61.37527
 337  218.8394
 338  105.2851
 339  101.6055
 340  269.1833
 341  342.2563
 342  233.4641
 343  232.3792
 344  200.2483
 345  159.6944
 346  108.338
 347  165.262
 348  116.1723
 349  204.8882
 350  253.7759
 351  133.6605
 352  113.3458
 353  143.7202
 354  228.7698
 355  311.7345
 356  219.1854
 357  97.99377
 358  50.30179
 359  77.86612
 360  152.2812
 361  286.4135
 362  375.2493
 363  340.9915
 364  370.9594
 365  176.8262
 366  147.168
 367  46.72789
 368  76.82205
 369  284.4537
 370  245.5612
 371  287.7423
 372  226.2136
 373  259.6234
 374  132.6237
 375  100.5833
 376  355.5359
 377  300.6819
 378  295.0867
 379  220.8036
 380  148.3842
 381  149.9849
 382  257.2153
 383  354.0531
 384  77.42055
 385  71.86237
 386  245.306
 387  226.5005
 388  177.6935
 389  182.888
 390  179.8625
 391  83.05455
 392  214.1772
 393  160.9969
 394  164.3051
 395  122.0486
 396  196.0781
 397  211.8799
 398  237.8798
 399  149.6102
 400  81.00834
 401  178.1656
 402  269.2195
 403  261.6557
 404  300.9336
 405  312.4644
 406  418.3508
 407  258.9795
 408  198.781
 409  277.3952
 410  429.8089
 411  417.6259
 412  349.2937
 413  610.6664
 414  674.6664
 415  758.8716
 416  890.144
 417  879.5999
 418  702.028
 419  554.7314
 420  403.2767
 421  278.611
 422  305.1902
 423  187.5289
 424  309.6155
 425  212.7853
 426  211.6612
 427  288.8969
 428  210.8691
 429  182.6923
 430  225.2314
 431  245.3141
 432  254.1537
 433  226.4387
 434  335.0758
 435  368.3894
 436  392.5512
 437  182.2385
 438  134.8392
 439  184.8143
 440  216.892
 441  187.5089
 442  235.7834
 443  221.2405
 444  161.2891
 445  195.9854
 446  329.7549
 447  266.816
 448  191.4285
 449  207.6424
 450  276.1883
 451  209.5715
 452  140.0059
 453  160.1031
 454  279.9393
 455  221.8584
 456  151.4568
 457  256.9496
 458  239.7953
 459  132.1036
 460  84.88985
 461  189.1411
 462  177.8137
 463  239.0935
 464  227.7864
 465  302.2439
 466  231.3808
 467  174.7009
 468  228.3322
 469  190.6221
 470  286.3185
 471  320.1577
 472  256.7113
 473  179.1602
 474  177.8293
 475  203.8663
 476  217.819
 477  312.4342
 478  260.6391
 479  205.9125
 480  313.8046
 481  242.5524
 482  259.3394
 483  332.8008
 484  298.0636
 485  219.0765
 486  216.6969
 487  346.044
 488  326.123
 489  347.4731
 490  314.5448
 491  315.5666
 492  307.0266
 493  187.1055
 494  314.0615
 495  371.0899
 496  268.1565
 497  154.3517
 498  313.9765
 499  359.4054
 500  282.6793
 501  310.6713
 502  416.4646
 503  170.8561
 504  181.3638
 505  260.044
 506  151.6469
 507  213.586
 508  172.2789
 509  315.8286
 510  303.1454
 511  277.6422
