# Input file       =  1193104069.1423_cleaned.dat
# Candidate        =  PSR_0332+5434
# Telescope        =  AR
# Epoch_topo       =  58053.075094239583
# Epoch_bary       =  N/A
# T_sample         =  0.002
# Data Folded      =  7340032
# Data Avg         =  0.0377745850034573
# Data StdDev      =  2.43052628778612 
# Profile Bins     =  512
# Profile Avg      =  541.582092463145 
# Profile StdDev   =  291.014292430182 
# Reduced chi-sqr  =  1.197
# Prob(Noise)      <  0.0014   (~3.0 sigma)
# P_topo (ms)      =  714.491643387467  +/- 0.000142
# P'_topo (s/s)    =  -0                +/- 7.5e-11
# P''_topo (s/s^2) =  0                 +/- 3.31e-14
# P_bary (ms)      =  N/A
# P'_bary (s/s)    =  N/A
# P''_bary (s/s^2) =  N/A
# P_orb (s)        =  N/A
# asin(i)/c (s)    =  N/A
# eccentricity     =  N/A
# w (rad)          =  N/A
# T_peri           =  N/A
######################################################
   0  1104.697
   1  947.75
   2  281.7529
   3  344.355
   4  671.6998
   5  600.4969
   6  833.1888
   7  647.1594
   8  561.4158
   9  753.2216
  10  550.6891
  11  461.5492
  12  668.3063
  13  448.8725
  14  247.5513
  15  281.1766
  16  567.2079
  17  586.529
  18  373.0229
  19  751.578
  20  678.0693
  21  654.8892
  22  493.2839
  23  500.4545
  24  803.6019
  25  1103.984
  26  748.1102
  27  511.2864
  28  718.4802
  29  536.3668
  30  683.9111
  31  708.3584
  32  777.7119
  33  349.9587
  34  227.5459
  35  324.6793
  36  527.6638
  37  444.3859
  38  709.3394
  39  705.9779
  40  211.4582
  41  604.5228
  42  558.2611
  43  371.8167
  44  496.0572
  45  258.4814
  46  294.979
  47  451.0964
  48  521.6111
  49  617.4652
  50  907.483
  51  739.3929
  52  522.3679
  53  268.9381
  54  286.6069
  55  402.1358
  56  -12.58829
  57  107.7795
  58  421.6082
  59  523.4778
  60  530.3752
  61  413.2882
  62  410.4925
  63  491.535
  64  570.124
  65  567.8889
  66  424.0185
  67  438.1755
  68  655.6403
  69  708.0747
  70  465.1134
  71  194.8532
  72  16.27158
  73  551.1562
  74  729.3127
  75  692.3053
  76  689.7553
  77  381.3415
  78  443.6216
  79  685.2014
  80  694.0234
  81  373.3707
  82  631.0485
  83  716.1231
  84  526.9881
  85  471.2764
  86  418.6991
  87  496.3434
  88  753.1922
  89  623.245
  90  161.3435
  91  268.3492
  92  166.6068
  93  401.3179
  94  497.36
  95  603.0776
  96  662.8969
  97  523.0425
  98  815.9895
  99  501.942
 100  596.5068
 101  777.3488
 102  793.5774
 103  567.6942
 104  518.1114
 105  273.2659
 106  277.7376
 107  240.8732
 108  400.348
 109  471.0414
 110  576.5516
 111  397.5384
 112  436.3224
 113  460.0346
 114  141.4057
 115  158.4155
 116  515.5819
 117  542.8994
 118  384.5787
 119  664.6972
 120  503.8166
 121  355.055
 122  521.4421
 123  710.8414
 124  766.9061
 125  454.2341
 126  422.4482
 127  361.2294
 128  51.2728
 129  380.0816
 130  326.8229
 131  276.4144
 132  609.1396
 133  676.1608
 134  320.9385
 135  577.6508
 136  507.0806
 137  505.8666
 138  509.0567
 139  619.6899
 140  660.7169
 141  255.4085
 142  376.7873
 143  657.706
 144  702.3035
 145  553.8299
 146  596.139
 147  180.5086
 148  393.3272
 149  751.433
 150  581.5352
 151  538.0242
 152  433.806
 153  313.4861
 154  497.5756
 155  527.8289
 156  581.6256
 157  533.3219
 158  437.5578
 159  99.1843
 160  24.48889
 161  425.4863
 162  479.054
 163  490.7289
 164  201.2544
 165  234.0675
 166  463.9086
 167  552.5829
 168  369.717
 169  238.6103
 170  229.8684
 171  418.0309
 172  427.3337
 173  398.4347
 174  513.0971
 175  293.3393
 176  203.435
 177  -34.5013
 178  179.1958
 179  137.1406
 180  189.4561
 181  368.3354
 182  565.0979
 183  775.9301
 184  407.4848
 185  360.8963
 186  234.6524
 187  14.12402
 188  -9.66724
 189  37.82137
 190  437.9757
 191  349.8945
 192  540.1455
 193  242.6557
 194  404.97
 195  745.1238
 196  960.2078
 197  811.3407
 198  664.1767
 199  620.831
 200  634.2357
 201  1059.763
 202  1014.504
 203  671.8191
 204  379.351
 205  400.8133
 206  487.562
 207  295.0545
 208  574.1645
 209  648.9312
 210  361.9947
 211  326.8986
 212  510.9108
 213  954.7577
 214  556.5186
 215  566.6091
 216  491.6872
 217  679.3449
 218  790.2833
 219  638.2253
 220  620.9302
 221  475.7642
 222  423.8796
 223  755.4285
 224  674.3494
 225  399.7068
 226  453.6782
 227  477.8455
 228  628.2599
 229  737.6607
 230  729.6981
 231  610.9703
 232  855.0182
 233  864.1827
 234  541.7239
 235  580.3651
 236  423.1971
 237  392.5017
 238  226.0897
 239  494.199
 240  728.6724
 241  453.4388
 242  91.11991
 243  69.52974
 244  398.7623
 245  391.9713
 246  594.3249
 247  762.6122
 248  772.5176
 249  509.9225
 250  139.5425
 251  200.837
 252  416.9257
 253  375.0298
 254  313.2344
 255  296.1526
 256  547.1283
 257  659.2056
 258  402.2778
 259  577.8041
 260  518.4588
 261  618.1287
 262  578.4769
 263  789.702
 264  559.6783
 265  713.6096
 266  510.3435
 267  507.7942
 268  788.3301
 269  689.8446
 270  943.5405
 271  700.9122
 272  453.9108
 273  457.6087
 274  451.4341
 275  554.4689
 276  491.5983
 277  757.878
 278  599.103
 279  708.5373
 280  737.9705
 281  501.2335
 282  376.5092
 283  618.6545
 284  604.1718
 285  221.0252
 286  327.7942
 287  674.6023
 288  729.3322
 289  983.2888
 290  1050.303
 291  645.1666
 292  611.3602
 293  318.6394
 294  496.7047
 295  806.1463
 296  835.2676
 297  606.1022
 298  386.1954
 299  379.1257
 300  279.7507
 301  437.5022
 302  682.0921
 303  584.3148
 304  463.4869
 305  280.7268
 306  386.0017
 307  405.243
 308  336.4347
 309  641.7308
 310  572.4492
 311  480.9115
 312  601.8015
 313  1035.189
 314  973.6129
 315  470.6241
 316  549.5991
 317  563.9958
 318  577.5612
 319  295.0176
 320  413.1426
 321  547.3598
 322  371.0223
 323  285.899
 324  507.1527
 325  688.8691
 326  776.252
 327  532.1158
 328  601.0344
 329  510.9321
 330  537.5944
 331  570.0998
 332  668.7519
 333  649.5317
 334  292.5552
 335  296.4039
 336  450.9793
 337  622.2079
 338  551.2748
 339  609.1205
 340  710.2631
 341  550.2365
 342  189.004
 343  281.9104
 344  537.5532
 345  588.7828
 346  861.2241
 347  298.9522
 348  170.5586
 349  520.9722
 350  494.6272
 351  436.8553
 352  597.0555
 353  554.0273
 354  541.9047
 355  592.9274
 356  711.9896
 357  444.1563
 358  402.8293
 359  684.3353
 360  338.8212
 361  270.7617
 362  465.5152
 363  756.469
 364  587.4648
 365  223.2534
 366  301.236
 367  334.2693
 368  537.1958
 369  448.0183
 370  364.1479
 371  562.3766
 372  775.0789
 373  626.0861
 374  786.6371
 375  617.3003
 376  539.3591
 377  698.731
 378  619.424
 379  451.9538
 380  400.0889
 381  266.7492
 382  373.5754
 383  476.8114
 384  597.2067
 385  381.7209
 386  397.2825
 387  571.4084
 388  670.3934
 389  422.9977
 390  509.8275
 391  399.9359
 392  370.6083
 393  393.7494
 394  678.4718
 395  670.3901
 396  430.3807
 397  534.4094
 398  625.3439
 399  726.6959
 400  540.0425
 401  541.5326
 402  715.9356
 403  704.2006
 404  436.8588
 405  457.455
 406  566.7406
 407  757.8244
 408  524.5778
 409  627.4743
 410  345.8961
 411  564.6479
 412  491.0892
 413  599.2076
 414  417.4644
 415  341.1531
 416  678.7076
 417  585.374
 418  639.5834
 419  666.9057
 420  626.5073
 421  570.0539
 422  810.5278
 423  786.5225
 424  397.9846
 425  453.3141
 426  614.5616
 427  686.8317
 428  630.8788
 429  763.2911
 430  673.7361
 431  623.8677
 432  502.6466
 433  573.1982
 434  564.3596
 435  542.335
 436  867.4529
 437  811.3588
 438  529.929
 439  476.2228
 440  711.8384
 441  487.7018
 442  503.0419
 443  722.2967
 444  427.3048
 445  308.0371
 446  562.0146
 447  758.2183
 448  543.3327
 449  603.171
 450  619.1942
 451  498.8457
 452  455.2282
 453  801.608
 454  732.7563
 455  559.5837
 456  696.7393
 457  661.2858
 458  545.9673
 459  391.6307
 460  601.3506
 461  798.9257
 462  762.0164
 463  745.2571
 464  416.8702
 465  619.7574
 466  249.4087
 467  443.8289
 468  382.5411
 469  343.763
 470  406.6393
 471  724.5769
 472  830.2524
 473  841.5476
 474  687.6172
 475  808.4984
 476  713.4041
 477  814.2508
 478  1324.993
 479  1770.077
 480  1784.094
 481  1856.041
 482  1793.229
 483  1651.403
 484  747.549
 485  632.3478
 486  615.55
 487  721.5933
 488  635.4566
 489  261.4424
 490  323.6839
 491  839.1429
 492  692.9407
 493  861.182
 494  814.3459
 495  530.9574
 496  689.8439
 497  700.5334
 498  920.0507
 499  672.2878
 500  572.5576
 501  603.2324
 502  615.448
 503  340.3741
 504  311.4877
 505  519.5826
 506  570.1168
 507  610.2207
 508  331.4048
 509  165.1238
 510  533.4425
 511  806.7258
