# Input file       =  1193347623.151681_cleaned.dat
# Candidate        =  PSR_0332+5434
# Telescope        =  AR
# Epoch_topo       =  58055.894006385199
# Epoch_bary       =  N/A
# T_sample         =  0.002
# Data Folded      =  7340032
# Data Avg         =  0.0194611988707129
# Data StdDev      =  1.0000347468972  
# Profile Bins     =  512
# Profile Avg      =  278.866927122123 
# Profile StdDev   =  119.737196728273 
# Reduced chi-sqr  =  1.692
# Prob(Noise)      <  1.35e-20   (~9.2 sigma)
# P_topo (ms)      =  714.493806326059  +/- 0.000224
# P'_topo (s/s)    =  -0                +/- 1.18e-10
# P''_topo (s/s^2) =  0                 +/- 5.22e-14
# P_bary (ms)      =  N/A
# P'_bary (s/s)    =  N/A
# P''_bary (s/s^2) =  N/A
# P_orb (s)        =  N/A
# asin(i)/c (s)    =  N/A
# eccentricity     =  N/A
# w (rad)          =  N/A
# T_peri           =  N/A
######################################################
   0  198.3219
   1  120.7151
   2  59.1853
   3  89.07297
   4  229.8502
   5  244.8299
   6  206.1145
   7  184.2192
   8  249.8394
   9  261.1445
  10  305.3194
  11  316.3537
  12  393.1901
  13  332.6633
  14  187.5912
  15  224.5469
  16  294.548
  17  344.3413
  18  468.5285
  19  499.8143
  20  294.8093
  21  263.3437
  22  347.6386
  23  318.9298
  24  233.9007
  25  314.3445
  26  297.9643
  27  190.1676
  28  242.3334
  29  418.5532
  30  410.6852
  31  317.1104
  32  221.9881
  33  200.6633
  34  253.7894
  35  237.0029
  36  294.3721
  37  399.8833
  38  321.7446
  39  197.9583
  40  196.6994
  41  266.8056
  42  322.7039
  43  317.4327
  44  265.2534
  45  174.0462
  46  169.489
  47  94.58192
  48  105.2949
  49  95.02714
  50  143.2936
  51  76.23742
  52  -3.281856
  53  80.55735
  54  173.6943
  55  259.0073
  56  251.7422
  57  383.0454
  58  381.6003
  59  233.8933
  60  189.0111
  61  308.6355
  62  402.8836
  63  331.3909
  64  392.7171
  65  282.4236
  66  378.2
  67  309.6145
  68  253.8165
  69  376.6023
  70  427.2479
  71  233.8056
  72  265.5392
  73  232.0171
  74  236.2756
  75  285.3264
  76  304.0812
  77  312.2727
  78  187.0525
  79  262.016
  80  291.0886
  81  407.5304
  82  377.2511
  83  317.8252
  84  336.901
  85  402.4744
  86  400.5479
  87  325.2485
  88  376.626
  89  341.5535
  90  408.9554
  91  664.4611
  92  833.9789
  93  1048.81
  94  1057.137
  95  1059.294
  96  977.1946
  97  741.8044
  98  544.0693
  99  311.1676
 100  366.233
 101  357.4312
 102  268.9726
 103  385.6519
 104  424.8948
 105  506.349
 106  345.4498
 107  217.6442
 108  246.8429
 109  305.7019
 110  212.2066
 111  321.2708
 112  382.1071
 113  280.0258
 114  233.1629
 115  236.3883
 116  304.1852
 117  231.0775
 118  188.204
 119  210.601
 120  227.9841
 121  322.4061
 122  364.1837
 123  383.3703
 124  201.6312
 125  197.9774
 126  181.3377
 127  285.9107
 128  328.2206
 129  226.1579
 130  220.7094
 131  307.8606
 132  281.0469
 133  182.8234
 134  200.6864
 135  179.2396
 136  343.8181
 137  286.2886
 138  259.6674
 139  268.7746
 140  304.442
 141  363.591
 142  351.3842
 143  245.0979
 144  195.826
 145  199.4107
 146  232.5133
 147  263.6722
 148  307.9401
 149  313.3495
 150  283.1296
 151  185.3886
 152  134.1238
 153  212.9075
 154  331.4523
 155  402.9268
 156  324.4903
 157  168.9619
 158  165.3052
 159  302.2424
 160  273.0931
 161  179.6561
 162  208.1624
 163  236.8641
 164  228.8543
 165  182.7852
 166  311.4187
 167  309.5208
 168  240.0039
 169  339.769
 170  327.5675
 171  350.0208
 172  235.6455
 173  173.2354
 174  84.31396
 175  302.7532
 176  409.8802
 177  291.3848
 178  189.8631
 179  162.7096
 180  237.0017
 181  311.346
 182  304.3159
 183  441.4166
 184  370.1126
 185  300.3999
 186  271.4268
 187  302.1076
 188  356.4212
 189  375.368
 190  287.9961
 191  308.3855
 192  225.0664
 193  229.5135
 194  310.3172
 195  293.8674
 196  298.3858
 197  311.0024
 198  370.3701
 199  309.0134
 200  313.6968
 201  251.971
 202  297.4881
 203  260.7195
 204  240.2377
 205  310.6786
 206  505.253
 207  369.423
 208  167.4637
 209  216.7857
 210  418.495
 211  336.6365
 212  116.3705
 213  160.6459
 214  240.7266
 215  253.0541
 216  292.5933
 217  419.4673
 218  303.6631
 219  181.6893
 220  263.8437
 221  131.7936
 222  230.5597
 223  229.7303
 224  302.6759
 225  300.3967
 226  260.2083
 227  275.8065
 228  230.5812
 229  306.9055
 230  303.5209
 231  354.5725
 232  281.5465
 233  458.7845
 234  278.0258
 235  144.6985
 236  251.5766
 237  245.4565
 238  250.8174
 239  255.3013
 240  337.2219
 241  331.6072
 242  316.4781
 243  330.3829
 244  401.3323
 245  342.9631
 246  319.2857
 247  388.5189
 248  396.3304
 249  333.9171
 250  304.3361
 251  323.0622
 252  320.9937
 253  287.0333
 254  177.3776
 255  290.9871
 256  159.8743
 257  175.0097
 258  172.3365
 259  250.9933
 260  197.7375
 261  192.5366
 262  272.1287
 263  271.2552
 264  307.2474
 265  235.57
 266  140.5404
 267  114.8157
 268  -2.643072
 269  197.0234
 270  243.596
 271  340.6965
 272  458.7747
 273  501.8779
 274  358.3333
 275  293.5807
 276  322.3324
 277  255.2289
 278  258.4372
 279  199.4586
 280  349.848
 281  332.2057
 282  216.1105
 283  135.4362
 284  74.79543
 285  113.4467
 286  247.9566
 287  340.4208
 288  244.3904
 289  182.5819
 290  202.9053
 291  250.0139
 292  156.5154
 293  308.1545
 294  344.8898
 295  262.8949
 296  298.0548
 297  351.0087
 298  103.6501
 299  197.3103
 300  257.4261
 301  243.8112
 302  247.8832
 303  230.9076
 304  139.4704
 305  264.5875
 306  289.6413
 307  245.4481
 308  205.5781
 309  209.099
 310  208.8568
 311  210.2683
 312  283.5504
 313  232.8839
 314  309.7834
 315  345.3535
 316  410.7737
 317  282.6455
 318  227.3005
 319  229.6466
 320  160.9911
 321  154.9506
 322  149.3813
 323  322.9618
 324  505.3497
 325  482.5507
 326  402.7384
 327  304.9298
 328  260.1895
 329  270.0673
 330  286.275
 331  416.6393
 332  342.7292
 333  297.0858
 334  325.5569
 335  303.5675
 336  300.5403
 337  240.1942
 338  335.3008
 339  294.78
 340  214.5121
 341  206.7903
 342  223.8129
 343  222.8388
 344  270.2912
 345  331.3275
 346  278.5568
 347  182.9902
 348  137.3467
 349  211.7885
 350  156.4364
 351  266.9606
 352  276.8783
 353  243.8815
 354  355.739
 355  286.7672
 356  204.2013
 357  253.3198
 358  180.5422
 359  198.9861
 360  221.1999
 361  270.7718
 362  218.4392
 363  148.3039
 364  40.34825
 365  76.67859
 366  127.1543
 367  198.9204
 368  172.1703
 369  113.0942
 370  264.9573
 371  265.4318
 372  231.2014
 373  312.6311
 374  318.9867
 375  230.7063
 376  238.9764
 377  157.6279
 378  181.0114
 379  338.8791
 380  297.4771
 381  257.85
 382  205.2324
 383  299.197
 384  311.8901
 385  180.2539
 386  250.2475
 387  214.2333
 388  281.5402
 389  337.0907
 390  195.6717
 391  194.2855
 392  173.5505
 393  246.577
 394  272.2208
 395  211.0759
 396  219.5249
 397  264.3921
 398  226.3519
 399  328.4335
 400  308.2026
 401  203.3123
 402  147.6954
 403  206.4715
 404  313.5944
 405  372.246
 406  368.8995
 407  177.948
 408  266.1472
 409  323.788
 410  321.6945
 411  284.855
 412  245.6903
 413  214.7458
 414  196.2512
 415  274.7688
 416  241.8114
 417  242.5822
 418  214.7053
 419  268.8455
 420  317.7099
 421  251.442
 422  254.5433
 423  254.0316
 424  207.4592
 425  220.0615
 426  180.9671
 427  211.3062
 428  283.5486
 429  347.7456
 430  339.0408
 431  404.9273
 432  450.2384
 433  376.7966
 434  348.284
 435  219.1429
 436  222.5655
 437  330.3621
 438  395.9054
 439  421.6781
 440  413.9837
 441  254.1135
 442  229.7649
 443  237.6241
 444  257.7833
 445  220.8958
 446  361.542
 447  379.9041
 448  300.7106
 449  161.4857
 450  192.1591
 451  209.9391
 452  232.6813
 453  335.33
 454  251.6655
 455  309.067
 456  272.4149
 457  220.8515
 458  170.7038
 459  317.2016
 460  340.4014
 461  281.2293
 462  252.0441
 463  314.907
 464  311.8672
 465  302.2795
 466  324.1593
 467  241.7388
 468  226.6452
 469  268.2597
 470  267.142
 471  353.8685
 472  362.0924
 473  453.2454
 474  459.1411
 475  401.6539
 476  252.3136
 477  100.113
 478  153.4979
 479  181.6762
 480  250.8239
 481  236.6835
 482  294.2825
 483  267.7299
 484  262.9689
 485  302.9124
 486  295.1515
 487  268.4641
 488  293.3165
 489  340.9546
 490  304.0023
 491  296.0717
 492  362.2736
 493  321.3465
 494  339.0859
 495  408.4379
 496  405.9959
 497  302.7347
 498  268.4067
 499  291.0905
 500  242.3579
 501  243.7624
 502  314.3907
 503  147.9985
 504  137.8502
 505  162.6872
 506  262.2598
 507  195.5752
 508  172.1292
 509  197.004
 510  186.9088
 511  135.503
