# Input file       =  1193620941.150686_cleaned.dat
# Candidate        =  PSR_0332+5434
# Telescope        =  AR
# Epoch_topo       =  58059.057409151457
# Epoch_bary       =  N/A
# T_sample         =  0.002
# Data Folded      =  7340032
# Data Avg         =  0.0476061196178698
# Data StdDev      =  2.59628345400373 
# Profile Bins     =  1024
# Profile Avg      =  341.238558665169 
# Profile StdDev   =  219.811851274422 
# Reduced chi-sqr  =  1.019
# Prob(Noise)      <  0.332   (~0.4 sigma)
# P_topo (ms)      =  714.497015909201  +/- 0.000176
# P'_topo (s/s)    =  -0                +/- 9.31e-11
# P''_topo (s/s^2) =  0                 +/- 4.11e-14
# P_bary (ms)      =  N/A
# P'_bary (s/s)    =  N/A
# P''_bary (s/s^2) =  N/A
# P_orb (s)        =  N/A
# asin(i)/c (s)    =  N/A
# eccentricity     =  N/A
# w (rad)          =  N/A
# T_peri           =  N/A
######################################################
   0  280.9042
   1  255.6327
   2  202.4578
   3  419.6402
   4  465.757
   5  590.815
   6  466.1199
   7  391.6523
   8  331.0865
   9  273.7549
  10  309.3095
  11  364.9903
  12  391.0313
  13  366.3756
  14  254.5197
  15  274.916
  16  248.9394
  17  328.5969
  18  226.0742
  19  173.0785
  20  134.6503
  21  250.0407
  22  303.1265
  23  311.9734
  24  299.5118
  25  297.713
  26  325.4659
  27  280.0317
  28  286.4538
  29  335.4395
  30  311.3227
  31  344.8145
  32  361.9725
  33  268.5006
  34  255.5948
  35  289.3783
  36  394.9689
  37  358.3772
  38  286.9336
  39  383.6113
  40  449.8984
  41  528.2667
  42  530.7578
  43  588.7757
  44  578.7261
  45  534.387
  46  362.2817
  47  351.8384
  48  325.1099
  49  426.2043
  50  452.9758
  51  437.849
  52  376.0374
  53  296.2599
  54  342.8373
  55  419.7118
  56  393.603
  57  355.663
  58  408.4032
  59  484.1863
  60  380.0075
  61  158.704
  62  111.843
  63  189.9014
  64  303.7021
  65  292.2101
  66  213.2155
  67  235.9694
  68  227.1786
  69  281.8765
  70  348.8527
  71  434.5604
  72  465.743
  73  484.9928
  74  439.579
  75  375.8299
  76  270.3273
  77  320.9061
  78  400.5053
  79  496.6847
  80  436.6472
  81  287.7602
  82  217.5305
  83  224.2307
  84  251.1081
  85  268.8578
  86  350.5624
  87  360.6246
  88  346.3008
  89  360.1251
  90  467.6584
  91  547.2346
  92  556.9891
  93  539.6823
  94  428.4815
  95  485.5688
  96  519.0766
  97  607.2189
  98  528.1056
  99  457.2354
 100  272.7694
 101  165.0315
 102  209.6541
 103  346.9433
 104  379.7686
 105  418.366
 106  362.2175
 107  450.5942
 108  459.8195
 109  450.8509
 110  284.4347
 111  206.7332
 112  224.5255
 113  269.7824
 114  273.8449
 115  262.0536
 116  323.8289
 117  322.7975
 118  395.3052
 119  430.7103
 120  467.011
 121  430.8386
 122  388.0385
 123  505.0383
 124  523.1658
 125  476.9847
 126  436.8135
 127  395.9974
 128  308.1702
 129  292.3222
 130  349.1646
 131  450.9821
 132  424.5092
 133  351.1435
 134  265.4662
 135  276.6913
 136  385.223
 137  376.6131
 138  360.0199
 139  319.8914
 140  356.7895
 141  390.7586
 142  360.5327
 143  338.1734
 144  386.2998
 145  340.5009
 146  263.442
 147  193.143
 148  225.7538
 149  281.1607
 150  383.5552
 151  392.0619
 152  393.2801
 153  280.3234
 154  156.2932
 155  74.72768
 156  44.99961
 157  25.864
 158  55.34731
 159  98.70101
 160  85.3049
 161  110.5493
 162  215.0343
 163  310.5457
 164  277.4238
 165  239.0345
 166  261.1507
 167  308.705
 168  348.9944
 169  306.746
 170  274.4883
 171  312.9585
 172  354.4796
 173  365.8491
 174  339.4641
 175  306.0671
 176  250.3557
 177  272.9099
 178  272.2854
 179  356.0334
 180  398.2126
 181  451.0617
 182  343.3891
 183  243.6694
 184  165.9503
 185  190.1243
 186  259.8716
 187  313.1492
 188  330.7216
 189  293.7249
 190  293.9471
 191  303.1092
 192  400.6769
 193  436.9325
 194  385.8119
 195  278.0888
 196  290.3969
 197  275.9611
 198  250.0055
 199  157.3217
 200  156.6668
 201  186.7408
 202  252.3779
 203  152.8726
 204  50.89418
 205  90.95509
 206  195.2294
 207  264.0343
 208  200.1618
 209  169.5707
 210  156.1258
 211  138.2885
 212  143.5601
 213  170.0482
 214  162.8296
 215  189.2274
 216  281.5222
 217  332.6637
 218  326.9568
 219  297.085
 220  407.0469
 221  350.6031
 222  320.535
 223  246.1542
 224  276.3206
 225  226.4006
 226  270.3415
 227  336.5555
 228  309.3072
 229  252.0969
 230  228.9505
 231  221.3019
 232  213.8302
 233  170.9501
 234  151.5978
 235  162.2068
 236  182.8774
 237  407.322
 238  403.5342
 239  455.9493
 240  238.7964
 241  135.8941
 242  69.13114
 243  194.5968
 244  302.1013
 245  307.3614
 246  307.7607
 247  246.4652
 248  225.7297
 249  189.9624
 250  370.8267
 251  426.6249
 252  537.9112
 253  457.254
 254  492.8263
 255  454.7806
 256  540.9926
 257  550.4409
 258  548.4722
 259  446.8554
 260  408.3679
 261  367.1631
 262  425.2489
 263  464.0566
 264  412.6034
 265  322.5294
 266  291.5546
 267  287.7769
 268  312.3718
 269  230.633
 270  356.4756
 271  351.4207
 272  376.1059
 273  304.4041
 274  359.1864
 275  415.1014
 276  532.6024
 277  484.2723
 278  349.2794
 279  230.0527
 280  347.8932
 281  416.6529
 282  376.6904
 283  221.5686
 284  246.1832
 285  228.056
 286  281.865
 287  262.7748
 288  304.6222
 289  297.9047
 290  264.7953
 291  97.92252
 292  45.51354
 293  108.4291
 294  155.975
 295  203.2763
 296  309.6081
 297  419.7318
 298  488.2159
 299  437.5126
 300  221.405
 301  172.1105
 302  245.0364
 303  403.9514
 304  443.9207
 305  377.5465
 306  276.477
 307  202.6289
 308  114.1887
 309  204.3128
 310  205.3924
 311  285.9958
 312  370.5798
 313  305.3035
 314  238.9585
 315  167.9063
 316  294.5027
 317  470.9949
 318  547.9628
 319  498.5369
 320  454.1415
 321  388.86
 322  280.4742
 323  287.7054
 324  303.1637
 325  399.4111
 326  247.0693
 327  163.6997
 328  196.0428
 329  315.0586
 330  411.5851
 331  314.6699
 332  341.2253
 333  291.8839
 334  308.207
 335  257.104
 336  333.6885
 337  402.2758
 338  414.1558
 339  357.6769
 340  334.531
 341  361.0526
 342  432.7301
 343  440.2712
 344  380.2371
 345  371.2232
 346  356.4891
 347  357.5387
 348  343.3688
 349  380.3817
 350  349.5016
 351  448.8917
 352  430.3895
 353  487.2278
 354  457.3875
 355  488.568
 356  459.3622
 357  463.3662
 358  348.8872
 359  295.0504
 360  283.8095
 361  383.5492
 362  374.8296
 363  291.6141
 364  294.888
 365  422.5565
 366  437.9987
 367  435.7131
 368  381.2681
 369  385.9221
 370  347.694
 371  274.0269
 372  302.4693
 373  278.8892
 374  292.789
 375  271.7921
 376  303.2398
 377  352.4654
 378  303.8985
 379  363.3654
 380  351.3401
 381  401.099
 382  252.332
 383  333.5371
 384  342.8443
 385  475.2722
 386  339.8305
 387  338.6542
 388  239.2061
 389  248.9672
 390  290.3273
 391  321.2575
 392  314.6631
 393  219.765
 394  175.2711
 395  222.9145
 396  215.3234
 397  278.7789
 398  353.6002
 399  500.8322
 400  386.0869
 401  306.7576
 402  170.565
 403  206.7171
 404  252.1945
 405  380.6587
 406  447.3015
 407  379.6523
 408  342.1682
 409  345.6119
 410  356.2074
 411  370.7795
 412  343.4926
 413  339.6785
 414  215.4005
 415  98.49635
 416  199.6002
 417  419.3456
 418  545.0987
 419  412.757
 420  286.6215
 421  242.7287
 422  238.9467
 423  288.1625
 424  320.6176
 425  293.7945
 426  255.3777
 427  184.114
 428  130.7021
 429  195.1523
 430  422.627
 431  598.2217
 432  537.3693
 433  335.8835
 434  223.6552
 435  355.3849
 436  488.9878
 437  450.2193
 438  411.3962
 439  397.7971
 440  345.8262
 441  288.5058
 442  246.6548
 443  412.0156
 444  452.0207
 445  424.813
 446  326.9067
 447  263.6053
 448  193.0901
 449  155.3451
 450  266.5259
 451  336.1361
 452  383.0978
 453  285.6425
 454  284.0257
 455  229.7738
 456  312.1498
 457  260.0804
 458  303.5163
 459  315.8842
 460  385.1434
 461  432.1673
 462  486.8336
 463  443.0357
 464  398.4087
 465  365.2611
 466  390.1472
 467  406.4097
 468  423.2514
 469  397.3698
 470  374.905
 471  436.5324
 472  478.4121
 473  553.468
 474  528.6584
 475  527.0251
 476  380.9117
 477  307.3591
 478  314.6454
 479  416.7044
 480  448.2731
 481  520.8912
 482  474.0604
 483  452.8769
 484  432.8726
 485  426.6892
 486  331.779
 487  218.2253
 488  263.2
 489  416.4874
 490  451.834
 491  366.3307
 492  383.0283
 493  407.0659
 494  436.7516
 495  379.9868
 496  268.2414
 497  233.5013
 498  215.7673
 499  290.226
 500  340.3168
 501  371.6061
 502  237.9558
 503  201.2644
 504  128.2371
 505  290.7632
 506  289.3142
 507  333.3579
 508  263.5101
 509  346.037
 510  336.8769
 511  446.1326
 512  414.8397
 513  435.3355
 514  320.1881
 515  365.3795
 516  358.7432
 517  387.1707
 518  361.6061
 519  311.0396
 520  322.0493
 521  318.2181
 522  314.7592
 523  282.8708
 524  189.4972
 525  120.1567
 526  90.09514
 527  245.924
 528  221.9742
 529  269.8403
 530  285.5987
 531  383.3129
 532  347.1659
 533  337.8647
 534  384.5143
 535  392.0902
 536  254.3862
 537  117.7817
 538  102.9705
 539  277.1923
 540  435.7845
 541  402.5708
 542  486.6033
 543  506.5688
 544  598.3611
 545  563.944
 546  548.9044
 547  529.3313
 548  473.1883
 549  332.9421
 550  262.9923
 551  289.0782
 552  380.2945
 553  415.7968
 554  382.3865
 555  399.2559
 556  277.1685
 557  266.4146
 558  219.073
 559  302.9187
 560  312.6226
 561  323.7482
 562  205.0341
 563  149.4967
 564  247.3341
 565  295.4299
 566  279.653
 567  270.4973
 568  316.7717
 569  293.8902
 570  271.2028
 571  246.9897
 572  224.3003
 573  191.8057
 574  212.6495
 575  396.604
 576  429.6346
 577  453.8719
 578  428.6381
 579  455.0759
 580  379.2907
 581  237.1773
 582  204.8726
 583  191.2404
 584  134.2432
 585  150.1555
 586  172.3281
 587  240.9732
 588  251.3298
 589  315.521
 590  379.2085
 591  448.7922
 592  408.4319
 593  288.3819
 594  170.4501
 595  162.4247
 596  243.9754
 597  261.7821
 598  336.9009
 599  355.1318
 600  464.7444
 601  428.4701
 602  394.195
 603  286.4773
 604  342.0701
 605  314.029
 606  430.5365
 607  486.9705
 608  477.9143
 609  350.7755
 610  410.6002
 611  474.8991
 612  624.0182
 613  592.0198
 614  724.4023
 615  672.3306
 616  590.4331
 617  376.7024
 618  325.0123
 619  293.4829
 620  290.3565
 621  321.8524
 622  276.2365
 623  349.6767
 624  363.6835
 625  499.3234
 626  601.6508
 627  663.5845
 628  819.6476
 629  904.107
 630  942.6473
 631  940.7283
 632  977.1647
 633  1006.157
 634  1063.961
 635  1008.287
 636  855.3948
 637  687.6581
 638  597.6455
 639  603.3141
 640  468.9901
 641  306.7299
 642  140.4217
 643  113.614
 644  170.7901
 645  180.8386
 646  146.074
 647  227.2759
 648  315.8415
 649  282.2345
 650  278.8384
 651  302.6195
 652  325.1804
 653  261.1246
 654  313.8617
 655  379.169
 656  306.2274
 657  345.7101
 658  372.8106
 659  461.3942
 660  500.9345
 661  431.9969
 662  359.9697
 663  269.5276
 664  351.8009
 665  408.2792
 666  382.2351
 667  339.8176
 668  203.0907
 669  121.0265
 670  211.0556
 671  364.3796
 672  524.1367
 673  469.5196
 674  436.8159
 675  335.6695
 676  288.9972
 677  229.5143
 678  264.4006
 679  299.6651
 680  266.8642
 681  151.1709
 682  97.31901
 683  106.3526
 684  158.9424
 685  321.0359
 686  379.7891
 687  367.8437
 688  266.6887
 689  235.1678
 690  247.7176
 691  303.1938
 692  370.817
 693  436.9271
 694  367.3683
 695  299.5278
 696  302.9033
 697  421.619
 698  374.7618
 699  286.0829
 700  312.6085
 701  361.4248
 702  364.0571
 703  278.8539
 704  189.9909
 705  192.3675
 706  297.8346
 707  387.4113
 708  412.8848
 709  401.2021
 710  445.5186
 711  467.3123
 712  506.337
 713  453.9456
 714  410.2636
 715  273.6172
 716  309.3773
 717  303.3072
 718  343.3995
 719  316.0216
 720  303.2202
 721  357.0713
 722  339.6496
 723  291.6329
 724  236.2441
 725  286.5193
 726  395.0013
 727  495.5842
 728  493.535
 729  425.3413
 730  360.547
 731  317.8481
 732  228.7711
 733  229.737
 734  287.8163
 735  370.8332
 736  341.0829
 737  361.057
 738  317.552
 739  308.512
 740  326.8139
 741  376.1652
 742  418.9436
 743  403.2579
 744  424.8607
 745  440.8983
 746  506.8363
 747  501.6669
 748  461.6149
 749  343.7697
 750  277.0292
 751  221.3923
 752  307.5768
 753  479.8977
 754  504.5024
 755  389.3334
 756  298.197
 757  372.5016
 758  497.3546
 759  439.6011
 760  381.1263
 761  304.7575
 762  291.7252
 763  406.5415
 764  430.2452
 765  447.3261
 766  293.8815
 767  252.3317
 768  325.0418
 769  405.2738
 770  470.2384
 771  343.3969
 772  331.95
 773  397.4189
 774  620.8151
 775  594.7474
 776  485.8858
 777  260.4259
 778  296.209
 779  196.4704
 780  137.1054
 781  120.3734
 782  182.8199
 783  235.0804
 784  188.1418
 785  285.665
 786  326.3958
 787  370.5175
 788  452.4967
 789  435.923
 790  360.6474
 791  302.5288
 792  361.4378
 793  337.4426
 794  267.6762
 795  286.8598
 796  265.205
 797  269.984
 798  215.2456
 799  266.5698
 800  225.7469
 801  248.7785
 802  271.316
 803  212.2553
 804  177.0804
 805  267.183
 806  422.8807
 807  428.7444
 808  429.6599
 809  457.2189
 810  621.1931
 811  602.1129
 812  534.0862
 813  418.3161
 814  445.1551
 815  369.1514
 816  292.1678
 817  207.6896
 818  300.4769
 819  370.3154
 820  390.7758
 821  443.9926
 822  477.312
 823  453.4459
 824  410.0377
 825  451.118
 826  450.9758
 827  502.9572
 828  398.3926
 829  375.6862
 830  339.1931
 831  333.5244
 832  361.0992
 833  322.5386
 834  365.7545
 835  472.2459
 836  597.0665
 837  620.7025
 838  534.1121
 839  479.4393
 840  380.5156
 841  368.5512
 842  359.1476
 843  476.6122
 844  440.9732
 845  466.239
 846  456.7292
 847  367.493
 848  307.3653
 849  228.7661
 850  240.5929
 851  338.4665
 852  328.3745
 853  452.4011
 854  415.1977
 855  459.9714
 856  309.7976
 857  277.7218
 858  345.5249
 859  468.2224
 860  453.1462
 861  293.4604
 862  211.6269
 863  185.8668
 864  279.2433
 865  406.6227
 866  355.5791
 867  279.3488
 868  213.084
 869  224.4245
 870  197.8675
 871  194.2168
 872  178.7384
 873  227.1132
 874  244.5116
 875  274.4663
 876  298.5889
 877  322.1577
 878  417.318
 879  320.4857
 880  248.0096
 881  162.6319
 882  254.678
 883  300.9574
 884  268.8063
 885  323.6104
 886  443.8219
 887  413.7177
 888  275.4303
 889  158.8013
 890  226.0835
 891  234.4512
 892  302.0263
 893  387.4407
 894  486.1682
 895  543.7558
 896  510.5771
 897  377.271
 898  315.3481
 899  304.4607
 900  358.3736
 901  358.6218
 902  439.0114
 903  459.4153
 904  464.5075
 905  399.8625
 906  265.6003
 907  240.6105
 908  268.5444
 909  354.5552
 910  408.6974
 911  459.0824
 912  375.4819
 913  242.9991
 914  220.1207
 915  283.2561
 916  263.5927
 917  341.111
 918  401.4226
 919  386.7417
 920  403.7375
 921  388.2219
 922  370.2147
 923  304.8611
 924  330.9413
 925  281.0338
 926  303.5663
 927  264.3848
 928  309.9777
 929  191.9184
 930  244.572
 931  280.9227
 932  357.0117
 933  439.1236
 934  434.1429
 935  413.5712
 936  335.2229
 937  378.0933
 938  342.938
 939  271.0328
 940  159.9331
 941  223.2302
 942  187.3085
 943  222.1176
 944  142.0018
 945  305.0209
 946  365.9855
 947  473.1309
 948  380.9198
 949  355.2062
 950  244.0474
 951  224.0389
 952  194.2866
 953  195.5692
 954  117.2826
 955  31.97199
 956  10.84117
 957  145.2096
 958  270.5555
 959  352.885
 960  318.7136
 961  377.8759
 962  431.7665
 963  469.8967
 964  369.5615
 965  437.58
 966  603.2579
 967  645.4219
 968  543.6641
 969  532.5558
 970  521.3701
 971  487.9832
 972  415.9222
 973  414.0639
 974  367.4644
 975  373.2398
 976  384.7171
 977  415.3922
 978  466.1139
 979  353.1502
 980  279.2134
 981  254.7108
 982  422.356
 983  450.6404
 984  338.3458
 985  245.5514
 986  136.8085
 987  269.0077
 988  287.2804
 989  329.5031
 990  257.6741
 991  342.978
 992  410.7478
 993  341.968
 994  266.5318
 995  266.0861
 996  346.605
 997  360.7115
 998  276.4593
 999  315.8185
1000  359.0143
1001  458.1582
1002  406.057
1003  355.8792
1004  260.1211
1005  154.7856
1006  210.2612
1007  317.4969
1008  433.3481
1009  329.9077
1010  274.4268
1011  273.4439
1012  327.3998
1013  396.7549
1014  394.0431
1015  400.8053
1016  346.114
1017  327.0372
1018  366.2691
1019  324.5963
1020  297.7969
1021  327.5408
1022  388.2128
1023  416.7117
