# Input file       =  1193332959.148284-PSRB0329-2ms-sampling-dd.dat
# Candidate        =  PSR_0332+5434
# Telescope        =  AR
# Epoch_topo       =  58055.724284123658
# Epoch_bary       =  N/A
# T_sample         =  0.002
# Data Folded      =  7208960
# Data Avg         =  -4.43198832628166e-10
# Data StdDev      =  5.38139739227571 
# Profile Bins     =  512
# Profile Avg      =  0.15607301485278 
# Profile StdDev   =  638.552179184891 
# Reduced chi-sqr  =  0.497
# Prob(Noise)      <  1   (~0.0 sigma)
# P_topo (ms)      =  714.493643289341  +/- 0.000133
# P'_topo (s/s)    =  -0                +/- 7.17e-11
# P''_topo (s/s^2) =  0                 +/- 3.22e-14
# P_bary (ms)      =  N/A
# P'_bary (s/s)    =  N/A
# P''_bary (s/s^2) =  N/A
# P_orb (s)        =  N/A
# asin(i)/c (s)    =  N/A
# eccentricity     =  N/A
# w (rad)          =  N/A
# T_peri           =  N/A
######################################################
   0  313.3086
   1  -45.96524
   2  -57.55047
   3  -357.0569
   4  -403.9566
   5  -461.5523
   6  -46.04451
   7  374.0251
   8  567.5208
   9  871.3773
  10  349.7492
  11  212.2089
  12  -479.7425
  13  -367.8724
  14  468.3369
  15  421.5717
  16  786.8615
  17  679.7523
  18  561.3405
  19  2.312188
  20  -357.2067
  21  85.96962
  22  521.559
  23  274.8445
  24  -318.6649
  25  240.3962
  26  -209.032
  27  103.1724
  28  -119.8907
  29  -160.0303
  30  116.5903
  31  58.33671
  32  470.7388
  33  446.4659
  34  47.60762
  35  118.6764
  36  163.1839
  37  328.7714
  38  162.8339
  39  -399.1345
  40  -283.0314
  41  -404.0461
  42  133.8598
  43  251.4795
  44  578.809
  45  482.6784
  46  203.4495
  47  -105.1435
  48  -261.5195
  49  -33.54429
  50  -11.39255
  51  358.6756
  52  702.0603
  53  545.9006
  54  217.8327
  55  585.6807
  56  164.8366
  57  -4.331023
  58  -103.0733
  59  -232.1387
  60  -347.2268
  61  -89.09264
  62  318.9292
  63  -68.44851
  64  -67.56223
  65  -319.6319
  66  -104.537
  67  107.7383
  68  -155.2754
  69  -251.8189
  70  -289.1715
  71  -278.6058
  72  -514.8945
  73  -112.7989
  74  137.5699
  75  210.0456
  76  -9.582777
  77  -306.5797
  78  -347.9483
  79  -476.7286
  80  -211.6018
  81  -23.89796
  82  312.0413
  83  391.9951
  84  101.4623
  85  18.70257
  86  -248.5543
  87  -424.4116
  88  -37.575
  89  -111.8967
  90  22.78041
  91  33.38491
  92  104.3127
  93  -108.083
  94  -81.26451
  95  27.78718
  96  -100.0104
  97  -29.06937
  98  198.6319
  99  320.2442
 100  254.1792
 101  8.301995
 102  -165.5628
 103  -2.59342
 104  42.1198
 105  241.3197
 106  -70.02082
 107  169.5613
 108  74.10899
 109  76.38606
 110  -52.06263
 111  -259.1804
 112  -673.9409
 113  -612.1677
 114  -261.6312
 115  126.4119
 116  376.843
 117  480.7122
 118  635.9329
 119  -6.939595
 120  -425.1203
 121  -534.109
 122  -41.71778
 123  -149.3436
 124  -250.6385
 125  -2.835123
 126  -401.6056
 127  -256.983
 128  -200.1528
 129  105.5462
 130  -55.30648
 131  13.69803
 132  2.308802
 133  27.39338
 134  124.8933
 135  126.119
 136  123.1138
 137  81.18365
 138  -43.50903
 139  -244.1725
 140  -8.115338
 141  -199.3997
 142  -258.6911
 143  -465.2362
 144  -277.8862
 145  149.9858
 146  -15.35893
 147  188.1079
 148  321.2658
 149  -145.7841
 150  -190.0752
 151  -59.25689
 152  241.2236
 153  299.2495
 154  508.713
 155  238.3859
 156  119.1036
 157  -208.3385
 158  -333.8719
 159  364.7332
 160  -315.5166
 161  -525.2114
 162  -361.1664
 163  102.0783
 164  94.05145
 165  -117.151
 166  -74.57359
 167  -296.7315
 168  -339.276
 169  -244.4992
 170  -144.6918
 171  -242.3845
 172  -101.7616
 173  190.3338
 174  389.4015
 175  200.424
 176  256.6317
 177  62.70401
 178  190.4778
 179  479.4016
 180  480.0774
 181  447.1785
 182  432.0664
 183  433.2818
 184  304.0209
 185  386.2731
 186  340.5432
 187  385.2768
 188  50.81183
 189  42.5404
 190  201.0524
 191  338.9337
 192  140.9012
 193  -334.278
 194  -60.13379
 195  -247.3862
 196  18.79235
 197  252.5815
 198  471.8278
 199  262.2471
 200  261.782
 201  265.933
 202  213.8704
 203  388.5732
 204  399.8653
 205  645.6965
 206  741.8964
 207  498.7151
 208  116.601
 209  215.1443
 210  14.94664
 211  366.6994
 212  765.4594
 213  491.7851
 214  355.1324
 215  491.116
 216  517.7967
 217  556.1019
 218  298.2408
 219  279.3172
 220  213.131
 221  74.77024
 222  -26.82793
 223  105.0996
 224  79.44343
 225  142.9107
 226  170.9661
 227  -0.3210767
 228  -111.5781
 229  224.5914
 230  192.4741
 231  194.331
 232  99.19267
 233  36.45675
 234  -52.61508
 235  113.2777
 236  301.8073
 237  38.03662
 238  272.0216
 239  286.039
 240  -233.8457
 241  -635.5691
 242  -519.7213
 243  -121.4893
 244  22.94879
 245  242.1987
 246  505.7725
 247  516.5771
 248  -21.20564
 249  -620.7062
 250  -366.2684
 251  -253.9343
 252  -222.0327
 253  -342.8347
 254  -148.511
 255  -594.0409
 256  -717.4981
 257  215.1024
 258  492.5081
 259  231.1638
 260  107.0132
 261  -15.61496
 262  -35.03574
 263  -400.4956
 264  -483.7462
 265  -187.8632
 266  172.7557
 267  29.83927
 268  -256.9424
 269  -725.1092
 270  -604.3602
 271  -514.502
 272  -41.99562
 273  -42.42894
 274  -191.3807
 275  -552.2657
 276  -517.9922
 277  -410.9044
 278  0.8160933
 279  106.1918
 280  -42.67248
 281  -210.2645
 282  -73.19457
 283  173.272
 284  -16.11672
 285  -309.6761
 286  -257.1601
 287  -177.5388
 288  197.7254
 289  38.06772
 290  107.2767
 291  -194.4017
 292  -407.052
 293  -167.6857
 294  -245.1797
 295  -695.3291
 296  -747.5598
 297  -725.3339
 298  -294.5727
 299  -74.9845
 300  -87.51051
 301  -206.5163
 302  -406.6553
 303  -618.5486
 304  -398.5961
 305  -522.8533
 306  -297.2048
 307  27.84707
 308  127.071
 309  105.3661
 310  -3.295053
 311  157.6575
 312  81.88719
 313  98.23383
 314  7.005275
 315  68.48416
 316  124.3198
 317  -33.71816
 318  238.4799
 319  571.4619
 320  257.8955
 321  91.69788
 322  -130.989
 323  -301.0845
 324  23.14986
 325  435.562
 326  618.6694
 327  748.6448
 328  610.2081
 329  385.6595
 330  -49.51836
 331  -115.7637
 332  -59.25443
 333  44.64869
 334  -261.6548
 335  -78.59987
 336  -152.7163
 337  106.932
 338  -201.8368
 339  -311.9173
 340  -12.68712
 341  311.0872
 342  81.68782
 343  264.6599
 344  129.2657
 345  19.38218
 346  -95.08216
 347  -42.00733
 348  -259.3347
 349  9.26791
 350  62.88339
 351  -533.6735
 352  -696.2032
 353  -219.4441
 354  167.754
 355  166.2198
 356  -37.28608
 357  -263.8234
 358  -432.9178
 359  -564.9792
 360  -336.5453
 361  106.5419
 362  469.0725
 363  410.2997
 364  621.9497
 365  79.8883
 366  -193.7365
 367  -615.1324
 368  -601.0146
 369  -18.72594
 370  -36.87036
 371  145.937
 372  26.16201
 373  3.657814
 374  -163.6917
 375  -590.636
 376  17.77188
 377  110.5751
 378  98.08437
 379  -297.0236
 380  -205.3819
 381  -87.03599
 382  72.66179
 383  484.0495
 384  -216.7033
 385  -194.9479
 386  -49.58423
 387  41.32629
 388  -243.4111
 389  -421.5998
 390  -349.3417
 391  -477.15
 392  -7.30958
 393  -178.8476
 394  -82.09344
 395  -440.1408
 396  -303.0929
 397  -433.5802
 398  -320.3773
 399  -236.4518
 400  -513.7884
 401  -208.8233
 402  -157.5883
 403  -309.9895
 404  -431.1823
 405  -379.1569
 406  47.65903
 407  -243.6456
 408  -333.5204
 409  -289.5066
 410  210.8188
 411  98.43998
 412  -36.18461
 413  688.7866
 414  626.4334
 415  975.8073
 416  1172.926
 417  1143.632
 418  442.6098
 419  164.4476
 420  -69.88432
 421  -428.5798
 422  -235.0965
 423  -607.616
 424  -397.3333
 425  -900.4101
 426  -537.464
 427  33.10451
 428  -167.6313
 429  -297.706
 430  -209.6222
 431  -332.3648
 432  -551.2942
 433  -317.044
 434  152.0031
 435  271.2234
 436  334.7602
 437  -56.8959
 438  -263.0656
 439  -529.541
 440  -506.9612
 441  -463.0508
 442  -98.4298
 443  235.704
 444  146.7646
 445  176.6404
 446  439.9366
 447  57.48363
 448  -323.6403
 449  -256.0573
 450  260.099
 451  157.8292
 452  258.7793
 453  138.7567
 454  62.03667
 455  -323.7583
 456  -383.0979
 457  -166.5745
 458  -298.6948
 459  -591.5274
 460  -362.7744
 461  -128.8898
 462  -415.4969
 463  -155.5457
 464  -3.169779
 465  94.99765
 466  -382.2617
 467  -365.1841
 468  -270.8133
 469  -522.1764
 470  -189.9893
 471  -78.66652
 472  -44.83955
 473  -280.6269
 474  -163.8938
 475  -114.9194
 476  -170.4634
 477  -158.6157
 478  -373.1076
 479  -136.2999
 480  460.2272
 481  173.4591
 482  339.1543
 483  345.015
 484  86.90572
 485  -89.42685
 486  -105.0391
 487  211.1192
 488  1.601487
 489  446.8173
 490  292.2119
 491  297.4295
 492  140.3038
 493  231.1115
 494  454.9261
 495  408.2447
 496  235.487
 497  148.0235
 498  585.2305
 499  230.3726
 500  155.6748
 501  380.7365
 502  716.5807
 503  52.64482
 504  30.11237
 505  213.9397
 506  -96.55674
 507  143.1244
 508  55.84032
 509  529.1938
 510  316.1662
 511  378.3436
