# Input file       =  1193764322.14598_cleaned.dat
# Candidate        =  PSR_0332+5434
# Telescope        =  AR
# Epoch_topo       =  58060.716911411808
# Epoch_bary       =  N/A
# T_sample         =  0.002
# Data Folded      =  7208960
# Data Avg         =  0.0236396526835961
# Data StdDev      =  1.00005156759422 
# Profile Bins     =  512
# Profile Avg      =  332.808540524568 
# Profile StdDev   =  118.665294761758 
# Reduced chi-sqr  =  1.359
# Prob(Noise)      <  1.1e-07   (~5.2 sigma)
# P_topo (ms)      =  714.498204002695  +/- 0.000175
# P'_topo (s/s)    =  -0                +/- 9.4e-11
# P''_topo (s/s^2) =  0                 +/- 4.23e-14
# P_bary (ms)      =  N/A
# P'_bary (s/s)    =  N/A
# P''_bary (s/s^2) =  N/A
# P_orb (s)        =  N/A
# asin(i)/c (s)    =  N/A
# eccentricity     =  N/A
# w (rad)          =  N/A
# T_peri           =  N/A
######################################################
   0  1020.99
   1  884.2966
   2  704.7348
   3  468.6436
   4  412.3528
   5  401.4147
   6  378.5737
   7  312.8376
   8  399.0177
   9  396.7076
  10  261.0295
  11  363.1684
  12  453.2375
  13  420.69
  14  401.423
  15  377.8265
  16  316.7278
  17  291.7434
  18  363.748
  19  253.8969
  20  304.6178
  21  278.8304
  22  374.118
  23  283.7629
  24  249.8342
  25  269.6001
  26  264.9651
  27  232.581
  28  232.7796
  29  365.3009
  30  391.5744
  31  326.0801
  32  204.53
  33  130.9088
  34  183.4169
  35  260.1844
  36  389.8359
  37  383.5329
  38  311.6961
  39  303.2966
  40  306.2904
  41  325.965
  42  292.2683
  43  399.0652
  44  374.623
  45  303.087
  46  301.0824
  47  312.7325
  48  363.8947
  49  366.1365
  50  272.5591
  51  339.0698
  52  414.2833
  53  389.3379
  54  356.3207
  55  348.3509
  56  481.3451
  57  546.7731
  58  384.4047
  59  298.474
  60  276.2369
  61  312.7433
  62  278.8824
  63  220.1855
  64  376.6866
  65  445.3823
  66  390.6343
  67  400.5253
  68  456.8851
  69  401.8051
  70  360.4181
  71  426.6003
  72  409.5893
  73  384.4636
  74  241.8153
  75  409.1879
  76  438.2621
  77  364.2018
  78  452.4492
  79  483.0553
  80  449.4078
  81  525.3383
  82  575.8107
  83  573.9977
  84  356.4413
  85  362.0093
  86  436.4068
  87  358.6538
  88  254.7511
  89  294.8793
  90  403.9853
  91  388.4295
  92  492.3671
  93  408.9857
  94  430.2877
  95  297.3168
  96  341.9495
  97  373.7043
  98  360.7197
  99  350.9325
 100  314.3012
 101  401.0731
 102  409.9988
 103  417.7641
 104  346.6895
 105  368.4289
 106  405.0107
 107  341.4347
 108  473.6622
 109  331.9111
 110  294.1737
 111  413.1651
 112  453.2702
 113  280.1393
 114  230.8075
 115  334.6398
 116  414.8393
 117  463.2604
 118  413.6202
 119  419.5685
 120  359.0667
 121  254.6061
 122  203.4862
 123  410.2604
 124  344.6374
 125  340.7266
 126  329.7516
 127  259.2383
 128  244.5963
 129  371.0229
 130  414.9476
 131  303.4164
 132  251.9551
 133  224.6534
 134  335.118
 135  330.5363
 136  268.6642
 137  317.3814
 138  340.3104
 139  345.6552
 140  328.8166
 141  347.8782
 142  263.6374
 143  383.0139
 144  320.5693
 145  234.6434
 146  298.3638
 147  329.3294
 148  336.2974
 149  455.111
 150  331.048
 151  234.7473
 152  166.1907
 153  287.6314
 154  293.7637
 155  190.0343
 156  184.5841
 157  236.1519
 158  339.7381
 159  327.0818
 160  356.4713
 161  347.7039
 162  216.5077
 163  120.0652
 164  104.8777
 165  254.8531
 166  321.5628
 167  303.4036
 168  255.8009
 169  372.3313
 170  287.6892
 171  423.335
 172  440.835
 173  371.0451
 174  362.3046
 175  192.7986
 176  222.9372
 177  227.4205
 178  335.4786
 179  222.9794
 180  283.6212
 181  332.9216
 182  273.8183
 183  348.2209
 184  304.3952
 185  322.7048
 186  270.1188
 187  347.4204
 188  430.2405
 189  505.6868
 190  328.057
 191  359.1402
 192  341.6857
 193  181.7272
 194  224.8672
 195  262.2443
 196  317.3546
 197  275.4849
 198  333.7984
 199  390.1493
 200  358.6526
 201  311.5932
 202  226.6198
 203  118.5603
 204  252.2199
 205  223.1472
 206  301.7049
 207  285.0369
 208  358.8104
 209  281.6622
 210  314.7904
 211  301.4037
 212  216.0401
 213  241.4644
 214  400.6656
 215  372.0311
 216  330.9905
 217  334.7683
 218  392.9029
 219  375.3693
 220  309.7844
 221  381.2612
 222  368.9054
 223  409.3211
 224  357.1974
 225  370.2013
 226  372.3496
 227  341.774
 228  284.884
 229  253.034
 230  249.1481
 231  386.2376
 232  363.3712
 233  93.19189
 234  191.2128
 235  319.2167
 236  292.0265
 237  210.5538
 238  316.6091
 239  337.5594
 240  254.349
 241  199.6061
 242  235.1204
 243  312.8285
 244  260.3044
 245  167.8956
 246  175.6292
 247  337.8968
 248  343.027
 249  284.0861
 250  275.7493
 251  260.6135
 252  240.117
 253  245.5001
 254  340.5548
 255  425.5508
 256  371.559
 257  285.6504
 258  336.7608
 259  370.8752
 260  403.5193
 261  352.026
 262  217.7968
 263  237.1445
 264  167.0134
 265  298.7281
 266  269.5043
 267  139.5697
 268  223.0669
 269  314.2935
 270  251.9547
 271  438.2088
 272  261.504
 273  328.1258
 274  313.3641
 275  345.8569
 276  268.1951
 277  258.0337
 278  343.4677
 279  366.4198
 280  380.3349
 281  395.273
 282  417.0169
 283  369.4911
 284  481.0667
 285  274.0198
 286  303.7342
 287  426.3908
 288  531.5319
 289  387.9029
 290  229.7415
 291  112.3822
 292  280.5631
 293  339.3336
 294  225.841
 295  289.0865
 296  395.0184
 297  333.8218
 298  210.3702
 299  161.7804
 300  287.1428
 301  216.1848
 302  254.3649
 303  347.006
 304  205.0128
 305  318.9335
 306  342.7789
 307  348.1102
 308  321.3045
 309  228.9246
 310  220.9521
 311  145.6675
 312  146.3182
 313  328.7342
 314  342.1285
 315  301.7917
 316  356.6897
 317  318.3824
 318  421.0636
 319  326.511
 320  205.5692
 321  192.1416
 322  193.8193
 323  207.5762
 324  330.2712
 325  459.7786
 326  482.8437
 327  286.3862
 328  238.4202
 329  289.0037
 330  243.4974
 331  373.7839
 332  389.5776
 333  309.4828
 334  249.4125
 335  191.7647
 336  328.8985
 337  467.8194
 338  294.9808
 339  241.3287
 340  334.8202
 341  315.4779
 342  315.5281
 343  415.5383
 344  233.3113
 345  349.4062
 346  227.1407
 347  310.4848
 348  382.3381
 349  393.623
 350  410.9439
 351  375.2163
 352  390.4225
 353  249.1745
 354  223.3104
 355  418.1031
 356  377.9025
 357  346.4593
 358  290.921
 359  240.0038
 360  297.6186
 361  341.2004
 362  443.2073
 363  409.1592
 364  536.4785
 365  276.9742
 366  148.3711
 367  211.4623
 368  325.0549
 369  399.6711
 370  373.1343
 371  291.7624
 372  237.4355
 373  218.5709
 374  211.5903
 375  255.1994
 376  350.6817
 377  370.6405
 378  302.0654
 379  262.2521
 380  433.1369
 381  442.9077
 382  457.1043
 383  329.1571
 384  401.9531
 385  409.6044
 386  417.9084
 387  337.8942
 388  385.7294
 389  375.8435
 390  278.3932
 391  344.188
 392  324.6223
 393  290.244
 394  193.986
 395  292.7457
 396  326.3123
 397  207.2803
 398  265.3629
 399  319.9188
 400  419.7131
 401  381.8273
 402  324.8533
 403  249.0134
 404  409.9807
 405  447.5904
 406  478.0305
 407  397.6651
 408  423.6088
 409  290.824
 410  274.0548
 411  370.4702
 412  443.4105
 413  431.9855
 414  189.4637
 415  253.7197
 416  370.5056
 417  417.6153
 418  426.8228
 419  399.0144
 420  327.0162
 421  259.0893
 422  418.9707
 423  341.1217
 424  299.5494
 425  303.5571
 426  336.1868
 427  352.1971
 428  200.1792
 429  314.1068
 430  333.5157
 431  290.6284
 432  434.007
 433  405.7393
 434  397.3775
 435  449.0349
 436  363.0963
 437  321.6594
 438  362.8553
 439  196.1514
 440  144.9364
 441  215.7408
 442  454.468
 443  393.4312
 444  283.1047
 445  329.7765
 446  325.219
 447  236.1634
 448  270.9902
 449  280.593
 450  291.49
 451  375.6841
 452  305.2165
 453  278.398
 454  244.5505
 455  235.1357
 456  181.1254
 457  233.6744
 458  234.3122
 459  247.1102
 460  374.1338
 461  296.8914
 462  269.2936
 463  317.926
 464  270.3568
 465  227.5444
 466  201.8858
 467  240.5942
 468  437.4323
 469  347.2909
 470  343.0612
 471  309.6389
 472  335.8915
 473  284.7372
 474  339.4164
 475  360.6108
 476  271.3062
 477  289.6355
 478  370.7236
 479  422.132
 480  384.365
 481  389.6231
 482  357.1031
 483  309.1881
 484  355.3638
 485  404.3289
 486  355.1143
 487  361.9405
 488  382.8788
 489  344.926
 490  360.1669
 491  448.2585
 492  403.9565
 493  366.9707
 494  490.2409
 495  549.4079
 496  364.4547
 497  360.6107
 498  248.9308
 499  290.3165
 500  294.7183
 501  160.3377
 502  351.3408
 503  345.3937
 504  463.5486
 505  454.9461
 506  352.3546
 507  475.8651
 508  579.3207
 509  679.9296
 510  860.1422
 511  942.9188
