# Input file       =  1193692179.151799_cleaned.dat
# Candidate        =  PSR_0332+5434
# Telescope        =  AR
# Epoch_topo       =  58059.881923053232
# Epoch_bary       =  N/A
# T_sample         =  0.002
# Data Folded      =  7340032
# Data Avg         =  0.0243271235814747
# Data StdDev      =  1.00003095091144 
# Profile Bins     =  512
# Profile Avg      =  348.577231162163 
# Profile StdDev   =  119.736742223372 
# Reduced chi-sqr  =  1.226
# Prob(Noise)      <  0.000346   (~3.4 sigma)
# P_topo (ms)      =  714.497444683041  +/- 0.000244
# P'_topo (s/s)    =  -0                +/- 1.29e-10
# P''_topo (s/s^2) =  0                 +/- 5.68e-14
# P_bary (ms)      =  N/A
# P'_bary (s/s)    =  N/A
# P''_bary (s/s^2) =  N/A
# P_orb (s)        =  N/A
# asin(i)/c (s)    =  N/A
# eccentricity     =  N/A
# w (rad)          =  N/A
# T_peri           =  N/A
######################################################
   0  427.3414
   1  285.3506
   2  207.4969
   3  270.5601
   4  327.6806
   5  209.6548
   6  252.4735
   7  351.7546
   8  375.504
   9  407.0575
  10  403.5075
  11  392.4812
  12  483.0665
  13  549.1688
  14  500.8995
  15  449.5949
  16  446.1438
  17  330.8093
  18  357.2076
  19  402.126
  20  370.721
  21  299.9382
  22  321.5883
  23  419.1794
  24  391.7724
  25  352.6239
  26  330.2456
  27  342.6014
  28  353.1401
  29  326.0319
  30  427.4735
  31  431.8968
  32  309.127
  33  251.4303
  34  218.9486
  35  294.0231
  36  337.9435
  37  313.4245
  38  363.9098
  39  302.2234
  40  394.9184
  41  331.9836
  42  336.6846
  43  291.583
  44  360.2263
  45  356.6537
  46  257.5773
  47  289.5859
  48  351.8664
  49  482.7181
  50  396.9743
  51  307.9269
  52  260.7095
  53  188.3867
  54  300.8861
  55  221.8545
  56  382.1247
  57  420.5374
  58  288.1669
  59  297.4378
  60  336.6974
  61  365.0901
  62  324.7106
  63  199.897
  64  206.4626
  65  283.7014
  66  346.6301
  67  529.7357
  68  393.2752
  69  309.8767
  70  359.8517
  71  306.0087
  72  422.7859
  73  390.7235
  74  271.3389
  75  101.5509
  76  164.0423
  77  367.3366
  78  329.4188
  79  335.4331
  80  373.3913
  81  296.347
  82  407.2567
  83  408.7834
  84  346.4169
  85  278.6124
  86  257.2133
  87  322.7183
  88  393.7781
  89  354.6714
  90  354.0513
  91  473.8117
  92  319.1198
  93  260.044
  94  329.9003
  95  311.1161
  96  355.2339
  97  411.7575
  98  399.1028
  99  246.4386
 100  192.5491
 101  310.6501
 102  205.2928
 103  168.4413
 104  260.4057
 105  181.12
 106  205.1149
 107  206.9711
 108  321.3686
 109  407.9849
 110  344.6819
 111  277.5536
 112  420.7715
 113  429.5649
 114  297.4079
 115  284.7059
 116  269.1128
 117  243.7289
 118  106.917
 119  309.2299
 120  366.6537
 121  289.8867
 122  231.5318
 123  202.2307
 124  258.0792
 125  245.1582
 126  285.3158
 127  296.4244
 128  369.9041
 129  416.4466
 130  395.72
 131  390.2522
 132  358.8318
 133  321.5511
 134  308.33
 135  193.5589
 136  280.9507
 137  351.3106
 138  377.9879
 139  318.1005
 140  295.261
 141  226.9958
 142  228.0547
 143  180.8156
 144  251.9635
 145  230.5197
 146  301.913
 147  483.2013
 148  288.0938
 149  269.7955
 150  299.9061
 151  322.0814
 152  404.63
 153  435.4405
 154  355.3095
 155  357.5336
 156  418.7397
 157  364.6869
 158  352.7389
 159  208.8031
 160  303.2737
 161  399.186
 162  477.7976
 163  429.0407
 164  324.2957
 165  346.3418
 166  316.4742
 167  443.6715
 168  511.7382
 169  552.3466
 170  464.0075
 171  444.0827
 172  381.2274
 173  261.2429
 174  302.2739
 175  339.5352
 176  422.7203
 177  431.7204
 178  427.7855
 179  554.3093
 180  353.8288
 181  299.2444
 182  250.7471
 183  298.6882
 184  262.9574
 185  300.4669
 186  267.1561
 187  278.8542
 188  368.0614
 189  367.0558
 190  361.831
 191  290.6244
 192  220.3979
 193  224.0605
 194  261.9816
 195  341.0695
 196  399.7423
 197  406.4879
 198  376.8917
 199  307.0435
 200  393.5478
 201  413.7606
 202  326.9798
 203  467.915
 204  434.2913
 205  394.2679
 206  346.244
 207  307.0054
 208  239.3446
 209  299.9135
 210  333.4493
 211  267.6049
 212  311.7727
 213  376.5023
 214  396.6397
 215  293.0172
 216  275.7491
 217  280.0564
 218  336.8481
 219  313.7141
 220  383.3352
 221  385.2091
 222  363.8173
 223  326.1646
 224  390.4506
 225  260.6396
 226  315.863
 227  296.8821
 228  187.8166
 229  251.8083
 230  300.2327
 231  428.851
 232  332.2671
 233  260.7277
 234  315.9818
 235  322.3254
 236  169.7678
 237  87.38655
 238  240.7139
 239  206.3926
 240  330.1958
 241  422.856
 242  424.949
 243  367.269
 244  445.7738
 245  474.9407
 246  386.5425
 247  294.6243
 248  360.0097
 249  417.6138
 250  346.6475
 251  369.9276
 252  277.8845
 253  278.0371
 254  304.0251
 255  326.131
 256  282.7864
 257  291.8281
 258  279.888
 259  379.7263
 260  322.2251
 261  325.7335
 262  379.8355
 263  361.4205
 264  418.9678
 265  405.2424
 266  305.3126
 267  352.8084
 268  220.0497
 269  158.1773
 270  251.7298
 271  350.8374
 272  350.0082
 273  216.6713
 274  350.3437
 275  403.0908
 276  432.8203
 277  377.7063
 278  318.6768
 279  346.6629
 280  430.9819
 281  394.1282
 282  357.8806
 283  441.7592
 284  506.5107
 285  323.2166
 286  293.3429
 287  305.5269
 288  397.4122
 289  446.2753
 290  345.6518
 291  333.856
 292  361.546
 293  331.9364
 294  342.0285
 295  268.856
 296  300.4163
 297  277.9998
 298  312.7966
 299  434.4794
 300  412.3083
 301  549.9209
 302  536.4885
 303  444.6671
 304  373.7978
 305  306.2773
 306  319.7243
 307  403.3862
 308  367.6281
 309  410.7914
 310  371.3921
 311  405.2794
 312  526.2019
 313  475.076
 314  407.4656
 315  322.988
 316  443.1546
 317  384.6362
 318  343.8553
 319  424.2025
 320  359.6717
 321  302.5542
 322  353.3985
 323  369.1725
 324  319.7461
 325  273.1137
 326  324.6936
 327  398.2684
 328  372.3633
 329  303.1949
 330  310.2215
 331  290.651
 332  398.6325
 333  374.9033
 334  257.8398
 335  179.6841
 336  204.5468
 337  349.1473
 338  483.7267
 339  406.1223
 340  307.6423
 341  289.8281
 342  285.0141
 343  280.8945
 344  294.4026
 345  312.4229
 346  310.9897
 347  324.6069
 348  282.3073
 349  344.5305
 350  354.9196
 351  413.7629
 352  400.0411
 353  359.0543
 354  415.775
 355  514.166
 356  670.0292
 357  744.6628
 358  864.3099
 359  1068.8
 360  928.6802
 361  805.9653
 362  606.554
 363  388.0061
 364  401.5979
 365  333.3292
 366  303.0467
 367  395.2159
 368  346.8224
 369  294.7093
 370  332.5845
 371  308.4833
 372  284.9192
 373  340.0171
 374  368.2986
 375  288.4118
 376  301.0297
 377  289.8251
 378  265.1577
 379  261.3662
 380  255.3488
 381  321.3402
 382  435.7778
 383  319.38
 384  341.2388
 385  430.3955
 386  340.4368
 387  267.507
 388  236.2338
 389  252.6283
 390  244.0177
 391  257.3881
 392  392.1914
 393  517.2238
 394  365.0424
 395  405.7487
 396  439.1735
 397  544.4109
 398  391.8671
 399  334.4633
 400  453.0569
 401  434.4726
 402  496.9805
 403  432.8473
 404  352.0009
 405  351.659
 406  339.0794
 407  486.5479
 408  282.9686
 409  237.1913
 410  286.1018
 411  359.1306
 412  389.8767
 413  330.9063
 414  378.181
 415  366.6511
 416  403.5314
 417  385.0912
 418  249.9321
 419  269.6995
 420  386.0348
 421  405.1261
 422  276.3117
 423  357.2599
 424  427.0678
 425  456.2751
 426  441.9003
 427  425.7771
 428  241.9627
 429  397.3854
 430  474.2672
 431  396.0683
 432  341.5692
 433  410.1115
 434  344.3799
 435  484.8998
 436  460.5278
 437  365.5557
 438  358.5671
 439  353.8371
 440  416.3645
 441  404.811
 442  380.1225
 443  322.3605
 444  385.0337
 445  338.6388
 446  328.6823
 447  355.3317
 448  386.542
 449  299.0807
 450  288.4302
 451  318.7723
 452  396.7344
 453  396.7492
 454  264.2068
 455  276.916
 456  395.289
 457  392.3161
 458  308.2609
 459  429.0419
 460  442.6131
 461  333.1247
 462  319.2227
 463  325.5488
 464  303.9978
 465  273.4898
 466  430.3492
 467  386.9933
 468  349.9218
 469  384.1153
 470  361.4394
 471  424.515
 472  360.3953
 473  430.6473
 474  461.2143
 475  548.4868
 476  527.9321
 477  441.4359
 478  211.9405
 479  282.7434
 480  324.3649
 481  424.1844
 482  391.626
 483  390.8744
 484  427.4811
 485  427.6229
 486  279.6334
 487  169.0983
 488  185.9122
 489  259.6799
 490  291.1965
 491  376.4557
 492  321.7337
 493  257.9805
 494  197.7461
 495  275.638
 496  301.9639
 497  277.181
 498  268.8396
 499  252.5109
 500  350.8144
 501  233.7179
 502  255.6231
 503  341.7842
 504  347.1525
 505  301.1806
 506  367.78
 507  427.1336
 508  365.0862
 509  290.8616
 510  376.6818
 511  450.8799
