# Input file       =  1193175289.144360-PSRB0329-2ms-sampling-dd.dat
# Candidate        =  PSR_0332+5434
# Telescope        =  AR
# Epoch_topo       =  58053.899399818984
# Epoch_bary       =  N/A
# T_sample         =  0.002
# Data Folded      =  7340032
# Data Avg         =  3.17271561367393e-10
# Data StdDev      =  17.9336288001281 
# Profile Bins     =  512
# Profile Avg      =  0.443608210045656
# Profile StdDev   =  2147.24782949316 
# Reduced chi-sqr  =  0.902
# Prob(Noise)      <  0.944   (~0.0 sigma)
# P_topo (ms)      =  714.492032295271  +/- 5.33e-05
# P'_topo (s/s)    =  -0                +/- 2.81e-11
# P''_topo (s/s^2) =  0                 +/- 1.24e-14
# P_bary (ms)      =  N/A
# P'_bary (s/s)    =  N/A
# P''_bary (s/s^2) =  N/A
# P_orb (s)        =  N/A
# asin(i)/c (s)    =  N/A
# eccentricity     =  N/A
# w (rad)          =  N/A
# T_peri           =  N/A
######################################################
   0  -1946.998
   1  -1874.402
   2  -1554.898
   3  -1206.037
   4  -1147.461
   5  -1102.603
   6  -1194.922
   7  -1875.892
   8  -1850.797
   9  -1659.879
  10  -1306.066
  11  -1466.235
  12  -1533.886
  13  -1655.339
  14  -1604.063
  15  -1728.864
  16  -1767.884
  17  -1366.752
  18  -1119.648
  19  -1193.161
  20  -1656.822
  21  -1828.705
  22  -1754.441
  23  -1729.309
  24  -1073.223
  25  -1240.747
  26  -1450.033
  27  -1235.545
  28  -1611.117
  29  -1769.854
  30  -1535.828
  31  -1308.41
  32  -877.8498
  33  -737.9814
  34  -1059.997
  35  -155.2223
  36  502.9952
  37  1265.772
  38  1166.427
  39  1163.012
  40  793.0237
  41  -559.3629
  42  -795.0574
  43  -628.2924
  44  -11.60379
  45  107.2574
  46  240.5694
  47  -231.3739
  48  -915.4648
  49  -1396.73
  50  -1624.415
  51  -1368.041
  52  -1182.746
  53  -1299.366
  54  -1217.137
  55  -1313.542
  56  -1352.526
  57  -1732.181
  58  -1483.781
  59  -1122.028
  60  -1171.149
  61  -775.1476
  62  -547.2686
  63  -772.3802
  64  -1148.531
  65  -983.9158
  66  -1111.481
  67  -483.6777
  68  -418.1077
  69  -263.3032
  70  -705.5317
  71  -860.8026
  72  -650.2289
  73  -437.5922
  74  62.08392
  75  -56.21714
  76  -320.4108
  77  -611.7679
  78  -1036.426
  79  -843.1067
  80  -481.5882
  81  128.0898
  82  116.505
  83  -242.6083
  84  -738.369
  85  -854.0701
  86  -1037.197
  87  -1011.376
  88  -974.2649
  89  -495.4129
  90  -44.39228
  91  41.44329
  92  -295.6429
  93  -735.2227
  94  -201.3078
  95  269.8951
  96  302.5388
  97  156.5451
  98  -321.8692
  99  -689.1248
 100  -1038.86
 101  -785.9695
 102  -675.4749
 103  -455.2154
 104  -279.7107
 105  -612.7562
 106  -830.4741
 107  -1101.881
 108  -541.0131
 109  47.7793
 110  296.396
 111  543.9568
 112  533.8668
 113  -467.5524
 114  -451.8292
 115  -434.2013
 116  -73.06975
 117  -234.6015
 118  -366.538
 119  -159.7977
 120  -430.7495
 121  -738.1048
 122  -679.7596
 123  -277.8188
 124  -187.6807
 125  303.4747
 126  67.98849
 127  -535.7891
 128  -671.4415
 129  -406.1952
 130  -105.7155
 131  -171.2797
 132  2265.641
 133  5290.173
 134  6455.307
 135  5860.523
 136  3060.188
 137  1564.516
 138  48.44976
 139  687.9728
 140  2169.06
 141  3515.713
 142  4992.966
 143  4637.183
 144  3704.695
 145  2409.283
 146  513.6627
 147  509.9533
 148  1122.852
 149  1453.758
 150  1242.102
 151  1711.626
 152  1630.8
 153  1524.879
 154  1304.668
 155  2372.356
 156  3593.157
 157  3672.132
 158  3691.293
 159  2275.289
 160  1375.818
 161  382.4697
 162  2044.524
 163  2140.291
 164  2633.475
 165  1990.699
 166  666.1973
 167  132.1517
 168  -1229.109
 169  157.0327
 170  439.1706
 171  756.6478
 172  605.5413
 173  437.9803
 174  -159.5623
 175  -1052.141
 176  -280.616
 177  -226.4659
 178  -122.9561
 179  -531.3683
 180  -533.1436
 181  -946.2581
 182  -1435.976
 183  -316.7352
 184  932.5359
 185  3299.03
 186  3176.603
 187  2827.014
 188  1944.757
 189  488.2924
 190  641.555
 191  1016.314
 192  1584.929
 193  1503.804
 194  1314.504
 195  711.2358
 196  -156.9461
 197  -383.9582
 198  1676.344
 199  2659.544
 200  2637.441
 201  1816.057
 202  60.04627
 203  -622.5928
 204  -1322.207
 205  1752.574
 206  2453.352
 207  2566.409
 208  2004.288
 209  728.4668
 210  -337.376
 211  -1381.142
 212  2317.831
 213  3401.941
 214  4310.797
 215  3082.298
 216  1687.358
 217  36.6386
 218  -1040.561
 219  868.8397
 220  2451.085
 221  3746.393
 222  2905.261
 223  1888.072
 224  516.7084
 225  -516.3599
 226  976.796
 227  2729.243
 228  2683.699
 229  2154.589
 230  1008.935
 231  -967.1411
 232  -498.6726
 233  -93.95126
 234  723.8644
 235  1368.59
 236  1066.358
 237  604.0739
 238  -1070.588
 239  -1253.691
 240  -916.0759
 241  1049.238
 242  1289.912
 243  974.1942
 244  385.8996
 245  -1019.685
 246  -1328.768
 247  -921.1282
 248  452.2717
 249  1602.837
 250  2108.382
 251  1107.879
 252  249.4252
 253  -374.4551
 254  -1145.557
 255  1363.213
 256  1772.344
 257  1876.7
 258  559.8965
 259  -430.5897
 260  -1046.135
 261  -809.769
 262  85.40987
 263  697.826
 264  922.0216
 265  515.7575
 266  165.4015
 267  -961.9645
 268  -1427.935
 269  -781.7483
 270  37.85569
 271  1368.022
 272  1470.552
 273  1362.556
 274  453.5233
 275  -972.6299
 276  -539.5122
 277  -53.85252
 278  1197.836
 279  1032.902
 280  961.1974
 281  -20.92667
 282  -915.4995
 283  -945.1136
 284  503.0429
 285  1158.569
 286  993.0826
 287  405.4128
 288  -756.7967
 289  -936.4384
 290  -1420.016
 291  348.9178
 292  410.992
 293  657.0243
 294  146.2974
 295  -637.6105
 296  -1010.228
 297  -1691.922
 298  56.7071
 299  1120.426
 300  2201.373
 301  1661.234
 302  791.4645
 303  -419.4763
 304  -1527.133
 305  -84.22878
 306  1005.367
 307  2111.665
 308  1581.413
 309  919.138
 310  437.6116
 311  -1531.02
 312  -740.7435
 313  548.3601
 314  1540.866
 315  1096.702
 316  425.5643
 317  -304.0154
 318  -1354.197
 319  -855.0625
 320  379.7747
 321  1398.337
 322  1386.154
 323  884.3682
 324  -10.25104
 325  -1059.469
 326  -941.0937
 327  1403.633
 328  2289.675
 329  2315.605
 330  1993.944
 331  186.4523
 332  -721.5139
 333  -1686.413
 334  484.0591
 335  2319.927
 336  3365.763
 337  2639.429
 338  1806.366
 339  535.5282
 340  -1912.466
 341  145.8915
 342  1536.045
 343  2544.685
 344  1764.068
 345  1418.329
 346  556.2991
 347  -1613.978
 348  -551.3846
 349  381.0006
 350  1240.401
 351  971.548
 352  494.5209
 353  140.9072
 354  -1004.374
 355  -12.75187
 356  1130.69
 357  2495.042
 358  2338.493
 359  1413.831
 360  413.7873
 361  -816.4482
 362  -530.5367
 363  50.60553
 364  1508.553
 365  1480.145
 366  1561.084
 367  924.3232
 368  -250.2991
 369  213.5141
 370  1102.581
 371  2208.389
 372  2662.691
 373  2441.269
 374  1734.694
 375  564.4141
 376  -760.8867
 377  60.23089
 378  941.7247
 379  1360.869
 380  825.0305
 381  438.04
 382  -11.34202
 383  -1259.949
 384  1421.168
 385  2484.373
 386  3102.189
 387  2498.206
 388  1068.444
 389  -81.16895
 390  -1169.995
 391  305.3404
 392  1652.297
 393  3273.876
 394  1817.26
 395  1060.667
 396  475.9921
 397  -1718.671
 398  -1035.879
 399  -43.5537
 400  547.945
 401  638.2458
 402  681.659
 403  -108.9548
 404  -1156.043
 405  -1145.458
 406  -449.7368
 407  194.1826
 408  -126.0759
 409  83.42308
 410  -495.8474
 411  -1061.304
 412  -1355.964
 413  -743.5846
 414  402.2235
 415  417.4839
 416  227.9739
 417  -274.1505
 418  -641.8439
 419  -512.4281
 420  292.8435
 421  794.548
 422  1044.56
 423  392.3028
 424  -461.2693
 425  -830.0349
 426  -921.1344
 427  -882.0772
 428  -790.9272
 429  -488.4609
 430  -968.0385
 431  -864.8712
 432  -1063.542
 433  -1462.815
 434  -1439.821
 435  -1485.53
 436  -1734.085
 437  -1783.856
 438  -1439.678
 439  -1774.932
 440  -1756.489
 441  -1734.154
 442  -1652.41
 443  -1705.634
 444  -1725.552
 445  -1893.426
 446  -1901.412
 447  -1963.131
 448  -1735.96
 449  -1802.419
 450  -1703.941
 451  -1811.854
 452  -1787.363
 453  -1931.079
 454  -1998.032
 455  -2013.125
 456  -2016.554
 457  -935.8514
 458  -162.9339
 459  95.72032
 460  -685.3167
 461  -1054.115
 462  -1080.36
 463  -1848.863
 464  -1112.625
 465  -857.9839
 466  -825.0287
 467  -1099.932
 468  -1405.306
 469  -1342.298
 470  -1178.497
 471  -1434.395
 472  -1918.992
 473  -1872.141
 474  -1641.737
 475  -1617.452
 476  -1780.031
 477  -1884.047
 478  -1568.253
 479  -1468.124
 480  -1491.797
 481  -2027.996
 482  -2187.453
 483  -2083.66
 484  -2123.942
 485  -1568.607
 486  -1618.02
 487  -1533.536
 488  -1830.135
 489  -1969.435
 490  -1660.93
 491  -1478.214
 492  -1335.084
 493  -1401.208
 494  -1679.993
 495  -1644.075
 496  -1963.331
 497  -1871.2
 498  -1688.785
 499  -1578.163
 500  -1442.648
 501  -1562.222
 502  -1844.106
 503  -1915.722
 504  -2003.198
 505  -1851.769
 506  -1705.361
 507  -1565.656
 508  -1351.894
 509  -1234.123
 510  -1536.029
 511  -1741.84
