# Input file       =  1193966255.105368_cleaned.dat
# Candidate        =  PSR_0332+5434
# Telescope        =  AR
# Epoch_topo       =  58063.054098441760
# Epoch_bary       =  N/A
# T_sample         =  0.002
# Data Folded      =  7340032
# Data Avg         =  0.0161397980274823
# Data StdDev      =  0.999999652026107
# Profile Bins     =  512
# Profile Avg      =  231.332717210729 
# Profile StdDev   =  119.732994712795 
# Reduced chi-sqr  =  1.191
# Prob(Noise)      <  0.00185   (~2.9 sigma)
# P_topo (ms)      =  714.500770357088  +/- 0.000165
# P'_topo (s/s)    =  -0                +/- 8.71e-11
# P''_topo (s/s^2) =  0                 +/- 3.85e-14
# P_bary (ms)      =  N/A
# P'_bary (s/s)    =  N/A
# P''_bary (s/s^2) =  N/A
# P_orb (s)        =  N/A
# asin(i)/c (s)    =  N/A
# eccentricity     =  N/A
# w (rad)          =  N/A
# T_peri           =  N/A
######################################################
   0  326.1565
   1  232.6494
   2  171.7596
   3  352.5129
   4  367.876
   5  314.2739
   6  194.627
   7  95.83955
   8  240.6504
   9  377.8319
  10  570.2636
  11  531.8522
  12  744.0118
  13  793.6679
  14  758.9323
  15  642.6923
  16  485.6685
  17  407.224
  18  237.5442
  19  140.7206
  20  188.7627
  21  255.5487
  22  267.7084
  23  118.7369
  24  123.2276
  25  160.4098
  26  265.7022
  27  338.0643
  28  318.6231
  29  221.5835
  30  221.3345
  31  157.0186
  32  226.0831
  33  239.6479
  34  283.1399
  35  239.3919
  36  269.8368
  37  221.3954
  38  219.4846
  39  137.5264
  40  92.33628
  41  224.8072
  42  127.7865
  43  217.7384
  44  256.2585
  45  239.3965
  46  165.5606
  47  86.20801
  48  96.8596
  49  193.4258
  50  358.4732
  51  323.9222
  52  333.9297
  53  259.4843
  54  230.1262
  55  249.924
  56  180.1557
  57  174.5556
  58  252.0529
  59  258.2505
  60  269.6156
  61  148.7522
  62  235.6775
  63  256.2202
  64  259.2095
  65  314.0949
  66  224.8849
  67  151.9626
  68  150.6816
  69  260.0102
  70  289.6889
  71  209.1564
  72  154.75
  73  272.5104
  74  233.879
  75  177.9416
  76  162.3849
  77  240.7563
  78  210.6295
  79  117.7292
  80  218.7419
  81  139.0362
  82  107.6839
  83  201.0223
  84  232.9863
  85  230.788
  86  136.4161
  87  130.0904
  88  278.4012
  89  282.8812
  90  280.6055
  91  323.732
  92  113.2107
  93  94.52438
  94  287.3643
  95  180.5806
  96  169.9683
  97  194.2935
  98  339.5305
  99  271.4665
 100  180.1641
 101  195.5345
 102  233.4619
 103  240.8952
 104  154.1696
 105  47.54856
 106  144.3781
 107  126.6298
 108  133.5572
 109  137.5747
 110  262.3596
 111  303.4811
 112  170.5217
 113  233.4227
 114  149.7598
 115  208.4901
 116  253.1049
 117  283.2947
 118  190.6221
 119  277.9145
 120  272.5846
 121  126.6312
 122  199.4547
 123  261.4694
 124  310.4718
 125  198.4812
 126  190.6587
 127  218.1509
 128  211.4097
 129  219.9722
 130  392.713
 131  334.0239
 132  222.0869
 133  209.3962
 134  175.7366
 135  222.0978
 136  245.2777
 137  219.7712
 138  286.1567
 139  309.557
 140  336.879
 141  302.3174
 142  296.3072
 143  160.8805
 144  224.6733
 145  126.462
 146  146.184
 147  229.1835
 148  218.894
 149  238.5335
 150  236.988
 151  207.872
 152  152.0811
 153  229.1595
 154  216.3865
 155  247.4941
 156  277.7111
 157  144.6029
 158  141.3412
 159  163.6938
 160  297.8852
 161  216.299
 162  115.9145
 163  191.3884
 164  188.2298
 165  237.0255
 166  259.5547
 167  409.2504
 168  253.2973
 169  287.6966
 170  251.1949
 171  239.6178
 172  177.1917
 173  107.1252
 174  222.6834
 175  120.8724
 176  114.055
 177  137.2262
 178  157.547
 179  141.4
 180  182.7074
 181  149.2388
 182  232.3661
 183  193.9615
 184  96.36948
 185  117.6338
 186  74.16613
 187  133.9724
 188  146.5735
 189  200.7167
 190  226.206
 191  148.5306
 192  190.3346
 193  219.2064
 194  277.9748
 195  234.8494
 196  196.4609
 197  138.9733
 198  163.0065
 199  290.4725
 200  246.163
 201  231.7719
 202  258.1088
 203  225.881
 204  166.4405
 205  188.7239
 206  138.689
 207  193.3159
 208  191.9885
 209  259.293
 210  283.4145
 211  219.0288
 212  192.7202
 213  36.61635
 214  142.0842
 215  244.2439
 216  328.0538
 217  272.7424
 218  187.4442
 219  201.0236
 220  312.1244
 221  249.8952
 222  321.9239
 223  331.323
 224  271.8047
 225  121.1788
 226  150.836
 227  232.6947
 228  252.8105
 229  298.0793
 230  300.033
 231  310.8679
 232  262.1493
 233  230.8463
 234  110.9965
 235  205.6433
 236  271.4121
 237  183.942
 238  98.28867
 239  251.855
 240  435.1516
 241  166.4358
 242  128.9816
 243  366.4973
 244  380.9965
 245  188.171
 246  328.3023
 247  419.9498
 248  263.9503
 249  118.6757
 250  171.8786
 251  181.4566
 252  92.07909
 253  251.5079
 254  248.9608
 255  270.0766
 256  284.6279
 257  266.2155
 258  356.5824
 259  294.5424
 260  211.7811
 261  203.0241
 262  178.2495
 263  213.1291
 264  284.2581
 265  448.1464
 266  193.0209
 267  202.512
 268  158.4625
 269  120.9824
 270  243.8221
 271  214.4857
 272  53.21109
 273  303.4848
 274  348.6913
 275  342.4842
 276  234.2418
 277  389.9652
 278  272.1731
 279  100.9393
 280  86.35781
 281  131.2881
 282  87.91206
 283  38.06136
 284  127.572
 285  310.441
 286  311.0688
 287  247.2992
 288  199.7079
 289  104.8948
 290  226.9559
 291  255.5601
 292  307.3013
 293  261.5602
 294  313.0705
 295  309.4678
 296  239.9621
 297  320.8084
 298  325.0757
 299  368.4073
 300  320.8905
 301  178.0896
 302  263.1354
 303  280.898
 304  183.6473
 305  217.1603
 306  157.4566
 307  145.3491
 308  221.7335
 309  160.3249
 310  210.3868
 311  154.1234
 312  210.3751
 313  184.6788
 314  238.8774
 315  302.181
 316  234.6332
 317  183.5717
 318  274.9968
 319  266.8003
 320  152.8036
 321  125.4779
 322  176.8393
 323  137.6592
 324  204.759
 325  250.9617
 326  194.8856
 327  168.113
 328  187.8244
 329  102.5919
 330  184.0047
 331  301.6703
 332  190.2888
 333  244.8546
 334  280.5323
 335  294.7961
 336  177.2849
 337  194.0638
 338  272.4229
 339  89.41493
 340  102.3327
 341  175.5608
 342  244.6761
 343  179.7682
 344  120.4506
 345  197.9416
 346  184.5694
 347  223.4322
 348  260.5316
 349  399.8916
 350  330.0328
 351  101.0576
 352  215.1992
 353  303.0861
 354  261.988
 355  366.1208
 356  369.2722
 357  351.7333
 358  193.2295
 359  231.2816
 360  259.7477
 361  228.5573
 362  110.0938
 363  125.8729
 364  172.0885
 365  214.8654
 366  183.0441
 367  209.7822
 368  158.2119
 369  71.82281
 370  36.63934
 371  57.34037
 372  116.7863
 373  266.2006
 374  327.0386
 375  299.4221
 376  244.3234
 377  172.5216
 378  259.2823
 379  345.7471
 380  286.4648
 381  119.2295
 382  93.89217
 383  138.1432
 384  205.0568
 385  198.1579
 386  143.4824
 387  261.2004
 388  256.2845
 389  208.8525
 390  266.3039
 391  338.8097
 392  274.1841
 393  290.9838
 394  269.2566
 395  185.5239
 396  214.1573
 397  161.8166
 398  266.6175
 399  187.5123
 400  339.4373
 401  337.0595
 402  286.1531
 403  267.3544
 404  193.6789
 405  143.3453
 406  43.38981
 407  149.8239
 408  321.654
 409  227.1364
 410  229.1662
 411  292.4433
 412  267.5252
 413  201.0498
 414  184.5464
 415  202.4379
 416  326.5936
 417  282.5537
 418  400.0769
 419  383.7751
 420  179.6675
 421  213.2543
 422  313.5431
 423  340.363
 424  427.3091
 425  361.0826
 426  174.6107
 427  190.9596
 428  299.7034
 429  409.4161
 430  374.1956
 431  229.7581
 432  283.6023
 433  305.6154
 434  185.7805
 435  199.4727
 436  243.0292
 437  142.5197
 438  165.5208
 439  150.2382
 440  111.0315
 441  170.2458
 442  170.4968
 443  200.3494
 444  209.5703
 445  376.4261
 446  288.0988
 447  195.926
 448  189.0472
 449  172.899
 450  237.6878
 451  243.153
 452  169.9453
 453  374.0096
 454  301.1438
 455  159.0223
 456  217.8563
 457  236.3315
 458  265.0143
 459  226.4201
 460  163.1763
 461  -15.75568
 462  32.75749
 463  228.7279
 464  394.7081
 465  281.7264
 466  248.469
 467  217.7185
 468  234.8232
 469  76.07578
 470  51.5066
 471  42.54263
 472  127.4251
 473  240.3101
 474  281.5737
 475  271.0307
 476  321.9696
 477  259.159
 478  262.883
 479  102.3964
 480  248.529
 481  368.457
 482  467.3965
 483  395.6129
 484  378.1342
 485  313.6636
 486  217.1763
 487  100.7698
 488  195.8456
 489  342.5689
 490  320.1519
 491  335.1339
 492  224.8265
 493  109.8105
 494  149.8184
 495  217.1577
 496  379.5083
 497  284.2249
 498  218.2339
 499  285.4931
 500  183.3824
 501  115.9099
 502  164.786
 503  347.7178
 504  382.8235
 505  331.3626
 506  254.9516
 507  319.3226
 508  345.8109
 509  292.7804
 510  247.8943
 511  332.0961
