# Input file       =  1193089133.132607_cleaned.dat
# Candidate        =  PSR_0332+5434
# Telescope        =  AR
# Epoch_topo       =  58052.902223757024
# Epoch_bary       =  N/A
# T_sample         =  0.002
# Data Folded      =  7340032
# Data Avg         =  0.0167102675031899
# Data StdDev      =  0.999996361366597
# Profile Bins     =  512
# Profile Avg      =  239.702610176411 
# Profile StdDev   =  119.732600712141 
# Reduced chi-sqr  =  1.431
# Prob(Noise)      <  5.08e-10   (~6.1 sigma)
# P_topo (ms)      =  714.491158167113  +/- 0.000269
# P'_topo (s/s)    =  -0                +/- 1.42e-10
# P''_topo (s/s^2) =  0                 +/- 6.27e-14
# P_bary (ms)      =  N/A
# P'_bary (s/s)    =  N/A
# P''_bary (s/s^2) =  N/A
# P_orb (s)        =  N/A
# asin(i)/c (s)    =  N/A
# eccentricity     =  N/A
# w (rad)          =  N/A
# T_peri           =  N/A
######################################################
   0  296.5582
   1  371.5534
   2  348.2712
   3  306.0097
   4  292.5756
   5  329.9526
   6  360.5468
   7  220.2705
   8  263.3817
   9  222.9247
  10  247.8741
  11  202.7812
  12  275.9771
  13  291.3293
  14  218.2817
  15  252.6534
  16  256.4347
  17  203.0703
  18  209.726
  19  305.393
  20  343.7388
  21  298.4353
  22  268.5053
  23  228.4023
  24  200.7831
  25  39.19565
  26  91.60773
  27  236.3747
  28  370.378
  29  299.0359
  30  168.7695
  31  281.2049
  32  254.9149
  33  257.6953
  34  284.4944
  35  311.351
  36  340.3691
  37  198.1954
  38  235.3983
  39  218.4487
  40  208.6955
  41  56.40936
  42  -28.52817
  43  121.7856
  44  226.3422
  45  205.6537
  46  102.879
  47  78.92831
  48  48.22849
  49  98.68137
  50  250.853
  51  283.9884
  52  215.837
  53  196.1091
  54  156.6701
  55  217.4199
  56  217.4398
  57  202.7293
  58  262.5415
  59  215.3876
  60  87.74414
  61  206.8745
  62  68.69184
  63  223.4868
  64  224.0519
  65  196.9294
  66  387.0522
  67  239.7641
  68  204.0619
  69  171.8324
  70  50.3842
  71  144.0226
  72  142.8355
  73  167.514
  74  232.1885
  75  256.7725
  76  186.366
  77  141.9584
  78  140.0835
  79  231.2431
  80  216.3758
  81  131.0581
  82  171.6867
  83  274.9391
  84  219.8897
  85  185.9337
  86  209.5734
  87  260.4497
  88  177.676
  89  135.385
  90  219.7678
  91  203.6441
  92  157.185
  93  171.7593
  94  323.7279
  95  324.8242
  96  277.4565
  97  268.2502
  98  171.5825
  99  115.4425
 100  81.25965
 101  215.8932
 102  208.6672
 103  153.9954
 104  42.42309
 105  167.8808
 106  235.7369
 107  182.4865
 108  252.1186
 109  258.2594
 110  319.9974
 111  230.2128
 112  282.5162
 113  232.3097
 114  201.8316
 115  132.6723
 116  254.0689
 117  242.9952
 118  278.7575
 119  249.0246
 120  231.8145
 121  291.903
 122  259.4337
 123  268.8017
 124  274.2975
 125  323.9131
 126  258.6505
 127  201.9531
 128  205.1227
 129  252.5847
 130  193.4005
 131  70.60512
 132  213.9113
 133  209.6307
 134  142.6593
 135  35.56887
 136  209.7076
 137  191.8585
 138  102.0757
 139  43.14648
 140  110.7154
 141  183.5901
 142  280.5331
 143  120.7621
 144  68.50847
 145  47.75194
 146  132.4018
 147  268.8365
 148  202.0793
 149  128.2319
 150  235.5943
 151  373.8149
 152  344.3177
 153  274.0771
 154  370.275
 155  369.6425
 156  144.6654
 157  198.6395
 158  408.145
 159  269.613
 160  156.6445
 161  185.4732
 162  174.6803
 163  364.3203
 164  420.1661
 165  426.5885
 166  259.5164
 167  345.5767
 168  466.0589
 169  549.0381
 170  877.7571
 171  1008.683
 172  997.3069
 173  787.0617
 174  505.0968
 175  388.3372
 176  364.2347
 177  309.6355
 178  317.0294
 179  309.5076
 180  265.8242
 181  256.2596
 182  273.7498
 183  245.25
 184  269.6642
 185  196.5597
 186  168.6911
 187  96.49575
 188  175.5069
 189  187.2207
 190  238.8736
 191  151.0863
 192  132.9615
 193  353.7211
 194  394.7994
 195  264.2134
 196  336.9781
 197  174.3511
 198  134.2895
 199  174.6837
 200  165.1568
 201  179.7813
 202  199.511
 203  172.0014
 204  262.67
 205  265.9182
 206  281.2387
 207  199.0514
 208  175.4872
 209  313.6052
 210  281.5397
 211  269.1736
 212  265.6096
 213  145.7271
 214  145.859
 215  151.0443
 216  121.607
 217  105.3791
 218  172.1295
 219  325.4684
 220  332.6379
 221  343.6459
 222  248.8994
 223  341.2083
 224  379.8467
 225  398.2159
 226  279.5343
 227  233.5621
 228  312.6489
 229  329.8198
 230  185.8421
 231  318.5783
 232  268.3195
 233  217.8609
 234  240.263
 235  175.194
 236  211.9677
 237  269.9244
 238  254.0104
 239  117.2094
 240  210.5261
 241  182.3397
 242  188.677
 243  255.1536
 244  266.645
 245  371.6935
 246  227.15
 247  232.6243
 248  123.1144
 249  157.2674
 250  287.9301
 251  201.9393
 252  240.1584
 253  252.2855
 254  212.178
 255  313.8367
 256  262.3141
 257  158.2519
 258  114.5209
 259  429.3508
 260  366.1799
 261  151.5668
 262  170.533
 263  279.9895
 264  321.8672
 265  287.2813
 266  378.7756
 267  112.7859
 268  82.30636
 269  221.9568
 270  211.1251
 271  208.2921
 272  96.79067
 273  84.67007
 274  128.6289
 275  203.8243
 276  238.2303
 277  168.2912
 278  218.2054
 279  224.812
 280  204.4288
 281  150.3587
 282  183.1587
 283  144.8892
 284  127.2835
 285  98.74472
 286  282.6919
 287  483.4063
 288  246.4529
 289  286.4525
 290  274.4066
 291  331.1961
 292  302.4959
 293  265.0613
 294  353.2909
 295  332.2804
 296  236.9712
 297  256.7908
 298  334.3353
 299  255.1387
 300  146.7579
 301  165.5103
 302  156.3291
 303  199.7967
 304  64.72278
 305  118.6325
 306  211.2955
 307  239.0058
 308  257.4068
 309  314.9836
 310  353.8636
 311  262.8109
 312  340.1442
 313  278.9675
 314  137.9495
 315  -31.13398
 316  120.9918
 317  104.805
 318  121.4414
 319  262.8003
 320  328.8407
 321  291.361
 322  290.7662
 323  312.5486
 324  251.8629
 325  199.6428
 326  229.6228
 327  262.2975
 328  277.808
 329  285.6135
 330  158.3458
 331  55.23616
 332  3.923522
 333  184.9491
 334  293.2846
 335  260.913
 336  210.1637
 337  192.9997
 338  147.0691
 339  351.8599
 340  171.8807
 341  195.4999
 342  136.7299
 343  247.1028
 344  221.5056
 345  226.6154
 346  270.9758
 347  218.453
 348  300.6907
 349  338.5033
 350  325.7156
 351  318.9503
 352  282.8985
 353  337.4529
 354  318.0106
 355  301.7656
 356  344.6158
 357  286.1138
 358  249.1047
 359  303.122
 360  376.6056
 361  287.9513
 362  222.6691
 363  284.7157
 364  108.3366
 365  181.1719
 366  304.2327
 367  312.9327
 368  250.0704
 369  241.539
 370  352.0512
 371  268.3854
 372  208.8259
 373  187.1673
 374  328.7776
 375  355.1104
 376  325.0594
 377  191.7122
 378  219.596
 379  312.524
 380  219.912
 381  149.9883
 382  257.3988
 383  240.3618
 384  255.7606
 385  197.6042
 386  265.8891
 387  355.8628
 388  406.1117
 389  405.8752
 390  423.2357
 391  152.8817
 392  188.2354
 393  301.9169
 394  198.8503
 395  225.3876
 396  260.9018
 397  301.3902
 398  242.5851
 399  195.4701
 400  202.3049
 401  266.0909
 402  304.8391
 403  280.3389
 404  244.5085
 405  283.949
 406  263.7954
 407  223.1993
 408  192.8177
 409  269.9498
 410  251.8978
 411  257.9743
 412  171.494
 413  64.40778
 414  -13.56099
 415  228.8692
 416  326.6696
 417  364.6091
 418  270.259
 419  269.1215
 420  134.3871
 421  167.5843
 422  268.0479
 423  230.6296
 424  191.4395
 425  328.5964
 426  408.2231
 427  340.6541
 428  309.0455
 429  250.947
 430  352.5836
 431  370.6696
 432  336.5867
 433  281.881
 434  239.567
 435  356.4807
 436  358.993
 437  302.6982
 438  297.3332
 439  329.4729
 440  290.3919
 441  199.005
 442  295.1751
 443  145.7661
 444  86.08606
 445  229.3508
 446  280.9937
 447  224.8225
 448  206.629
 449  284.611
 450  271.1055
 451  284.5142
 452  234.077
 453  289.5789
 454  208.5706
 455  314.3039
 456  345.6636
 457  225.8475
 458  71.18964
 459  180.2897
 460  349.7184
 461  279.7805
 462  137.3435
 463  162.5978
 464  286.0226
 465  250.7122
 466  220.5019
 467  268.2213
 468  240.1841
 469  181.6444
 470  341.2515
 471  285.9356
 472  219.1975
 473  249.8885
 474  224.6232
 475  239.6093
 476  62.79076
 477  209.1566
 478  317.6224
 479  272.8161
 480  247.2431
 481  290.5364
 482  293.6702
 483  216.4471
 484  213.1577
 485  135.0956
 486  230.2046
 487  233.116
 488  151.0494
 489  196.2123
 490  241.2841
 491  230.0926
 492  256.5941
 493  301.8456
 494  205.4837
 495  147.17
 496  294.7837
 497  182.3852
 498  142.7326
 499  267.5734
 500  91.84131
 501  112.2576
 502  215.6289
 503  157.4827
 504  122.2198
 505  137.0753
 506  222.4629
 507  161.5095
 508  237.8718
 509  215.1338
 510  208.6961
 511  192.3205
