# Input file       =  1193347623.151681_cleaned.dat
# Candidate        =  PSR_0332+5434
# Telescope        =  AR
# Epoch_topo       =  58055.894006385199
# Epoch_bary       =  N/A
# T_sample         =  0.002
# Data Folded      =  7340032
# Data Avg         =  0.0194611988707129
# Data StdDev      =  1.0000347468972  
# Profile Bins     =  512
# Profile Avg      =  278.866930157357 
# Profile StdDev   =  119.737196728273 
# Reduced chi-sqr  =  1.701
# Prob(Noise)      <  4.92e-21   (~9.3 sigma)
# P_topo (ms)      =  714.493805285192  +/- 0.000222
# P'_topo (s/s)    =  -0                +/- 1.17e-10
# P''_topo (s/s^2) =  0                 +/- 5.16e-14
# P_bary (ms)      =  N/A
# P'_bary (s/s)    =  N/A
# P''_bary (s/s^2) =  N/A
# P_orb (s)        =  N/A
# asin(i)/c (s)    =  N/A
# eccentricity     =  N/A
# w (rad)          =  N/A
# T_peri           =  N/A
######################################################
   0  1046.509
   1  1026.273
   2  815.3776
   3  619.0764
   4  378.7484
   5  310.4178
   6  395.8878
   7  276.0677
   8  336.4133
   9  411.1758
  10  485.1304
  11  435.241
  12  230.0085
  13  239.1582
  14  292.8877
  15  252.176
  16  250.7386
  17  397.9992
  18  299.767
  19  250.1224
  20  231.6849
  21  267.5088
  22  280.5085
  23  171.6352
  24  231.2446
  25  197.8564
  26  303.99
  27  339.6962
  28  410.2161
  29  247.2418
  30  190.5963
  31  187.9281
  32  234.4467
  33  345.9522
  34  249.7545
  35  209.0597
  36  297.0492
  37  296.8693
  38  207.5062
  39  184.4095
  40  179.1438
  41  278.2674
  42  331.8597
  43  255.2596
  44  269.0641
  45  286.8655
  46  349.5057
  47  372.091
  48  293.1177
  49  196.2851
  50  200.8819
  51  209.9277
  52  260.0826
  53  278.335
  54  327.1053
  55  294.8981
  56  214.5934
  57  135.1408
  58  189.1986
  59  277.0312
  60  409.8763
  61  338.9582
  62  231.5788
  63  142.7989
  64  248.9405
  65  327.5772
  66  168.973
  67  215.57
  68  215.6105
  69  262.9059
  70  160.0315
  71  279.6314
  72  324.2195
  73  251.5325
  74  310.2126
  75  343.4424
  76  350.8025
  77  272.018
  78  190.2828
  79  92.0284
  80  205.0524
  81  428.8512
  82  325.2797
  83  208.5401
  84  171.8504
  85  186.0969
  86  329.1088
  87  277.6327
  88  404.7751
  89  413.3137
  90  305.4617
  91  291.6022
  92  282.2329
  93  344.8692
  94  363.1565
  95  319.4773
  96  291.7348
  97  278.3814
  98  201.7982
  99  302.4542
 100  294.6721
 101  293.7628
 102  299.4311
 103  359.7314
 104  337.6494
 105  317.1891
 106  264.0588
 107  287.0756
 108  259.9344
 109  267.4354
 110  236.8781
 111  479.9541
 112  436.9256
 113  221.6568
 114  162.8013
 115  365.4314
 116  403.5703
 117  162.2451
 118  116.7737
 119  225.0125
 120  252.1613
 121  277.0263
 122  387.6712
 123  366.0105
 124  190.4056
 125  256.8759
 126  172.2187
 127  189.6109
 128  227.8432
 129  272.9174
 130  330.1388
 131  264.5116
 132  268.3496
 133  236.7089
 134  267.2399
 135  309.0706
 136  355.9638
 137  286.1306
 138  415.6564
 139  369.303
 140  145.5127
 141  216.521
 142  267.8885
 143  236.7431
 144  264.8745
 145  288.8838
 146  359.0868
 147  301.2127
 148  339.0791
 149  361.1903
 150  393.8922
 151  291.7468
 152  370.7759
 153  396.0988
 154  345.5984
 155  318.5456
 156  329.5237
 157  318.6366
 158  307.3627
 159  197.1583
 160  269.8303
 161  219.5971
 162  136.6826
 163  171.3325
 164  227.0616
 165  226.4422
 166  184.6006
 167  243.9307
 168  271.545
 169  289.1204
 170  290.0011
 171  139.4792
 172  164.3141
 173  0.9660474
 174  130.5145
 175  240.5945
 176  298.9808
 177  411.6005
 178  515.9543
 179  404.3482
 180  298.6668
 181  323.0533
 182  269.2482
 183  266.7177
 184  203.3816
 185  297.9971
 186  366.1395
 187  250.8636
 188  153.2921
 189  95.21693
 190  80.75462
 191  200.4125
 192  331.7061
 193  293.0037
 194  170.5766
 195  200.3827
 196  236.9942
 197  189.7281
 198  231.5234
 199  367.707
 200  287.7746
 201  263.8469
 202  359.5788
 203  196.7283
 204  131.6122
 205  274.1602
 206  233.939
 207  238.4029
 208  259.0043
 209  147.0356
 210  212.9166
 211  293.5227
 212  267.0577
 213  224.7028
 214  189.2831
 215  225.1334
 216  189.504
 217  280.3078
 218  236.1376
 219  277.3132
 220  330.2202
 221  403.5403
 222  349.1154
 223  215.7672
 224  240.6657
 225  179.8712
 226  164.9726
 227  122.5148
 228  250.8035
 229  461.3307
 230  519.0059
 231  422.0615
 232  334.7092
 233  265.951
 234  258.5433
 235  289.7153
 236  355.791
 237  414.7928
 238  272.7284
 239  336.1297
 240  294.2599
 241  321.0992
 242  235.6428
 243  315.2341
 244  317.3302
 245  246.9235
 246  204.6335
 247  214.0959
 248  217.7738
 249  232.1886
 250  333.5906
 251  304.8017
 252  213.0637
 253  135.8443
 254  187.6929
 255  188.5081
 256  219.7567
 257  288.193
 258  243.26
 259  304.017
 260  346.5627
 261  197.8187
 262  259.4995
 263  197.0173
 264  194.7522
 265  206.2929
 266  263.0758
 267  239.406
 268  166.3468
 269  85.70886
 270  34.47065
 271  132.4953
 272  157.694
 273  206.2647
 274  105.5936
 275  210.3196
 276  292.9981
 277  240.6294
 278  262.2129
 279  347.7354
 280  250.6078
 281  252.8493
 282  188.2838
 283  129.4056
 284  304.062
 285  322.6483
 286  268.1392
 287  218.5576
 288  255.7616
 289  340.2484
 290  208.7669
 291  224.7998
 292  237.1334
 293  238.1958
 294  342.7569
 295  225.4315
 296  198.2518
 297  173.6491
 298  225.2585
 299  276.1745
 300  215.9977
 301  216.0025
 302  246.8018
 303  240.4783
 304  269.6577
 305  359.7482
 306  237.9333
 307  166.9104
 308  165.3291
 309  258.6481
 310  383.4099
 311  371.0543
 312  272.8946
 313  162.466
 314  361.0811
 315  300.1198
 316  316.6841
 317  240.167
 318  238.7437
 319  181.8521
 320  258.9014
 321  253.8486
 322  231.0784
 323  236.2815
 324  242.7213
 325  308.7349
 326  282.3358
 327  224.906
 328  298.1734
 329  196.4382
 330  237.2313
 331  160.1355
 332  208.5551
 333  245.8084
 334  341.4579
 335  345.4023
 336  369.4373
 337  461.3071
 338  394.1249
 339  357.1778
 340  255.5066
 341  214.5745
 342  295.1539
 343  393.7273
 344  397.1611
 345  445.8149
 346  292.3323
 347  224.1613
 348  230.1673
 349  259.1823
 350  231.4333
 351  313.0365
 352  385.9213
 353  339.5641
 354  190.7386
 355  176.4699
 356  206.5135
 357  208.6692
 358  312.4217
 359  295.2267
 360  278.6323
 361  302.3056
 362  228.8735
 363  173.3218
 364  251.1504
 365  367.8068
 366  294.9239
 367  261.6741
 368  275.9118
 369  333.787
 370  282.8668
 371  345.3371
 372  260.9777
 373  215.5236
 374  262.8214
 375  260.5469
 376  329.006
 377  366.0131
 378  413.6753
 379  464.7669
 380  423.5576
 381  323.0574
 382  128.3568
 383  134.3424
 384  158.6882
 385  244.6542
 386  240.3199
 387  266.6992
 388  288.0852
 389  250.0241
 390  299.5439
 391  310.2093
 392  259.8417
 393  285.0695
 394  323.0499
 395  331.7274
 396  280.078
 397  350.9071
 398  331.1555
 399  319.0867
 400  392.5476
 401  419.7624
 402  361.3575
 403  231.6091
 404  300.8345
 405  263.1766
 406  225.3116
 407  322.0558
 408  193.5822
 409  125.8274
 410  158.6129
 411  217.9727
 412  249.0196
 413  138.6781
 414  223.057
 415  171.2321
 416  171.0224
 417  159.4194
 418  165.5081
 419  62.98839
 420  63.55033
 421  207.621
 422  228.1597
 423  245.7498
 424  161.0676
 425  245.2798
 426  250.6828
 427  279.8499
 428  330.7649
 429  349.705
 430  391.9073
 431  201.1027
 432  212.7851
 433  285.2587
 434  328.2612
 435  404.5583
 436  530.9692
 437  362.9188
 438  246.8408
 439  327.958
 440  327.8351
 441  259.9201
 442  269.9124
 443  336.3059
 444  214.5397
 445  211.7118
 446  354.6799
 447  446.8911
 448  326.0317
 449  276.7124
 450  155.0457
 451  265.25
 452  227.0457
 453  292.8061
 454  359.7179
 455  380.493
 456  207.8214
 457  196.7119
 458  240.8981
 459  322.9741
 460  317.631
 461  293.9376
 462  181.9599
 463  186.405
 464  102.7212
 465  101.2761
 466  96.97817
 467  125.4826
 468  124.3296
 469  -14.26649
 470  61.52491
 471  136.429
 472  245.5788
 473  240.2277
 474  339.8743
 475  425.8538
 476  284.1774
 477  168.4491
 478  247.797
 479  398.873
 480  354.332
 481  387.7025
 482  300.4662
 483  350.0659
 484  351.1846
 485  242.1161
 486  330.2319
 487  444.5071
 488  292.0798
 489  246.0048
 490  242.7653
 491  215.2153
 492  286.495
 493  302.9337
 494  329.008
 495  202.5033
 496  230.4757
 497  289.145
 498  357.8595
 499  419.6523
 500  308.5058
 501  353.2436
 502  343.5838
 503  433.3579
 504  329.834
 505  377.2401
 506  357.3112
 507  350.3921
 508  587.2331
 509  769.9948
 510  999.1407
 511  1075.77
