# Input file       =  1193692179.151799-PSRB0329-2ms-sampling-dd.dat
# Candidate        =  PSR_0332+5434
# Telescope        =  AR
# Epoch_topo       =  58059.881923053232
# Epoch_bary       =  N/A
# T_sample         =  0.002
# Data Folded      =  7340032
# Data Avg         =  2.78265827748715e-10
# Data StdDev      =  4.91388245610324 
# Profile Bins     =  512
# Profile Avg      =  -0.954500337060241
# Profile StdDev   =  588.354066867762 
# Reduced chi-sqr  =  0.638
# Prob(Noise)      <  1   (~0.0 sigma)
# P_topo (ms)      =  714.497444683041  +/- 0.000646
# P'_topo (s/s)    =  -0                +/- 3.41e-10
# P''_topo (s/s^2) =  0                 +/- 1.51e-13
# P_bary (ms)      =  N/A
# P'_bary (s/s)    =  N/A
# P''_bary (s/s^2) =  N/A
# P_orb (s)        =  N/A
# asin(i)/c (s)    =  N/A
# eccentricity     =  N/A
# w (rad)          =  N/A
# T_peri           =  N/A
######################################################
   0  106.762
   1  -166.629
   2  -345.8295
   3  -238.7986
   4  -41.4142
   5  -278.1451
   6  -316.7427
   7  -239.2213
   8  -138.4085
   9  -15.76643
  10  -150.1548
  11  -172.9668
  12  95.762
  13  287.9785
  14  68.47108
  15  133.2793
  16  122.7232
  17  -228.5825
  18  -96.23843
  19  -20.21889
  20  -147.9625
  21  -386.3391
  22  -293.5851
  23  -163.8366
  24  -167.1377
  25  -222.8569
  26  -141.79
  27  -41.0033
  28  -55.67508
  29  -79.31213
  30  59.40145
  31  -16.56308
  32  -398.2542
  33  -458.8727
  34  -519.942
  35  -206.7403
  36  -1.699929
  37  -173.5367
  38  -51.60712
  39  -263.1705
  40  155.4512
  41  87.17712
  42  32.17435
  43  29.50853
  44  105.8279
  45  218.2111
  46  37.28839
  47  132.6027
  48  192.407
  49  470.742
  50  129.0707
  51  -196.6965
  52  -378.1892
  53  -696.3439
  54  -373.3091
  55  -469.3106
  56  -70.40972
  57  -41.49144
  58  -403.6388
  59  -388.7893
  60  -316.0293
  61  -388.3655
  62  -422.4704
  63  -666.0791
  64  -552.9229
  65  -315.2038
  66  -303.0078
  67  6.804489
  68  -416.8407
  69  -635.8854
  70  -564.0728
  71  -574.581
  72  -218.8119
  73  -390.0688
  74  -579.3468
  75  -1010.691
  76  -937.5381
  77  -464.0921
  78  -415.0174
  79  -393.2476
  80  -232.6114
  81  -404.3181
  82  -79.93374
  83  -145.0238
  84  -228.3419
  85  -375.3623
  86  -458.7234
  87  -405.36
  88  -155.5598
  89  -275.3003
  90  -265.078
  91  -16.46583
  92  -261.5767
  93  -575.4092
  94  -371.9992
  95  -481.8792
  96  -219.846
  97  -64.57295
  98  -80.75767
  99  -382.857
 100  -544.9406
 101  -132.1488
 102  -500.2748
 103  -683.8594
 104  -463.8081
 105  -565.6568
 106  -415.8408
 107  -498.4073
 108  -154.3737
 109  99.17544
 110  12.32147
 111  -250.5809
 112  131.7028
 113  75.50534
 114  -206.5097
 115  -328.2777
 116  -386.2549
 117  -438.7073
 118  -789.9832
 119  -283.4618
 120  -178.7223
 121  -139.6244
 122  -333.3516
 123  -531.7167
 124  -563.0966
 125  -618.2526
 126  -373.2342
 127  -302.7081
 128  -200.5813
 129  -85.27295
 130  -61.09836
 131  74.87722
 132  -149.2661
 133  -79.38233
 134  -225.7093
 135  -683.5374
 136  -361.0617
 137  -19.16287
 138  36.83313
 139  -157.8969
 140  -104.4223
 141  -292.4207
 142  -412.3637
 143  -556.7899
 144  -140.1468
 145  -172.368
 146  -134.052
 147  255.1659
 148  -278.8115
 149  -401.6426
 150  -372.0889
 151  -38.93456
 152  315.4823
 153  231.4255
 154  43.70361
 155  130.5937
 156  188.8439
 157  133.6137
 158  137.4149
 159  -333.7209
 160  -171.9157
 161  119.5936
 162  405.1922
 163  256.8859
 164  -104.257
 165  -54.33934
 166  -156.3836
 167  123.007
 168  321.6035
 169  392.7262
 170  293.1771
 171  142.9329
 172  21.34946
 173  -225.7958
 174  -362.5683
 175  -200.8551
 176  142.4208
 177  175.076
 178  215.4887
 179  393.3386
 180  -20.78492
 181  -187.2792
 182  -348.6064
 183  -103.4037
 184  3.925948
 185  77.25528
 186  24.13094
 187  9.793172
 188  197.6637
 189  153.3291
 190  45.96095
 191  -52.71168
 192  -177.2583
 193  -153.4426
 194  -99.6565
 195  76.72038
 196  238.404
 197  319.3778
 198  202.3684
 199  20.39015
 200  261.7447
 201  299.0015
 202  -12.86735
 203  330.8501
 204  282.9791
 205  351.5132
 206  241.8343
 207  -39.20531
 208  -188.9405
 209  -43.50814
 210  -60.32658
 211  -232.5291
 212  -52.91959
 213  209.1494
 214  364.5834
 215  62.40256
 216  -33.09044
 217  8.044939
 218  -5.016034
 219  -97.48357
 220  46.61042
 221  239.9822
 222  351.5017
 223  33.03895
 224  13.3396
 225  -547.7238
 226  -371.4071
 227  -165.4444
 228  -535.2363
 229  -374.769
 230  -267.2795
 231  77.04494
 232  -200.4685
 233  -308.9808
 234  -83.60692
 235  -41.44082
 236  -294.8478
 237  -553.7986
 238  -326.7414
 239  -359.6822
 240  72.68275
 241  183.905
 242  52.24784
 243  -30.8303
 244  263.1316
 245  256.2784
 246  82.07285
 247  -65.44064
 248  96.8119
 249  288.3834
 250  55.11473
 251  155.6239
 252  -109.8045
 253  -132.7506
 254  75.32762
 255  113.1284
 256  71.96326
 257  117.6046
 258  23.30803
 259  135.7944
 260  -9.36019
 261  11.21663
 262  120.9495
 263  155.0239
 264  331.2778
 265  245.3077
 266  78.67451
 267  159.4779
 268  -231.725
 269  -226.3252
 270  -9.191358
 271  226.7126
 272  209.4574
 273  -130.2441
 274  323.2433
 275  346.7655
 276  342.3324
 277  342.0973
 278  267.8367
 279  453.2874
 280  699.9755
 281  480.0691
 282  237.5508
 283  450.3697
 284  730.9929
 285  275.4084
 286  173.3241
 287  255.3002
 288  540.6687
 289  598.6784
 290  208.5085
 291  231.7122
 292  231.2716
 293  160.9662
 294  110.8653
 295  -1.876168
 296  119.8063
 297  31.33803
 298  18.05464
 299  210.7979
 300  119.3219
 301  491.6846
 302  374.4106
 303  146.3465
 304  -13.06907
 305  -48.12802
 306  -31.48093
 307  241.6101
 308  182.5588
 309  213.1021
 310  227.8293
 311  209.6918
 312  514.5739
 313  394.4416
 314  111.334
 315  -129.3275
 316  245.6523
 317  124.326
 318  72.47337
 319  330.8681
 320  157.0297
 321  -6.618533
 322  22.97312
 323  140.1728
 324  26.25628
 325  -83.76952
 326  105.8997
 327  184.0218
 328  88.25825
 329  56.3071
 330  9.12105
 331  75.89104
 332  153.3815
 333  91.65205
 334  -16.56335
 335  -75.07565
 336  -123.132
 337  197.9823
 338  603.5817
 339  389.6236
 340  92.38955
 341  -5.349028
 342  -25.74709
 343  -107.1282
 344  -3.858427
 345  -143.636
 346  -26.14027
 347  31.18009
 348  15.14156
 349  70.9128
 350  42.31231
 351  159.0815
 352  169.1052
 353  213.0678
 354  350.3273
 355  648.576
 356  1037.33
 357  1052.639
 358  1295.805
 359  1762.407
 360  1531.357
 361  1437.67
 362  956.0544
 363  386.3859
 364  249.0084
 365  85.26138
 366  94.40527
 367  247.9711
 368  187.121
 369  115.1636
 370  104.8725
 371  -145.8832
 372  -166.8231
 373  118.8573
 374  158.5837
 375  -236.2674
 376  -264.8812
 377  -188.1393
 378  -333.6418
 379  -255.9901
 380  -364.9837
 381  -116.5485
 382  -55.40708
 383  -207.5286
 384  -104.0244
 385  -43.86929
 386  -224.0093
 387  -407.6398
 388  -660.7672
 389  -489.4366
 390  -626.1793
 391  -594.662
 392  87.28484
 393  185.59
 394  -411.8243
 395  1015.84
 396  1944.401
 397  2402.071
 398  -388.3413
 399  -70.13711
 400  360.7817
 401  52.70952
 402  629.455
 403  251.5031
 404  -70.58759
 405  190.4907
 406  -1.1347
 407  318.7501
 408  -188.7131
 409  -232.6948
 410  -11.21019
 411  164.1203
 412  119.7881
 413  39.5498
 414  117.3687
 415  -107.4067
 416  100.6861
 417  133.6721
 418  -249.808
 419  -245.8331
 420  15.18367
 421  213.0846
 422  -70.59319
 423  33.78816
 424  290.4302
 425  332.9572
 426  235.8156
 427  178.9243
 428  -83.12601
 429  267.7971
 430  312.4166
 431  124.6135
 432  -44.76882
 433  222.0678
 434  82.89199
 435  320.1633
 436  278.3202
 437  28.05543
 438  103.945
 439  181.2284
 440  190.1667
 441  186.2095
 442  212.4673
 443  121.361
 444  254.1545
 445  93.30219
 446  49.10651
 447  13.55838
 448  118.7498
 449  -24.98263
 450  -96.65875
 451  -28.29232
 452  89.52815
 453  118.8599
 454  -256.3083
 455  -216.8679
 456  99.37229
 457  -60.16779
 458  -207.6216
 459  43.15034
 460  296.4214
 461  -20.28318
 462  -104.4702
 463  -115.7176
 464  -175.0302
 465  -238.7918
 466  95.26408
 467  124.4108
 468  -25.55787
 469  54.26089
 470  73.35535
 471  193.9134
 472  -47.80201
 473  200.3328
 474  324.0675
 475  497.8302
 476  384.9604
 477  295.5788
 478  -376.2977
 479  -330.9764
 480  -209.5697
 481  -94.2178
 482  -169.1852
 483  -126.7992
 484  3.291308
 485  33.92865
 486  -280.0487
 487  -406.5051
 488  -244.702
 489  -109.6133
 490  -16.5885
 491  199.582
 492  48.05531
 493  54.18785
 494  -126.1372
 495  90.9547
 496  86.17785
 497  -49.66872
 498  -49.0071
 499  -61.00903
 500  116.0925
 501  -165.1588
 502  -105.2128
 503  169.3025
 504  118.2037
 505  -102.6504
 506  153.811
 507  257.0598
 508  357.9529
 509  325.2061
 510  400.0603
 511  364.0626
