# Input file       =  1193448663.162481_cleaned.dat
# Candidate        =  PSR_0332+5434
# Telescope        =  AR
# Epoch_topo       =  58057.063450954643
# Epoch_bary       =  N/A
# T_sample         =  0.002
# Data Folded      =  7340032
# Data Avg         =  0.0465385330462594
# Data StdDev      =  2.68843871475107 
# Profile Bins     =  256
# Profile Avg      =  1334.40888609775 
# Profile StdDev   =  455.228176273244 
# Reduced chi-sqr  =  1.508
# Prob(Noise)      <  2.77e-07   (~5.0 sigma)
# P_topo (ms)      =  714.495194435926  +/- 0.000251
# P'_topo (s/s)    =  -0                +/- 1.33e-10
# P''_topo (s/s^2) =  0                 +/- 5.86e-14
# P_bary (ms)      =  N/A
# P'_bary (s/s)    =  N/A
# P''_bary (s/s^2) =  N/A
# P_orb (s)        =  N/A
# asin(i)/c (s)    =  N/A
# eccentricity     =  N/A
# w (rad)          =  N/A
# T_peri           =  N/A
######################################################
   0  1023.546
   1  1074.691
   2  1165.965
   3  1244.159
   4  1052.72
   5  1546.62
   6  1591.443
   7  1324.625
   8  969.8181
   9  1439.741
  10  1070.717
  11  1111.946
  12  1937.925
  13  1782.032
  14  1799.442
  15  1981.201
  16  1075.87
  17  1021.163
  18  833.5744
  19  1134.151
  20  731.9806
  21  854.2494
  22  577.0776
  23  1545.918
  24  2314.309
  25  2135.383
  26  1691.868
  27  1641.917
  28  1703.388
  29  1675.413
  30  1252.451
  31  1313.099
  32  1028.956
  33  1415.227
  34  1289.564
  35  1665.09
  36  831.5247
  37  1176.275
  38  1923.015
  39  1563.949
  40  891.038
  41  907.9755
  42  1339.766
  43  1560.48
  44  1671.718
  45  1605.432
  46  1853.384
  47  1290.869
  48  988.0858
  49  1692.947
  50  1186.487
  51  1192.951
  52  1428.686
  53  1578.14
  54  1639.894
  55  588.247
  56  1232.67
  57  894.8753
  58  871.7402
  59  862.1237
  60  1317.649
  61  1987.194
  62  1104.51
  63  1476.438
  64  1638.413
  65  1185.388
  66  1214.265
  67  1152.661
  68  1946.227
  69  2116.045
  70  948.3668
  71  1248.341
  72  918.203
  73  939.0574
  74  1234.244
  75  1168.26
  76  1271.33
  77  576.3049
  78  721.273
  79  1122.33
  80  789.684
  81  307.1034
  82  1193.79
  83  1292.525
  84  1081.168
  85  1067.74
  86  1431.922
  87  868.4536
  88  846.3715
  89  1866.688
  90  1608.887
  91  1489.443
  92  897.3959
  93  620.0723
  94  906.8746
  95  701.5302
  96  1402.914
  97  704.9568
  98  1217.668
  99  1307.617
 100  1219.23
 101  881.2953
 102  982.3403
 103  1153.866
 104  1465.57
 105  1365.316
 106  1508.674
 107  1367.571
 108  1599.734
 109  1617.42
 110  1408.601
 111  1289.279
 112  1016.315
 113  679.0444
 114  1241.746
 115  1543.249
 116  1393.645
 117  1296.996
 118  1041.108
 119  1493.996
 120  914.5023
 121  1396.433
 122  1795.439
 123  982.0891
 124  1556.483
 125  2149.877
 126  1653.5
 127  1018.825
 128  1562.686
 129  1266.074
 130  280.66
 131  1461.289
 132  1916.137
 133  1491.206
 134  954.2339
 135  1505.991
 136  1079.944
 137  2267.952
 138  1078.661
 139  1521.92
 140  1485.812
 141  1367.738
 142  1443.63
 143  897.2161
 144  1292.312
 145  1109.245
 146  1192.116
 147  618.8707
 148  778.9713
 149  1531.256
 150  1716.902
 151  589.3121
 152  1211.369
 153  1677
 154  1178.543
 155  1388.31
 156  1587.825
 157  3211.223
 158  4779.62
 159  3778.873
 160  1659.259
 161  1195.364
 162  1686.484
 163  1060.357
 164  1187.543
 165  1545.817
 166  1511.137
 167  1414.349
 168  903.2289
 169  948.4243
 170  1008.883
 171  868.4149
 172  1487.328
 173  1609.224
 174  1080.829
 175  1312.704
 176  1185.676
 177  426.4933
 178  1340.953
 179  1207.405
 180  1104.536
 181  1103.942
 182  1493.299
 183  817.0076
 184  1709.118
 185  1185.682
 186  1222.938
 187  864.8409
 188  1081.76
 189  991.2092
 190  1222.086
 191  1584.396
 192  1472.568
 193  1179.039
 194  833.5559
 195  1330.584
 196  1542.474
 197  2142.683
 198  1696.057
 199  1352.779
 200  1309.473
 201  1525.114
 202  1500.272
 203  1477.745
 204  1564.688
 205  1890.781
 206  2023.811
 207  1430.699
 208  664.2905
 209  960.2541
 210  873.2599
 211  2094.939
 212  1543.328
 213  1915.869
 214  2014.003
 215  1136.67
 216  1565.083
 217  1285.357
 218  1705.347
 219  2078.224
 220  1746.41
 221  2036.101
 222  1470.003
 223  2104.548
 224  2019.713
 225  1145.27
 226  1649.917
 227  1918.999
 228  1884.253
 229  964.0687
 230  732.6907
 231  1499.514
 232  1398.841
 233  1489.757
 234  891.7087
 235  666.4537
 236  1460.753
 237  1516.015
 238  1048.509
 239  710.4313
 240  367.8466
 241  1067.133
 242  1046.681
 243  1584.026
 244  1353.44
 245  695.5407
 246  1619.374
 247  1640.985
 248  1306.851
 249  660.7943
 250  1182.164
 251  1107.254
 252  1304.362
 253  1552.532
 254  1125.595
 255  1576.645
