# Input file       =  1193362522.147271_cleaned.dat
# Candidate        =  PSR_0332+5434
# Telescope        =  AR
# Epoch_topo       =  58056.066448463782
# Epoch_bary       =  N/A
# T_sample         =  0.002
# Data Folded      =  7340032
# Data Avg         =  0.0165198167238993
# Data StdDev      =  1.00006395820774 
# Profile Bins     =  512
# Profile Avg      =  236.818869221806 
# Profile StdDev   =  119.74069428718  
# Reduced chi-sqr  =  1.355
# Prob(Noise)      <  1.41e-07   (~5.1 sigma)
# P_topo (ms)      =  714.494294788804  +/- 0.000211
# P'_topo (s/s)    =  -0                +/- 1.11e-10
# P''_topo (s/s^2) =  0                 +/- 4.92e-14
# P_bary (ms)      =  N/A
# P'_bary (s/s)    =  N/A
# P''_bary (s/s^2) =  N/A
# P_orb (s)        =  N/A
# asin(i)/c (s)    =  N/A
# eccentricity     =  N/A
# w (rad)          =  N/A
# T_peri           =  N/A
######################################################
   0  264.8113
   1  214.1713
   2  279.709
   3  265.0645
   4  117.2307
   5  183.3027
   6  157.2896
   7  81.95585
   8  129.9122
   9  78.28146
  10  152.2106
  11  253.4142
  12  244.68
  13  288.4645
  14  217.9503
  15  266.6809
  16  198.7874
  17  272.049
  18  264.2367
  19  185.0416
  20  271.8134
  21  173.192
  22  173.8126
  23  214.475
  24  250.3849
  25  240.3473
  26  198.5935
  27  190.7853
  28  193.6031
  29  91.67383
  30  239.1492
  31  296.6629
  32  330.1996
  33  344.0395
  34  236.0974
  35  146.1901
  36  273.7045
  37  214.6415
  38  252.1042
  39  233.6386
  40  297.9582
  41  252.297
  42  265.3565
  43  283.2758
  44  172.7452
  45  224.1604
  46  154.6932
  47  129.5298
  48  221.0594
  49  283.7056
  50  290.2255
  51  266.1021
  52  366.5705
  53  318.14
  54  245.8836
  55  286.42
  56  313.6648
  57  199.6955
  58  277.2806
  59  367.0778
  60  314.5739
  61  332.6337
  62  300.2755
  63  260.8901
  64  351.4106
  65  305.1414
  66  151.2414
  67  105.4616
  68  183.5603
  69  206.9865
  70  177.2365
  71  123.5634
  72  106.6366
  73  95.15347
  74  131.4474
  75  364.6272
  76  327.5641
  77  208.0915
  78  238.1258
  79  177.9685
  80  276.2866
  81  307.2598
  82  300.8283
  83  313.4055
  84  222.1214
  85  134.2493
  86  201.4214
  87  184.0077
  88  171.0785
  89  294.4615
  90  213.9823
  91  217.3377
  92  211.2487
  93  370.122
  94  390.5723
  95  312.0441
  96  276.5894
  97  192.1626
  98  293.8142
  99  231.5044
 100  278.8352
 101  382.8506
 102  331.8938
 103  247.6698
 104  262.3389
 105  186.8951
 106  117.2636
 107  131.1009
 108  148.1147
 109  215.9446
 110  277.4649
 111  317.0852
 112  339.4969
 113  251.3089
 114  265.4331
 115  271.1069
 116  190.7963
 117  242.828
 118  193.4601
 119  82.04768
 120  112.9824
 121  90.94964
 122  203.6912
 123  155.9534
 124  107.9257
 125  125.6002
 126  358.9653
 127  309.048
 128  36.88615
 129  119.5226
 130  271.1826
 131  241.3677
 132  245.4911
 133  187.1815
 134  200.7844
 135  210.9004
 136  324.9234
 137  349.7785
 138  130.2113
 139  194.9866
 140  238.2582
 141  314.8315
 142  232.8495
 143  93.79547
 144  158.0994
 145  258.6662
 146  224.5738
 147  326.178
 148  376.0811
 149  348.1765
 150  284.4565
 151  215.6867
 152  247.501
 153  218.1144
 154  228.0517
 155  291.5134
 156  262.6569
 157  273.5813
 158  259.9401
 159  331.759
 160  196.8601
 161  235.9393
 162  368.1355
 163  361.865
 164  377.9174
 165  296.2935
 166  251.5062
 167  178.9543
 168  275.0787
 169  375.2436
 170  413.6984
 171  308.1984
 172  314.0916
 173  278.0461
 174  131.4496
 175  59.3496
 176  214.9396
 177  216.153
 178  209.6999
 179  214.7089
 180  208.5917
 181  389.263
 182  314.5477
 183  182.0624
 184  115.8816
 185  121.7004
 186  167.944
 187  336.4606
 188  339.5628
 189  324.1878
 190  258.9606
 191  278.1547
 192  146.4209
 193  169.429
 194  295.8638
 195  241.4073
 196  222.0042
 197  224.0365
 198  257.2919
 199  234.0659
 200  212.3344
 201  158.1891
 202  142.6052
 203  108.877
 204  110.5636
 205  213.7833
 206  393.8125
 207  313.5206
 208  268.1082
 209  451.0748
 210  336.1322
 211  227.3663
 212  250.5308
 213  178.7948
 214  122.8254
 215  300.2279
 216  252.1747
 217  153.5544
 218  215.3649
 219  236.8186
 220  153.1037
 221  192.3821
 222  267.9867
 223  311.4985
 224  272.5525
 225  138.3402
 226  92.41901
 227  263.4407
 228  236.0106
 229  251.5821
 230  256.5981
 231  149.8867
 232  225.6233
 233  252.6938
 234  329.3651
 235  120.6624
 236  136.0993
 237  263.1914
 238  337.7469
 239  213.7962
 240  201.3338
 241  271.5887
 242  265.0695
 243  240.9372
 244  269.7703
 245  340.0736
 246  230.9208
 247  236.8991
 248  409.954
 249  276.9151
 250  157.7216
 251  70.30831
 252  203.1219
 253  216.3796
 254  175.941
 255  246.2873
 256  250.2874
 257  296.3728
 258  221.0652
 259  94.59052
 260  109.035
 261  224.4471
 262  381.2004
 263  332.7692
 264  319.1368
 265  252.7542
 266  225.1262
 267  182.0424
 268  156.4798
 269  203.3001
 270  233.245
 271  245.6067
 272  190.7733
 273  181.7255
 274  199.6114
 275  324.1385
 276  270.6513
 277  204.6868
 278  74.30051
 279  226.4164
 280  229.2155
 281  212.963
 282  231.1171
 283  258.0616
 284  250.5547
 285  191.0254
 286  274.0638
 287  196.2068
 288  220.2705
 289  192.4877
 290  248.2654
 291  313.623
 292  305.5462
 293  236.1969
 294  154.5091
 295  299.6873
 296  258.896
 297  195.0234
 298  306.92
 299  218.3809
 300  201.4535
 301  210.3178
 302  232.5385
 303  225.8897
 304  160.4781
 305  305.543
 306  248.569
 307  229.2923
 308  173.388
 309  250.3494
 310  377.0314
 311  179.3231
 312  140.9413
 313  245.0776
 314  145.5967
 315  216.6442
 316  152.7686
 317  159.555
 318  146.2276
 319  138.8312
 320  75.46081
 321  49.43142
 322  115.4398
 323  98.62244
 324  132.1951
 325  213.9494
 326  308.7024
 327  168.2871
 328  277.0042
 329  279.7832
 330  222.5788
 331  243.3219
 332  211.8828
 333  264.2947
 334  339.2846
 335  214.5076
 336  229.2719
 337  453.8508
 338  406.2026
 339  309.6104
 340  375.3827
 341  558.6567
 342  695.4552
 343  906.7706
 344  998.2304
 345  917.225
 346  637.9924
 347  460.6982
 348  306.756
 349  216.9973
 350  130.3724
 351  165.2375
 352  357.4065
 353  271.1914
 354  268.5379
 355  353.8167
 356  318.4312
 357  303.1487
 358  235.8402
 359  280.251
 360  234.1997
 361  287.5835
 362  273.2187
 363  136.7882
 364  195.0143
 365  125.0645
 366  30.32066
 367  122.0105
 368  145.1622
 369  261.4217
 370  229.8312
 371  182.9913
 372  168.3191
 373  137.448
 374  110.9609
 375  3.417971
 376  139.0877
 377  207.4365
 378  204.4032
 379  188.5545
 380  183.0466
 381  203.9236
 382  184.9559
 383  131.3409
 384  118.7803
 385  97.84094
 386  150.0328
 387  325.2891
 388  234.0845
 389  296.4705
 390  310.4944
 391  260.6106
 392  220.2869
 393  143.4737
 394  220.4838
 395  189.4367
 396  146.8789
 397  225.452
 398  272.3106
 399  188.2559
 400  158.0498
 401  261.345
 402  89.1319
 403  245.2346
 404  350.8843
 405  276.9412
 406  285.9016
 407  354.2811
 408  401.5936
 409  288.774
 410  178.8799
 411  217.9231
 412  302.5114
 413  256.8064
 414  306.6043
 415  178.9223
 416  203.7752
 417  355.5437
 418  333.1913
 419  237.6126
 420  137.2836
 421  62.77371
 422  174.5791
 423  194.5962
 424  210.8063
 425  232.7915
 426  206.1903
 427  199.9108
 428  126.7371
 429  239.2266
 430  378.7687
 431  240.1819
 432  89.10548
 433  172.4902
 434  237.4096
 435  337.0981
 436  392.0395
 437  431.3174
 438  432.3621
 439  178.1509
 440  199.1312
 441  375.2768
 442  116.0777
 443  131.2576
 444  169.5259
 445  338.0076
 446  243.7003
 447  263.5716
 448  192.8617
 449  161.3522
 450  207.9156
 451  280.8341
 452  214.1461
 453  210.2284
 454  222.4331
 455  128.0759
 456  244.4198
 457  235.4644
 458  216.5768
 459  331.1165
 460  270.7385
 461  208.9883
 462  244.926
 463  225.6098
 464  195.2904
 465  188.6206
 466  121.0661
 467  174.9985
 468  96.69788
 469  171.3837
 470  63.25239
 471  170.3997
 472  335.7925
 473  424.4146
 474  313.6257
 475  342.2439
 476  363.3955
 477  217.4473
 478  314.5197
 479  193.5527
 480  167.3899
 481  163.1456
 482  265.6329
 483  230.2565
 484  343.5177
 485  283.9395
 486  96.56973
 487  259.2174
 488  312.971
 489  153.1804
 490  203.7571
 491  298.1459
 492  207.9445
 493  243.9123
 494  282.3593
 495  234.6015
 496  212.8687
 497  262.2424
 498  193.3561
 499  163.7194
 500  288.0917
 501  339.9354
 502  251.704
 503  165.2973
 504  80.43606
 505  188.1007
 506  270.3466
 507  125.1825
 508  95.55132
 509  98.0757
 510  69.26759
 511  31.38082
