# Input file       =  1193966255.105368_cleaned.dat
# Candidate        =  PSR_0332+5434
# Telescope        =  AR
# Epoch_topo       =  58063.054098441760
# Epoch_bary       =  N/A
# T_sample         =  0.002
# Data Folded      =  7340032
# Data Avg         =  0.0440309985736218
# Data StdDev      =  2.64213245817025 
# Profile Bins     =  1024
# Profile Avg      =  315.569838637503 
# Profile StdDev   =  223.693613286727 
# Reduced chi-sqr  =  0.992
# Prob(Noise)      <  0.563   (~0.0 sigma)
# P_topo (ms)      =  714.500770357088  +/- 0.000211
# P'_topo (s/s)    =  -0                +/- 1.11e-10
# P''_topo (s/s^2) =  0                 +/- 4.92e-14
# P_bary (ms)      =  N/A
# P'_bary (s/s)    =  N/A
# P''_bary (s/s^2) =  N/A
# P_orb (s)        =  N/A
# asin(i)/c (s)    =  N/A
# eccentricity     =  N/A
# w (rad)          =  N/A
# T_peri           =  N/A
######################################################
   0  333.3632
   1  374.2844
   2  341.62
   3  356.2773
   4  283.3716
   5  275.1464
   6  278.1018
   7  250.8858
   8  52.36948
   9  64.72774
  10  172.7713
  11  289.5299
  12  359.8251
  13  394.2454
  14  477.0548
  15  400.5614
  16  364.7265
  17  328.9336
  18  317.4422
  19  228.9544
  20  277.2709
  21  393.5154
  22  483.5688
  23  389.2612
  24  333.3471
  25  385.45
  26  464.3197
  27  413.7542
  28  462.4258
  29  426.4639
  30  399.7527
  31  320.0727
  32  248.0782
  33  265.673
  34  215.1989
  35  298.0845
  36  324.6051
  37  361.4745
  38  391.2269
  39  364.2654
  40  460.1165
  41  448.7873
  42  465.5149
  43  382.2538
  44  406.4792
  45  400.4086
  46  371.5944
  47  308.4106
  48  351.3482
  49  280.9155
  50  235.0804
  51  132.5057
  52  302.3481
  53  370.2389
  54  432.8995
  55  316.928
  56  307.4798
  57  160.7781
  58  156.1834
  59  146.4752
  60  279.4163
  61  449.9114
  62  578.6707
  63  499.3676
  64  298.2533
  65  155.1297
  66  226.993
  67  310.596
  68  501.2309
  69  554.5973
  70  531.8226
  71  362.8388
  72  252.9429
  73  226.1955
  74  435.6071
  75  501.3991
  76  569.8
  77  500.3667
  78  442.1823
  79  289.1752
  80  245.4037
  81  192.9991
  82  281.8473
  83  325.769
  84  308.53
  85  244.1396
  86  123.6729
  87  282.8304
  88  370.986
  89  417.634
  90  398.5908
  91  327.2846
  92  357.9892
  93  344.7214
  94  403.0596
  95  339.6636
  96  364.8605
  97  343.7907
  98  441.2567
  99  464.6714
 100  411.7001
 101  326.888
 102  300.6726
 103  343.6429
 104  286.5492
 105  207.5822
 106  236.8636
 107  248.9855
 108  290.5371
 109  309.0504
 110  368.9804
 111  506.6455
 112  640.5894
 113  507.1518
 114  273.7827
 115  171.4367
 116  272.6236
 117  320.7755
 118  231.3023
 119  201.171
 120  171.6734
 121  211.4012
 122  306.5308
 123  400.13
 124  333.0275
 125  198.1566
 126  53.88531
 127  170.3148
 128  369.3777
 129  476.2965
 130  464.0091
 131  462.547
 132  500.8429
 133  409.3995
 134  316.1906
 135  418.231
 136  531.9098
 137  504.6378
 138  409.9842
 139  288.8823
 140  228.6858
 141  108.7931
 142  131.8711
 143  154.8085
 144  232.7244
 145  160.6801
 146  175.8944
 147  130.0408
 148  61.49261
 149  22.46308
 150  128.4296
 151  250.4858
 152  429.9096
 153  395.8343
 154  424.7356
 155  376.2835
 156  328.0448
 157  366.6794
 158  305.2827
 159  227.0087
 160  123.8273
 161  220.8382
 162  302.9073
 163  316.263
 164  356.6503
 165  416.9939
 166  475.7819
 167  386.7191
 168  377.3886
 169  334.0963
 170  420.9207
 171  450.8863
 172  463.1664
 173  407.751
 174  324.6754
 175  364.2556
 176  401.2952
 177  452.9097
 178  409.1744
 179  406.6851
 180  460.6634
 181  483.2559
 182  501.218
 183  320.964
 184  237.7621
 185  241.9528
 186  347.9381
 187  426.205
 188  432.0789
 189  384.0936
 190  277.9583
 191  214.4525
 192  297.1297
 193  313.0202
 194  278.0533
 195  223.2928
 196  216.3649
 197  248.5584
 198  283.335
 199  291.1012
 200  262.6993
 201  225.0758
 202  315.4793
 203  344.8978
 204  223.3245
 205  198.8778
 206  203.4627
 207  370.2179
 208  240.9225
 209  248.3003
 210  261.9668
 211  371.0558
 212  353.2505
 213  385.243
 214  344.8324
 215  265.0615
 216  288.7442
 217  301.6268
 218  380.6198
 219  419.0784
 220  338.6281
 221  318.4592
 222  205.252
 223  155.3533
 224  159.7452
 225  277.2754
 226  293.7618
 227  178.3919
 228  142.1107
 229  168.929
 230  260.8781
 231  284.9475
 232  343.5755
 233  279.2274
 234  287.2075
 235  205.0208
 236  198.6228
 237  175.7909
 238  243.7124
 239  207.1424
 240  133.2017
 241  99.56537
 242  168.7422
 243  337.063
 244  446.9847
 245  396.3597
 246  317.6255
 247  230.2223
 248  370.2914
 249  363.1716
 250  404.9154
 251  397.3166
 252  468.7047
 253  394.6532
 254  290.2693
 255  225.3737
 256  263.6597
 257  328.4902
 258  383.9816
 259  377.3638
 260  180.7277
 261  61.51043
 262  121.1885
 263  180.1155
 264  236.2334
 265  252.3914
 266  346.4328
 267  295.8341
 268  278.1547
 269  174.5
 270  149.5052
 271  210.4761
 272  297.7084
 273  290.4922
 274  221.4639
 275  275.3056
 276  296.7965
 277  228.899
 278  287.8504
 279  378.0116
 280  493.348
 281  482.2583
 282  441.1826
 283  333.8781
 284  187.7888
 285  148.3152
 286  230.1266
 287  455.0866
 288  397.7882
 289  396.146
 290  314.0751
 291  409.434
 292  443.6564
 293  466.4524
 294  481.485
 295  443.2086
 296  483.7839
 297  442.1381
 298  305.738
 299  188.7865
 300  251.1977
 301  387.3364
 302  370.1976
 303  359.2269
 304  305.3458
 305  305.6021
 306  192.2755
 307  136.6411
 308  157.976
 309  195.0825
 310  197.7731
 311  244.5979
 312  278.6703
 313  297.9366
 314  219.4129
 315  266.871
 316  309.1449
 317  294.9538
 318  265.8932
 319  195.2596
 320  156.4617
 321  111.6883
 322  67.55592
 323  33.88612
 324  46.05326
 325  97.94934
 326  140.4879
 327  262.1508
 328  320.3375
 329  423.7113
 330  407.8247
 331  426.8752
 332  407.0955
 333  382.0814
 334  340.1973
 335  293.4296
 336  225.9027
 337  244.3929
 338  333.7358
 339  422.8108
 340  542.3483
 341  464.2989
 342  434.4235
 343  291.8052
 344  141.2797
 345  84.41763
 346  110.7484
 347  192.9921
 348  224.4045
 349  246.0123
 350  306.8867
 351  318.7148
 352  288.5884
 353  225.6363
 354  241.3284
 355  241.5019
 356  382.7981
 357  364.6831
 358  379.0148
 359  256.1198
 360  258.0322
 361  239.7708
 362  312.2689
 363  400.9886
 364  449.1521
 365  466.7658
 366  380.5323
 367  416.8214
 368  390.0934
 369  420.1938
 370  375.984
 371  304.6174
 372  233.333
 373  267.9623
 374  242.1025
 375  268.3026
 376  150.477
 377  228.8676
 378  356.6516
 379  309.8118
 380  205.5408
 381  269.6364
 382  383.8802
 383  512.0019
 384  457.8483
 385  408.4363
 386  376.0043
 387  380.7863
 388  345.4024
 389  304.8519
 390  195.6009
 391  250.4942
 392  219.0279
 393  192.0594
 394  91.02831
 395  32.73874
 396  142.7684
 397  323.8491
 398  384.6236
 399  398.8784
 400  307.8218
 401  260.1584
 402  321.6227
 403  383.9234
 404  415.1489
 405  380.9685
 406  322.96
 407  306.2158
 408  251.0154
 409  256.3295
 410  283.0499
 411  255.454
 412  265.7707
 413  358.6724
 414  392.4076
 415  432.433
 416  322.7917
 417  395.8339
 418  497.5846
 419  609.0634
 420  584.3048
 421  394.7141
 422  330.2969
 423  227.0813
 424  299.3699
 425  348.2646
 426  458.5297
 427  421.053
 428  402.6461
 429  481.8752
 430  526.1574
 431  535.0798
 432  473.8443
 433  451.7524
 434  267.0623
 435  145.2978
 436  235.9893
 437  351.5192
 438  392.4061
 439  412.9574
 440  584.7044
 441  561.1349
 442  525.393
 443  361.6488
 444  350.5442
 445  268.0284
 446  353.2117
 447  434.3203
 448  472.9015
 449  321.9385
 450  244.2486
 451  246.2031
 452  250.1385
 453  293.85
 454  371.7307
 455  265.9174
 456  235.2835
 457  112.2884
 458  219.5818
 459  185.1401
 460  177.8403
 461  202.5826
 462  160.636
 463  215.3926
 464  311.0882
 465  237.7775
 466  300.7873
 467  271.0278
 468  356.0863
 469  256.8882
 470  308.0109
 471  381.7402
 472  518.2968
 473  463.7227
 474  423.4622
 475  314.8079
 476  271.0573
 477  213.5619
 478  271.0935
 479  247.9745
 480  267.9543
 481  244.4919
 482  278.4228
 483  392.8806
 484  332.382
 485  280.4435
 486  209.9504
 487  290.6005
 488  517.5938
 489  522.0046
 490  492.3473
 491  308.3729
 492  243.7057
 493  297.4664
 494  287.3229
 495  300.1855
 496  297.7133
 497  397.7694
 498  381.2777
 499  300.3581
 500  265.0004
 501  302.3605
 502  238.5948
 503  54.97117
 504  -7.875078
 505  5.768616
 506  92.21495
 507  133.6799
 508  265.118
 509  431.713
 510  547.1141
 511  479.7764
 512  424.9355
 513  316.4399
 514  335.71
 515  288.398
 516  243.7984
 517  282.6522
 518  345.4012
 519  265.8253
 520  132.1719
 521  44.57376
 522  120.3326
 523  112.0245
 524  53.30328
 525  68.38891
 526  137.7815
 527  217.7095
 528  269.684
 529  295.6026
 530  346.2641
 531  351.5135
 532  347.257
 533  368.7115
 534  427.8126
 535  357.8835
 536  310.3782
 537  356.4563
 538  381.9105
 539  298.6667
 540  132.9726
 541  191.2894
 542  284.8355
 543  366.4856
 544  456.1337
 545  547.4979
 546  604.5405
 547  558.6851
 548  523.9123
 549  536.7456
 550  536.6881
 551  453.573
 552  464.0995
 553  386.289
 554  333.2852
 555  176.2993
 556  153.3012
 557  114.1879
 558  241.7577
 559  325.3431
 560  468.5751
 561  470.0406
 562  453.0192
 563  421.3094
 564  433.9562
 565  484.6483
 566  392.7828
 567  252.7296
 568  126.3141
 569  156.6284
 570  179.4146
 571  235.8555
 572  311.9359
 573  385.1764
 574  523.2063
 575  478.246
 576  433.676
 577  243.9861
 578  243.8447
 579  364.0098
 580  397.7779
 581  377.9678
 582  262.326
 583  236.7164
 584  218.3357
 585  207.5842
 586  231.2855
 587  302.4326
 588  468.5835
 589  511.9747
 590  543.5653
 591  462.7156
 592  467.4201
 593  385.3993
 594  318.7101
 595  318.7651
 596  388.8489
 597  385.0295
 598  446.3369
 599  420.6104
 600  403.3771
 601  290.8038
 602  290.4733
 603  373.669
 604  420.4901
 605  399.2793
 606  438.2442
 607  399.5615
 608  344.7399
 609  262.0067
 610  188.239
 611  280.807
 612  404.938
 613  561.7535
 614  520.496
 615  414.2515
 616  392.8007
 617  411.2134
 618  297.3557
 619  165.3645
 620  146.4407
 621  213.0648
 622  340.1707
 623  337.8031
 624  392.6248
 625  574.4352
 626  755.2748
 627  690.398
 628  660.4946
 629  726.034
 630  918.6623
 631  910.148
 632  981.8217
 633  1013.416
 634  1010.978
 635  914.4839
 636  824.2026
 637  740.3727
 638  643.9426
 639  620.3817
 640  583.5248
 641  473.618
 642  411.0705
 643  252.678
 644  259.8416
 645  161.6504
 646  275.9123
 647  248.5225
 648  337.4068
 649  307.8682
 650  379.5956
 651  325.675
 652  212.5249
 653  104.4932
 654  166.6394
 655  238.7196
 656  196.9175
 657  186.1631
 658  303.6261
 659  350.0753
 660  439.1099
 661  444.601
 662  428.8029
 663  293.6759
 664  279.479
 665  245.2695
 666  281.7742
 667  225.7856
 668  232.6504
 669  187.1166
 670  262.3644
 671  347.7979
 672  315.287
 673  335.2285
 674  386.2602
 675  419.4828
 676  346.4933
 677  300.9004
 678  342.701
 679  375.2072
 680  276.4832
 681  268.139
 682  267.7059
 683  324.5196
 684  176.9591
 685  101.4646
 686  76.51421
 687  237.8161
 688  278.8088
 689  251.6218
 690  149.3326
 691  197.0943
 692  282.0029
 693  409.1021
 694  398.6242
 695  398.8517
 696  353.3853
 697  377.5141
 698  247.0846
 699  198.0723
 700  104.2214
 701  159.5265
 702  121.6407
 703  171.5509
 704  172.0286
 705  410.7523
 706  473.4321
 707  458.856
 708  400.9335
 709  488.947
 710  447.3036
 711  398.7446
 712  328.7753
 713  331.9682
 714  338.1223
 715  307.8513
 716  376.8397
 717  351.6196
 718  264.5392
 719  238.7892
 720  200.7017
 721  304.6134
 722  318.6844
 723  432.0257
 724  394.1029
 725  373.404
 726  384.3977
 727  359.3265
 728  246.2903
 729  174.663
 730  301.473
 731  400.5943
 732  355.0544
 733  286.6219
 734  346.6562
 735  418.1734
 736  465.2315
 737  394.8729
 738  360.3356
 739  261.2244
 740  210.2133
 741  209.34
 742  174.9096
 743  264.776
 744  280.705
 745  363.6538
 746  410.7134
 747  404.1017
 748  380.3122
 749  237.2674
 750  262.4221
 751  354.6144
 752  407.2531
 753  359.2112
 754  310.1048
 755  297.6148
 756  299.2279
 757  217.1153
 758  227.2026
 759  287.9335
 760  353.4329
 761  336.7736
 762  330.8433
 763  221.6715
 764  211.1324
 765  174.7087
 766  323.8593
 767  336.3841
 768  258.3547
 769  67.0865
 770  88.82425
 771  221.9891
 772  210.9561
 773  249.0576
 774  297.4133
 775  390.2375
 776  362.7148
 777  257.5828
 778  205.8743
 779  127.4094
 780  138.0784
 781  306.5119
 782  371.0405
 783  391.6854
 784  376.176
 785  338.8575
 786  370.4236
 787  355.5422
 788  437.4949
 789  376.6292
 790  216.3884
 791  79.50788
 792  126.135
 793  242.37
 794  416.5556
 795  362.0844
 796  235.4563
 797  175.9861
 798  225.1397
 799  258.5521
 800  233.947
 801  277.9366
 802  436.3757
 803  469.1498
 804  403.7021
 805  310.4551
 806  249.1859
 807  268.7666
 808  249.8422
 809  228.972
 810  293.1493
 811  322.806
 812  322.1653
 813  203.5925
 814  222.9872
 815  160.9
 816  114.0712
 817  47.93416
 818  210.6644
 819  244.7109
 820  206.2617
 821  195.7479
 822  227.4104
 823  175.3997
 824  166.235
 825  215.0081
 826  341.7923
 827  366.2103
 828  432.7672
 829  330.048
 830  249.9529
 831  208.8842
 832  358.5695
 833  303.1149
 834  225.0316
 835  187.2344
 836  284.4916
 837  330.0894
 838  326.9057
 839  364.0611
 840  401.7389
 841  335.0126
 842  258.6259
 843  222.97
 844  325.6224
 845  392.7416
 846  417.6671
 847  280.2396
 848  260.9569
 849  269.3247
 850  346.5695
 851  286.2782
 852  299.0117
 853  373.7011
 854  463.3495
 855  326.4424
 856  310.3355
 857  275.01
 858  316.937
 859  278.3161
 860  261.2036
 861  306.9893
 862  301.4214
 863  225.6044
 864  272.4821
 865  436.406
 866  547.7885
 867  488.2377
 868  415.9411
 869  492.0871
 870  348.7165
 871  246.8449
 872  272.8449
 873  348.6615
 874  266.1512
 875  228.7211
 876  278.2314
 877  395.3652
 878  358.4909
 879  309.8739
 880  252.2245
 881  344.5463
 882  356.7545
 883  446.9444
 884  366.6098
 885  465.9463
 886  429.1057
 887  412.8311
 888  420.6861
 889  466.4423
 890  480.8318
 891  357.5768
 892  234.2818
 893  280.3773
 894  338.2155
 895  324.1822
 896  243.417
 897  200.4542
 898  208.866
 899  228.3527
 900  288.2915
 901  361.034
 902  344.2379
 903  281.6067
 904  354.9245
 905  357.3849
 906  357.3647
 907  290.0183
 908  291.9474
 909  266.8201
 910  208.1122
 911  252.5595
 912  311.7097
 913  345.5038
 914  297.1178
 915  252.0772
 916  251.4942
 917  343.5305
 918  394.0179
 919  321.8054
 920  193.318
 921  203.419
 922  188.463
 923  236.0925
 924  202.5751
 925  321.8972
 926  448.0956
 927  402.5121
 928  344.7362
 929  206.7677
 930  156.3277
 931  146.9043
 932  234.1237
 933  238.0846
 934  225.6622
 935  175.4498
 936  266.5496
 937  320.1263
 938  338.0569
 939  422.2052
 940  560.2971
 941  529.368
 942  351.8519
 943  260.3677
 944  382.4936
 945  427.3601
 946  350.3027
 947  280.9366
 948  343.1085
 949  293.3943
 950  314.8031
 951  114.3454
 952  154.3759
 953  242.0387
 954  368.3018
 955  279.2144
 956  171.8218
 957  116.4613
 958  133.5469
 959  194.8781
 960  187.0524
 961  244.5543
 962  225.3921
 963  304.0507
 964  218.8927
 965  174.3551
 966  280.8604
 967  216.2743
 968  252.6901
 969  210.5237
 970  330.7769
 971  308.6551
 972  243.5002
 973  186.5926
 974  143.0517
 975  122.7958
 976  129.7872
 977  118.4695
 978  101.7429
 979  124.0224
 980  234.0143
 981  240.9942
 982  215.9257
 983  215.8454
 984  281.0747
 985  330.9659
 986  332.7994
 987  266.1682
 988  221.2783
 989  253.8127
 990  263.6297
 991  332.8262
 992  329.377
 993  367.4556
 994  376.632
 995  367.7334
 996  377.3299
 997  314.9843
 998  274.7099
 999  262.0449
1000  197.9767
1001  151.757
1002  190.6734
1003  307.1674
1004  426.7911
1005  361.712
1006  352.5186
1007  304.697
1008  289.3727
1009  350.251
1010  344.5968
1011  356.7767
1012  319.2302
1013  288.0953
1014  222.1273
1015  223.4505
1016  246.6845
1017  215.0223
1018  198.7426
1019  193.1848
1020  280.2393
1021  312.9803
1022  276.0518
1023  342.7224
