# Input file       =  1193534798.132602_cleaned.dat
# Candidate        =  PSR_0332+5434
# Telescope        =  AR
# Epoch_topo       =  58058.060383479191
# Epoch_bary       =  N/A
# T_sample         =  0.002
# Data Folded      =  7340032
# Data Avg         =  0.0181258883325364
# Data StdDev      =  1.00003084514881 
# Profile Bins     =  512
# Profile Avg      =  259.851695695347 
# Profile StdDev   =  119.736729560091 
# Reduced chi-sqr  =  1.505
# Prob(Noise)      <  1.05e-12   (~7.0 sigma)
# P_topo (ms)      =  714.496101370388  +/- 0.000301
# P'_topo (s/s)    =  -0                +/- 1.59e-10
# P''_topo (s/s^2) =  0                 +/- 7e-14
# P_bary (ms)      =  N/A
# P'_bary (s/s)    =  N/A
# P''_bary (s/s^2) =  N/A
# P_orb (s)        =  N/A
# asin(i)/c (s)    =  N/A
# eccentricity     =  N/A
# w (rad)          =  N/A
# T_peri           =  N/A
######################################################
   0  794.841
   1  569.2361
   2  397.3762
   3  286.9484
   4  236.7091
   5  380.7736
   6  377.6015
   7  291.1119
   8  392.9718
   9  352.3866
  10  291.8238
  11  268.3659
  12  324.2991
  13  332.1187
  14  320.037
  15  412.7542
  16  316.7335
  17  305.9606
  18  247.0984
  19  251.8761
  20  190.577
  21  271.5888
  22  274.569
  23  252.5024
  24  272.0291
  25  147.7092
  26  122.8617
  27  66.47449
  28  211.097
  29  279.6413
  30  248.0246
  31  307.6094
  32  452.2396
  33  349.0227
  34  203.402
  35  229.2489
  36  321.4272
  37  345.0248
  38  348.6899
  39  246.2027
  40  292.7347
  41  291.0132
  42  292.5587
  43  314.3041
  44  322.1529
  45  175.09
  46  184.4961
  47  407.5537
  48  375.5089
  49  424.9136
  50  466.1574
  51  325.2447
  52  265.8463
  53  230.7417
  54  244.6294
  55  273.2572
  56  176.5454
  57  200.4606
  58  153.3712
  59  227.1522
  60  213.6501
  61  179.3059
  62  158.311
  63  295.9442
  64  308.5464
  65  258.442
  66  322.3915
  67  208.6601
  68  278.0318
  69  229.3792
  70  137.9372
  71  224.3787
  72  111.1437
  73  80.81893
  74  224.5405
  75  374.7516
  76  318.0835
  77  226.4879
  78  238.6384
  79  94.63905
  80  147.0793
  81  320.1956
  82  213.7469
  83  189.4574
  84  173.8682
  85  198.744
  86  273.2636
  87  211.3399
  88  109.3781
  89  144.1818
  90  197.5351
  91  331.6444
  92  379.9536
  93  109.5251
  94  136.284
  95  223.3748
  96  222.9259
  97  292.6551
  98  248.3725
  99  226.5982
 100  379.1623
 101  434.2711
 102  309.8503
 103  118.9962
 104  186.2953
 105  271.9387
 106  206.9331
 107  239.5268
 108  237.9488
 109  138.9959
 110  296.0692
 111  374.7996
 112  322.2099
 113  237.2992
 114  379.8396
 115  518.0461
 116  374.4622
 117  380.4992
 118  303.6819
 119  344.7913
 120  298.3124
 121  275.7237
 122  222.586
 123  271.4431
 124  345.4711
 125  190.2657
 126  112.2014
 127  181.2479
 128  230.3496
 129  222.7218
 130  152.3243
 131  116.5148
 132  237.8867
 133  275.0031
 134  192.6885
 135  149.9471
 136  143.9633
 137  152.0992
 138  285.1154
 139  331.4856
 140  353.393
 141  259.9168
 142  177.039
 143  186.9137
 144  180.9541
 145  187.3139
 146  205.4362
 147  190.2099
 148  234.4761
 149  42.70797
 150  116.9132
 151  136.3344
 152  255.4827
 153  263.784
 154  265.0454
 155  142.6362
 156  135.6385
 157  231.108
 158  291.7663
 159  190.2597
 160  133.4438
 161  277.5825
 162  303.0667
 163  228.633
 164  211.6577
 165  157.431
 166  158.0204
 167  182.166
 168  283.302
 169  264.709
 170  272.2396
 171  363.1859
 172  333.0856
 173  276.7077
 174  196.6486
 175  293.7441
 176  197.2016
 177  311.3858
 178  344.8124
 179  364.3391
 180  394.602
 181  267.091
 182  142.9519
 183  127.8824
 184  142.9742
 185  208.0008
 186  186.9915
 187  181.0963
 188  136.0176
 189  293.8381
 190  380.1943
 191  257.2997
 192  332.0114
 193  282.1446
 194  238.8265
 195  282.4656
 196  368.7306
 197  239.1014
 198  299.6296
 199  349.0366
 200  290.811
 201  193.9454
 202  183.2483
 203  199.8117
 204  250.6461
 205  243.7803
 206  232.9582
 207  342.5648
 208  213.3816
 209  193.9265
 210  251.2393
 211  295.2014
 212  321.2517
 213  246.0271
 214  182.7184
 215  170.8742
 216  287.3135
 217  182.3393
 218  301.6328
 219  451.2131
 220  289.2741
 221  204.5337
 222  324.6059
 223  251.7933
 224  265.137
 225  339.327
 226  327.3575
 227  298.729
 228  134.2401
 229  208.5035
 230  210.4712
 231  177.15
 232  185.5963
 233  160.8583
 234  330.6632
 235  454.4973
 236  428.4422
 237  324.8845
 238  387.1883
 239  386.9371
 240  302.603
 241  257.9648
 242  130.1494
 243  210.9418
 244  272.4883
 245  195.0414
 246  205.0335
 247  210.1497
 248  324.5425
 249  338.6602
 250  381.0589
 251  295.3756
 252  273.3073
 253  279.5231
 254  288.745
 255  182.5014
 256  203.6428
 257  148.8396
 258  220.1819
 259  319.6276
 260  259.8315
 261  127.8353
 262  137.0689
 263  60.30991
 264  74.84303
 265  93.76596
 266  240.0326
 267  236.1932
 268  145.3009
 269  215.6295
 270  228.0578
 271  130.1421
 272  61.95139
 273  -12.25975
 274  155.5537
 275  172.2462
 276  107.3715
 277  142.0553
 278  285.0192
 279  332.8522
 280  191.6182
 281  145.3628
 282  233.1847
 283  237.0224
 284  191.6669
 285  297.157
 286  342.0145
 287  310.8734
 288  234.0609
 289  136.6698
 290  302.5771
 291  267.0634
 292  179.527
 293  290.0066
 294  231.7931
 295  226.2316
 296  207.1891
 297  191.1511
 298  188.1502
 299  220.3567
 300  208.871
 301  188.1882
 302  177.1481
 303  142.8832
 304  167.6484
 305  245.5341
 306  251.5894
 307  200.6143
 308  133.8187
 309  234.6362
 310  176.444
 311  132.9624
 312  141.6964
 313  251.0531
 314  360.0304
 315  289.5757
 316  221.0013
 317  201.0326
 318  117.4904
 319  33.55474
 320  209.9565
 321  336.7017
 322  271.1283
 323  256.7563
 324  181.6996
 325  137.0426
 326  314.0214
 327  337.5977
 328  244.3173
 329  221.717
 330  283.079
 331  322.0636
 332  315.2507
 333  283.9391
 334  451.7942
 335  480.7636
 336  411.2346
 337  230.3633
 338  194.823
 339  213.8823
 340  243.3079
 341  316.1639
 342  237.5975
 343  305.4636
 344  271.6023
 345  201.7955
 346  280.5335
 347  283.346
 348  261.5599
 349  265.1129
 350  395.365
 351  378.6854
 352  195.9388
 353  187.0176
 354  259.5588
 355  278.7704
 356  268.5663
 357  294.5217
 358  246.4505
 359  217.2272
 360  253.7282
 361  177.3722
 362  177.1191
 363  221.3026
 364  296.5208
 365  355.8922
 366  404.5208
 367  311.7654
 368  257.8482
 369  272.8011
 370  294.192
 371  256.2506
 372  231.4128
 373  262.551
 374  279.5598
 375  242.9929
 376  202.4169
 377  283.8235
 378  283.3895
 379  202.9591
 380  230.9577
 381  167.7334
 382  232.4742
 383  274.3976
 384  251.4206
 385  276.8238
 386  418.178
 387  447.6841
 388  314.8173
 389  196.1152
 390  252.7558
 391  375.2794
 392  330.8487
 393  215.8392
 394  116.6615
 395  296.9414
 396  287.7278
 397  134.0672
 398  143.718
 399  298.7367
 400  378.8869
 401  398.2516
 402  309.5807
 403  343.8634
 404  281.1747
 405  194.4207
 406  233.3625
 407  331.7756
 408  387.2506
 409  432.0398
 410  240.4599
 411  249.9197
 412  235.5945
 413  265.5366
 414  311.9221
 415  322.6209
 416  289.5293
 417  329.4725
 418  250.8807
 419  183.4666
 420  185.0611
 421  185.0799
 422  178.741
 423  314.8563
 424  377.8732
 425  327.6749
 426  270.225
 427  167.0519
 428  312.8781
 429  310.8435
 430  351.2211
 431  303.4051
 432  238.7373
 433  335.8871
 434  382.1344
 435  217.7966
 436  242.0245
 437  283.0322
 438  282.2602
 439  205.9284
 440  141.9595
 441  179.5145
 442  207.4106
 443  155.5252
 444  187.1306
 445  128.7847
 446  219.6899
 447  282.0131
 448  227.1885
 449  286.8102
 450  208.2049
 451  213.6408
 452  110.0888
 453  142.4769
 454  217.6251
 455  338.4897
 456  372.7423
 457  249.1448
 458  199.3622
 459  192.8815
 460  187.1006
 461  190.949
 462  278.9155
 463  220.5194
 464  223.6064
 465  316.383
 466  164.3733
 467  188.0622
 468  297.7182
 469  313.1967
 470  393.3333
 471  312.5509
 472  220.6119
 473  134.236
 474  201.337
 475  258.6579
 476  305.5876
 477  318.7281
 478  291.6068
 479  188.0591
 480  194.1583
 481  292.4624
 482  247.9492
 483  211.2557
 484  225.7079
 485  227.3457
 486  184.5668
 487  303.2411
 488  129.4474
 489  123.2225
 490  301.6259
 491  305.514
 492  354.1964
 493  219.0196
 494  285.2851
 495  271.0899
 496  188.9499
 497  215.0139
 498  251.8511
 499  364.5543
 500  279.2923
 501  173.6346
 502  307.7602
 503  323.6158
 504  387.3604
 505  486.9254
 506  554.0543
 507  606.075
 508  805.3293
 509  877.7343
 510  1030.151
 511  1006.279
