# Input file       =  1193534798.132602_cleaned.dat
# Candidate        =  PSR_0332+5434
# Telescope        =  AR
# Epoch_topo       =  58058.060383479191
# Epoch_bary       =  N/A
# T_sample         =  0.002
# Data Folded      =  7340032
# Data Avg         =  0.0181258883325364
# Data StdDev      =  1.00003084514881 
# Profile Bins     =  512
# Profile Avg      =  259.851738699078 
# Profile StdDev   =  119.736729560091 
# Reduced chi-sqr  =  1.502
# Prob(Noise)      <  1.29e-12   (~7.0 sigma)
# P_topo (ms)      =  714.496100248314  +/- 0.000301
# P'_topo (s/s)    =  -0                +/- 1.59e-10
# P''_topo (s/s^2) =  0                 +/- 7.01e-14
# P_bary (ms)      =  N/A
# P'_bary (s/s)    =  N/A
# P''_bary (s/s^2) =  N/A
# P_orb (s)        =  N/A
# asin(i)/c (s)    =  N/A
# eccentricity     =  N/A
# w (rad)          =  N/A
# T_peri           =  N/A
######################################################
   0  1034.557
   1  999.9266
   2  778.0758
   3  551.0843
   4  395.177
   5  277.1911
   6  242.6945
   7  385.7163
   8  372.1394
   9  293.8383
  10  396.4194
  11  347.701
  12  288.5514
  13  274.0175
  14  324.1719
  15  328.9829
  16  323.382
  17  413.0469
  18  306.2367
  19  310.827
  20  245.7085
  21  249.6474
  22  188.987
  23  278.3975
  24  269.697
  25  255.7751
  26  268.3454
  27  140.3682
  28  124.2996
  29  65.51015
  30  223.2801
  31  276.246
  32  249.548
  33  318.6695
  34  453.0967
  35  336.5277
  36  200.4673
  37  234.4141
  38  321.1718
  39  345.6672
  40  348.2231
  41  245.615
  42  294.1848
  43  290.2924
  44  290.3894
  45  322.4138
  46  315.6945
  47  161.7557
  48  196.6864
  49  416.815
  50  373.815
  51  432.2275
  52  454.58
  53  324.1839
  54  258.7618
  55  233.9138
  56  243.2116
  57  272.5058
  58  172.5667
  59  203.2196
  60  152.8769
  61  229.8235
  62  213.8675
  63  173.1485
  64  163.1963
  65  300.534
  66  307.8794
  67  260.5667
  68  316.7747
  69  207.9822
  70  282.1952
  71  220.8444
  72  140.248
  73  225.322
  74  105.3991
  75  83.66697
  76  238.0582
  77  373.0865
  78  312.814
  79  225.0071
  80  238.2015
  81  85.10203
  82  164.4612
  83  318.1493
  84  204.8146
  85  189.3044
  86  174.961
  87  202.6297
  88  274.5955
  89  204.337
  90  102.6826
  91  153.3215
  92  200.4752
  93  340.6169
  94  367.9926
  95  100.0664
  96  147.7718
  97  225.882
  98  222.9292
  99  296.1321
 100  239.5741
 101  230.7523
 102  393.298
 103  429.0151
 104  298.3168
 105  112.0553
 106  198.5789
 107  266.865
 108  208.8852
 109  240.1949
 110  231.4362
 111  146.6119
 112  302.7968
 113  374.9446
 114  316.6613
 115  237.1375
 116  394.9051
 117  512.4573
 118  369.7985
 119  379.1351
 120  300.8372
 121  343.3769
 122  296.3967
 123  277.9172
 124  215.8118
 125  286.3511
 126  338.2412
 127  181.1387
 128  113.7182
 129  185.0164
 130  229.1848
 131  224.306
 132  143.688
 133  123.0929
 134  240.8746
 135  274.7027
 136  186.7227
 137  148.3778
 138  144.0646
 139  157.209
 140  291.9552
 141  331.7708
 142  355.7997
 143  249.129
 144  179.7297
 145  181.217
 146  182.4446
 147  190.0478
 148  202.6622
 149  196.2755
 150  226.9831
 151  35.45876
 152  121.9603
 153  139.5913
 154  262.6847
 155  265.0456
 156  263.9043
 157  132.137
 158  140.7281
 159  234.8826
 160  291.0691
 161  182.6618
 162  142.5036
 163  282.9892
 164  297.1876
 165  229.045
 166  208.3923
 167  150.8696
 168  163.8934
 169  181.7373
 170  292.7717
 171  254.7755
 172  281.8535
 173  366.4444
 174  328.8063
 175  268.9054
 176  202.3301
 177  290.3997
 178  202.0793
 179  313.6825
 180  342.2478
 181  368.1227
 182  394.4588
 183  255.2951
 184  140.2311
 185  127.011
 186  147.0062
 187  208.9492
 188  186.3147
 189  180.0853
 190  139.3542
 191  307.5541
 192  370.9684
 193  256.6481
 194  331.0305
 195  282.5429
 196  231.5836
 197  297.3589
 198  358.511
 199  240.7647
 200  306.3932
 201  348.6251
 202  279.6599
 203  191.2577
 204  186.6704
 205  203.7365
 206  251.7032
 207  238.7483
 208  243.7378
 209  334.9429
 210  214.1847
 211  190.4234
 212  255.1474
 213  296.6377
 214  321.3881
 215  242.9205
 216  175.5415
 217  179.9855
 218  282.6826
 219  183.3561
 220  313.1814
 221  455.6159
 222  273.0963
 223  209.9663
 224  326.6313
 225  242.9839
 226  275.5216
 227  335.5335
 228  330.4928
 229  283.226
 230  138.0426
 231  212.9616
 232  209.7287
 233  171.8706
 234  182.7332
 235  171.0698
 236  337.6609
 237  460.5332
 238  419.2702
 239  327.6223
 240  387.6594
 241  385.724
 242  299.5075
 243  247.0276
 244  135.4507
 245  216.0161
 246  269.4702
 247  190.3823
 248  205.6695
 249  218.4861
 250  327.1357
 251  340.282
 252  380.148
 253  291.1859
 254  273.119
 255  279.9629
 256  286.5263
 257  175.236
 258  207.0033
 259  144.1251
 260  236.1203
 261  314.1496
 262  251.5885
 263  126.0989
 264  136.4079
 265  60.36531
 266  69.34616
 267  103.5761
 268  244.9662
 269  230.6778
 270  143.7428
 271  222.4366
 272  222.8651
 273  127.2682
 274  52.50265
 275  -6.866182
 276  163.7576
 277  165.2146
 278  106.2789
 279  151.0138
 280  294.5419
 281  327.8212
 282  182.4187
 283  151.2135
 284  239.2251
 285  228.5199
 286  192.9079
 287  301.1102
 288  343.9648
 289  304.9818
 290  230.3665
 291  140.9857
 292  307.6375
 293  259.0174
 294  179.6466
 295  298.6938
 296  221.9616
 297  235.0463
 298  201.59
 299  191.3366
 300  182.9133
 301  227.5066
 302  202.6271
 303  189.3934
 304  177.8135
 305  137.5606
 306  176.3475
 307  243.998
 308  253.4818
 309  192.4167
 310  140.0437
 311  236.2435
 312  170.4395
 313  132.4229
 314  144.3757
 315  261.5065
 316  361.1475
 317  286.7188
 318  214.5091
 319  197.5906
 320  110.8183
 321  35.10249
 322  227.3329
 323  333.4767
 324  269.3995
 325  252.1591
 326  175.2658
 327  145.0888
 328  321.2924
 329  334.9952
 330  239.5653
 331  222.9295
 332  287.836
 333  326.0406
 334  306.4624
 335  293.3923
 336  454.4664
 337  480.6324
 338  403.9349
 339  221.6112
 340  196.1326
 341  215.2762
 342  249.7451
 343  313.4871
 344  236.7573
 345  308.7671
 346  264.1479
 347  206.662
 348  282.5815
 349  282.6165
 350  256.782
 351  274.2686
 352  399.2319
 353  374.1295
 354  182.2763
 355  194.0862
 356  264.3739
 357  273.197
 358  270.6538
 359  292.0444
 360  241.8551
 361  221.1773
 362  250.6599
 363  175.4833
 364  180.9697
 365  223.5271
 366  301.4691
 367  357.1074
 368  403.9514
 369  307.6666
 370  256.299
 371  275.3457
 372  292.0022
 373  257.3759
 374  231.7865
 375  261.8828
 376  280.5906
 377  241.0523
 378  204.2297
 379  289.9087
 380  274.3715
 381  205.0398
 382  227.514
 383  167.0127
 384  235.1386
 385  277.8416
 386  244.4497
 387  289.6252
 388  421.9013
 389  446.2245
 390  302.4379
 391  196.6802
 392  258.7194
 393  383.3322
 394  321.3535
 395  206.7595
 396  117.1668
 397  304.4969
 398  282.2959
 399  125.9398
 400  153.3769
 401  304.3713
 402  384.3998
 403  392.2296
 404  305.7962
 405  350.2122
 406  272.6784
 407  195.7673
 408  239.4064
 409  331.8853
 410  394.2394
 411  424.3178
 412  234.3553
 413  248.7823
 414  242.1706
 415  262.4431
 416  318.0635
 417  321.7067
 418  285.1656
 419  330.7729
 420  243.0752
 421  186.7679
 422  184.3615
 423  185.8833
 424  182.7545
 425  320.2835
 426  379.262
 427  324.1038
 428  259.348
 429  174.4442
 430  317.1224
 431  311.0512
 432  352.0303
 433  291.2097
 434  248.0536
 435  335.9883
 436  382.3382
 437  210.4887
 438  249.1331
 439  280.1628
 440  278.7988
 441  203.7057
 442  139.7908
 443  185.175
 444  202.1924
 445  157.1567
 446  186.737
 447  127.5607
 448  226.9406
 449  275.4583
 450  234.1025
 451  282.0359
 452  207.0303
 453  216.3398
 454  103.3078
 455  145.2445
 456  224.8036
 457  347.1669
 458  369.8725
 459  241.4749
 460  194.5287
 461  192.2872
 462  185.5622
 463  197.7344
 464  275.4383
 465  220.0017
 466  232.8107
 467  320.7625
 468  151.0502
 469  195.8698
 470  298.1234
 471  316.1101
 472  392.9073
 473  307.0354
 474  214.3733
 475  134.0894
 476  205.8503
 477  262.7917
 478  307.9948
 479  319.9985
 480  284.9809
 481  183.0023
 482  201.869
 483  290.1485
 484  249.56
 485  209.6245
 486  226.9629
 487  216.9924
 488  193.6564
 489  299.9699
 490  121.4456
 491  133.7365
 492  307.1193
 493  307.5091
 494  346.925
 495  218.5915
 496  290.0714
 497  264.4825
 498  187.5092
 499  217.7821
 500  257.4562
 501  367.0899
 502  268.4875
 503  176.8424
 504  311.0592
 505  325.1572
 506  395.8696
 507  492.8902
 508  552.5698
 509  620.3694
 510  808.4941
 511  889.2045
