# Input file       =  1193104069.1423_cleaned.dat
# Candidate        =  PSR_0332+5434
# Telescope        =  AR
# Epoch_topo       =  58053.075094239583
# Epoch_bary       =  N/A
# T_sample         =  0.002
# Data Folded      =  7340032
# Data Avg         =  0.0148023929110995
# Data StdDev      =  1.00011183593727 
# Profile Bins     =  512
# Profile Avg      =  212.228655704581 
# Profile StdDev   =  119.746426833111 
# Reduced chi-sqr  =  1.264
# Prob(Noise)      <  4.6e-05   (~3.9 sigma)
# P_topo (ms)      =  714.49164227471   +/- 0.000154
# P'_topo (s/s)    =  -0                +/- 8.12e-11
# P''_topo (s/s^2) =  0                 +/- 3.59e-14
# P_bary (ms)      =  N/A
# P'_bary (s/s)    =  N/A
# P''_bary (s/s^2) =  N/A
# P_orb (s)        =  N/A
# asin(i)/c (s)    =  N/A
# eccentricity     =  N/A
# w (rad)          =  N/A
# T_peri           =  N/A
######################################################
   0  805.7529
   1  781.1476
   2  602.5441
   3  276.7652
   4  270.2192
   5  269.7213
   6  270.9884
   7  193.4661
   8  35.70869
   9  193.7982
  10  345.8456
  11  290.747
  12  364.4211
  13  219.0808
  14  199.3848
  15  254.5369
  16  326.0833
  17  364.2981
  18  219.3566
  19  269.017
  20  212.7741
  21  237.5288
  22  72.2336
  23  149.9725
  24  206.7521
  25  234.4309
  26  196.9576
  27  86.61021
  28  50.1122
  29  241.6074
  30  344.6538
  31  458.837
  32  291.1108
  33  52.38871
  34  196.8239
  35  234.0871
  36  252.4645
  37  341.7377
  38  182.7102
  39  240.5008
  40  271.4243
  41  144.2658
  42  215.6653
  43  233.6754
  44  141.1937
  45  73.38789
  46  148.7327
  47  241.2358
  48  178.2838
  49  146.7734
  50  304.1347
  51  234.4993
  52  257.7638
  53  186.3947
  54  256.0119
  55  377.0684
  56  390.2527
  57  207.6747
  58  210.7434
  59  239.6561
  60  238.8844
  61  242.8355
  62  316.8333
  63  244.2593
  64  105.4223
  65  99.70496
  66  171.8976
  67  209.0143
  68  156.3195
  69  333.6555
  70  188.8749
  71  122.6557
  72  260.5508
  73  140.1712
  74  141.7889
  75  158.649
  76  97.18914
  77  148.995
  78  181.8555
  79  230.4891
  80  240.9144
  81  363.1879
  82  253.2883
  83  220.0032
  84  79.22414
  85  210.4594
  86  114.0115
  87  -31.19829
  88  74.01189
  89  129.2491
  90  227.783
  91  213.3768
  92  137.9794
  93  143.9768
  94  192.6129
  95  241.7234
  96  204.1653
  97  142.2262
  98  184.0078
  99  265.8245
 100  260.8195
 101  128.3818
 102  0.001465696
 103  16.78467
 104  256.7408
 105  266.3777
 106  272.1058
 107  199.4158
 108  145.3854
 109  267.6281
 110  277.1787
 111  260.0739
 112  166.7552
 113  337.3047
 114  224.4577
 115  223.3174
 116  175.7502
 117  184.0692
 118  245.6339
 119  311.6425
 120  180.9267
 121  37.91286
 122  109.8076
 123  26.58819
 124  182.634
 125  174.0418
 126  269.2142
 127  222.1029
 128  247.0034
 129  286.0772
 130  168.1766
 131  292.2308
 132  332.8126
 133  279.9228
 134  234.2166
 135  202.2783
 136  144.6819
 137  72.8588
 138  115.8118
 139  151.4453
 140  211.7805
 141  205.8007
 142  158.4007
 143  176.2274
 144  161.3539
 145  -10.38609
 146  82.88049
 147  184.5842
 148  183.0206
 149  189.3196
 150  270.0362
 151  135.2344
 152  130.0335
 153  215.3973
 154  300.7062
 155  262.9318
 156  146.5748
 157  187.2088
 158  113.5007
 159  58.86646
 160  170.0478
 161  101.5278
 162  128.2163
 163  302.9391
 164  215.3171
 165  120.7271
 166  231.7684
 167  162.6505
 168  221.0954
 169  200.5999
 170  311.9726
 171  210.91
 172  77.11794
 173  168.9544
 174  289.4137
 175  258.9916
 176  244.0481
 177  187.0515
 178  90.97829
 179  211.7365
 180  312.416
 181  209.407
 182  243.2255
 183  127.8188
 184  163.0393
 185  210.5036
 186  204.0804
 187  236.7506
 188  216.7971
 189  175.5668
 190  15.94025
 191  93.17163
 192  177.8636
 193  209.2395
 194  158.1762
 195  50.01003
 196  119.9352
 197  189.5374
 198  224.1595
 199  110.4776
 200  105.692
 201  89.36815
 202  220.0576
 203  172.3824
 204  208.0935
 205  178.6763
 206  126.9527
 207  29.07252
 208  14.43089
 209  75.29861
 210  28.64678
 211  88.03553
 212  129.4767
 213  287.7905
 214  298.3381
 215  157.6874
 216  134.6309
 217  49.94046
 218  16.16533
 219  -53.63256
 220  75.82744
 221  144.2746
 222  164.6146
 223  168.8006
 224  83.86928
 225  163.3365
 226  318.3333
 227  335.9699
 228  288.3348
 229  253.8898
 230  221.1519
 231  290.295
 232  451.7971
 233  338.8905
 234  185.6824
 235  123.6216
 236  155.6906
 237  163.2749
 238  107.5688
 239  294.8421
 240  218.3334
 241  161.0651
 242  143.7242
 243  307.1446
 244  354.9637
 245  218.3558
 246  241.1595
 247  196.8104
 248  310.4574
 249  303.0424
 250  293.0453
 251  239.2945
 252  169.233
 253  227.8822
 254  326.8851
 255  191.4651
 256  151.6164
 257  192.0747
 258  210.0691
 259  252.0672
 260  348.7815
 261  281.3157
 262  271.1813
 263  380.1789
 264  299.9449
 265  213.7401
 266  201.397
 267  135.9541
 268  105.836
 269  96.20824
 270  287.1031
 271  289.5397
 272  145.3703
 273  1.829103
 274  72.31023
 275  172.6335
 276  172.512
 277  309.623
 278  290.1648
 279  278.0815
 280  124.6058
 281  61.07272
 282  118.7345
 283  198.5941
 284  104.5829
 285  116.0621
 286  140.507
 287  253.9447
 288  210.3857
 289  188.0864
 290  230.7166
 291  221.6688
 292  201.2343
 293  239.1765
 294  276.6352
 295  210.0737
 296  244.4101
 297  161.5001
 298  277.6779
 299  302.8876
 300  296.6006
 301  395.0232
 302  220.9924
 303  191.2118
 304  189.0157
 305  197.9897
 306  213.7702
 307  234.4029
 308  322.4774
 309  211.1903
 310  299.8114
 311  264.5995
 312  160.084
 313  180.4355
 314  258.7659
 315  176.7407
 316  54.893
 317  197.3374
 318  284.7865
 319  279.8814
 320  461.978
 321  364.479
 322  256.9644
 323  226.0889
 324  100.8426
 325  236.381
 326  298.17
 327  300.867
 328  202.6207
 329  160.374
 330  133.1975
 331  83.91446
 332  207.5526
 333  244.0933
 334  166.5847
 335  109.9806
 336  64.11341
 337  188.3652
 338  99.91629
 339  187.3361
 340  266.0078
 341  219.6328
 342  185.2159
 343  298.5976
 344  433.1112
 345  278.8126
 346  158.1032
 347  240.2454
 348  252.0784
 349  178.6162
 350  97.2227
 351  212.0906
 352  195.7728
 353  98.38255
 354  150.9457
 355  228.9677
 356  298.2174
 357  269.0815
 358  176.1929
 359  263.8172
 360  184.1813
 361  211.5474
 362  243.4956
 363  294.5352
 364  238.2899
 365  68.35455
 366  150.1082
 367  171.0651
 368  253.1183
 369  198.8929
 370  263.2928
 371  293.406
 372  151.7383
 373  63.60607
 374  180.7991
 375  193.4794
 376  273.2756
 377  288.5392
 378  27.71278
 379  139.1155
 380  206.8395
 381  204.8047
 382  146.2672
 383  232.6578
 384  171.888
 385  196.2877
 386  256.6646
 387  263.7569
 388  118.7328
 389  226.2099
 390  219.4626
 391  86.86578
 392  117.4688
 393  225.4152
 394  312.9032
 395  154.1819
 396  87.09679
 397  130.8532
 398  150.1202
 399  221.8958
 400  151.8575
 401  170.9102
 402  290.5722
 403  320.2835
 404  258.7692
 405  295.9497
 406  220.978
 407  249.9543
 408  273.5117
 409  167.2751
 410  182.4738
 411  101.7337
 412  134.3317
 413  120.7763
 414  233.7409
 415  242.0063
 416  159.6474
 417  176.1412
 418  279.9494
 419  222.5237
 420  157.1711
 421  158.8652
 422  166.837
 423  122.0415
 424  189.6574
 425  310.1461
 426  208.2222
 427  138.1354
 428  196.6824
 429  282.6669
 430  278.7227
 431  232.2359
 432  218.2721
 433  305.0861
 434  182.2805
 435  145.7551
 436  132.2182
 437  249.4783
 438  240.6098
 439  225.4163
 440  198.0754
 441  152.0424
 442  211.8149
 443  156.124
 444  220.8634
 445  88.03654
 446  174.1171
 447  249.5108
 448  232.8689
 449  277.5039
 450  285.6587
 451  218.1432
 452  225.0578
 453  340.0602
 454  257.4024
 455  106.7481
 456  228.3959
 457  256.5445
 458  284.8628
 459  231.7079
 460  287.703
 461  247.3281
 462  212.8863
 463  193.7478
 464  254.8833
 465  243.7062
 466  260.3331
 467  358.0879
 468  257.8737
 469  158.908
 470  233.8783
 471  286.0267
 472  201.8783
 473  272.2231
 474  299.4536
 475  137.8054
 476  171.442
 477  264.6413
 478  255.6383
 479  186.776
 480  276.0561
 481  257.1783
 482  209.5364
 483  266.7855
 484  349.5131
 485  256.2458
 486  225.3841
 487  290.0523
 488  235.5931
 489  191.3177
 490  154.1829
 491  231.1816
 492  307.3226
 493  339.2326
 494  238.6705
 495  194.1099
 496  181.6721
 497  95.73255
 498  181.0814
 499  139.9582
 500  92.93925
 501  245.8811
 502  278.6164
 503  326.6189
 504  286.2989
 505  320.2558
 506  337.8866
 507  251.226
 508  395.5958
 509  598.938
 510  739.1658
 511  755.1006
