# Input file       =  1193002974.143132-PSRB0329-2ms-sampling-dd.dat
# Candidate        =  PSR_0332+5434
# Telescope        =  AR
# Epoch_topo       =  58051.905013230695
# Epoch_bary       =  N/A
# T_sample         =  0.002
# Data Folded      =  7340032
# Data Avg         =  -4.83550729918118e-10
# Data StdDev      =  3.97823602033485 
# Profile Bins     =  512
# Profile Avg      =  0.380474987409278
# Profile StdDev   =  476.326278138113 
# Reduced chi-sqr  =  0.788
# Prob(Noise)      <  1   (~0.0 sigma)
# P_topo (ms)      =  714.490293186375  +/- 0.00067
# P'_topo (s/s)    =  -0                +/- 3.53e-10
# P''_topo (s/s^2) =  0                 +/- 1.56e-13
# P_bary (ms)      =  N/A
# P'_bary (s/s)    =  N/A
# P''_bary (s/s^2) =  N/A
# P_orb (s)        =  N/A
# asin(i)/c (s)    =  N/A
# eccentricity     =  N/A
# w (rad)          =  N/A
# T_peri           =  N/A
######################################################
   0  -723.8318
   1  -468.0949
   2  -454.087
   3  -102.0117
   4  -278.6852
   5  -136.4935
   6  14.45576
   7  -50.35061
   8  -233.6188
   9  -312.1342
  10  -457.4577
  11  -249.2626
  12  102.4867
  13  -7.01736
  14  -30.67147
  15  -11.18218
  16  -37.07626
  17  29.76334
  18  52.97369
  19  -34.77437
  20  119.43
  21  312.1362
  22  310.6952
  23  -19.49627
  24  -334.1776
  25  80.66381
  26  80.07014
  27  345.9561
  28  285.0631
  29  128.2415
  30  79.02515
  31  179.1353
  32  -53.25187
  33  -70.65984
  34  54.82126
  35  377.7458
  36  452.4826
  37  469.4984
  38  368.0561
  39  256.831
  40  475.1408
  41  401.3015
  42  478.7311
  43  238.1492
  44  365.6901
  45  600.0303
  46  338.6422
  47  568.1764
  48  453.8101
  49  593.6841
  50  597.7486
  51  478.3363
  52  243.1776
  53  290.7105
  54  243.51
  55  567.0724
  56  556.0729
  57  419.084
  58  96.79375
  59  -105.4952
  60  106.178
  61  -22.4682
  62  80.51302
  63  292.3045
  64  265.9862
  65  107.126
  66  29.1478
  67  116.1434
  68  252.8093
  69  -7.3531
  70  -340.8373
  71  -347.6614
  72  -259.1239
  73  -301.3192
  74  -227.8313
  75  -215.1665
  76  -272.8548
  77  -329.6368
  78  -380.2744
  79  -404.8568
  80  -5.891095
  81  -8.659114
  82  107.8177
  83  218.5351
  84  8.502815
  85  -31.90476
  86  -304.574
  87  -299.6458
  88  65.07574
  89  311.9633
  90  50.55543
  91  174.6724
  92  171.6716
  93  -371.0962
  94  -368.7397
  95  -288.6519
  96  -36.71066
  97  -314.6797
  98  -217.0697
  99  -304.4256
 100  -351.0307
 101  -171.4463
 102  93.70946
 103  235.9532
 104  286.589
 105  -77.11851
 106  -226.0328
 107  -368.5772
 108  -335.419
 109  19.39717
 110  254.8285
 111  -27.95561
 112  -77.16597
 113  -204.9347
 114  -385.1118
 115  -519.9001
 116  -369.8265
 117  49.18769
 118  179.3837
 119  78.72339
 120  -181.9185
 121  -220.4061
 122  -73.58045
 123  59.15045
 124  279.3916
 125  328.3889
 126  364.8345
 127  506.0878
 128  770.1132
 129  977.9891
 130  1073.908
 131  1165.446
 132  1402.526
 133  1255.414
 134  988.6633
 135  731.1529
 136  569.4166
 137  509.4444
 138  264.5171
 139  -111.3237
 140  -50.85374
 141  341.6542
 142  283.2189
 143  451.4338
 144  541.2475
 145  539.4311
 146  376.472
 147  128.4471
 148  69.76046
 149  63.82502
 150  -51.14201
 151  61.50385
 152  186.4817
 153  199.4514
 154  371.061
 155  -14.48755
 156  60.04655
 157  -87.09641
 158  -155.7375
 159  -153.626
 160  -127.8723
 161  -155.0367
 162  -8.516006
 163  -137.6897
 164  -16.03842
 165  -43.40255
 166  -278.1875
 167  -52.91338
 168  50.09236
 169  -127.1036
 170  -60.70072
 171  -0.8240622
 172  30.65069
 173  274.4045
 174  269.3557
 175  26.37708
 176  166.6792
 177  -220.9694
 178  -125.4492
 179  -0.4772194
 180  -187.9582
 181  58.52172
 182  194.8627
 183  272.2168
 184  201.6325
 185  122.2
 186  179.7977
 187  306.8493
 188  210.5598
 189  209.0856
 190  219.6656
 191  421.9094
 192  613.4257
 193  526.4172
 194  319.8858
 195  349.9629
 196  250.8052
 197  446.5891
 198  458.1287
 199  271.3573
 200  19.88328
 201  -16.6178
 202  -102.804
 203  -259.476
 204  -141.065
 205  68.17511
 206  244.2425
 207  342.2735
 208  62.05504
 209  118.7784
 210  177.7342
 211  115.3166
 212  9.155728
 213  422.8787
 214  677.5526
 215  441.2118
 216  107.5127
 217  156.5243
 218  303.2047
 219  527.9937
 220  771.8372
 221  558.7758
 222  397.4938
 223  525.4287
 224  230.7295
 225  87.38918
 226  42.46064
 227  44.16274
 228  37.14164
 229  216.7773
 230  311.5299
 231  355.7829
 232  288.5454
 233  483.7784
 234  202.2688
 235  289.0518
 236  388.6782
 237  417.6176
 238  443.626
 239  464.6994
 240  133.1465
 241  209.8406
 242  -18.12646
 243  20.79394
 244  -103.8244
 245  -225.1396
 246  -29.03849
 247  -176.5018
 248  8.023412
 249  -18.1664
 250  -39.52703
 251  5.420344
 252  -124.516
 253  39.81517
 254  107.6718
 255  450.3219
 256  196.5613
 257  212.7182
 258  232.9148
 259  108.949
 260  283.3689
 261  375.5008
 262  560.6916
 263  426.8505
 264  304.2975
 265  234.5112
 266  135.8824
 267  270.4166
 268  235.6618
 269  1.146838
 270  219.0425
 271  266.3079
 272  52.5825
 273  -81.85534
 274  -21.88182
 275  -282.4489
 276  -414.5392
 277  -253.7005
 278  -222.7231
 279  -505.5105
 280  -311.3621
 281  -21.92853
 282  194.5389
 283  -30.54549
 284  -196.0751
 285  -305.0468
 286  -569.0594
 287  -720.8359
 288  -389.774
 289  -301.4255
 290  -299.191
 291  -507.4669
 292  -320.8549
 293  -153.2055
 294  -237.2393
 295  -337.2352
 296  -132.0654
 297  -184.8193
 298  -197.8777
 299  -500.4978
 300  -512.7003
 301  -506.0415
 302  -505.2919
 303  -106.1199
 304  89.81104
 305  -197.9973
 306  -294.2372
 307  -243.9234
 308  -71.99363
 309  202.6662
 310  -97.92368
 311  -2.611349
 312  -87.44042
 313  -274.4915
 314  -203.6019
 315  -293.0276
 316  -247.3551
 317  -217.4069
 318  -169.7292
 319  -252.1023
 320  -37.31914
 321  -335.0324
 322  -391.0959
 323  -293.0442
 324  14.19785
 325  -220.8395
 326  -207.0799
 327  11.20023
 328  93.68428
 329  -182.7327
 330  -211.0937
 331  -87.03134
 332  -313.815
 333  -334.0637
 334  -262.4136
 335  -165.1688
 336  -525.9843
 337  -389.0023
 338  -266.4946
 339  -143.4002
 340  -261.8209
 341  43.85321
 342  120.6878
 343  26.68322
 344  -132.0215
 345  -143.0234
 346  -83.90189
 347  -33.23238
 348  -107.8764
 349  302.2669
 350  60.40844
 351  -49.38562
 352  -30.30087
 353  -248.4467
 354  -213.3933
 355  172.1311
 356  381.5844
 357  -61.78344
 358  -447.6812
 359  -45.59
 360  -257.0246
 361  -173.7216
 362  82.96567
 363  356.4911
 364  392.6548
 365  280.1217
 366  -176.2271
 367  -211.8591
 368  346.4095
 369  287.4556
 370  -150.2807
 371  44.31869
 372  -48.00661
 373  -431.8471
 374  -634.269
 375  -393.4872
 376  -63.05155
 377  -201.676
 378  -174.2523
 379  -197.8837
 380  -38.15567
 381  -121.2021
 382  -258.6803
 383  77.67058
 384  2.305754
 385  130.7348
 386  240.0746
 387  195.4337
 388  -12.53482
 389  102.4817
 390  353.5188
 391  107.6773
 392  -175.345
 393  -104.9093
 394  -75.04105
 395  48.94033
 396  82.10157
 397  8.613201
 398  252.5008
 399  248.8517
 400  -218.8079
 401  -115.7205
 402  -192.2802
 403  -147.7562
 404  -99.58218
 405  20.15218
 406  -76.37408
 407  -63.39718
 408  -35.60091
 409  -1.732707
 410  148.0672
 411  21.16041
 412  -318.3889
 413  -498.4259
 414  -300.1893
 415  -445.31
 416  -176.5923
 417  -184.0683
 418  -418.6635
 419  -251.3136
 420  -291.7372
 421  -205.2822
 422  -284.5418
 423  -537.1519
 424  -525.7252
 425  -539.1264
 426  -252.5916
 427  -180.5633
 428  -116.7989
 429  -317.9474
 430  -500.9377
 431  -502.2703
 432  -372.4871
 433  -321.4581
 434  -143.3401
 435  -196.5056
 436  -546.2797
 437  -512.9335
 438  -608.4097
 439  -498.1573
 440  -340.973
 441  -323.8928
 442  -309.1552
 443  -468.334
 444  -521.4474
 445  -195.0335
 446  -216.1753
 447  -508.8079
 448  -551.2003
 449  -512.3344
 450  -196.6557
 451  -198.4616
 452  -149.6724
 453  -294.4096
 454  -55.84824
 455  148.0799
 456  179.4076
 457  80.5288
 458  7.48896
 459  18.7615
 460  37.7144
 461  380.8828
 462  291.4341
 463  257.6074
 464  134.3258
 465  -94.26064
 466  132.6625
 467  242.0879
 468  158.2939
 469  76.73714
 470  -44.72533
 471  -140.8242
 472  -51.96796
 473  10.2082
 474  -224.5696
 475  -177.3695
 476  -191.5053
 477  -39.81105
 478  -72.00401
 479  -169.2655
 480  -260.6494
 481  -239.1372
 482  151.5545
 483  75.9605
 484  19.74165
 485  133.1642
 486  -180.8418
 487  -120.7293
 488  -178.0609
 489  41.76866
 490  -131.5821
 491  83.20087
 492  97.14347
 493  -208.3398
 494  -73.30611
 495  -7.412888
 496  -69.18838
 497  -138.1814
 498  -405.4633
 499  -36.93108
 500  151.8206
 501  161.9577
 502  44.9419
 503  -156.7372
 504  -126.6806
 505  30.71317
 506  -542.1873
 507  -577.5322
 508  -60.93499
 509  -585.4609
 510  -556.1575
 511  -523.3387
