# Input file       =  1193175289.14436_cleaned.dat
# Candidate        =  PSR_0332+5434
# Telescope        =  AR
# Epoch_topo       =  58053.899399818984
# Epoch_bary       =  N/A
# T_sample         =  0.002
# Data Folded      =  7340032
# Data Avg         =  0.015931525201736
# Data StdDev      =  0.999750757529713
# Profile Bins     =  512
# Profile Avg      =  228.387785106566 
# Profile StdDev   =  119.703193819005 
# Reduced chi-sqr  =  1.276
# Prob(Noise)      <  2.19e-05   (~4.1 sigma)
# P_topo (ms)      =  714.492031002828  +/- 0.000339
# P'_topo (s/s)    =  -0                +/- 1.79e-10
# P''_topo (s/s^2) =  0                 +/- 7.9e-14
# P_bary (ms)      =  N/A
# P'_bary (s/s)    =  N/A
# P''_bary (s/s^2) =  N/A
# P_orb (s)        =  N/A
# asin(i)/c (s)    =  N/A
# eccentricity     =  N/A
# w (rad)          =  N/A
# T_peri           =  N/A
######################################################
   0  785.757
   1  853.9214
   2  686.434
   3  550.001
   4  384.6523
   5  288.7405
   6  300.5524
   7  260.2691
   8  253.0088
   9  197.8528
  10  174.8025
  11  216.165
  12  130.6411
  13  156.7829
  14  267.0399
  15  277.7939
  16  255.1391
  17  289.9632
  18  268.2044
  19  213.7581
  20  144.6207
  21  197.6511
  22  243.5806
  23  59.90936
  24  147.5657
  25  259.61
  26  182.2034
  27  172.9577
  28  59.39827
  29  3.734247
  30  118.0833
  31  228.5732
  32  225.1367
  33  236.2088
  34  303.1479
  35  388.4274
  36  239.1977
  37  217.231
  38  356.8191
  39  163.0644
  40  188.9651
  41  168.9998
  42  309.2235
  43  402.209
  44  146.4111
  45  129.9308
  46  129.4451
  47  216.1756
  48  232.5465
  49  92.76461
  50  318.1521
  51  235.7109
  52  186.8398
  53  211.3667
  54  265.8199
  55  197.6221
  56  184.3456
  57  269.8141
  58  308.3915
  59  267.6054
  60  352.3407
  61  327.1849
  62  286.8632
  63  410.1639
  64  311.8483
  65  186.4639
  66  257.8382
  67  313.1508
  68  227.3561
  69  199.0472
  70  214.3321
  71  257.9796
  72  274.9692
  73  263.2676
  74  209.0293
  75  122.9396
  76  208.2497
  77  192.2556
  78  147.6885
  79  126.5987
  80  100.0343
  81  148.594
  82  110.3695
  83  145.4268
  84  92.94431
  85  168.6439
  86  294.7307
  87  348.661
  88  223.2447
  89  191.1148
  90  301.3735
  91  281.7783
  92  283.4219
  93  263.1271
  94  191.8449
  95  226.3366
  96  234.5764
  97  229.2913
  98  383.0804
  99  424.1577
 100  196.1778
 101  110.207
 102  167.6354
 103  300.3413
 104  208.3428
 105  106.9834
 106  70.09858
 107  215.0233
 108  270.869
 109  168.0462
 110  45.36986
 111  81.20063
 112  80.81792
 113  127.6042
 114  308.9134
 115  247.2667
 116  245.3542
 117  115.9064
 118  155.4013
 119  324.5311
 120  366.9638
 121  411.002
 122  277.8215
 123  243.2137
 124  206.7462
 125  149.6475
 126  217.4359
 127  213.3284
 128  254.134
 129  317.4655
 130  252.2781
 131  269.2888
 132  241.5702
 133  179.5317
 134  189.0455
 135  186.838
 136  185.5413
 137  299.7477
 138  358.3698
 139  258.7339
 140  271.4879
 141  241.2805
 142  217.7668
 143  162.5656
 144  161.2509
 145  139.2946
 146  322.204
 147  236.2158
 148  139.2121
 149  177.3881
 150  190.4864
 151  236.9357
 152  216.678
 153  230.2268
 154  198.1669
 155  288.7442
 156  197.9756
 157  136.3417
 158  240.6584
 159  305.6046
 160  201.9381
 161  175.2724
 162  243.2816
 163  140.3507
 164  227.9926
 165  315.1569
 166  225.5173
 167  260.1272
 168  313.6013
 169  211.0835
 170  223.8551
 171  306.9667
 172  360.7945
 173  389.8724
 174  134.6085
 175  246.0325
 176  451.1022
 177  471.2509
 178  355.2021
 179  204.3582
 180  262.1448
 181  242.6162
 182  167.1359
 183  197.8902
 184  217.2726
 185  264.7375
 186  270.1525
 187  310.5115
 188  287.1594
 189  189.1276
 190  160.7282
 191  218.685
 192  301.6316
 193  239.9501
 194  215.4966
 195  253.1252
 196  245.0388
 197  269.5507
 198  174.702
 199  329.8628
 200  343.3353
 201  260.0608
 202  309.8744
 203  293.9063
 204  161.8273
 205  189.0609
 206  258.8663
 207  170.6504
 208  200.0332
 209  260.5866
 210  348.6405
 211  262.2964
 212  241.0792
 213  231.5364
 214  339.1754
 215  385.9774
 216  287.1911
 217  219.5526
 218  156.849
 219  168.6855
 220  247.5815
 221  196.5228
 222  248.5135
 223  116.8489
 224  184.6653
 225  129.038
 226  289.2735
 227  199.7796
 228  6.854907
 229  54.85611
 230  195.3085
 231  290.4031
 232  339.2079
 233  182.2237
 234  48.26889
 235  204.4456
 236  174.9325
 237  186.5394
 238  171.9301
 239  202.8185
 240  205.7627
 241  118.4244
 242  147.3786
 243  144.7357
 244  304.0086
 245  282.0466
 246  258.063
 247  156.1186
 248  73.25175
 249  119.4452
 250  68.06262
 251  110.5283
 252  319.7036
 253  326.8647
 254  260.4403
 255  241.2495
 256  224.1747
 257  267.4938
 258  227.038
 259  186.7865
 260  339.6618
 261  230.4256
 262  198.4111
 263  233.4789
 264  234.3173
 265  249.7251
 266  319.0119
 267  163.723
 268  86.18266
 269  242.0358
 270  387.229
 271  166.747
 272  85.51926
 273  209.9626
 274  242.2213
 275  255.2815
 276  259.3376
 277  212.5465
 278  140.4165
 279  125.7489
 280  228.7237
 281  209.2291
 282  109.1243
 283  167.3112
 284  184.4187
 285  100.1253
 286  81.43364
 287  174.4628
 288  284.6359
 289  270.819
 290  186.7401
 291  174.6721
 292  196.0335
 293  212.6897
 294  243.3723
 295  243.4425
 296  159.0686
 297  56.24775
 298  171.3877
 299  138.8474
 300  36.36162
 301  206.59
 302  146.3058
 303  121.8865
 304  255.2717
 305  343.0125
 306  199.827
 307  164.8036
 308  119.0906
 309  118.0051
 310  191.443
 311  141.5375
 312  180.5818
 313  151.4063
 314  235.957
 315  174.6999
 316  157.5143
 317  213.8984
 318  204.8049
 319  138.0671
 320  174.4731
 321  227.2164
 322  218.4639
 323  220.3361
 324  371.517
 325  501.979
 326  433.7188
 327  214.7156
 328  218.6179
 329  247.0098
 330  297.7734
 331  377.7944
 332  254.4877
 333  323.6297
 334  248.0063
 335  266.2962
 336  293.5482
 337  221.5581
 338  202.2822
 339  271.6151
 340  174.6866
 341  219.3274
 342  145.5463
 343  235.1871
 344  305.3751
 345  291.2054
 346  314.8752
 347  259.3273
 348  152.4324
 349  178.46
 350  184.7962
 351  211.0784
 352  294.2596
 353  181.1533
 354  213.874
 355  279.5666
 356  318.0114
 357  242.6491
 358  197.8511
 359  224.7001
 360  110.1256
 361  184.0798
 362  136.1275
 363  199.0171
 364  174.3126
 365  179.9005
 366  175.597
 367  131.6276
 368  151.3587
 369  227.9786
 370  116.7521
 371  97.25539
 372  171.2654
 373  258.9826
 374  226.1239
 375  190.4469
 376  108.2049
 377  140.5429
 378  58.27362
 379  33.30994
 380  156.5441
 381  258.4799
 382  298.1416
 383  228.9244
 384  125.9979
 385  214.5767
 386  141.4052
 387  135.4046
 388  277.9951
 389  271.9875
 390  375.8836
 391  306.0869
 392  235.6937
 393  302.3993
 394  346.1958
 395  263.263
 396  188.1327
 397  167.4986
 398  167.188
 399  69.32983
 400  147.904
 401  247.8408
 402  232.0958
 403  250.6036
 404  296.3969
 405  234.2431
 406  351.431
 407  232.7608
 408  136.2139
 409  284.0721
 410  167.878
 411  92.75565
 412  29.87723
 413  177.3428
 414  235.2225
 415  127.006
 416  173.3852
 417  269.7244
 418  251.4974
 419  311.6794
 420  349.4102
 421  446.2618
 422  316.1209
 423  240.8891
 424  202.27
 425  247.4264
 426  220.0359
 427  223.6806
 428  151.4006
 429  194.6716
 430  318.9552
 431  256.0002
 432  328.48
 433  190.7503
 434  252.3969
 435  79.59987
 436  242.8784
 437  222.6384
 438  194.5054
 439  152.3677
 440  191.147
 441  285.7962
 442  287.5183
 443  170.3074
 444  109.0936
 445  255.203
 446  258.5234
 447  277.8217
 448  245.375
 449  258.6371
 450  258.6649
 451  330.2565
 452  148.3212
 453  155.7739
 454  152.694
 455  138.4208
 456  164.437
 457  133.7232
 458  178.9558
 459  208.7596
 460  194.9151
 461  115.963
 462  138.4646
 463  190.5741
 464  181.4465
 465  180.0624
 466  207.4801
 467  305.0828
 468  311.2057
 469  261.9118
 470  217.354
 471  269.931
 472  283.6533
 473  222.6842
 474  83.14671
 475  25.00545
 476  60.73944
 477  139.835
 478  187.6788
 479  255.5834
 480  314.2571
 481  261.6534
 482  206.3866
 483  258.9476
 484  193.693
 485  282.4797
 486  325.8001
 487  278.2919
 488  199.9456
 489  203.0148
 490  225.252
 491  269.8923
 492  213.3251
 493  210.6281
 494  245.2579
 495  211.2577
 496  204.5544
 497  256.5579
 498  300.1252
 499  259.6531
 500  175.6239
 501  331.1114
 502  299.3951
 503  266.6966
 504  236.0559
 505  343.2234
 506  262.5539
 507  401.9546
 508  445.0612
 509  450.9271
 510  786.0232
 511  839.2875
