# Input file       =  1193433754.154644_cleaned.dat
# Candidate        =  PSR_0332+5434
# Telescope        =  AR
# Epoch_topo       =  58056.890892993564
# Epoch_bary       =  N/A
# T_sample         =  0.002
# Data Folded      =  7340032
# Data Avg         =  0.0172171680987546
# Data StdDev      =  1.00001481624666 
# Profile Bins     =  512
# Profile Avg      =  246.754748017632 
# Profile StdDev   =  119.734810370966 
# Reduced chi-sqr  =  1.219
# Prob(Noise)      <  0.000488   (~3.3 sigma)
# P_topo (ms)      =  714.4947046846    +/- 0.000372
# P'_topo (s/s)    =  -0                +/- 1.96e-10
# P''_topo (s/s^2) =  0                 +/- 8.67e-14
# P_bary (ms)      =  N/A
# P'_bary (s/s)    =  N/A
# P''_bary (s/s^2) =  N/A
# P_orb (s)        =  N/A
# asin(i)/c (s)    =  N/A
# eccentricity     =  N/A
# w (rad)          =  N/A
# T_peri           =  N/A
######################################################
   0  269.5789
   1  360.351
   2  255.5575
   3  414.3437
   4  416.1432
   5  280.9712
   6  402.6427
   7  354.1899
   8  348.0772
   9  413.9395
  10  514.4203
  11  659.973
  12  799.975
  13  900.2531
  14  826.976
  15  859.7413
  16  628.0796
  17  463.0139
  18  280.0693
  19  287.5193
  20  338.79
  21  182.041
  22  204.8695
  23  283.2114
  24  308.6325
  25  225.4235
  26  301.3237
  27  327.6283
  28  308.0235
  29  295.5781
  30  254.5518
  31  144.7447
  32  202.531
  33  174.6819
  34  192.6886
  35  310.8676
  36  221.2568
  37  124.3513
  38  132.8214
  39  346.9204
  40  325.57
  41  301.4679
  42  195.0321
  43  150.588
  44  175.719
  45  226.6601
  46  229.5791
  47  401.8482
  48  240.9406
  49  57.12407
  50  30.32163
  51  153.2872
  52  283.4576
  53  237.9517
  54  286.1358
  55  313.756
  56  263.6422
  57  262.6452
  58  279.3368
  59  224.5917
  60  370.6407
  61  260.0312
  62  182.6437
  63  125.3305
  64  179.4621
  65  283.736
  66  135.361
  67  247.9828
  68  349.0383
  69  321.8025
  70  247.246
  71  391.782
  72  303.106
  73  156.1291
  74  190.9217
  75  294.1939
  76  401.6318
  77  300.5694
  78  126.6939
  79  258.3907
  80  223.4659
  81  188.4877
  82  338.3251
  83  344.5758
  84  218.5582
  85  212.1718
  86  295.394
  87  210.6557
  88  163.9371
  89  196.4613
  90  194.4203
  91  211.3048
  92  133.6704
  93  73.0586
  94  213.0723
  95  274.5815
  96  127.5821
  97  175.0861
  98  129.9011
  99  158.9081
 100  187.9476
 101  198.4017
 102  253.8682
 103  246.0057
 104  162.9325
 105  211.472
 106  173.5927
 107  193.2079
 108  193.8069
 109  268.2664
 110  349.2567
 111  241.6177
 112  262.8799
 113  324.7058
 114  177.3089
 115  139.8038
 116  195.7645
 117  219.6297
 118  241.0898
 119  201.6377
 120  226.4942
 121  421.6334
 122  204.7391
 123  176.4902
 124  216.6022
 125  160.2154
 126  50.46854
 127  122.7186
 128  368.4929
 129  311.1508
 130  213.8035
 131  142.3404
 132  142.8285
 133  192.8561
 134  197.0015
 135  250.0482
 136  306.5322
 137  296.6053
 138  133.5955
 139  176.511
 140  174.1255
 141  265.0095
 142  308.523
 143  287.9688
 144  170.4507
 145  207.9259
 146  325.3656
 147  327.3667
 148  290.6604
 149  250.696
 150  300.1672
 151  261.6423
 152  271.6114
 153  240.0522
 154  290.409
 155  231.8147
 156  227.3575
 157  240.678
 158  240.4565
 159  214.3535
 160  241.3466
 161  195.8795
 162  179.3875
 163  219.0258
 164  258.7257
 165  247.2088
 166  214.8149
 167  311.2043
 168  376.9328
 169  312.2791
 170  324.3335
 171  297.7962
 172  122.4259
 173  280.3801
 174  138.7907
 175  180.8042
 176  345.3468
 177  372.7498
 178  298.7039
 179  342.0315
 180  290.9608
 181  255.4789
 182  153.3679
 183  255.1472
 184  275.5975
 185  305.4977
 186  272.6464
 187  205.3368
 188  302.2927
 189  242.8991
 190  305.1579
 191  201.5847
 192  192.9386
 193  400.7782
 194  357.1413
 195  274.6161
 196  280.9603
 197  262.5079
 198  232.4096
 199  67.40296
 200  197.9718
 201  264.7127
 202  296.6677
 203  177.6801
 204  215.9223
 205  199.8666
 206  341.8282
 207  332.971
 208  93.93108
 209  69.8668
 210  131.0171
 211  206.6547
 212  242.8469
 213  329.9166
 214  321.4334
 215  294.9731
 216  179.969
 217  188.2572
 218  246.6537
 219  306.8358
 220  204.026
 221  155.7295
 222  199.8668
 223  258.8855
 224  238.2045
 225  186.3969
 226  142.48
 227  135.5562
 228  151.607
 229  121.7862
 230  259.4066
 231  316.7172
 232  233.5405
 233  140.9823
 234  185.1722
 235  61.98634
 236  47.86198
 237  261.8312
 238  240.5282
 239  188.1806
 240  248.1045
 241  225.7505
 242  265.8314
 243  246.4151
 244  124.816
 245  180.3181
 246  187.0064
 247  259.7834
 248  253.9405
 249  231.672
 250  131.0888
 251  139.2966
 252  231.9592
 253  302.6797
 254  384.8465
 255  311.5378
 256  222.4312
 257  259.1764
 258  259.1664
 259  265.7899
 260  255.5965
 261  372.1669
 262  379.7754
 263  201.9325
 264  286.7846
 265  300.8317
 266  125.2559
 267  109.5337
 268  211.7718
 269  242.7928
 270  194.6851
 271  205.954
 272  245.069
 273  187.5088
 274  210.6512
 275  238.3322
 276  287.9891
 277  305.2749
 278  321.1243
 279  256.0561
 280  215.2699
 281  202.2567
 282  281.2708
 283  313.1809
 284  196.7064
 285  75.76272
 286  152.7151
 287  179.6236
 288  288.5661
 289  233.0719
 290  246.5727
 291  123.7638
 292  186.9484
 293  318.8368
 294  212.1259
 295  154.3364
 296  252.6552
 297  293.1432
 298  254.5592
 299  128.202
 300  206.3203
 301  318.2717
 302  217.021
 303  66.32223
 304  203.9807
 305  259.8788
 306  287.4671
 307  252.0324
 308  181.5381
 309  261.8247
 310  166.7371
 311  188.3031
 312  345.4817
 313  286.6356
 314  335.5333
 315  204.5648
 316  199.1015
 317  191.0683
 318  191.4413
 319  286.9546
 320  250.7635
 321  317.4185
 322  254.3091
 323  348.5021
 324  402.8125
 325  380.6176
 326  218.1215
 327  178.7579
 328  208.3991
 329  280.7273
 330  253.647
 331  305.5753
 332  246.1172
 333  262.655
 334  213.0904
 335  238.5912
 336  145.4657
 337  283.9694
 338  267.3853
 339  222.2359
 340  264.0193
 341  202.3062
 342  280.1989
 343  347.1601
 344  264.6934
 345  206.9168
 346  262.0163
 347  172.4981
 348  136.4094
 349  145.3043
 350  139.9299
 351  146.0152
 352  222.3984
 353  206.5888
 354  278.9217
 355  292.513
 356  322.8882
 357  388.2468
 358  153.7635
 359  114.073
 360  102.2223
 361  170.4423
 362  254.2707
 363  305.5559
 364  284.3416
 365  173.0054
 366  347.4611
 367  408.759
 368  195.2413
 369  277.6534
 370  309.4241
 371  280.6161
 372  269.0214
 373  321.6209
 374  233.1127
 375  95.96046
 376  148.3374
 377  178.0335
 378  175.9109
 379  76.11359
 380  103.1381
 381  163.129
 382  193.2236
 383  243.7559
 384  253.8102
 385  152.4075
 386  107.6634
 387  209.5311
 388  178.5385
 389  173.5509
 390  331.799
 391  267.4645
 392  205.2754
 393  313.4899
 394  285.4072
 395  264.1701
 396  233.5331
 397  320.6332
 398  325.9431
 399  165.6813
 400  234.9608
 401  369.729
 402  306.1422
 403  318.6198
 404  289.1174
 405  247.7094
 406  321.1602
 407  325.4661
 408  305.37
 409  168.7259
 410  175.7798
 411  154.1617
 412  298.2202
 413  366.4807
 414  269.0629
 415  294.2341
 416  315.4221
 417  300.8351
 418  232.9388
 419  234.9456
 420  201.9462
 421  147.4262
 422  273.0387
 423  373.9602
 424  232.7835
 425  169.2149
 426  109.7865
 427  304.7948
 428  358.2706
 429  225.428
 430  261.8065
 431  171.9566
 432  120.0978
 433  255.8571
 434  385.8499
 435  177.3608
 436  229.7281
 437  275.8268
 438  312.6513
 439  289.5063
 440  304.6234
 441  274.0434
 442  219.6891
 443  376.7596
 444  268.1317
 445  255.7064
 446  182.5258
 447  156.4574
 448  164.0654
 449  300.2284
 450  284.1478
 451  264.0411
 452  311.6447
 453  320.8535
 454  252.3921
 455  265.0883
 456  193.1795
 457  279.9885
 458  350.1686
 459  259.9288
 460  132.6651
 461  98.46377
 462  228.1618
 463  151.7992
 464  242.9064
 465  144.8744
 466  196.53
 467  202.051
 468  212.6364
 469  212.3468
 470  316.2579
 471  354.6787
 472  297.4859
 473  220.6815
 474  200.2839
 475  232.2891
 476  209.3913
 477  276.4658
 478  154.1127
 479  201.5289
 480  307.2056
 481  261.3279
 482  151.2481
 483  220.1561
 484  324.5048
 485  346.8848
 486  232.8557
 487  298.166
 488  375.2897
 489  234.2041
 490  172.8042
 491  175.9025
 492  163.1903
 493  283.9082
 494  159.7723
 495  98.67271
 496  83.702
 497  142.6667
 498  192.9755
 499  258.9075
 500  199.9687
 501  250.4008
 502  371.4597
 503  384.5894
 504  314.9594
 505  315.2233
 506  280.1939
 507  215.3901
 508  208.0165
 509  278.1448
 510  160.5881
 511  230.2013
