# Input file       =  1193190199.154521_cleaned.dat
# Candidate        =  PSR_0332+5434
# Telescope        =  AR
# Epoch_topo       =  58054.071969381032
# Epoch_bary       =  N/A
# T_sample         =  0.002
# Data Folded      =  7340032
# Data Avg         =  0.0137995405612512
# Data StdDev      =  1.00000720082079 
# Profile Bins     =  512
# Profile Avg      =  197.856449329251 
# Profile StdDev   =  119.733898552903 
# Reduced chi-sqr  =  1.532
# Prob(Noise)      <  9.38e-14   (~7.4 sigma)
# P_topo (ms)      =  714.492516769535  +/- 0.000229
# P'_topo (s/s)    =  -0                +/- 1.21e-10
# P''_topo (s/s^2) =  0                 +/- 5.33e-14
# P_bary (ms)      =  N/A
# P'_bary (s/s)    =  N/A
# P''_bary (s/s^2) =  N/A
# P_orb (s)        =  N/A
# asin(i)/c (s)    =  N/A
# eccentricity     =  N/A
# w (rad)          =  N/A
# T_peri           =  N/A
######################################################
   0  1005.697
   1  872.5681
   2  568.1773
   3  351.3393
   4  280.9319
   5  147.8193
   6  202.3481
   7  197.8795
   8  126.1328
   9  190.5731
  10  212.0842
  11  150.0407
  12  123.1488
  13  193.1057
  14  232.0924
  15  335.4454
  16  333.0035
  17  392.5836
  18  161.7596
  19  142.1332
  20  266.9115
  21  256.8276
  22  189.873
  23  232.8584
  24  269.2026
  25  104.8903
  26  61.34201
  27  131.8309
  28  245.9217
  29  311.6748
  30  261.344
  31  95.68901
  32  178.2535
  33  385.0007
  34  379.9371
  35  126.5976
  36  98.72455
  37  177.3234
  38  210.2473
  39  183.6123
  40  227.4227
  41  324.8521
  42  317.7186
  43  191.3121
  44  184.7402
  45  257.6814
  46  230.0105
  47  165.307
  48  206.7444
  49  259.9237
  50  178.2104
  51  130.823
  52  138.8793
  53  214.1292
  54  143.2209
  55  224.9967
  56  262.5518
  57  264.9739
  58  221.3841
  59  222.6031
  60  299.6045
  61  264.4384
  62  196.5299
  63  197.5103
  64  143.544
  65  252.108
  66  162.828
  67  288.694
  68  367.5558
  69  190.9594
  70  145.869
  71  182.3284
  72  146.1557
  73  224.9159
  74  309.9843
  75  337.4839
  76  300.5748
  77  66.71657
  78  177.8816
  79  342.616
  80  289.4654
  81  214.0849
  82  255.8959
  83  359.1176
  84  262.7149
  85  326.8118
  86  246.54
  87  232.2059
  88  86.01481
  89  121.8818
  90  120.1331
  91  288.1275
  92  270.6524
  93  215.0041
  94  212.1873
  95  213.1551
  96  286.8549
  97  356.091
  98  144.3376
  99  204.1463
 100  317.2749
 101  357.3676
 102  362.144
 103  288.6552
 104  151.1808
 105  124.985
 106  252.8075
 107  154.104
 108  99.97237
 109  158.8882
 110  286.0412
 111  240.7982
 112  148.4354
 113  189.0863
 114  143.3005
 115  80.6354
 116  110.3427
 117  153.2176
 118  169.5293
 119  276.2235
 120  179.7811
 121  331.3659
 122  349.353
 123  230.6205
 124  180.6942
 125  160.0438
 126  203.4594
 127  187.599
 128  191.1946
 129  230.6061
 130  179.2986
 131  141.9192
 132  202.6843
 133  302.2343
 134  373.3004
 135  301.937
 136  171.3078
 137  179.0785
 138  160.935
 139  199.3186
 140  83.22851
 141  48.15359
 142  64.2811
 143  138.714
 144  97.70225
 145  76.57795
 146  228.0289
 147  83.65748
 148  205.7403
 149  192.3831
 150  175.2004
 151  267.1174
 152  276.8793
 153  300.8263
 154  306.1827
 155  224.8605
 156  182.5199
 157  181.0154
 158  241.149
 159  192.7938
 160  113.4885
 161  144.0705
 162  129.007
 163  163.1343
 164  231.5163
 165  178.9442
 166  49.80498
 167  171.9722
 168  400.7004
 169  289.4217
 170  185.8414
 171  201.9214
 172  173.334
 173  87.62693
 174  7.349321
 175  197.8987
 176  213.1641
 177  111.1235
 178  140.8925
 179  127.1776
 180  190.6262
 181  220.0476
 182  192.2745
 183  161.6364
 184  237.027
 185  347.5607
 186  245.6913
 187  167.0419
 188  131.7366
 189  164.522
 190  152.4857
 191  68.67334
 192  129.676
 193  171.8884
 194  51.32828
 195  196.4556
 196  277.27
 197  216.4215
 198  49.60854
 199  188.8514
 200  200.1629
 201  196.1748
 202  154.6946
 203  96.84328
 204  56.23174
 205  27.55858
 206  151.3426
 207  165.0938
 208  43.53823
 209  94.66512
 210  67.6024
 211  102.7841
 212  148.0209
 213  122.4779
 214  235.8328
 215  161.6591
 216  156.109
 217  181.7773
 218  242.5181
 219  261.505
 220  259.5702
 221  163.725
 222  190.7636
 223  192.8465
 224  141.4459
 225  95.55421
 226  140.2565
 227  114.3041
 228  304.565
 229  251.7058
 230  277.7251
 231  287.5638
 232  354.1346
 233  259.4508
 234  149.101
 235  260.156
 236  325.7533
 237  200.2336
 238  248.0359
 239  243.2662
 240  95.79301
 241  121.0653
 242  272.0459
 243  108.5261
 244  48.61278
 245  131.3229
 246  142.8173
 247  268.2537
 248  205.8374
 249  231.5652
 250  290.1235
 251  129.2993
 252  81.75645
 253  210.6951
 254  322.0854
 255  302.4889
 256  254.6081
 257  226.9742
 258  278.0142
 259  269.0684
 260  250.9043
 261  208.3066
 262  122.3924
 263  221.5803
 264  293.3643
 265  270.0973
 266  282.7976
 267  300.3825
 268  315.338
 269  173.4821
 270  183.3201
 271  149.6367
 272  42.29531
 273  159.5697
 274  183.148
 275  216.6918
 276  118.9983
 277  183.5036
 278  202.8785
 279  272.1354
 280  285.7633
 281  283.8278
 282  304.4131
 283  190.6998
 284  143.5626
 285  241.1934
 286  390.265
 287  238.2231
 288  299.347
 289  276.6027
 290  248.1679
 291  197.2677
 292  151.0796
 293  168.0521
 294  215.0531
 295  172.4567
 296  146.6718
 297  300.1776
 298  318.6843
 299  196.5878
 300  81.99549
 301  150.4134
 302  91.92898
 303  126.9532
 304  241.2355
 305  185.4065
 306  109.2201
 307  99.61841
 308  107.6712
 309  161.1698
 310  97.45644
 311  193.0737
 312  254.8427
 313  123.3088
 314  109.1124
 315  86.18962
 316  151.6698
 317  141.3111
 318  153.5143
 319  228.9684
 320  120.6359
 321  107.204
 322  31.95499
 323  44.81616
 324  58.43865
 325  192.7401
 326  376.5878
 327  212.8203
 328  239.972
 329  198.7686
 330  189.1449
 331  263.5112
 332  84.75334
 333  105.908
 334  26.10791
 335  65.6108
 336  155.3126
 337  104.6513
 338  207.2738
 339  149.8915
 340  164.3632
 341  112.3153
 342  239.5971
 343  173.8721
 344  110.1284
 345  53.99908
 346  66.86019
 347  72.23874
 348  110.2533
 349  191.0584
 350  173.2424
 351  161.7749
 352  96.42941
 353  72.25645
 354  237.9982
 355  210.465
 356  331.4229
 357  293.8432
 358  65.28323
 359  56.2333
 360  227.2946
 361  166.4424
 362  88.38143
 363  120.372
 364  125.2595
 365  156.6526
 366  113.2653
 367  169.604
 368  212.0855
 369  268.981
 370  249.4502
 371  245.0024
 372  176.1602
 373  152.3026
 374  230.0723
 375  169.7626
 376  219.0871
 377  63.89214
 378  99.22134
 379  143.4576
 380  121.6478
 381  58.76854
 382  168.0032
 383  233.9239
 384  222.8266
 385  238.4478
 386  226.261
 387  251.1844
 388  233.1274
 389  276.1811
 390  233.6236
 391  112.5196
 392  266.2312
 393  187.8479
 394  117.5946
 395  193.8889
 396  150.8915
 397  5.035643
 398  81.64241
 399  21.44383
 400  -86.41389
 401  -40.74409
 402  96.54279
 403  185.4733
 404  60.89223
 405  53.50367
 406  86.34726
 407  160.7777
 408  205.0893
 409  253.914
 410  249.5421
 411  220.2964
 412  149.4744
 413  188.7571
 414  83.29254
 415  184.0833
 416  227.2298
 417  265.7986
 418  206.6838
 419  111.5087
 420  181.8462
 421  150.7653
 422  179.2071
 423  254.8324
 424  198.1555
 425  251.6064
 426  161.1694
 427  202.0946
 428  263.1494
 429  250.4147
 430  138.1105
 431  58.24706
 432  214.2127
 433  128.6322
 434  76.58874
 435  109.6301
 436  211.7084
 437  225.6976
 438  223.5633
 439  257.3483
 440  206.537
 441  205.8597
 442  130.0577
 443  5.752494
 444  147.8501
 445  54.6332
 446  41.84171
 447  208.3919
 448  -21.7482
 449  101.6347
 450  191.7034
 451  155.8276
 452  190.8166
 453  226.4542
 454  267.2192
 455  82.56679
 456  149.4146
 457  209.4375
 458  160.0757
 459  67.02084
 460  74.59441
 461  167.6583
 462  49.82126
 463  37.50794
 464  111.3707
 465  100.6605
 466  107.2927
 467  89.65723
 468  150.6956
 469  206.7968
 470  125.4214
 471  174.628
 472  266.7727
 473  83.71159
 474  267.1692
 475  390.9371
 476  263.846
 477  263.8822
 478  216.6944
 479  289.5285
 480  266.0743
 481  289.2913
 482  206.8958
 483  267.6814
 484  80.56003
 485  126.5999
 486  204.9127
 487  332.6517
 488  325.987
 489  256.5434
 490  383.0606
 491  321.9997
 492  283.1439
 493  294.0808
 494  203.193
 495  13.0616
 496  -40.69353
 497  215.6708
 498  333.3533
 499  232.8502
 500  143.0583
 501  63.64177
 502  152.1057
 503  418.5861
 504  424.356
 505  339.8331
 506  358.7495
 507  365.9464
 508  578.2874
 509  688.3506
 510  634.8979
 511  833.4149
