# Input file       =  1193160708.139042-PSRB0329-2ms-sampling-dd.dat
# Candidate        =  PSR_0332+5434
# Telescope        =  AR
# Epoch_topo       =  58053.730638183355
# Epoch_bary       =  N/A
# T_sample         =  0.002
# Data Folded      =  7208960
# Data Avg         =  -3.12633624746562e-10
# Data StdDev      =  4.9336670850735  
# Profile Bins     =  512
# Profile Avg      =  -0.0617067341918555
# Profile StdDev   =  585.424869954493 
# Reduced chi-sqr  =  0.938
# Prob(Noise)      <  0.839   (~0.0 sigma)
# P_topo (ms)      =  714.491871734876  +/- 7.5e-05
# P'_topo (s/s)    =  -0                +/- 4.03e-11
# P''_topo (s/s^2) =  0                 +/- 1.81e-14
# P_bary (ms)      =  N/A
# P'_bary (s/s)    =  N/A
# P''_bary (s/s^2) =  N/A
# P_orb (s)        =  N/A
# asin(i)/c (s)    =  N/A
# eccentricity     =  N/A
# w (rad)          =  N/A
# T_peri           =  N/A
######################################################
   0  29.15011
   1  -241.7794
   2  -438.4932
   3  106.9293
   4  346.5471
   5  85.25352
   6  359.1553
   7  224.6849
   8  334.9344
   9  242.2529
  10  139.7741
  11  58.28221
  12  -183.4283
  13  26.23281
  14  223.2297
  15  305.9319
  16  804.4141
  17  848.7386
  18  229.8147
  19  -44.81486
  20  312.5322
  21  421.7731
  22  430.7892
  23  877.9532
  24  808.2994
  25  332.3181
  26  190.2969
  27  292.1701
  28  214.9138
  29  11.25669
  30  56.60331
  31  615.679
  32  703.1241
  33  724.4158
  34  306.3763
  35  389.7387
  36  152.7823
  37  69.83728
  38  363.8246
  39  886.9227
  40  1070.508
  41  630.4312
  42  997.1583
  43  802.4487
  44  786.9641
  45  460.5549
  46  349.6396
  47  627.3218
  48  677.4269
  49  852.4605
  50  744.2866
  51  924.6618
  52  702.028
  53  613.7627
  54  679.9095
  55  444.081
  56  168.4122
  57  452.4756
  58  614.8287
  59  413.1059
  60  435.3601
  61  -201.0955
  62  -148.1806
  63  -144.3846
  64  146.0781
  65  -377.032
  66  -44.39497
  67  156.6256
  68  -337.3528
  69  -291.9148
  70  -276.882
  71  11.55077
  72  98.86478
  73  159.6176
  74  -177.6617
  75  -67.58999
  76  14.27739
  77  -287.6538
  78  -129.669
  79  63.8143
  80  534.8683
  81  -307.777
  82  -224.1838
  83  56.76043
  84  116.5432
  85  79.29973
  86  -218.8526
  87  -166.1341
  88  -361.0911
  89  -244.2963
  90  -11.3008
  91  175.2515
  92  181.3418
  93  228.0343
  94  417.3251
  95  224.0335
  96  64.89068
  97  177.4709
  98  180.7898
  99  303.6312
 100  231.8755
 101  382.5154
 102  289.1661
 103  282.2935
 104  10.73048
 105  441.0811
 106  655.3059
 107  229.4979
 108  479.7076
 109  -69.88629
 110  -344.8844
 111  -468.2514
 112  -344.0615
 113  10.70395
 114  124.3849
 115  400.3757
 116  766.4124
 117  744.1376
 118  378.5609
 119  220.5849
 120  340.0253
 121  974.5995
 122  1413.4
 123  2297.201
 124  2425.789
 125  1817.234
 126  943.3143
 127  -56.86369
 128  -615.6987
 129  -574.4013
 130  -392.2749
 131  37.00045
 132  5.503589
 133  -30.98255
 134  -304.2556
 135  -235.8891
 136  137.1491
 137  42.59382
 138  -10.51366
 139  117.7827
 140  39.79592
 141  -351.3147
 142  -289.7839
 143  -253.7251
 144  -319.9941
 145  -300.4542
 146  84.23679
 147  -1.287331
 148  -19.85662
 149  38.74601
 150  10.79802
 151  71.71001
 152  -60.42936
 153  -132.4746
 154  -342.6446
 155  -200.9742
 156  -47.11053
 157  -156.8692
 158  283.712
 159  143.4294
 160  -80.26704
 161  -189.1829
 162  -54.0712
 163  -480.6373
 164  -270.8062
 165  -290.3239
 166  -348.7205
 167  -246.4746
 168  -515.3412
 169  -586.4085
 170  -612.98
 171  -401.2733
 172  -329.5923
 173  -331.5348
 174  -416.4187
 175  -318.4595
 176  -56.0192
 177  -219.6389
 178  -662.3036
 179  -711.6181
 180  -499.5187
 181  -520.3616
 182  -279.0093
 183  -338.6648
 184  -223.5539
 185  -339.7685
 186  -422.8208
 187  -226.0949
 188  276.1847
 189  342.0341
 190  256.5157
 191  469.9603
 192  142.7067
 193  -341.1575
 194  -248.7285
 195  -11.99166
 196  79.19275
 197  522.7383
 198  494.5746
 199  243.1278
 200  41.7315
 201  189.7582
 202  -123.4725
 203  203.2991
 204  497.531
 205  638.5751
 206  246.7546
 207  115.1425
 208  -110.9757
 209  -293.8543
 210  -170.8162
 211  -185.3304
 212  170.4838
 213  557.0863
 214  218.8972
 215  -19.29919
 216  -74.87732
 217  -188.0858
 218  -245.4277
 219  -200.8742
 220  -92.62827
 221  233.5875
 222  215.3529
 223  220.9451
 224  -24.10976
 225  -88.0452
 226  -188.7256
 227  27.23864
 228  66.28101
 229  -88.02734
 230  -150.6508
 231  -360.1593
 232  -20.68355
 233  290.1813
 234  351.6601
 235  -234.1136
 236  -463.7856
 237  -470.1666
 238  -283.9963
 239  -241.329
 240  -196.261
 241  -1.679232
 242  -2.5508
 243  -238.1041
 244  -33.64968
 245  -415.8581
 246  -391.1027
 247  -141.0468
 248  86.39925
 249  40.05067
 250  178.4902
 251  104.2281
 252  -128.2968
 253  -529.8011
 254  -769.1127
 255  -275.794
 256  55.0705
 257  -12.27006
 258  8.098796
 259  -144.026
 260  -400.8155
 261  -509.8262
 262  -372.8069
 263  -74.77684
 264  44.06939
 265  -71.4337
 266  -368.2277
 267  -657.9103
 268  -505.0456
 269  -419.8795
 270  -188.9866
 271  177.0437
 272  -66.89219
 273  -249.1571
 274  -161.7952
 275  -307.4599
 276  -496.2811
 277  -705.9782
 278  -462.364
 279  -43.84036
 280  95.94566
 281  111.8174
 282  184.8983
 283  -235.0991
 284  -348.6665
 285  -316.0528
 286  -93.86308
 287  237.0707
 288  197.9212
 289  28.58645
 290  65.62152
 291  -141.3491
 292  -476.0055
 293  -672.4131
 294  -552.9964
 295  9.154022
 296  206.3932
 297  96.40166
 298  -45.60275
 299  -505.702
 300  -394.4997
 301  -526.1771
 302  -312.2973
 303  -265.8548
 304  -93.86425
 305  -99.84588
 306  -597.5109
 307  -626.32
 308  -624.0627
 309  -332.1759
 310  -74.83187
 311  -279.5436
 312  -208.8922
 313  -476.5697
 314  -702.1002
 315  -458.4413
 316  40.6018
 317  -17.74272
 318  -352.675
 319  -388.7671
 320  -310.224
 321  -661.2599
 322  -511.4894
 323  -114.3387
 324  1.47933
 325  -390.0391
 326  -432.7087
 327  -312.7979
 328  -438.0552
 329  -285.2375
 330  -501.2058
 331  -23.01385
 332  264.7339
 333  -54.68652
 334  -159.1176
 335  -345.5756
 336  -501.1385
 337  -343.8163
 338  -192.0428
 339  -384.7473
 340  57.48663
 341  -135.1289
 342  -416.6654
 343  -1007.922
 344  -1039.894
 345  -740.7566
 346  -74.19725
 347  -136.8603
 348  -345.1663
 349  -363.8501
 350  -704.6709
 351  -780.0249
 352  -849.8702
 353  -385.1738
 354  -479.5588
 355  -235.7647
 356  15.17585
 357  -374.5161
 358  -837.4452
 359  -857.2354
 360  -382.3871
 361  173.0168
 362  635.3886
 363  619.7457
 364  302.9102
 365  -164.6269
 366  -475.1183
 367  -208.6491
 368  -248.5819
 369  91.71168
 370  565.7625
 371  460.923
 372  48.58258
 373  -177.0612
 374  -385.2794
 375  -985.4667
 376  -782.4239
 377  173.7296
 378  512.2526
 379  176.4926
 380  -166.4392
 381  76.96225
 382  -23.12472
 383  -100.2383
 384  15.26225
 385  215.9174
 386  -33.16931
 387  240.8033
 388  107.0299
 389  45.58078
 390  -327.8935
 391  -193.215
 392  125.6302
 393  85.94296
 394  363.6105
 395  217.1048
 396  119.5448
 397  73.78024
 398  -49.22239
 399  50.2271
 400  -13.39025
 401  -362.5786
 402  -434.8373
 403  -16.05549
 404  27.82191
 405  -128.9624
 406  -267.9355
 407  -332.552
 408  -398.2401
 409  -406.3661
 410  -455.7939
 411  -308.4988
 412  -478.0001
 413  -243.323
 414  -35.39836
 415  387.6019
 416  169.0198
 417  -105.174
 418  -183.218
 419  -538.2418
 420  -138.1324
 421  -345.0659
 422  -68.10262
 423  249.8978
 424  -418.9218
 425  -566.8206
 426  -571.7486
 427  -233.9772
 428  -252.4359
 429  209.4756
 430  377.6418
 431  32.80195
 432  -291.8366
 433  -655.4587
 434  -212.2235
 435  53.07038
 436  155.5428
 437  -99.85603
 438  86.05619
 439  199.9128
 440  -72.84071
 441  -257.4161
 442  -797.65
 443  -680.5419
 444  -95.66936
 445  519.302
 446  369.9449
 447  398.2646
 448  249.8148
 449  -356.8551
 450  -549.7957
 451  -175.0106
 452  178.88
 453  536.8803
 454  570.7917
 455  346.1251
 456  163.0141
 457  -226.23
 458  -202.3993
 459  -432.3822
 460  21.23137
 461  538.4625
 462  561.6314
 463  848.2969
 464  312.7327
 465  196.0295
 466  381.7749
 467  239.1983
 468  443.2275
 469  731.3712
 470  664.9338
 471  438.023
 472  304.9418
 473  221.8741
 474  175.1409
 475  104.3111
 476  -62.07025
 477  296.306
 478  368.0287
 479  47.82401
 480  293.4529
 481  359.2268
 482  200.5601
 483  -65.56913
 484  -153.1383
 485  390.9415
 486  543.0958
 487  561.0682
 488  427.5122
 489  288.7436
 490  131.4031
 491  -357.4859
 492  11.90009
 493  -333.8663
 494  -109.0917
 495  599.0621
 496  589.6605
 497  222.9376
 498  204.4443
 499  175.6612
 500  -10.6484
 501  -50.52725
 502  89.36653
 503  273.6299
 504  195.4898
 505  145.5591
 506  129.4095
 507  127.6908
 508  41.28886
 509  -78.8996
 510  -164.1106
 511  167.1384
