# Input file       =  1193519894.150377_cleaned.dat
# Candidate        =  PSR_0332+5434
# Telescope        =  AR
# Epoch_topo       =  58057.887883684918
# Epoch_bary       =  N/A
# T_sample         =  0.002
# Data Folded      =  7340032
# Data Avg         =  0.0267749229806738
# Data StdDev      =  1.00016313819483 
# Profile Bins     =  512
# Profile Avg      =  383.821702692813 
# Profile StdDev   =  119.752569408182 
# Reduced chi-sqr  =  1.513
# Prob(Noise)      <  5.15e-13   (~7.1 sigma)
# P_topo (ms)      =  714.495609776481  +/- 0.000213
# P'_topo (s/s)    =  -0                +/- 1.12e-10
# P''_topo (s/s^2) =  0                 +/- 4.96e-14
# P_bary (ms)      =  N/A
# P'_bary (s/s)    =  N/A
# P''_bary (s/s^2) =  N/A
# P_orb (s)        =  N/A
# asin(i)/c (s)    =  N/A
# eccentricity     =  N/A
# w (rad)          =  N/A
# T_peri           =  N/A
######################################################
   0  1111.828
   1  1008.311
   2  831.9081
   3  650.5619
   4  607.405
   5  488.2717
   6  415.2976
   7  359.6902
   8  390.4632
   9  445.4919
  10  463.2749
  11  539.2501
  12  512.9929
  13  456.4484
  14  424.7586
  15  293.0705
  16  433.0663
  17  452.1077
  18  247.9769
  19  279.8678
  20  339.6513
  21  433.9842
  22  330.2341
  23  334.1255
  24  367.8736
  25  438.6818
  26  383.8747
  27  427.3023
  28  424.1695
  29  410.3967
  30  372.0179
  31  335.6652
  32  403.3773
  33  407.5461
  34  348.9447
  35  280.9504
  36  414.9029
  37  513.1005
  38  551.8279
  39  370.513
  40  395.0999
  41  499.2897
  42  478.0467
  43  363.8709
  44  341.9971
  45  281.6574
  46  286.927
  47  335.3672
  48  418.1998
  49  505.6327
  50  395.4376
  51  372.2645
  52  333.8898
  53  298.2184
  54  374.7643
  55  421.823
  56  331.3672
  57  454.6842
  58  453.7781
  59  508.6035
  60  544.2902
  61  444.7475
  62  403.7661
  63  410.9987
  64  306.1532
  65  293.4408
  66  294.8371
  67  262.3138
  68  241.0266
  69  268.7968
  70  208.679
  71  266.8117
  72  455.2396
  73  447.574
  74  399.0674
  75  425.5916
  76  429.1293
  77  407.0322
  78  417.5196
  79  308.2732
  80  349.7861
  81  370.3919
  82  299.0857
  83  297.0306
  84  319.9026
  85  262.313
  86  231.4411
  87  245.175
  88  346.5547
  89  370.3272
  90  406.1913
  91  503.534
  92  641.1759
  93  584.7918
  94  408.0004
  95  327.4973
  96  357.2907
  97  277.2569
  98  183.6576
  99  335.534
 100  367.3682
 101  312.4071
 102  254.8052
 103  165.9855
 104  284.5558
 105  461.8343
 106  488.3346
 107  388.3149
 108  272.8591
 109  353.0329
 110  353.4802
 111  419.8498
 112  359.1448
 113  125.5288
 114  216.5067
 115  263.714
 116  374.9369
 117  312.3749
 118  271.9246
 119  322.382
 120  259.3518
 121  296.9655
 122  285.094
 123  449.6546
 124  487.4614
 125  409.5982
 126  417.0534
 127  359.3934
 128  310.2694
 129  403.2138
 130  387.5246
 131  347.4559
 132  454.7112
 133  464.9555
 134  358.4839
 135  187.8094
 136  231.4354
 137  286.0557
 138  342.6287
 139  397.3381
 140  371.9069
 141  349.9669
 142  323.3421
 143  200.5156
 144  244.7985
 145  224.043
 146  223.0692
 147  260.6344
 148  331.158
 149  326.9586
 150  395.4935
 151  369.4968
 152  346.1186
 153  416.3205
 154  389.4913
 155  314.359
 156  411.1337
 157  376.7613
 158  386.7149
 159  270.6992
 160  343.2576
 161  370.208
 162  251.5855
 163  184.1614
 164  238.0076
 165  231.132
 166  355.4542
 167  368.2751
 168  310.3886
 169  357.3958
 170  384.8556
 171  453.6403
 172  442.9796
 173  289.3924
 174  334.2188
 175  303.4286
 176  446.7092
 177  513.9324
 178  426.1902
 179  363.4681
 180  361.2001
 181  441.8206
 182  420.8444
 183  201.6244
 184  203.6701
 185  329.7232
 186  362.1306
 187  410.9429
 188  365.2018
 189  359.7199
 190  201.8219
 191  305.6928
 192  332.8246
 193  356.7928
 194  376.39
 195  345.9178
 196  267.1791
 197  289.8837
 198  356.6968
 199  487.9525
 200  431.5344
 201  480.2842
 202  360.0844
 203  452.2567
 204  494.0355
 205  343.9373
 206  298.3285
 207  474.4478
 208  382.9881
 209  421.7418
 210  344.809
 211  227.3808
 212  120.2176
 213  194.7332
 214  205.6414
 215  210.2036
 216  336.2376
 217  280.1105
 218  311.1027
 219  306.9232
 220  336.4959
 221  385.7133
 222  460.4257
 223  429.6388
 224  487.3905
 225  375.2397
 226  359.0094
 227  367.8183
 228  455.8256
 229  359.9739
 230  427.3441
 231  455.2534
 232  509.5282
 233  591.713
 234  391.1194
 235  336.5518
 236  390.1313
 237  432.6936
 238  460.7601
 239  336.3537
 240  278.0606
 241  208.3941
 242  379.1558
 243  438.6814
 244  486.4497
 245  388.9624
 246  376.9223
 247  369.6559
 248  372.9348
 249  415.1908
 250  446.2843
 251  339.2182
 252  476.929
 253  458.5182
 254  372.6169
 255  370.6842
 256  446.0186
 257  457.0683
 258  358.5977
 259  454.3889
 260  363.5043
 261  243.1615
 262  314.2791
 263  409.3015
 264  326.445
 265  270.2024
 266  366.0514
 267  491.2739
 268  355.911
 269  311.8839
 270  268.8005
 271  386.2692
 272  448.8377
 273  433.5921
 274  406.49
 275  380.2449
 276  443.3138
 277  372.6097
 278  424.7283
 279  451.9913
 280  438.7874
 281  407.5962
 282  345.8803
 283  290.4648
 284  202.9611
 285  324.9565
 286  355.9561
 287  217.0239
 288  198.9632
 289  401.99
 290  287.0201
 291  260.5536
 292  371.3832
 293  369.1552
 294  444.052
 295  536.6325
 296  510.3101
 297  303.0254
 298  359.3969
 299  412.3686
 300  441.9527
 301  367.8504
 302  415.7794
 303  423.83
 304  418.5779
 305  301.2339
 306  249.4202
 307  304.2773
 308  413.0445
 309  390.1814
 310  382.1859
 311  499.832
 312  475.1608
 313  423.4121
 314  380.8333
 315  479.973
 316  426.4374
 317  280.0562
 318  304.8535
 319  322.5699
 320  389.4466
 321  351.2705
 322  364.8672
 323  366.5489
 324  390.7283
 325  458.2858
 326  508.479
 327  422.4171
 328  381.181
 329  340.4699
 330  439.0873
 331  533.9099
 332  489.0374
 333  389.6592
 334  330.7266
 335  395.6
 336  427.6341
 337  348.4764
 338  359.3011
 339  347.7266
 340  417.6234
 341  412.114
 342  405.4103
 343  501.7421
 344  521.2131
 345  502.9973
 346  367.4679
 347  357.1009
 348  369.3904
 349  449.8232
 350  479.4297
 351  432.5123
 352  385.956
 353  447.6781
 354  325.9786
 355  362.4823
 356  369.6788
 357  306.7527
 358  293.9253
 359  353.5547
 360  293.8575
 361  346.2733
 362  444.0261
 363  484.3877
 364  421.1604
 365  405.9814
 366  370.6631
 367  356.9408
 368  306.43
 369  310.0795
 370  219.5942
 371  279.8397
 372  336.346
 373  438.0457
 374  479.9081
 375  408.3479
 376  363.1779
 377  416.6317
 378  474.133
 379  550.4991
 380  493.2644
 381  377.7248
 382  397.5658
 383  358.9099
 384  348.5689
 385  346.4017
 386  525.8102
 387  538.1946
 388  521.0397
 389  400.2113
 390  466.5654
 391  330.9058
 392  340.0522
 393  445.2716
 394  460.1004
 395  315.4347
 396  478.2666
 397  447.1081
 398  454.7088
 399  458.4306
 400  402.5004
 401  431.4557
 402  409.9324
 403  335.6015
 404  323.2597
 405  345.838
 406  362.3507
 407  343.316
 408  351.1787
 409  431.8159
 410  388.0356
 411  377.9613
 412  332.7525
 413  347.3195
 414  395.8823
 415  291.4258
 416  235.6769
 417  290.2664
 418  315.7014
 419  427.7359
 420  357.0259
 421  324.1261
 422  315.1435
 423  346.1539
 424  288.1185
 425  270.4632
 426  287.0628
 427  356.6833
 428  354.3619
 429  369.0471
 430  444.7146
 431  480.199
 432  387.9298
 433  457.4506
 434  440.5938
 435  476.6452
 436  391.5934
 437  413.2413
 438  334.2719
 439  254.881
 440  216.4506
 441  334.0516
 442  384.3322
 443  390.4441
 444  387.4047
 445  315.4014
 446  384.6729
 447  423.0002
 448  475.6892
 449  423.7249
 450  511.2104
 451  450.2202
 452  409.4402
 453  357.6923
 454  373.5709
 455  365.2748
 456  425.1409
 457  430.3856
 458  447.0685
 459  274.2675
 460  370.116
 461  505.7088
 462  483.2505
 463  430.3142
 464  336.9072
 465  317.0325
 466  311.701
 467  415.803
 468  319.9158
 469  391.5911
 470  456.2357
 471  397.593
 472  298.1619
 473  447.8192
 474  353.4781
 475  388.7827
 476  547.669
 477  486.2343
 478  366.1624
 479  333.1199
 480  307.8748
 481  271.0797
 482  289.6818
 483  350.7977
 484  376.2606
 485  306.64
 486  223.6853
 487  235.4749
 488  260.3862
 489  403.3105
 490  530.4968
 491  496.8179
 492  416.0239
 493  349.2349
 494  360.9555
 495  361.1244
 496  323.6745
 497  396.8058
 498  385.1927
 499  503.5149
 500  351.5416
 501  301.7361
 502  342.982
 503  542.8413
 504  589.0345
 505  552.6663
 506  605.6051
 507  612.3821
 508  681.0204
 509  731.2986
 510  995.5239
 511  1106.396
