# Input file       =  1193519894.150377_cleaned.dat
# Candidate        =  PSR_0332+5434
# Telescope        =  AR
# Epoch_topo       =  58057.887883684918
# Epoch_bary       =  N/A
# T_sample         =  0.002
# Data Folded      =  7340032
# Data Avg         =  0.0267749229806738
# Data StdDev      =  1.00016313819483 
# Profile Bins     =  512
# Profile Avg      =  383.821706060896 
# Profile StdDev   =  119.752569408182 
# Reduced chi-sqr  =  1.510
# Prob(Noise)      <  6.58e-13   (~7.1 sigma)
# P_topo (ms)      =  714.495611019945  +/- 0.000221
# P'_topo (s/s)    =  -0                +/- 1.17e-10
# P''_topo (s/s^2) =  0                 +/- 5.14e-14
# P_bary (ms)      =  N/A
# P'_bary (s/s)    =  N/A
# P''_bary (s/s^2) =  N/A
# P_orb (s)        =  N/A
# asin(i)/c (s)    =  N/A
# eccentricity     =  N/A
# w (rad)          =  N/A
# T_peri           =  N/A
######################################################
   0  403.9287
   1  253.5969
   2  296.4725
   3  367.6652
   4  382.6279
   5  467.2667
   6  557.955
   7  432.8193
   8  302.714
   9  376.6507
  10  442.7733
  11  405.0144
  12  387.4963
  13  416.4286
  14  430.1236
  15  393.1341
  16  265.6788
  17  264.5678
  18  328.088
  19  435.6619
  20  364.269
  21  413.1877
  22  503.613
  23  460.9611
  24  411.6385
  25  401.4404
  26  501.8082
  27  361.3704
  28  287.7003
  29  294.3682
  30  362.0439
  31  369.8743
  32  351.7337
  33  372.9456
  34  372.1144
  35  400.6691
  36  481.4019
  37  500.6952
  38  388.3803
  39  373.5189
  40  349.0457
  41  474.9211
  42  537.3278
  43  458.2283
  44  378.8633
  45  325.326
  46  419.2064
  47  405.4767
  48  347.8096
  49  362.0712
  50  353.6436
  51  438.7845
  52  389.7395
  53  437.1746
  54  501.9689
  55  530.1406
  56  476.3076
  57  353.5616
  58  351.8766
  59  389.9017
  60  474.1226
  61  465.2761
  62  398.4929
  63  407.1253
  64  426.2089
  65  326.9868
  66  368.2149
  67  374.1679
  68  274.3973
  69  315.3087
  70  330.7258
  71  310.0971
  72  381.5576
  73  465.8228
  74  471.1988
  75  399.3789
  76  400.8057
  77  366.0633
  78  348.104
  79  299.4323
  80  300.3705
  81  204.3154
  82  310.6242
  83  344.9479
  84  477.0105
  85  456.6297
  86  389.3925
  87  374.4329
  88  441.9319
  89  487.4776
  90  554.8221
  91  465.126
  92  364.0526
  93  405.5774
  94  343.4636
  95  341.1012
  96  379.0082
  97  548.3693
  98  541.0607
  99  487.6672
 100  406.5579
 101  449.412
 102  298.6785
 103  391.0919
 104  447.4055
 105  428.897
 106  319.1041
 107  521.9058
 108  415.3758
 109  484.0469
 110  425.7607
 111  408.9683
 112  438.9476
 113  385.642
 114  325.3578
 115  332.4602
 116  348.7806
 117  358.5279
 118  332.6645
 119  393.066
 120  412.5461
 121  390.4526
 122  363.1374
 123  336.4602
 124  347.6219
 125  384.5528
 126  249.3776
 127  256.5122
 128  300.0707
 129  350.2508
 130  419.5559
 131  338.6792
 132  312.8005
 133  338.4039
 134  335.6444
 135  280.7384
 136  263.2981
 137  305.6591
 138  365.7575
 139  349.8428
 140  384.1622
 141  470.8548
 142  454.5887
 143  394.8716
 144  466.3365
 145  441.6055
 146  468.0357
 147  382.6077
 148  411.5764
 149  297.9149
 150  228.1285
 151  242.2551
 152  366.3396
 153  380.9833
 154  408.4851
 155  352.2987
 156  330.9219
 157  390.4279
 158  446.1069
 159  463.0972
 160  442.3688
 161  505.241
 162  439.9855
 163  383.2843
 164  371.0974
 165  358.2946
 166  396.2788
 167  409.5717
 168  468.8683
 169  385.4731
 170  270.7058
 171  420.4634
 172  506.833
 173  485.6014
 174  395.8206
 175  326.629
 176  302.9944
 177  353.6045
 178  403.1711
 179  313.8247
 180  416.8792
 181  462.6726
 182  348.9976
 183  331.1232
 184  447.7049
 185  341.0582
 186  439.3199
 187  549.549
 188  441.3974
 189  350.2232
 190  327.8523
 191  295.7911
 192  268.4826
 193  309.6711
 194  366.0075
 195  357.126
 196  282.1704
 197  207.3407
 198  257.4967
 199  280.8089
 200  456.455
 201  536.5276
 202  464.8688
 203  410.4999
 204  326.4808
 205  384.3051
 206  332.4983
 207  348.629
 208  392.777
 209  417.4665
 210  486.121
 211  315.9915
 212  310.2911
 213  390.0512
 214  564.651
 215  587.6099
 216  545.6347
 217  630.7935
 218  612.8123
 219  697.9187
 220  779.9066
 221  1066.959
 222  1095.232
 223  1102.914
 224  961.0117
 225  778.8802
 226  626.7948
 227  585.9437
 228  459.1313
 229  405.7691
 230  345.2574
 231  413.6717
 232  446.7766
 233  482.8458
 234  552.4906
 235  480.0281
 236  472.5782
 237  368.7569
 238  312.9909
 239  468.1507
 240  401.3251
 241  221.5281
 242  315.1691
 243  352.2797
 244  434.4058
 245  302.0823
 246  361.8714
 247  366.0576
 248  451.7898
 249  367.7053
 250  452.0435
 251  403.161
 252  413.6499
 253  350.1599
 254  353.3398
 255  413.0052
 256  403.4665
 257  305.932
 258  314.7987
 259  445.8384
 260  534.9217
 261  512.6359
 262  345.8266
 263  433.1059
 264  512.1485
 265  439.9527
 266  350.1728
 267  345.7877
 268  258.2223
 269  307.3506
 270  337.3185
 271  471.4889
 272  481.8199
 273  371.8762
 274  367.5015
 275  320.4549
 276  317.0073
 277  400.9242
 278  391.5633
 279  345.9522
 280  472.5324
 281  459.9648
 282  523.5701
 283  532.1858
 284  413.6144
 285  417.4556
 286  387.0385
 287  282.9653
 288  302.0156
 289  284.9881
 290  250.2754
 291  254.7755
 292  256.198
 293  205.6538
 294  314.37
 295  491.7642
 296  417.8585
 297  405.665
 298  437.6257
 299  408.5933
 300  419.4658
 301  372.143
 302  310.9701
 303  371.2379
 304  349.8978
 305  303.7114
 306  303.1819
 307  313.8221
 308  232.7031
 309  244.2655
 310  258.0294
 311  383.7784
 312  356.2742
 313  442.0574
 314  530.9603
 315  655.6526
 316  528.0978
 317  365.7193
 318  350.3757
 319  336.3646
 320  247.9461
 321  202.4706
 322  378.5666
 323  341.3565
 324  293.4669
 325  234.3808
 326  167.3135
 327  361.3003
 328  465.2914
 329  478.3376
 330  338.4314
 331  279.1575
 332  358.9672
 333  374.9766
 334  424.0257
 335  299.0481
 336  114.4997
 337  237.7975
 338  293.7014
 339  381.14
 340  277.2733
 341  305.9523
 342  283.9482
 343  282.2106
 344  281.2664
 345  342.3153
 346  466.9419
 347  474.3703
 348  382.3341
 349  435.0676
 350  310.0864
 351  358.6032
 352  396.8605
 353  383.354
 354  342.3947
 355  484.7041
 356  442.7948
 357  311.1403
 358  183.2293
 359  248.3787
 360  298.2187
 361  361.9886
 362  394.4459
 363  359.1974
 364  356.8379
 365  293.2555
 366  190.7749
 367  243.4104
 368  221.7032
 369  224.5202
 370  300.3456
 371  332.8163
 372  335.963
 373  396.57
 374  362.8097
 375  349.0689
 376  449.7594
 377  340.56
 378  334.1618
 379  409.2563
 380  374.0896
 381  372.2946
 382  261.5562
 383  378.5741
 384  342.4624
 385  219.7803
 386  197.5417
 387  225.2379
 388  260.6408
 389  380.4704
 390  334.7033
 391  317.7881
 392  374.6964
 393  406.756
 394  460.5129
 395  395.0714
 396  289.0483
 397  344.7274
 398  303.2771
 399  494.9263
 400  493.9615
 401  415.4118
 402  343.4478
 403  387.1241
 404  463.6151
 405  364.032
 406  161.1767
 407  245.0188
 408  341.2961
 409  385.2046
 410  396.9684
 411  365.3122
 412  324.7768
 413  206.6911
 414  328.9546
 415  324.3752
 416  378.2952
 417  352.1559
 418  349.3569
 419  248.4921
 420  310.525
 421  406.5503
 422  476.3146
 423  436.6516
 424  471.8586
 425  342.5508
 426  487.5634
 427  460.8757
 428  304.8111
 429  357.0148
 430  467.1095
 431  380.5382
 432  416.6505
 433  298.9368
 434  201.5009
 435  113.0061
 436  228.5794
 437  172.7716
 438  275.2225
 439  317.2195
 440  300.6923
 441  284.8062
 442  325.8926
 443  330.7653
 444  429.8484
 445  439.5201
 446  447.9062
 447  471.9753
 448  350.0349
 449  363.8727
 450  396.5325
 451  454.2037
 452  348.5587
 453  452.8113
 454  442.7986
 455  556.9338
 456  547.4078
 457  350.538
 458  343.776
 459  419.5301
 460  445.6272
 461  422.305
 462  329.2609
 463  247.5681
 464  238.419
 465  404.3441
 466  454.8965
 467  472.9912
 468  373.8674
 469  382.1302
 470  370.6082
 471  382.3284
 472  431.1418
 473  414.9781
 474  335.7279
 475  526.0245
 476  408.3454
 477  386.6638
 478  372.3884
 479  476.6623
 480  404.8689
 481  381.5177
 482  451.0402
 483  324.6936
 484  245.438
 485  343.4435
 486  414.6827
 487  297.6435
 488  285.0898
 489  410.9189
 490  464.0631
 491  330.6029
 492  289.4084
 493  293.0003
 494  413.7211
 495  450.3986
 496  423.0437
 497  400.5689
 498  398.4039
 499  433.0291
 500  365.3058
 501  454.5889
 502  434.6331
 503  441.5449
 504  388.1328
 505  333.3239
 506  275.1773
 507  195.4664
 508  378.2476
 509  307.0024
 510  204.2096
 511  245.7155
