# Input file       =  1193419152.126804_cleaned.dat
# Candidate        =  PSR_0332+5434
# Telescope        =  AR
# Epoch_topo       =  58056.721888041713
# Epoch_bary       =  N/A
# T_sample         =  0.002
# Data Folded      =  7143424
# Data Avg         =  0.0116389981289518
# Data StdDev      =  1.0000573224088  
# Profile Bins     =  512
# Profile Avg      =  162.371473575    
# Profile StdDev   =  118.125355323654 
# Reduced chi-sqr  =  1.438
# Prob(Noise)      <  2.77e-10   (~6.2 sigma)
# P_topo (ms)      =  714.494540901442  +/- 0.000205
# P'_topo (s/s)    =  -0                +/- 1.11e-10
# P''_topo (s/s^2) =  0                 +/- 5.05e-14
# P_bary (ms)      =  N/A
# P'_bary (s/s)    =  N/A
# P''_bary (s/s^2) =  N/A
# P_orb (s)        =  N/A
# asin(i)/c (s)    =  N/A
# eccentricity     =  N/A
# w (rad)          =  N/A
# T_peri           =  N/A
######################################################
   0  307.3588
   1  182.3911
   2  282.7115
   3  251.3228
   4  119.9372
   5  269.2498
   6  127.8745
   7  120.1513
   8  60.68528
   9  14.38633
  10  57.19779
  11  72.72928
  12  169.1651
  13  190.6689
  14  60.78756
  15  114.1112
  16  6.516518
  17  36.53019
  18  33.35508
  19  123.3431
  20  258.7623
  21  237.2403
  22  208.7087
  23  112.6839
  24  254.9861
  25  279.8982
  26  121.6896
  27  80.29442
  28  232.7663
  29  193.9571
  30  268.6781
  31  151.835
  32  205.4404
  33  176.3816
  34  80.29509
  35  118.1821
  36  353.3727
  37  305.877
  38  163.0195
  39  50.68475
  40  214.38
  41  135.6664
  42  196.6315
  43  303.2687
  44  193.1419
  45  51.57096
  46  228.0985
  47  151.129
  48  -11.15293
  49  56.89693
  50  105.3753
  51  130.8369
  52  118.4855
  53  166.0503
  54  223.7314
  55  241.5533
  56  118.6425
  57  101.5545
  58  192.7944
  59  46.58948
  60  214.4737
  61  299.0301
  62  121.2168
  63  111.1722
  64  146.2885
  65  182.4477
  66  109.6717
  67  145.6447
  68  155.8568
  69  201.7602
  70  107.5308
  71  161.3286
  72  87.11063
  73  86.91356
  74  2.951011
  75  73.98924
  76  133.1745
  77  54.75098
  78  202.3622
  79  198.6265
  80  59.6102
  81  90.60664
  82  236.6134
  83  200.1069
  84  68.43218
  85  114.0746
  86  374.4325
  87  390.5976
  88  368.9531
  89  118.5505
  90  32.6747
  91  120.0152
  92  190.25
  93  111.9959
  94  171.9599
  95  156.1714
  96  144.0047
  97  148.7819
  98  115.3274
  99  39.7812
 100  40.96313
 101  112.0751
 102  110.5624
 103  69.22534
 104  107.1991
 105  243.1321
 106  204.5313
 107  138.6021
 108  88.46178
 109  170.311
 110  179.9952
 111  265.0222
 112  292.5391
 113  207.1445
 114  199.7489
 115  146.9102
 116  216.5967
 117  194.5375
 118  47.96266
 119  153.8169
 120  156.212
 121  182.1696
 122  176.1168
 123  176.776
 124  73.40424
 125  53.37749
 126  22.86201
 127  104.0379
 128  165.992
 129  237.959
 130  155.1317
 131  13.37049
 132  108.2907
 133  42.71544
 134  76.1965
 135  184.0939
 136  322.9462
 137  62.59132
 138  167.2552
 139  220.9551
 140  133.4829
 141  146.6894
 142  168.1343
 143  198.6546
 144  129.96
 145  109.1127
 146  75.16599
 147  150.9144
 148  149.8514
 149  286.8806
 150  257.0856
 151  174.7509
 152  19.15614
 153  67.86324
 154  179.1562
 155  140.9715
 156  127.6248
 157  39.73739
 158  108.5703
 159  269.001
 160  181.5473
 161  193.6049
 162  104.6499
 163  125.5415
 164  130.061
 165  165.6524
 166  220.2766
 167  174.7501
 168  216.1363
 169  68.68273
 170  153.5025
 171  146.6527
 172  213.292
 173  290.8199
 174  160.9766
 175  165.0184
 176  84.47166
 177  135.5337
 178  141.3664
 179  62.22362
 180  143.5918
 181  141.7909
 182  89.25751
 183  67.34684
 184  149.6772
 185  235.62
 186  148.0992
 187  101.6256
 188  175.7157
 189  171.2095
 190  126.8531
 191  178.6191
 192  148.5342
 193  130.517
 194  57.84459
 195  43.00114
 196  -56.76191
 197  -16.06334
 198  148.6014
 199  96.75766
 200  105.7139
 201  73.02232
 202  233.3893
 203  125.6711
 204  126.0682
 205  288.7346
 206  150.9483
 207  116.9456
 208  243.7524
 209  121.2931
 210  51.60663
 211  89.37953
 212  120.6204
 213  126.0512
 214  235.2289
 215  169.3176
 216  161.6261
 217  87.94582
 218  235.1448
 219  227.5317
 220  236.9218
 221  309.1841
 222  220.7757
 223  46.81061
 224  109.3563
 225  101.0092
 226  125.9383
 227  231.7733
 228  210.6564
 229  115.191
 230  37.05456
 231  17.77619
 232  139.3366
 233  123.8807
 234  26.27114
 235  -35.0293
 236  101.1177
 237  120.3267
 238  156.6891
 239  157.2453
 240  113.2284
 241  -35.76664
 242  23.46613
 243  115.6874
 244  246.693
 245  60.24863
 246  2.543801
 247  216.8256
 248  227.071
 249  263.3907
 250  66.61219
 251  85.56495
 252  93.2179
 253  16.75691
 254  125.9078
 255  138.5497
 256  155.3681
 257  180.117
 258  338.2661
 259  378.8073
 260  205.9172
 261  79.09807
 262  157.2033
 263  212.8216
 264  22.07239
 265  33.78194
 266  145.8253
 267  81.82981
 268  140.3855
 269  31.83905
 270  205.2989
 271  257.4279
 272  250.6597
 273  194.0114
 274  96.15144
 275  200.4506
 276  198.3985
 277  114.3679
 278  99.67529
 279  66.0661
 280  81.79214
 281  155.8776
 282  183.6019
 283  85.73874
 284  64.42725
 285  143.8645
 286  255.7383
 287  288.2232
 288  205.6374
 289  65.58221
 290  94.10044
 291  146.9226
 292  108.2251
 293  214.4269
 294  404.5047
 295  276.8973
 296  100.3722
 297  252.2599
 298  211.4361
 299  172.1734
 300  9.132989
 301  143.4241
 302  185.5016
 303  138.089
 304  164.4986
 305  120.5648
 306  204.9409
 307  217.464
 308  141.467
 309  126.755
 310  129.4035
 311  166.6955
 312  207.8783
 313  173.4472
 314  126.5478
 315  102.6308
 316  94.90002
 317  81.16575
 318  350.902
 319  284.8014
 320  133.6111
 321  185.3809
 322  103.5996
 323  75.71568
 324  190.6353
 325  199.4789
 326  113.8485
 327  -8.879383
 328  111.4958
 329  185.5697
 330  63.03241
 331  50.62756
 332  167.1559
 333  102.6425
 334  199.0752
 335  245.6828
 336  163.4725
 337  169.5087
 338  128.8939
 339  202.1009
 340  162.1499
 341  163.3483
 342  45.44401
 343  35.78585
 344  180.8933
 345  133.4345
 346  54.66905
 347  138.7985
 348  155.0909
 349  133.3295
 350  189.4907
 351  124.1335
 352  239.4783
 353  289.6282
 354  104.8502
 355  69.6542
 356  62.146
 357  143.5354
 358  133.3315
 359  196.6772
 360  150.5096
 361  120.5725
 362  182.6208
 363  207.5203
 364  96.18929
 365  139.3204
 366  241.2228
 367  272.1641
 368  244.7583
 369  211.2741
 370  104.2959
 371  114.9015
 372  297.5221
 373  259.3194
 374  168.2351
 375  81.14113
 376  153.425
 377  231.013
 378  89.43836
 379  116.4356
 380  203.6632
 381  280.4266
 382  126.5009
 383  142.541
 384  101.3329
 385  16.24796
 386  99.03116
 387  147.1438
 388  53.9639
 389  154.0119
 390  285.833
 391  291.69
 392  235.0908
 393  30.78344
 394  200.3881
 395  101.9321
 396  113.3229
 397  204.2843
 398  67.15018
 399  7.730998
 400  -33.75016
 401  228.1871
 402  317.229
 403  298.1718
 404  239.7872
 405  199.8768
 406  104.5014
 407  52.2882
 408  235.7287
 409  251.7975
 410  143.0677
 411  201.0129
 412  201.879
 413  194.6735
 414  189.001
 415  217.2223
 416  272.7421
 417  149.1933
 418  128.8477
 419  152.0412
 420  8.721341
 421  91.63704
 422  150.1522
 423  102.1637
 424  156.5727
 425  162.6146
 426  217.1371
 427  205.7514
 428  93.82173
 429  19.31347
 430  -56.60793
 431  125.7086
 432  196.6332
 433  225.1163
 434  123.3228
 435  121.8151
 436  253.8622
 437  183.5845
 438  144.7669
 439  163.7284
 440  174.6003
 441  266.5142
 442  240.2481
 443  194.4997
 444  177.6435
 445  173.011
 446  235.0574
 447  377.8352
 448  345.1324
 449  303.3614
 450  293.2533
 451  377.064
 452  416.9762
 453  662.3358
 454  827.756
 455  827.3668
 456  825.4036
 457  698.2137
 458  470.9129
 459  299.6899
 460  155.3903
 461  131.286
 462  137.9316
 463  209.7854
 464  267.3036
 465  250.8962
 466  408.2945
 467  266.7964
 468  126.9053
 469  270.6543
 470  249.4122
 471  193.8402
 472  224.5317
 473  226.3755
 474  134.8179
 475  102.1022
 476  24.64236
 477  102.2117
 478  155.5327
 479  165.9249
 480  118.9924
 481  78.3623
 482  23.91178
 483  158.1902
 484  91.4022
 485  151.9876
 486  198.9749
 487  343.1146
 488  349.9282
 489  238.282
 490  276.6788
 491  225.7757
 492  246.1082
 493  251.2983
 494  186.4931
 495  99.58533
 496  87.83782
 497  63.57648
 498  20.58113
 499  92.35211
 500  86.03372
 501  132.3182
 502  96.47967
 503  187.1277
 504  207.9962
 505  252.6709
 506  177.416
 507  67.42143
 508  161.8452
 509  150.1329
 510  201.6277
 511  160.412
