# Input file       =  1193677587.156390-PSRB0329-2ms-sampling-dd.dat
# Candidate        =  PSR_0332+5434
# Telescope        =  AR
# Epoch_topo       =  58059.713034217479
# Epoch_bary       =  N/A
# T_sample         =  0.002
# Data Folded      =  7208960
# Data Avg         =  -6.54180920837296e-10
# Data StdDev      =  18.388945376506  
# Profile Bins     =  512
# Profile Avg      =  0.00971554908547909
# Profile StdDev   =  2182.01710208846 
# Reduced chi-sqr  =  1.611
# Prob(Noise)      <  5.38e-17   (~8.3 sigma)
# P_topo (ms)      =  714.497279352887  +/- 0.000377
# P'_topo (s/s)    =  -0                +/- 2.02e-10
# P''_topo (s/s^2) =  0                 +/- 9.1e-14
# P_bary (ms)      =  N/A
# P'_bary (s/s)    =  N/A
# P''_bary (s/s^2) =  N/A
# P_orb (s)        =  N/A
# asin(i)/c (s)    =  N/A
# eccentricity     =  N/A
# w (rad)          =  N/A
# T_peri           =  N/A
######################################################
   0  -1521.926
   1  -1718.752
   2  -1911.909
   3  -1617.031
   4  -1671.932
   5  -1909.247
   6  -1589.377
   7  -1431.952
   8  -1166.361
   9  -1019.832
  10  -236.4293
  11  -446.4834
  12  -431.6225
  13  -437.1429
  14  -556.6283
  15  -1095.945
  16  -621.2303
  17  -20.19939
  18  339.261
  19  672.5726
  20  589.7798
  21  594.7545
  22  -671.1194
  23  -907.3736
  24  -1372.681
  25  -1552.508
  26  -1647.004
  27  -1945.979
  28  -1420.947
  29  -1142.726
  30  -1318.227
  31  -1512.41
  32  -992.0423
  33  -949.6384
  34  -960.7784
  35  -1112.92
  36  -819.6279
  37  -450.1743
  38  -443.884
  39  -144.9308
  40  226.2039
  41  -457.576
  42  -867.2816
  43  -905.9604
  44  -891.3146
  45  -1335.555
  46  -506.2056
  47  -689.6072
  48  -548.2801
  49  -501.885
  50  -974.7229
  51  -942.1626
  52  -1515.456
  53  -893.9338
  54  -530.4217
  55  -399.2239
  56  79.46359
  57  -153.8637
  58  -805.9861
  59  -791.0471
  60  -890.0666
  61  -397.8
  62  357.0361
  63  79.8579
  64  304.0409
  65  75.36347
  66  -452.5665
  67  -806.1973
  68  -885.0841
  69  -836.4296
  70  -583.3582
  71  -720.4766
  72  -549.0423
  73  -616.4261
  74  -1066.324
  75  -948.5947
  76  -1098.671
  77  -1311.031
  78  -1380.548
  79  -1345.612
  80  -1080.571
  81  -660.6667
  82  -915.6277
  83  -808.582
  84  -498.6524
  85  -1009.579
  86  -941.6005
  87  -482.7672
  88  -232.9264
  89  -539.4332
  90  -679.0097
  91  -493.3035
  92  -719.4971
  93  -258.279
  94  -259.2776
  95  -550.2231
  96  -851.1232
  97  -644.7455
  98  -844.5087
  99  -597.465
 100  -281.6719
 101  -108.2961
 102  -357.1895
 103  -640.7726
 104  -1091.985
 105  -1262.546
 106  -1380.6
 107  -1157.08
 108  -290.7451
 109  -280.2886
 110  -482.6411
 111  -673.9445
 112  -903.0626
 113  -859.225
 114  -1041.01
 115  -564.2695
 116  -247.1119
 117  -170.7962
 118  -10.60063
 119  -377.6991
 120  -1147.818
 121  -1097.174
 122  -1029.44
 123  -828.6027
 124  -1019.938
 125  -761.7438
 126  -1025.35
 127  -789.7784
 128  -692.5063
 129  -649.2019
 130  -609.899
 131  -356.9006
 132  -106.5802
 133  -530.2072
 134  -468.7862
 135  336.1074
 136  465.2071
 137  591.9844
 138  534.1455
 139  -157.5462
 140  -491.4958
 141  -504.7731
 142  -491.7386
 143  -293.1824
 144  297.4385
 145  333.0267
 146  198.9225
 147  -459.1765
 148  -809.5765
 149  -1235.26
 150  -1249.583
 151  -1146.611
 152  -1169.98
 153  -866.2928
 154  -1469.538
 155  -1291.341
 156  -885.0668
 157  -782.3168
 158  -1067.129
 159  -694.2056
 160  -63.74162
 161  1754.816
 162  1586.167
 163  1733.27
 164  2765.608
 165  413.6336
 166  -384.0668
 167  1992.032
 168  4371.259
 169  5586.42
 170  5911.055
 171  3888.431
 172  2018.495
 173  -148.7714
 174  1867.151
 175  4468.957
 176  7405.095
 177  8521.979
 178  8808.986
 179  7172.272
 180  1224.385
 181  5368.949
 182  10014.18
 183  15264.5
 184  14796.38
 185  13087.62
 186  7304.472
 187  1196.881
 188  -168.3716
 189  -573.3304
 190  -594.8602
 191  -691.1729
 192  -861.4641
 193  -1501.901
 194  -1390.726
 195  -1566.901
 196  -1467.146
 197  -1090.262
 198  -1137.684
 199  -1229.595
 200  -1085.098
 201  -367.2017
 202  -123.6301
 203  192.9636
 204  321.2494
 205  58.89585
 206  500.1893
 207  472.1447
 208  313.9277
 209  839.3135
 210  2013.499
 211  2975.303
 212  2773.793
 213  1909.805
 214  1671.898
 215  660.7412
 216  400.4771
 217  573.0861
 218  1923.802
 219  2785.306
 220  2333.535
 221  1613.876
 222  39.45216
 223  141.5763
 224  588.2516
 225  2309.831
 226  3492.923
 227  3760.326
 228  1664.944
 229  852.173
 230  983.0599
 231  1228.995
 232  676.901
 233  474.0138
 234  453.0917
 235  -3.018496
 236  114.1585
 237  81.55083
 238  -608.5387
 239  -330.0139
 240  -146.9417
 241  -137.8367
 242  -250.5388
 243  -7.239642
 244  -474.4922
 245  -764.0209
 246  -1014.384
 247  -721.8603
 248  -913.1228
 249  -1253.78
 250  -1014.905
 251  -825.6121
 252  -742.691
 253  -612.1241
 254  -721.4311
 255  -870.7026
 256  -1260.806
 257  -1020.978
 258  -818.366
 259  -885.1751
 260  -715.1552
 261  -1051.647
 262  -1324.565
 263  -879.9064
 264  -659.4716
 265  -490.2001
 266  -707.3278
 267  -980.2006
 268  -291.5123
 269  -517.0698
 270  -720.0938
 271  -462.942
 272  -77.90868
 273  -492.3581
 274  -341.5045
 275  -442.0556
 276  -1045.67
 277  -972.7512
 278  -1190.952
 279  -964.5476
 280  -557.2679
 281  -824.8733
 282  -950.6111
 283  -1351.256
 284  -1418.117
 285  -1679.075
 286  -1399.916
 287  -926.0719
 288  -642.8032
 289  -823.6748
 290  -668.5944
 291  -739.4986
 292  -964.9647
 293  -768.5044
 294  -705.4966
 295  -913.871
 296  -845.854
 297  -905.9398
 298  -1171.901
 299  -1390.038
 300  -1206.968
 301  -688.5603
 302  -712.4184
 303  -904.9938
 304  -770.671
 305  -692.2031
 306  -1028.812
 307  -861.616
 308  -1000.372
 309  -737.2038
 310  -899.769
 311  -903.7292
 312  -404.9515
 313  -338.6877
 314  -128.2036
 315  -593.1273
 316  -364.1476
 317  -518.8453
 318  56.40912
 319  188.0515
 320  -86.55359
 321  55.63873
 322  -654.4257
 323  -332.8006
 324  458.0585
 325  1814.016
 326  2387.946
 327  2441.042
 328  1844.745
 329  1343.474
 330  992.9057
 331  1580.204
 332  3156.253
 333  3495.124
 334  3805.286
 335  3188.378
 336  2448.494
 337  1828.287
 338  2021.376
 339  2090.763
 340  2483.428
 341  2111.69
 342  1223.64
 343  1085.267
 344  -137.767
 345  -845.2033
 346  -1387.699
 347  -1063.83
 348  -754.3056
 349  -299.1167
 350  -739.0533
 351  -499.8252
 352  -676.5951
 353  -629.9016
 354  -721.3166
 355  -663.8052
 356  -395.2622
 357  -527.2716
 358  -498.6095
 359  -72.42444
 360  14.42673
 361  232.0777
 362  -20.00436
 363  -619.3383
 364  -870.9144
 365  -1361.462
 366  -933.1991
 367  -541.2979
 368  -373.0846
 369  -320.2471
 370  -492.4133
 371  -951.5704
 372  -279.2917
 373  -606.0326
 374  -991.2687
 375  -1058.614
 376  -1147.46
 377  -1500.459
 378  -1627.282
 379  -1262.969
 380  -1470.88
 381  -1676.354
 382  -2017.476
 383  -1708.223
 384  -1459.96
 385  -1542.159
 386  -1452.346
 387  -1692.32
 388  -1691.824
 389  -1942.883
 390  -1842.623
 391  -1810.462
 392  -1300.146
 393  -1548.451
 394  -1547.106
 395  -1223.492
 396  -1482.115
 397  -1461.95
 398  -1343.628
 399  -1198.758
 400  -1309.427
 401  -1006.106
 402  -278.7695
 403  -275.353
 404  -509.5295
 405  -333.2214
 406  -549.5309
 407  -766.8375
 408  -541.7678
 409  -452.5419
 410  -349.0229
 411  -717.6874
 412  -550.198
 413  -536.3241
 414  -919.5103
 415  -901.7447
 416  -1123.813
 417  -1037.976
 418  -724.3286
 419  -523.2153
 420  -54.6079
 421  -108.2461
 422  -97.51753
 423  -634.6491
 424  -1036.46
 425  -786.8189
 426  -846.1996
 427  -331.282
 428  -874.6887
 429  -525.9735
 430  -967.7676
 431  -860.6558
 432  -854.9356
 433  -872.6729
 434  -927.5388
 435  -955.4238
 436  -334.2264
 437  884.858
 438  1511.606
 439  1392.008
 440  1831.075
 441  818.7147
 442  604.6201
 443  1552.638
 444  3028.983
 445  4148.813
 446  3998.216
 447  3182.193
 448  2315.97
 449  858.3577
 450  1936.045
 451  4033.264
 452  4888.399
 453  5530.931
 454  5092.05
 455  3900.356
 456  2150.349
 457  4729.809
 458  4466.147
 459  5353.801
 460  5619.556
 461  4893.963
 462  3574.899
 463  1793.561
 464  2021.557
 465  983.6547
 466  917.0665
 467  163.9716
 468  -943.587
 469  -784.8499
 470  -409.9678
 471  -627.9289
 472  -772.7349
 473  -1114.339
 474  -1267.791
 475  -1062.285
 476  -1008.897
 477  -1542.849
 478  -1507.265
 479  -1347.967
 480  -1485.323
 481  -1501.732
 482  -797.9657
 483  -1342.618
 484  -1221.598
 485  -944.153
 486  -781.2021
 487  -1079.571
 488  -1142.703
 489  -557.4129
 490  -643.1543
 491  -728.9305
 492  -171.5647
 493  -522.4597
 494  -390.498
 495  -558.0105
 496  -143.4386
 497  -136.1289
 498  -21.0138
 499  -149.4397
 500  -880.1004
 501  -661.5652
 502  -534.6216
 503  -727.0911
 504  -1423.215
 505  -1599.253
 506  -1386.891
 507  -1345.998
 508  -1299.394
 509  -1330.172
 510  -1165.811
 511  -1045.027
