# Input file       =  1193936473.117343_cleaned.dat
# Candidate        =  PSR_0332+5434
# Telescope        =  AR
# Epoch_topo       =  58062.709399506282
# Epoch_bary       =  N/A
# T_sample         =  0.002
# Data Folded      =  7340032
# Data Avg         =  0.0292390592556389
# Data StdDev      =  1.00013230008159 
# Profile Bins     =  512
# Profile Avg      =  418.9895994085   
# Profile StdDev   =  119.748877067248 
# Reduced chi-sqr  =  1.394
# Prob(Noise)      <  8.58e-09   (~5.6 sigma)
# P_topo (ms)      =  714.50007832251   +/- 0.000272
# P'_topo (s/s)    =  -0                +/- 1.43e-10
# P''_topo (s/s^2) =  0                 +/- 6.33e-14
# P_bary (ms)      =  N/A
# P'_bary (s/s)    =  N/A
# P''_bary (s/s^2) =  N/A
# P_orb (s)        =  N/A
# asin(i)/c (s)    =  N/A
# eccentricity     =  N/A
# w (rad)          =  N/A
# T_peri           =  N/A
######################################################
   0  1179.271
   1  935.7716
   2  797.0895
   3  603.6275
   4  516.53
   5  387.4099
   6  288.6289
   7  302.7489
   8  362.3676
   9  211.6103
  10  346.5229
  11  412.1343
  12  371.2915
  13  312.7277
  14  369.7216
  15  377.9835
  16  520.3131
  17  514.5815
  18  406.2032
  19  247.6
  20  377.7018
  21  347.6006
  22  267.5699
  23  305.3877
  24  352.2144
  25  254.7987
  26  403.2977
  27  435.3882
  28  410.7389
  29  311.7522
  30  263.236
  31  365.1155
  32  387.8488
  33  445.1904
  34  574.1212
  35  560.2236
  36  397.2512
  37  371.4587
  38  390.3553
  39  445.771
  40  412.1736
  41  503.5877
  42  583.271
  43  506.6349
  44  475.6207
  45  437.3091
  46  383.2435
  47  524.2502
  48  469.0376
  49  497.3972
  50  494.9649
  51  391.4066
  52  367.9097
  53  443.9929
  54  433.9156
  55  433.7585
  56  360.8242
  57  337.5861
  58  289.9257
  59  268.6515
  60  431.3305
  61  512.4572
  62  543.1852
  63  484.6639
  64  494.463
  65  575.4781
  66  460.2876
  67  377.773
  68  532.8924
  69  545.194
  70  545.3707
  71  627.2538
  72  607.0909
  73  506.2829
  74  327.4595
  75  511.8553
  76  568.0045
  77  502.1437
  78  540.7651
  79  533.6716
  80  524.2562
  81  396.2779
  82  496.4189
  83  462.9616
  84  321.9543
  85  417.2819
  86  436.0795
  87  318.9224
  88  353.4339
  89  442.4557
  90  383.5295
  91  391.3573
  92  351.512
  93  509.1998
  94  412.7363
  95  448.4848
  96  391.937
  97  354.3676
  98  375.0695
  99  495.8732
 100  518.982
 101  532.3436
 102  422.6906
 103  434.7393
 104  495.5978
 105  409.4582
 106  399.0066
 107  416.9178
 108  444.8891
 109  414.1602
 110  391.6207
 111  332.2126
 112  406.76
 113  334.7613
 114  275.7508
 115  285.6494
 116  391.6798
 117  491.8019
 118  426.0668
 119  393.3808
 120  371.3442
 121  307.4095
 122  414.1978
 123  370.8254
 124  428.3784
 125  495.2314
 126  401.5494
 127  391.8791
 128  416.3809
 129  429.7443
 130  499.1072
 131  398.9301
 132  388.36
 133  475.3766
 134  460.1048
 135  415.7124
 136  395.1255
 137  575.4415
 138  482.3326
 139  378.9879
 140  419.6337
 141  410.3825
 142  405.6023
 143  336.4971
 144  348.2774
 145  440.2909
 146  568.7511
 147  530.884
 148  435.1545
 149  305.469
 150  288.6405
 151  348.5574
 152  335.9866
 153  395.3394
 154  407.4456
 155  421.4247
 156  315.942
 157  420.782
 158  542.3896
 159  390.4178
 160  451.11
 161  606.8865
 162  635.8324
 163  609.6303
 164  613.496
 165  549.663
 166  342.5702
 167  453.1871
 168  545.3976
 169  589.8657
 170  481.8037
 171  406.8082
 172  563.4185
 173  512.5424
 174  458.4412
 175  453.6086
 176  377.8864
 177  271.4159
 178  356.9386
 179  520.6282
 180  477.7003
 181  358.5482
 182  307.9001
 183  291.7155
 184  325.6318
 185  385.1782
 186  452.7641
 187  424.5697
 188  322.3932
 189  440.6942
 190  385.1949
 191  268.8011
 192  393.3327
 193  441.2035
 194  309.5975
 195  302.2668
 196  433.0559
 197  430.0342
 198  451.6414
 199  471.8595
 200  473.0147
 201  377.3499
 202  350.2626
 203  353.1089
 204  399.9837
 205  523.2203
 206  546.3461
 207  445.8623
 208  513.6265
 209  534.262
 210  493.9243
 211  523.723
 212  732.6536
 213  622.7412
 214  470.7921
 215  572.3126
 216  610.7865
 217  504.4268
 218  362.7659
 219  430.7273
 220  419.4778
 221  339.4663
 222  294.5125
 223  252.0479
 224  333.042
 225  276.0825
 226  274.3609
 227  281.34
 228  439.2015
 229  480.4383
 230  341.536
 231  397.383
 232  384.3141
 233  401.6579
 234  409.7621
 235  407.8766
 236  291.2059
 237  323.9099
 238  305.9177
 239  333.4193
 240  435.6035
 241  410.1124
 242  309.1125
 243  398.0041
 244  435.8478
 245  415.095
 246  391.1873
 247  294.7044
 248  270.7193
 249  293.9923
 250  300.4731
 251  250.6766
 252  389.4511
 253  487.6047
 254  576.4719
 255  514.6484
 256  544.6816
 257  408.179
 258  300.8074
 259  442.1451
 260  511.2469
 261  506.3676
 262  448.0883
 263  461.274
 264  527.8543
 265  430.6261
 266  485.8894
 267  489.4163
 268  497.5603
 269  451.4223
 270  464.4632
 271  480.3232
 272  434.0283
 273  364.4109
 274  386.9203
 275  292.2085
 276  393.0883
 277  293.5815
 278  195.8238
 279  227.8218
 280  265.774
 281  383.5354
 282  319.0648
 283  387.1271
 284  348.7736
 285  347.5299
 286  425.9041
 287  534.6331
 288  564.1131
 289  554.3351
 290  543.8012
 291  442.4556
 292  425.2347
 293  457.7805
 294  436.1414
 295  376.0265
 296  330.0138
 297  470.5145
 298  479.8987
 299  400.444
 300  420.5468
 301  405.2462
 302  341.2244
 303  328.2366
 304  285.9046
 305  236.3665
 306  213.9136
 307  316.8424
 308  337.3832
 309  390.4889
 310  441.6918
 311  444.8381
 312  253.0249
 313  285.99
 314  325.3652
 315  445.701
 316  432.1013
 317  404.9911
 318  546.032
 319  446.2306
 320  373.3243
 321  327.894
 322  416.8576
 323  513.627
 324  402.8519
 325  386.835
 326  451.9509
 327  370.0177
 328  392.9501
 329  282.6745
 330  313.6792
 331  538.6541
 332  390.0913
 333  325.1479
 334  358.4319
 335  343.4059
 336  282.1632
 337  331.118
 338  338.88
 339  325.4597
 340  410.9937
 341  439.1838
 342  408.5556
 343  426.7127
 344  370.2163
 345  343.5503
 346  394.7169
 347  402.0696
 348  373.0425
 349  323.0077
 350  570.1003
 351  551.5175
 352  440.1314
 353  277.1006
 354  403.3094
 355  495.1003
 356  398.1977
 357  302.224
 358  467.5325
 359  493.5018
 360  326.5225
 361  315.7105
 362  492.0939
 363  537.8796
 364  506.5528
 365  537.723
 366  386.5897
 367  394.396
 368  440.4728
 369  301.2693
 370  433.977
 371  447.3267
 372  450.1301
 373  337.6203
 374  368.5735
 375  338.3899
 376  407.0475
 377  389.3613
 378  340.486
 379  422.1924
 380  398.58
 381  462.3406
 382  304.2271
 383  292.5478
 384  259.9205
 385  325.098
 386  302.193
 387  294.706
 388  367.4375
 389  340.415
 390  412.197
 391  404.8711
 392  476.6675
 393  371.4219
 394  298.5645
 395  309.8732
 396  324.6075
 397  345.2915
 398  426.0809
 399  312.5165
 400  253.5157
 401  445.0408
 402  435.3858
 403  408.9636
 404  504.4917
 405  488.0315
 406  477.4912
 407  444.5883
 408  396.2451
 409  433.2408
 410  391.5444
 411  500.8565
 412  447.6384
 413  460.6618
 414  393.823
 415  404.4088
 416  459.1886
 417  375.858
 418  338.418
 419  277.5454
 420  301.7425
 421  334.4439
 422  334.3508
 423  405.7796
 424  613.5359
 425  544.7818
 426  337.4989
 427  288.0639
 428  264.5057
 429  476.157
 430  355.7879
 431  390.2585
 432  486.8564
 433  514.2726
 434  535.7426
 435  375.058
 436  380.2617
 437  507.8294
 438  410.775
 439  388.3672
 440  517.0941
 441  408.7231
 442  334.1259
 443  389.5325
 444  316.1942
 445  390.7922
 446  446.7902
 447  472.1624
 448  487.0266
 449  465.295
 450  399.7128
 451  283.3128
 452  478.8142
 453  492.1025
 454  484.7667
 455  473.3878
 456  581.8305
 457  463.6903
 458  404.3204
 459  459.3451
 460  407.519
 461  372.1625
 462  390.2746
 463  373.4749
 464  470.0728
 465  412.4685
 466  339.2001
 467  433.1128
 468  535.0836
 469  368.269
 470  385.7253
 471  354.2015
 472  364.7718
 473  386.1915
 474  438.9922
 475  457.5712
 476  336.3469
 477  339.1067
 478  355.0762
 479  434.7859
 480  307.0471
 481  230.9519
 482  255.5236
 483  332.4115
 484  415.4467
 485  413.8587
 486  409.1907
 487  385.9593
 488  492.2332
 489  426.2088
 490  567.8102
 491  532.7361
 492  539.5844
 493  521.2868
 494  378.93
 495  319.9701
 496  376.8109
 497  335.2042
 498  450.4817
 499  422.5992
 500  465.5102
 501  516.3872
 502  398.637
 503  466.9817
 504  457.0837
 505  433.0942
 506  448.7041
 507  485.9409
 508  540.5923
 509  757.5223
 510  828.7499
 511  1009.828
