# Input file       =  1193332959.148284_cleaned.dat
# Candidate        =  PSR_0332+5434
# Telescope        =  AR
# Epoch_topo       =  58055.724284123658
# Epoch_bary       =  N/A
# T_sample         =  0.002
# Data Folded      =  7208960
# Data Avg         =  0.0570071512917902
# Data StdDev      =  3.74134655300488 
# Profile Bins     =  1024
# Profile Avg      =  401.417811955627 
# Profile StdDev   =  313.916589508994 
# Reduced chi-sqr  =  0.710
# Prob(Noise)      <  1   (~0.0 sigma)
# P_topo (ms)      =  714.493643289341  +/- 0.0002
# P'_topo (s/s)    =  -0                +/- 1.07e-10
# P''_topo (s/s^2) =  0                 +/- 4.83e-14
# P_bary (ms)      =  N/A
# P'_bary (s/s)    =  N/A
# P''_bary (s/s^2) =  N/A
# P_orb (s)        =  N/A
# asin(i)/c (s)    =  N/A
# eccentricity     =  N/A
# w (rad)          =  N/A
# T_peri           =  N/A
######################################################
   0  582.7132
   1  553.3851
   2  540.4024
   3  422.6359
   4  444.7956
   5  315.1699
   6  336.8039
   7  381.6514
   8  407.9775
   9  393.0836
  10  496.1688
  11  592.1823
  12  643.9498
  13  453.2776
  14  433.6597
  15  536.0624
  16  544.7125
  17  487.0106
  18  445.0583
  19  508.3088
  20  403.681
  21  337.9564
  22  396.151
  23  388.6345
  24  274.3256
  25  173.535
  26  205.5366
  27  259.1525
  28  206.082
  29  302.9069
  30  356.148
  31  416.0769
  32  400.1392
  33  484.7183
  34  492.3222
  35  474.9366
  36  534.1906
  37  687.8688
  38  595.3286
  39  483.8688
  40  274.952
  41  291.5199
  42  208.8123
  43  173.6286
  44  170.9467
  45  282.2654
  46  401.0818
  47  394.6093
  48  364.912
  49  231.9416
  50  338.1841
  51  446.9585
  52  365.3734
  53  170.3175
  54  131.8599
  55  213.2874
  56  280.5365
  57  157.3584
  58  273.902
  59  345.7598
  60  454.8113
  61  408.9042
  62  350.4909
  63  313.8379
  64  418.3568
  65  287.3888
  66  397.2226
  67  320.1617
  68  376.8969
  69  364.5362
  70  447.1158
  71  395.5829
  72  311.0486
  73  333.3136
  74  474.3571
  75  506.0001
  76  391.985
  77  494.0766
  78  322.0819
  79  362.3928
  80  319.1824
  81  467.9781
  82  410.9584
  83  430.7407
  84  405.8102
  85  428.3851
  86  300.2686
  87  285.4051
  88  259.7851
  89  258.1453
  90  265.7605
  91  411.4402
  92  421.3806
  93  425.9597
  94  222.5356
  95  311.3401
  96  462.7419
  97  500.0408
  98  339.8177
  99  155.4056
 100  123.816
 101  194.4284
 102  243.1462
 103  279.6378
 104  287.4086
 105  352.5243
 106  403.2589
 107  467.4401
 108  421.5567
 109  537.1559
 110  570.5049
 111  523.9485
 112  379.3372
 113  337.8472
 114  408.0611
 115  362.4931
 116  171.0272
 117  56.33323
 118  160.6221
 119  449.4603
 120  585.5296
 121  326.8158
 122  118.364
 123  59.0448
 124  160.652
 125  150.4708
 126  253.0948
 127  325.7377
 128  403.1593
 129  407.9259
 130  384.758
 131  295.5787
 132  207.8701
 133  261.7462
 134  328.7793
 135  238.8048
 136  70.95969
 137  87.68932
 138  126.4317
 139  305.708
 140  257.5342
 141  398.0339
 142  329.53
 143  278.0858
 144  236.4895
 145  353.3661
 146  282.4147
 147  391.5995
 148  501.5042
 149  596.3495
 150  377.3511
 151  308.5546
 152  459.0476
 153  506.8147
 154  353.1757
 155  309.5446
 156  354.4065
 157  361.8366
 158  380.5904
 159  474.9043
 160  555.0355
 161  520.9191
 162  471.4164
 163  521.2769
 164  443.7277
 165  354.5764
 166  413.5976
 167  429.1703
 168  439.743
 169  318.7182
 170  402.315
 171  399.9686
 172  347.6057
 173  358.3851
 174  487.8214
 175  503.4355
 176  508.6481
 177  395.118
 178  261.8367
 179  270.3606
 180  226.5477
 181  305.254
 182  289.0964
 183  395.974
 184  421.5308
 185  396.8091
 186  228.5734
 187  189.2682
 188  176.5029
 189  313.7508
 190  394.8102
 191  343.8162
 192  297.5592
 193  251.8116
 194  308.4664
 195  331.6331
 196  299.8169
 197  440.3022
 198  443.16
 199  411.5083
 200  316.5522
 201  431.378
 202  468.6895
 203  528.045
 204  465.4385
 205  405.1422
 206  538.1625
 207  555.8101
 208  659.4548
 209  515.931
 210  504.7839
 211  531.0766
 212  634.8721
 213  612.8271
 214  651.1343
 215  534.2567
 216  553.9805
 217  370.5692
 218  366.0825
 219  348.8634
 220  367.2031
 221  188.7411
 222  180.6298
 223  302.0236
 224  423.671
 225  515.1238
 226  539.4108
 227  491.9954
 228  374.886
 229  360.0139
 230  498.427
 231  564.2739
 232  431.6142
 233  396.1635
 234  473.5228
 235  541.3838
 236  475.7271
 237  356.1639
 238  312.7396
 239  379.9564
 240  400.6827
 241  471.0838
 242  382.1663
 243  326.5482
 244  370.0392
 245  389.5111
 246  282.9321
 247  279.9216
 248  421.6802
 249  439.2234
 250  164.2556
 251  108.9742
 252  287.7265
 253  303.3581
 254  211.1683
 255  211.963
 256  252.4449
 257  310.1927
 258  253.6943
 259  431.8621
 260  472.2318
 261  382.9657
 262  406.2166
 263  371.9663
 264  426.7819
 265  260.4101
 266  363.8131
 267  331.05
 268  452.9634
 269  364.7459
 270  431.2223
 271  440.6857
 272  468.6555
 273  546.3213
 274  490.0964
 275  374.7251
 276  333.6841
 277  400.1109
 278  562.9528
 279  576.3215
 280  471.962
 281  384.712
 282  308.3125
 283  207.0893
 284  132.6012
 285  122.798
 286  310.5858
 287  389.1793
 288  342.1471
 289  434.7281
 290  419.153
 291  407.4474
 292  362.059
 293  454.3143
 294  501.4265
 295  581.1525
 296  527.2822
 297  515.9713
 298  246.8049
 299  172.7105
 300  92.68051
 301  212.5217
 302  195.8247
 303  280.4478
 304  326.4309
 305  354.9855
 306  301.1927
 307  250.7099
 308  267.9943
 309  320.2888
 310  353.3504
 311  309.4791
 312  159.6797
 313  119.8343
 314  277.4782
 315  431.1228
 316  616.1082
 317  629.3418
 318  652.1565
 319  557.9916
 320  538.9904
 321  505.403
 322  512.3676
 323  413.4699
 324  621.8436
 325  527.9203
 326  592.2389
 327  358.9406
 328  375.3385
 329  253.3453
 330  262.4991
 331  256.635
 332  306.648
 333  454.4153
 334  406.0797
 335  444.0147
 336  419.9479
 337  443.9109
 338  396.5696
 339  215.6474
 340  223.6026
 341  241.4758
 342  229.0993
 343  195.8363
 344  271.3036
 345  381.1953
 346  574.7492
 347  474.5879
 348  349.8805
 349  397.2508
 350  364.2186
 351  326.2695
 352  244.2006
 353  268.7733
 354  374.2238
 355  287.7308
 356  336.7864
 357  450.5231
 358  400.6213
 359  500.7473
 360  363.6484
 361  398.4314
 362  297.4668
 363  290.8018
 364  351.7434
 365  411.7056
 366  394.6272
 367  469.5135
 368  411.5235
 369  331.3846
 370  285.1857
 371  273.1596
 372  315.4006
 373  302.9198
 374  344.3
 375  328.9674
 376  379.2001
 377  414.3754
 378  647.3746
 379  542.9822
 380  383.0395
 381  417.6098
 382  467.8056
 383  438.0058
 384  142.7835
 385  67.45512
 386  228.9044
 387  324.7774
 388  395.0965
 389  423.8787
 390  367.6419
 391  251.7129
 392  170.3766
 393  177.7636
 394  195.1969
 395  106.885
 396  189.6848
 397  300.5462
 398  364.9547
 399  378.1971
 400  329.4944
 401  425.629
 402  414.6254
 403  425.4001
 404  291.5922
 405  313.5271
 406  222.145
 407  194.9618
 408  146.8472
 409  289.0154
 410  234.2062
 411  197.3433
 412  130.1457
 413  290.5755
 414  357.9235
 415  472.2179
 416  484.8474
 417  408.2684
 418  328.3779
 419  302.8503
 420  301.0515
 421  192.001
 422  168.8985
 423  199.2829
 424  291.7248
 425  244.3549
 426  342.3401
 427  384.6324
 428  338.5151
 429  321.3277
 430  483.8087
 431  499.4422
 432  406.3468
 433  355.0008
 434  409.3609
 435  321.5298
 436  192.5783
 437  293.6663
 438  548.533
 439  485.275
 440  597.543
 441  417.5549
 442  441.8142
 443  347.8791
 444  430.3379
 445  422.8125
 446  248.6084
 447  226.3704
 448  345.8864
 449  385.1696
 450  282.1166
 451  410.1373
 452  504.845
 453  578.9673
 454  367.2197
 455  485.6889
 456  656.2346
 457  610.5705
 458  456.9761
 459  486.0821
 460  444.826
 461  424.7775
 462  271.1932
 463  334.0818
 464  280.0443
 465  240.7298
 466  217.2616
 467  316.5028
 468  172.4189
 469  144.8344
 470  151.9142
 471  250.4026
 472  219.2614
 473  160.2421
 474  285.0557
 475  380.3893
 476  404.4606
 477  297.2229
 478  245.6926
 479  191.0989
 480  240.9231
 481  330.9185
 482  446.0943
 483  543.1606
 484  537.8762
 485  415.4743
 486  332.6465
 487  324.3856
 488  500.2629
 489  381.9654
 490  326.6952
 491  316.233
 492  373.524
 493  320.5321
 494  310.4532
 495  366.537
 496  431.3857
 497  318.9637
 498  322.1414
 499  374.5963
 500  374.5669
 501  389.8352
 502  422.4175
 503  253.3789
 504  23.7296
 505  16.42708
 506  174.9038
 507  291.0581
 508  293.8249
 509  377.3236
 510  482.8064
 511  521.8282
 512  484.8421
 513  466.5221
 514  325.0774
 515  337.0475
 516  285.646
 517  313.7523
 518  170.1493
 519  197.3944
 520  197.1653
 521  295.4774
 522  247.4017
 523  396.2333
 524  542.3646
 525  595.4389
 526  644.3547
 527  581.8901
 528  642.2706
 529  723.363
 530  730.1688
 531  596.117
 532  390.7921
 533  258.7625
 534  347.2283
 535  224.029
 536  138.4081
 537  142.1807
 538  311.6372
 539  451.7994
 540  484.2924
 541  408.4512
 542  572.9883
 543  491.0908
 544  581.9529
 545  472.4885
 546  481.172
 547  418.2701
 548  488.369
 549  394.0574
 550  324.1528
 551  90.31075
 552  298.0403
 553  547.1829
 554  591.4034
 555  536.6113
 556  535.3877
 557  570.7688
 558  501.9892
 559  405.6384
 560  341.1267
 561  314.7175
 562  258.6328
 563  355.94
 564  353.1191
 565  369.2569
 566  487.2547
 567  706.4406
 568  606.2943
 569  395.1368
 570  143.4697
 571  236.7743
 572  319.7319
 573  443.0565
 574  504.0523
 575  495.323
 576  478.2573
 577  452.8956
 578  376.2848
 579  425.9958
 580  374.7884
 581  433.2365
 582  374.718
 583  212.4025
 584  277.5388
 585  379.5668
 586  557.3329
 587  334.9635
 588  381.9961
 589  417.3361
 590  451.977
 591  315.2833
 592  338.7397
 593  416.9258
 594  494.9836
 595  392.9966
 596  419.1453
 597  394.7475
 598  446.1335
 599  372.0853
 600  342.735
 601  122.5194
 602  241.0722
 603  292.628
 604  531.1878
 605  480.6741
 606  460.8329
 607  484.9631
 608  417.8419
 609  492.7883
 610  490.9027
 611  455.2529
 612  558.5039
 613  621.8102
 614  593.5095
 615  498.834
 616  258.66
 617  314.5319
 618  244.5494
 619  332.2824
 620  440.5013
 621  619.5258
 622  711.0677
 623  812.8224
 624  661.9792
 625  635.0918
 626  585.3812
 627  813.8305
 628  986.8391
 629  964.9
 630  872.9601
 631  936.4745
 632  993.0321
 633  1086.312
 634  1105.032
 635  1183.032
 636  1181.682
 637  999.1931
 638  869.79
 639  844.7837
 640  770.8352
 641  745.0608
 642  679.5828
 643  502.2401
 644  540.2374
 645  574.9928
 646  550.4279
 647  292.773
 648  236.9202
 649  326.839
 650  399.2443
 651  195.316
 652  170.8773
 653  142.7615
 654  330.2793
 655  467.309
 656  551.62
 657  527.8867
 658  417.1979
 659  400.9197
 660  451.0029
 661  447.0018
 662  326.5907
 663  316.3581
 664  380.4213
 665  430.0804
 666  397.4919
 667  375.6363
 668  524.6354
 669  582.4426
 670  593.2213
 671  632.8055
 672  649.8297
 673  690.0753
 674  696.4861
 675  526.3402
 676  383.9213
 677  371.4455
 678  365.3269
 679  408.9018
 680  290.9281
 681  352.3148
 682  375.4318
 683  399.3971
 684  311.1539
 685  364.7159
 686  489.6648
 687  552.8729
 688  518.6323
 689  361.4791
 690  336.6535
 691  288.9042
 692  416.8132
 693  539.1041
 694  543.5612
 695  468.9755
 696  411.3599
 697  348.9576
 698  339.9348
 699  255.9354
 700  402.9644
 701  373.2456
 702  378.4141
 703  287.3213
 704  342.153
 705  298.1432
 706  373.2333
 707  293.3793
 708  315.1048
 709  371.0187
 710  531.2916
 711  436.8357
 712  381.4901
 713  263.2142
 714  480.3269
 715  465.1577
 716  496.9852
 717  396.683
 718  313.6304
 719  199.3357
 720  194.0392
 721  181.5184
 722  281.3932
 723  437.0017
 724  467.3821
 725  462.682
 726  313.306
 727  433.3426
 728  529.6414
 729  535.2197
 730  440.4996
 731  471.3783
 732  460.1366
 733  453.5155
 734  314.1452
 735  371.4683
 736  340.3332
 737  399.8654
 738  427.4702
 739  371.0322
 740  298.421
 741  458.0995
 742  450.9149
 743  528.6991
 744  389.2747
 745  402.188
 746  475.9745
 747  348.5342
 748  266.7831
 749  254.5058
 750  401.5525
 751  356.9854
 752  407.2162
 753  381.6001
 754  463.447
 755  377.3358
 756  531.8915
 757  473.8766
 758  320.8173
 759  226.0443
 760  560.2975
 761  606.0799
 762  554.2068
 763  432.3301
 764  497.4963
 765  483.5882
 766  487.9205
 767  541.1381
 768  639.524
 769  486.0229
 770  455.1561
 771  421.7161
 772  482.0436
 773  365.9441
 774  450.1857
 775  618.973
 776  560.7994
 777  457.3496
 778  459.9806
 779  612.5276
 780  572.8219
 781  523.8754
 782  516.256
 783  523.9521
 784  456.6103
 785  493.0739
 786  473.8954
 787  449.8095
 788  352.7105
 789  547.8592
 790  628.7021
 791  633.224
 792  448.1963
 793  465.6802
 794  357.0417
 795  264.3839
 796  255.9611
 797  427.8944
 798  612.8199
 799  559.1242
 800  441.9146
 801  453.7903
 802  345.7399
 803  526.0355
 804  567.4335
 805  674.5258
 806  659.9999
 807  413.709
 808  391.752
 809  265.0857
 810  451.5414
 811  542.6315
 812  475.1493
 813  284.4397
 814  259.7403
 815  313.793
 816  354.3315
 817  237.3038
 818  304.3408
 819  468.0169
 820  444.0276
 821  382.088
 822  411.3734
 823  411.0969
 824  534.6157
 825  549.3855
 826  550.2455
 827  448.4074
 828  299.6148
 829  340.5646
 830  268.004
 831  215.4653
 832  155.0931
 833  194.4904
 834  187.5463
 835  212.3819
 836  262.7813
 837  404.2856
 838  499.6172
 839  620.4952
 840  518.1058
 841  583.3074
 842  541.7532
 843  743.9943
 844  636.3408
 845  550.8759
 846  467.0252
 847  495.3489
 848  454.7962
 849  278.7028
 850  165.7446
 851  227.2599
 852  295.2474
 853  549.9755
 854  576.2551
 855  504.8682
 856  378.9934
 857  523.6866
 858  657.7731
 859  613.5818
 860  594.3371
 861  599.6375
 862  609.4751
 863  430.67
 864  310.4118
 865  242.2126
 866  271.9464
 867  300.0159
 868  497.5008
 869  456.5504
 870  571.4652
 871  486.922
 872  466.286
 873  216.6756
 874  169.3435
 875  464.3654
 876  701.9853
 877  494.3562
 878  347.2785
 879  448.2874
 880  595.8598
 881  534.5575
 882  388.897
 883  346.641
 884  454.3051
 885  537.9696
 886  577.5019
 887  568.4374
 888  450.3564
 889  632.4716
 890  734.7134
 891  822.6291
 892  564.0157
 893  402.662
 894  433.0834
 895  509.9441
 896  457.3086
 897  540.8009
 898  485.4942
 899  585.505
 900  629.3734
 901  583.4421
 902  503.0371
 903  243.7722
 904  328.29
 905  441.7223
 906  386.2032
 907  284.4271
 908  414.0113
 909  551.8891
 910  665.9716
 911  433.404
 912  554.4974
 913  599.6898
 914  637.7661
 915  579.845
 916  580.7256
 917  482.8705
 918  440.53
 919  315.8849
 920  378.2525
 921  289.1183
 922  285.9128
 923  267.0224
 924  385.0313
 925  323.4169
 926  424.7935
 927  501.1146
 928  652.8965
 929  741.2598
 930  729.6234
 931  731.2507
 932  605.701
 933  440.3656
 934  464.8105
 935  579.8326
 936  583.3629
 937  451.7584
 938  279.5591
 939  290.8815
 940  368.342
 941  435.7805
 942  412.9961
 943  354.8246
 944  253.7951
 945  265.7943
 946  246.5166
 947  316.2351
 948  398.7277
 949  505.7414
 950  592.3901
 951  529.4584
 952  321.2409
 953  396.2097
 954  286.258
 955  229.952
 956  124.2639
 957  253.0013
 958  300.7794
 959  405.3326
 960  410.5108
 961  369.0952
 962  237.6192
 963  189.9941
 964  387.1193
 965  423.3966
 966  408.5413
 967  430.1533
 968  463.0056
 969  404.455
 970  258.5672
 971  332.1415
 972  469.6847
 973  470.0327
 974  489.6772
 975  529.9042
 976  497.6808
 977  482.5534
 978  462.7185
 979  388.8282
 980  322.0609
 981  333.3997
 982  382.7156
 983  323.8255
 984  212.2688
 985  282.5475
 986  385.1772
 987  356.3803
 988  315.0165
 989  409.7936
 990  461.7389
 991  474.9707
 992  440.8345
 993  488.0854
 994  363.6438
 995  417.3297
 996  410.3273
 997  431.2085
 998  94.27206
 999  136.6848
1000  179.687
1001  361.9133
1002  396.3368
1003  334.4414
1004  311.985
1005  400.4514
1006  317.1072
1007  401.541
1008  320.6383
1009  374.231
1010  412.0692
1011  234.2749
1012  313.4527
1013  289.3335
1014  374.5562
1015  461.8178
1016  376.0586
1017  362.3717
1018  306.8925
1019  266.506
1020  432.6142
1021  356.6503
1022  441.4206
1023  408.5848
