# Input file       =  1193778978.151512_cleaned.dat
# Candidate        =  PSR_0332+5434
# Telescope        =  AR
# Epoch_topo       =  58060.886541105465
# Epoch_bary       =  N/A
# T_sample         =  0.002
# Data Folded      =  7340032
# Data Avg         =  0.123060641726105
# Data StdDev      =  3.75453482776165 
# Profile Bins     =  256
# Profile Avg      =  3528.40159054735 
# Profile StdDev   =  635.748188351235 
# Reduced chi-sqr  =  0.946
# Prob(Noise)      <  0.721   (~0.0 sigma)
# P_topo (ms)      =  714.498388828292  +/- 0.000608
# P'_topo (s/s)    =  -0                +/- 3.21e-10
# P''_topo (s/s^2) =  0                 +/- 1.42e-13
# P_bary (ms)      =  N/A
# P'_bary (s/s)    =  N/A
# P''_bary (s/s^2) =  N/A
# P_orb (s)        =  N/A
# asin(i)/c (s)    =  N/A
# eccentricity     =  N/A
# w (rad)          =  N/A
# T_peri           =  N/A
######################################################
   0  3401.78
   1  3315.303
   2  3552.989
   3  3249.85
   4  3242.385
   5  3452.862
   6  3916.112
   7  3998.423
   8  2983.782
   9  3112.034
  10  3756.457
  11  4324.685
  12  3836.15
  13  3981.078
  14  3764
  15  3388.083
  16  3525.863
  17  2883.948
  18  3501.571
  19  3696.316
  20  3478.885
  21  2932.507
  22  2862.156
  23  2792.737
  24  2906.646
  25  2768.786
  26  3618.577
  27  3145.173
  28  3110.124
  29  3723.465
  30  3385.274
  31  3688.579
  32  3374.965
  33  3807.686
  34  3007.252
  35  2641.962
  36  2931.521
  37  3147.873
  38  3827.912
  39  3356.492
  40  3697.534
  41  2926.513
  42  3835.665
  43  4084.78
  44  2838.68
  45  2893.358
  46  3437.176
  47  3843.606
  48  3000.757
  49  3057.978
  50  3147.355
  51  2883.368
  52  2849.068
  53  3593.304
  54  3097.72
  55  3103.669
  56  2955.02
  57  3234.341
  58  3373.644
  59  3314.2
  60  3408.571
  61  3522.878
  62  3481.263
  63  3320.628
  64  2866.298
  65  2892.219
  66  2889.773
  67  3370.082
  68  3102.963
  69  2920.435
  70  3167.155
  71  3025.299
  72  3368.577
  73  3372.27
  74  2871.802
  75  2705.439
  76  3148.961
  77  3336.04
  78  3146.819
  79  3287.007
  80  3678.004
  81  3952.83
  82  3786.351
  83  3828.669
  84  4219.627
  85  4040.983
  86  3566.041
  87  4394.251
  88  4688.37
  89  4185.709
  90  3896.123
  91  3504.067
  92  3398.75
  93  3471.848
  94  2910.531
  95  2549.51
  96  2703.101
  97  3342.007
  98  3451.976
  99  2986.447
 100  3017.148
 101  3221.346
 102  2767.111
 103  2427.717
 104  3439.466
 105  3994.571
 106  3076.941
 107  3084.438
 108  3533.505
 109  3708.003
 110  3313.468
 111  4447.647
 112  4441.377
 113  4002.134
 114  4245.031
 115  3995.564
 116  3572.593
 117  3401.589
 118  3624.742
 119  3390.977
 120  3957.502
 121  4155.194
 122  3704.714
 123  3991.976
 124  4300.462
 125  3586.575
 126  3812.898
 127  3582.694
 128  3516.664
 129  2738.697
 130  3069.027
 131  3590.554
 132  3604.176
 133  3732.145
 134  3738.742
 135  3275.991
 136  3784.741
 137  3665.589
 138  3254.566
 139  3148.526
 140  3076.157
 141  2985.915
 142  3661.282
 143  3297.865
 144  3935.907
 145  3217.493
 146  3174.926
 147  2921.859
 148  2674.995
 149  3243.962
 150  3035.506
 151  3088.96
 152  2724.638
 153  2620.741
 154  3328.476
 155  3771.569
 156  4255.63
 157  5714.712
 158  6459.032
 159  5980.906
 160  3613.029
 161  3193.08
 162  3425.248
 163  3004.073
 164  4177.021
 165  3554.686
 166  3462.286
 167  2954.759
 168  2758.968
 169  2878.016
 170  2896.095
 171  3216.36
 172  3462.844
 173  3208.553
 174  3019.708
 175  3672.723
 176  3748.911
 177  3635.672
 178  2961.96
 179  3469.531
 180  3451.722
 181  3823.37
 182  3470.333
 183  4057.625
 184  3592.851
 185  3186.156
 186  3725.938
 187  3199.081
 188  3350.354
 189  3447.652
 190  3198.469
 191  3248.934
 192  2939.445
 193  3425.134
 194  4626.584
 195  3825.454
 196  4126.393
 197  3960.97
 198  3644.755
 199  3538.19
 200  4233.747
 201  4204.96
 202  4684.604
 203  3995.231
 204  3558.247
 205  4109.203
 206  3847.448
 207  3057.824
 208  3249.673
 209  3805.266
 210  3209.89
 211  2807.666
 212  3552.923
 213  4015.539
 214  3705.083
 215  3922.691
 216  3491.948
 217  4272.08
 218  4291.747
 219  3481.43
 220  3684.546
 221  4605.531
 222  4327.66
 223  4559.51
 224  3662.26
 225  4634.984
 226  3718.328
 227  3557.77
 228  3951.353
 229  3910.084
 230  3271.598
 231  3809.052
 232  3905.961
 233  3945.159
 234  4097.598
 235  4230.144
 236  4094.971
 237  3545.187
 238  3640.765
 239  3625.146
 240  3664.511
 241  3754.654
 242  3674.928
 243  3807.252
 244  3538.262
 245  3945.775
 246  4186.394
 247  3942.745
 248  3912.303
 249  3290.788
 250  3712.906
 251  3285.987
 252  3043.716
 253  3225.484
 254  3441.162
 255  4009.221
