# Input file       =  1193332959.148284_cleaned.dat
# Candidate        =  PSR_0332+5434
# Telescope        =  AR
# Epoch_topo       =  58055.724284123658
# Epoch_bary       =  N/A
# T_sample         =  0.002
# Data Folded      =  7208960
# Data Avg         =  0.0570071512917902
# Data StdDev      =  3.74134655300488 
# Profile Bins     =  256
# Profile Avg      =  1605.67124781419 
# Profile StdDev   =  627.833179017987 
# Reduced chi-sqr  =  0.845
# Prob(Noise)      <  0.965   (~0.0 sigma)
# P_topo (ms)      =  714.493643187223  +/- 0.000542
# P'_topo (s/s)    =  -0                +/- 2.91e-10
# P''_topo (s/s^2) =  0                 +/- 1.31e-13
# P_bary (ms)      =  N/A
# P'_bary (s/s)    =  N/A
# P''_bary (s/s^2) =  N/A
# P_orb (s)        =  N/A
# asin(i)/c (s)    =  N/A
# eccentricity     =  N/A
# w (rad)          =  N/A
# T_peri           =  N/A
######################################################
   0  2103.644
   1  1473.196
   2  1778.172
   3  2095
   4  1984.937
   5  1630.658
   6  953.9153
   7  1236.438
   8  1798.322
   9  2344.22
  10  1053.273
  11  1166.733
  12  1354.179
  13  979.8386
  14  982.1404
  15  1536.617
  16  1431.733
  17  1551.661
  18  1571.036
  19  1618.007
  20  1614.223
  21  1512.374
  22  1103.879
  23  1441.162
  24  1544.127
  25  780.6777
  26  1414.018
  27  2037.319
  28  1594.687
  29  717.132
  30  1296.38
  31  756.6877
  32  1532.767
  33  1099.276
  34  502.043
  35  1311.634
  36  1171.187
  37  1852.857
  38  1616.404
  39  1479.117
  40  2068.945
  41  1680.762
  42  1584.142
  43  1602.267
  44  1587.243
  45  1128.179
  46  1374.423
  47  1165.769
  48  1189.177
  49  1548.876
  50  1666.533
  51  1952.911
  52  2230.302
  53  2401.784
  54  1759.033
  55  1022.021
  56  1906.915
  57  1758.605
  58  1867.938
  59  1584.766
  60  1639.505
  61  1310.674
  62  1249.368
  63  958.5439
  64  1138.519
  65  1645.144
  66  1424.521
  67  1601.548
  68  1933.563
  69  1756.727
  70  1586.051
  71  843.0294
  72  1580.831
  73  1829.012
  74  1682.022
  75  695.9382
  76  1296.947
  77  1233.525
  78  896.3693
  79  2408.122
  80  2022.681
  81  2131.882
  82  1178.727
  83  1528.179
  84  1597.94
  85  887.1525
  86  1572.247
  87  1525.124
  88  1172.561
  89  1602.098
  90  1440.882
  91  1543.463
  92  1390.134
  93  1291.512
  94  1850.479
  95  1799.542
  96  756.3697
  97  1508.385
  98  693.2192
  99  1118.792
 100  1536.552
 101  1195.33
 102  856.5893
 103  1109.515
 104  1600.683
 105  911.9647
 106  1182.036
 107  1594.255
 108  1578.046
 109  1443.938
 110  1833.985
 111  1386.616
 112  1316.752
 113  1910.66
 114  2193.679
 115  1596.019
 116  1069.865
 117  743.8012
 118  952.6752
 119  1250.52
 120  1385.37
 121  1716.844
 122  1506.255
 123  1378.969
 124  1415.473
 125  1544.637
 126  446.1817
 127  1583.546
 128  1721.841
 129  1037.208
 130  1001.112
 131  2306.913
 132  2713.056
 133  1388.171
 134  911.5452
 135  1917.056
 136  2003.121
 137  1453.544
 138  1772.377
 139  2047.861
 140  1297.427
 141  1761.081
 142  1599.094
 143  1652.339
 144  1788.917
 145  1495.067
 146  1504.463
 147  1553.116
 148  1608.801
 149  1598.157
 150  1052.893
 151  1858.478
 152  1884.451
 153  2255.084
 154  1234.441
 155  2328.123
 156  2679.868
 157  3717.843
 158  4278.761
 159  4048.514
 160  2893.954
 161  2054.701
 162  1220.447
 163  913.29
 164  1917.305
 165  1591.179
 166  1568.886
 167  2215.653
 168  2625.434
 169  1596.889
 170  1409.757
 171  1645.218
 172  1637.834
 173  1906.468
 174  1443.711
 175  1416.486
 176  1304.145
 177  1576.543
 178  1558.245
 179  1575.144
 180  924.2092
 181  1673.777
 182  1985.11
 183  1647.385
 184  1583.123
 185  1651.587
 186  1682.876
 187  1295.17
 188  1590.035
 189  1633.489
 190  2048.28
 191  1958.456
 192  2062.213
 193  1776.934
 194  2120.151
 195  2203.787
 196  1903.459
 197  2108.802
 198  1694.461
 199  1717.639
 200  1734.311
 201  2422.494
 202  1565.211
 203  1448.609
 204  1269.614
 205  1680.836
 206  2084.743
 207  1228.089
 208  749.8397
 209  1579.315
 210  2309.477
 211  2295.499
 212  1272.52
 213  1804.373
 214  2092.602
 215  2345.042
 216  1170.282
 217  1895.48
 218  1318.617
 219  2003.713
 220  1944.705
 221  2035.262
 222  2517.938
 223  2070.994
 224  2029.484
 225  2124.042
 226  1416.928
 227  1998.429
 228  2313.181
 229  1922.983
 230  1256.533
 231  1507.759
 232  2759.175
 233  2143.173
 234  1776.306
 235  1519.714
 236  1121.211
 237  1921.774
 238  1389.01
 239  945.9902
 240  1341.955
 241  1523.907
 242  1510.768
 243  1838.841
 244  1924.164
 245  1393.323
 246  1212.727
 247  1599.832
 248  1731.639
 249  1222.981
 250  1196.156
 251  1391.506
 252  1428.526
 253  1318.434
 254  1390.883
 255  1573.628
