# Input file       =  1193089133.132607_cleaned.dat
# Candidate        =  PSR_0332+5434
# Telescope        =  AR
# Epoch_topo       =  58052.902223757024
# Epoch_bary       =  N/A
# T_sample         =  0.002
# Data Folded      =  7340032
# Data Avg         =  0.0480793357076305
# Data StdDev      =  2.48647503363597 
# Profile Bins     =  1024
# Profile Avg      =  344.84547158762  
# Profile StdDev   =  210.515026565495 
# Reduced chi-sqr  =  1.128
# Prob(Noise)      <  0.00252   (~2.8 sigma)
# P_topo (ms)      =  714.491158167113  +/- 0.000281
# P'_topo (s/s)    =  -0                +/- 1.48e-10
# P''_topo (s/s^2) =  0                 +/- 6.55e-14
# P_bary (ms)      =  N/A
# P'_bary (s/s)    =  N/A
# P''_bary (s/s^2) =  N/A
# P_orb (s)        =  N/A
# asin(i)/c (s)    =  N/A
# eccentricity     =  N/A
# w (rad)          =  N/A
# T_peri           =  N/A
######################################################
   0  368.4194
   1  443.2309
   2  448.5342
   3  476.2517
   4  447.9599
   5  367.2204
   6  298.262
   7  320.8377
   8  428.0738
   9  473.3996
  10  448.1856
  11  409.6743
  12  351.6107
  13  333.3142
  14  318.2791
  15  300.0822
  16  360.7168
  17  396.7374
  18  488.6068
  19  478.1405
  20  460.8328
  21  462.5527
  22  377.38
  23  313.4239
  24  276.4352
  25  352.6944
  26  474.2911
  27  475.5334
  28  450.5539
  29  308.5729
  30  287.6689
  31  252.5757
  32  364.7473
  33  389.6646
  34  385.6801
  35  310.9614
  36  342.2742
  37  367.9215
  38  302.9508
  39  274.9917
  40  322.428
  41  398.7699
  42  413.7251
  43  499.6395
  44  569.1386
  45  568.8264
  46  520.2822
  47  538.046
  48  625.1104
  49  575.9897
  50  435.1407
  51  247.1384
  52  191.2383
  53  328.4047
  54  408.6396
  55  468.0529
  56  351.2227
  57  322.9818
  58  303.1497
  59  339.4237
  60  362.6164
  61  380.7332
  62  389.552
  63  414.4702
  64  488.0585
  65  383.6366
  66  372.3565
  67  330.8495
  68  391.3329
  69  347.2839
  70  372.1621
  71  470.7511
  72  491.8604
  73  458.8381
  74  398.5577
  75  396.2283
  76  432.1934
  77  401.0815
  78  406.3456
  79  455.4363
  80  500.8391
  81  447.1809
  82  400.7183
  83  350.9799
  84  392.1291
  85  252.2145
  86  281.5734
  87  348.9424
  88  443.9739
  89  388.6642
  90  372.5172
  91  416.793
  92  356.8527
  93  300.4563
  94  185.8469
  95  143.5621
  96  8.781825
  97  62.02711
  98  208.2075
  99  397.2117
 100  409.4805
 101  496.6335
 102  518.1434
 103  543.219
 104  408.9951
 105  395.7259
 106  430.2678
 107  402.7931
 108  375.9257
 109  307.8551
 110  282.2123
 111  330.2033
 112  359.4417
 113  427.0674
 114  437.0648
 115  362.8112
 116  322.139
 117  272.1344
 118  368.1755
 119  486.1015
 120  616.4342
 121  570.7444
 122  551.223
 123  475.1121
 124  537.4207
 125  461.9455
 126  389.7782
 127  370.0711
 128  459.381
 129  506.679
 130  520.25
 131  486.2157
 132  528.2283
 133  458.5316
 134  477.6751
 135  417.6744
 136  445.0352
 137  386.9398
 138  434.5952
 139  528.3026
 140  539.1299
 141  516.0718
 142  483.342
 143  463.7602
 144  458.1352
 145  411.6061
 146  460.6978
 147  443.6091
 148  472.6675
 149  428.2773
 150  370.9973
 151  283.815
 152  385.4245
 153  386.0933
 154  371.9115
 155  221.2124
 156  188.34
 157  171.8569
 158  249.2437
 159  318.6515
 160  377.9849
 161  360.2667
 162  415.0293
 163  326.0962
 164  253.2282
 165  305.961
 166  446.8764
 167  446.9223
 168  360.2226
 169  396.7797
 170  485.6911
 171  428.5857
 172  364.3254
 173  381.7873
 174  468.8407
 175  453.1463
 176  342.1455
 177  294.8609
 178  337.4328
 179  401.7872
 180  465.6659
 181  429.6159
 182  457.026
 183  310.7027
 184  220.9941
 185  114.2065
 186  167.2979
 187  280.8659
 188  425.1973
 189  475.8065
 190  505.1504
 191  407.3523
 192  292.1792
 193  218.7765
 194  254.2124
 195  251.8419
 196  355.8253
 197  399.4479
 198  442.1802
 199  384.3811
 200  334.8523
 201  334.6328
 202  345.8999
 203  426.0682
 204  375.1136
 205  350.1229
 206  290.8756
 207  308.2728
 208  371.7618
 209  515.9941
 210  505.1263
 211  418.3688
 212  320.6513
 213  290.4007
 214  339.7498
 215  303.2334
 216  262.0991
 217  284.3781
 218  358.1314
 219  320.4832
 220  171.599
 221  139.625
 222  226.2142
 223  333.4342
 224  393.9291
 225  467.0913
 226  402.3099
 227  390.9689
 228  304.8322
 229  382.3036
 230  348.2247
 231  392.4253
 232  401.5372
 233  410.6711
 234  297.832
 235  368.9835
 236  369.7359
 237  395.564
 238  274.4229
 239  242.1328
 240  269.6616
 241  361.0984
 242  394.9902
 243  326.1454
 244  253.1704
 245  231.3534
 246  282.9837
 247  321.2633
 248  323.7391
 249  298.8132
 250  365.8284
 251  357.5091
 252  346.1309
 253  369.7007
 254  414.7479
 255  436.1144
 256  374.7854
 257  335.933
 258  246.9441
 259  268.1264
 260  343.3083
 261  452.836
 262  366.9415
 263  296.8076
 264  268.6369
 265  277.3844
 266  314.8104
 267  395.484
 268  329.7795
 269  166.7063
 270  106.0713
 271  247.4125
 272  330.3761
 273  271.3614
 274  239.5672
 275  234.9488
 276  233.9328
 277  206.1642
 278  179.0045
 279  225.5686
 280  299.0078
 281  358.6228
 282  286.9442
 283  254.3393
 284  283.802
 285  351.4077
 286  314.2538
 287  340.9119
 288  268.58
 289  313.8481
 290  281.6118
 291  306.9639
 292  316.1514
 293  450.0737
 294  564.001
 295  559.9096
 296  504.058
 297  494.8656
 298  515.8568
 299  422.3607
 300  402.6154
 301  404.9555
 302  427.47
 303  452.4527
 304  529.4582
 305  495.994
 306  388.9472
 307  276.1384
 308  343.2188
 309  351.843
 310  339.4126
 311  300.1104
 312  328.3872
 313  361.1789
 314  329.601
 315  317.0676
 316  296.4812
 317  359.4687
 318  438.949
 319  388.5526
 320  300.8933
 321  275.3132
 322  359.1222
 323  337.8696
 324  361.2851
 325  340.4767
 326  341.7655
 327  264.8948
 328  260.8701
 329  305.6258
 330  385.3926
 331  433.846
 332  427.1835
 333  490.3195
 334  451.0681
 335  400.5976
 336  380.7679
 337  382.1051
 338  374.5561
 339  300.8781
 340  348.335
 341  325.0674
 342  224.2253
 343  99.43175
 344  79.23802
 345  138.8222
 346  199.0645
 347  288.6917
 348  354.8575
 349  480.6587
 350  515.2277
 351  422.7466
 352  246.0606
 353  215.6759
 354  342.9465
 355  402.1596
 356  360.3463
 357  343.1241
 358  358.9047
 359  360.2345
 360  335.6422
 361  419.4088
 362  421.7209
 363  447.5343
 364  444.1037
 365  462.0847
 366  403.6951
 367  251.1137
 368  305.4475
 369  323.7777
 370  363.3525
 371  279.6147
 372  281.9491
 373  335.62
 374  240.3502
 375  153.2416
 376  -10.34692
 377  54.91514
 378  111.7949
 379  248.9776
 380  301.1227
 381  326.113
 382  280.603
 383  321.6419
 384  236.7624
 385  193.793
 386  113.4091
 387  196.983
 388  195.1535
 389  139.7393
 390  109.0897
 391  166.9195
 392  277.9691
 393  340.9044
 394  407.2865
 395  379.4062
 396  349.9671
 397  313.519
 398  309.4346
 399  262.1831
 400  235.2627
 401  178.7741
 402  330.6316
 403  295.8253
 404  378.607
 405  285.3871
 406  297.6253
 407  277.2002
 408  286.6457
 409  364.9834
 410  351.4041
 411  322.6333
 412  208.9012
 413  132.9286
 414  233.1938
 415  331.5944
 416  284.0771
 417  145.3598
 418  161.5946
 419  362.5959
 420  403.2429
 421  348.0982
 422  209.0728
 423  337.3702
 424  450.3952
 425  550.5266
 426  414.2675
 427  348.6068
 428  288.1148
 429  297.9781
 430  311.5516
 431  290.9488
 432  130.0808
 433  106.1349
 434  146.0727
 435  273.5271
 436  250.2178
 437  270.8271
 438  290.088
 439  326.9217
 440  300.4299
 441  330.5294
 442  359.0485
 443  321.3453
 444  335.0805
 445  323.057
 446  313.3212
 447  286.0724
 448  285.325
 449  282.6916
 450  226.8484
 451  362.8429
 452  382.2791
 453  381.4521
 454  234.8397
 455  255.7676
 456  225.0336
 457  268.9669
 458  286.1956
 459  378.6046
 460  381.5598
 461  342.6881
 462  282.8857
 463  300.4466
 464  318.8412
 465  308.8297
 466  304.211
 467  324.9203
 468  327.5729
 469  226.7532
 470  228.9933
 471  234.5107
 472  331.2498
 473  362.3313
 474  335.2206
 475  325.6225
 476  235.5259
 477  245.8772
 478  212.8196
 479  243.079
 480  301.0932
 481  393.4318
 482  411.4388
 483  394.619
 484  316.1194
 485  339.3431
 486  307.5032
 487  357.4083
 488  278.1931
 489  257.7307
 490  188.3886
 491  181.3282
 492  153.7172
 493  161.3875
 494  169.244
 495  267.6222
 496  299.1249
 497  267.0396
 498  222.2586
 499  215.6318
 500  132.5541
 501  116.4284
 502  81.84026
 503  199.7155
 504  251.7565
 505  281.6914
 506  303.5608
 507  269.0175
 508  328.5866
 509  383.9314
 510  360.3621
 511  361.0849
 512  402.8006
 513  408.9085
 514  380.7405
 515  272.5119
 516  313.3336
 517  348.0775
 518  336.4248
 519  284.7697
 520  291.7942
 521  300.1492
 522  235.8288
 523  249.1049
 524  283.4552
 525  356.1508
 526  374.8874
 527  319.1046
 528  351.7721
 529  377.7451
 530  409.6299
 531  364.2603
 532  277.5234
 533  352.8184
 534  366.4949
 535  401.5346
 536  336.0645
 537  343.1477
 538  348.6501
 539  369.893
 540  355.8798
 541  375.7105
 542  402.2704
 543  452.7791
 544  418.1982
 545  298.8713
 546  300.5598
 547  241.5466
 548  282.5193
 549  235.4382
 550  318.5892
 551  275.42
 552  266.2781
 553  279.5692
 554  222.8829
 555  168.3826
 556  221.11
 557  338.6936
 558  374.4434
 559  255.7364
 560  261.6649
 561  261.3426
 562  177.6568
 563  70.03256
 564  124.7114
 565  247.3918
 566  339.0711
 567  244.8375
 568  221.1792
 569  161.1455
 570  96.34226
 571  65.18108
 572  73.73666
 573  147.1054
 574  188.4857
 575  246.5709
 576  327.0486
 577  423.2038
 578  358.0712
 579  213.8977
 580  152.0788
 581  164.9289
 582  184.0104
 583  107.3158
 584  135.7224
 585  216.1185
 586  377.5613
 587  379.9506
 588  341.1904
 589  279.3496
 590  224.6155
 591  190.0365
 592  229.2932
 593  301.5862
 594  398.3645
 595  453.6636
 596  476.1705
 597  432.5103
 598  373.9581
 599  364.8333
 600  367.05
 601  488.5264
 602  556.0932
 603  486.8061
 604  334.5591
 605  216.1174
 606  200.9805
 607  257.1185
 608  395.4448
 609  478.3228
 610  504.7495
 611  366.3869
 612  250.0138
 613  263.8606
 614  277.1179
 615  319.8264
 616  296.4483
 617  288.4146
 618  334.564
 619  484.2393
 620  491.4013
 621  560.5958
 622  560.5181
 623  591.2814
 624  444.2369
 625  355.0743
 626  364.1315
 627  417.6114
 628  486.7906
 629  506.2254
 630  554.4991
 631  630.1486
 632  821.4532
 633  1078.902
 634  1174.953
 635  1214.543
 636  1200.219
 637  1178.866
 638  1109.357
 639  923.2853
 640  760.4758
 641  598.0684
 642  528.2215
 643  444.9464
 644  440.6749
 645  432.8105
 646  443.7757
 647  425.7031
 648  395.4189
 649  444.7842
 650  429.978
 651  425.8311
 652  404.2822
 653  367.0643
 654  345.252
 655  353.9851
 656  389.3188
 657  349.9022
 658  276.1048
 659  302.2933
 660  367.56
 661  365.7112
 662  265.8867
 663  232.1367
 664  257.658
 665  276.5288
 666  172.848
 667  140.0499
 668  157.6039
 669  236.1991
 670  280.8547
 671  280.1214
 672  277.1142
 673  360.2928
 674  317.9904
 675  240.4242
 676  213.652
 677  209.7157
 678  374.5293
 679  473.8999
 680  620.2485
 681  545.8225
 682  444.2397
 683  363.2986
 684  391.166
 685  477.1791
 686  384.1794
 687  304.3422
 688  136.4608
 689  208.8692
 690  237.3512
 691  294.0496
 692  260.0741
 693  244.6711
 694  300.9696
 695  264.1351
 696  302.3145
 697  276.8454
 698  243.8869
 699  246.6583
 700  299.8582
 701  340.1219
 702  358.7194
 703  329.049
 704  296.3886
 705  355.7447
 706  394.1386
 707  327.6318
 708  221.3994
 709  226.3109
 710  336.1516
 711  408.7002
 712  478.347
 713  393.8688
 714  386.7205
 715  375.4908
 716  447.9618
 717  404.306
 718  316.5029
 719  243.0547
 720  209.6133
 721  244.3655
 722  279.4441
 723  230.3179
 724  200.702
 725  194.8257
 726  237.0844
 727  200.8912
 728  116.5995
 729  259.5101
 730  399.8642
 731  426.0645
 732  378.6205
 733  444.1299
 734  509.6623
 735  466.9479
 736  356.7151
 737  329.229
 738  397.9265
 739  445.7167
 740  537.3624
 741  485.7343
 742  467.5672
 743  517.0986
 744  498.0809
 745  358.8796
 746  224.0168
 747  270.8536
 748  339.7174
 749  403.5091
 750  465.3469
 751  449.6634
 752  292.4533
 753  199.4724
 754  272.6352
 755  377.0011
 756  378.4023
 757  282.8712
 758  271.0567
 759  276.6873
 760  343.6618
 761  296.8258
 762  306.455
 763  210.1962
 764  220.8116
 765  273.3166
 766  307.283
 767  372.1607
 768  372.5343
 769  338.8819
 770  230.4906
 771  147.157
 772  225.7487
 773  310.6606
 774  287.5258
 775  237.4464
 776  205.0148
 777  244.5386
 778  344.3452
 779  334.7914
 780  355.8746
 781  388.2203
 782  504.4281
 783  507.6503
 784  391.6553
 785  302.347
 786  302.2084
 787  266.9423
 788  230.959
 789  174.9505
 790  169.2835
 791  231.763
 792  327.5275
 793  420.2733
 794  391.5408
 795  311.7796
 796  281.498
 797  362.9934
 798  407.8976
 799  389.1752
 800  326.3832
 801  279.0971
 802  348.7168
 803  419.6323
 804  403.7495
 805  411.8568
 806  355.4333
 807  275.7059
 808  152.5166
 809  185.658
 810  345.443
 811  591.5488
 812  594.7781
 813  513.3439
 814  277.5203
 815  287.624
 816  259.9529
 817  234.563
 818  321.973
 819  349.4362
 820  460.0468
 821  381.1188
 822  332.2479
 823  388.5559
 824  467.5804
 825  501.3381
 826  360.6176
 827  177.4668
 828  50.82019
 829  132.9723
 830  258.7699
 831  320.5616
 832  293.7041
 833  300.1022
 834  329.4421
 835  304.9126
 836  258.5887
 837  204.3955
 838  150.6949
 839  169.8583
 840  238.5852
 841  245.0242
 842  298.8873
 843  348.873
 844  401.801
 845  336.2081
 846  316.447
 847  223.4243
 848  331.3343
 849  264.8266
 850  327.9689
 851  345.038
 852  393.7559
 853  318.5984
 854  206.15
 855  257.8854
 856  303.4133
 857  286.5282
 858  246.7756
 859  223.986
 860  148.5965
 861  192.549
 862  195.6889
 863  191.7447
 864  183.9484
 865  367.9475
 866  620.0862
 867  632.795
 868  484.042
 869  342.2217
 870  391.2371
 871  400.2607
 872  389.6935
 873  346.315
 874  386.5143
 875  395.2249
 876  460.9999
 877  406.7978
 878  433.3414
 879  395.1401
 880  428.048
 881  480.2244
 882  531.6135
 883  469.0658
 884  365.3603
 885  319.2676
 886  386.0339
 887  373.2943
 888  430.8266
 889  474.4104
 890  491.4078
 891  364.9571
 892  245.4365
 893  232.3073
 894  301.0117
 895  276.125
 896  237.0871
 897  276.8397
 898  307.877
 899  298.7312
 900  198.7404
 901  132.7897
 902  160.8322
 903  214.381
 904  296.6711
 905  335.5358
 906  394.8693
 907  386.9903
 908  354.4686
 909  360.7308
 910  444.4522
 911  434.4462
 912  436.0233
 913  453.864
 914  419.9645
 915  350.5839
 916  330.6048
 917  450.3743
 918  414.5443
 919  390.0536
 920  310.916
 921  294.1528
 922  103.46
 923  75.30831
 924  120.5649
 925  220.1796
 926  198.6983
 927  170.2475
 928  167.9671
 929  254.7442
 930  345.3912
 931  394.8582
 932  442.6995
 933  475.3016
 934  425.2415
 935  435.8806
 936  457.9972
 937  445.5907
 938  445.4539
 939  483.8206
 940  456.5289
 941  387.7125
 942  283.7271
 943  290.0963
 944  333.1712
 945  342.808
 946  426.9458
 947  365.0714
 948  426.0591
 949  386.1789
 950  469.1704
 951  411.8553
 952  375.2689
 953  262.913
 954  266.9198
 955  132.5415
 956  96.16234
 957  69.72529
 958  181.815
 959  318.2136
 960  373.4797
 961  445.1466
 962  412.9747
 963  372.4807
 964  265.4411
 965  245.6864
 966  316.842
 967  293.0724
 968  242.2714
 969  252.6163
 970  425.629
 971  523.0581
 972  423.1437
 973  262.6789
 974  297.129
 975  348.962
 976  286.1902
 977  210.8029
 978  280.0737
 979  387.9377
 980  366.1985
 981  360.7715
 982  321.0413
 983  342.5293
 984  350.3344
 985  366.0091
 986  307.3587
 987  340.6271
 988  383.6941
 989  472.9478
 990  481.7443
 991  526.5598
 992  443.3289
 993  416.0145
 994  417.1415
 995  437.9544
 996  408.9761
 997  406.3663
 998  463.5816
 999  490.0963
1000  507.7114
1001  459.8498
1002  428.5566
1003  439.6143
1004  472.8549
1005  426.7271
1006  431.6093
1007  390.6182
1008  378.9514
1009  398.3868
1010  344.3101
1011  459.5984
1012  497.4971
1013  530.0039
1014  480.0203
1015  371.4488
1016  347.1219
1017  319.2671
1018  423.3845
1019  415.7276
1020  301.5057
1021  206.8307
1022  185.3485
1023  277.4875
