# Input file       =  1193419152.126804_cleaned.dat
# Candidate        =  PSR_0332+5434
# Telescope        =  AR
# Epoch_topo       =  58056.721888041713
# Epoch_bary       =  N/A
# T_sample         =  0.002
# Data Folded      =  7143424
# Data Avg         =  0.0336856831830644
# Data StdDev      =  3.46552699125613 
# Profile Bins     =  512
# Profile Avg      =  469.950801641663 
# Profile StdDev   =  409.343142690878 
# Reduced chi-sqr  =  0.810
# Prob(Noise)      <  0.999   (~0.0 sigma)
# P_topo (ms)      =  714.494541085402  +/- 0.000547
# P'_topo (s/s)    =  -0                +/- 2.97e-10
# P''_topo (s/s^2) =  0                 +/- 1.35e-13
# P_bary (ms)      =  N/A
# P'_bary (s/s)    =  N/A
# P''_bary (s/s^2) =  N/A
# P_orb (s)        =  N/A
# asin(i)/c (s)    =  N/A
# eccentricity     =  N/A
# w (rad)          =  N/A
# T_peri           =  N/A
######################################################
   0  555.5837
   1  618.2651
   2  389.7762
   3  366.0715
   4  472.2047
   5  612.4747
   6  399.0917
   7  381.4127
   8  306.7081
   9  427.7486
  10  387.4177
  11  766.1811
  12  572.7236
  13  442.0113
  14  223.3231
  15  460.6349
  16  574.8207
  17  446.2332
  18  355.4028
  19  44.3248
  20  250.3615
  21  599.1525
  22  644.0381
  23  590.3785
  24  411.4562
  25  285.9608
  26  316.6022
  27  657.0725
  28  718.4273
  29  536.5222
  30  681.3825
  31  331.4283
  32  483.3148
  33  341.1529
  34  690.7799
  35  935.6688
  36  473.4157
  37  458.5916
  38  233.3392
  39  403.5892
  40  377.3538
  41  223.5686
  42  493.1143
  43  235.8563
  44  129.8375
  45  258.169
  46  496.5167
  47  816.7607
  48  511.4391
  49  410.3285
  50  555.8846
  51  372.8102
  52  397.6623
  53  322.0078
  54  318.7749
  55  389.0858
  56  193.5432
  57  211.212
  58  -75.0205
  59  0.897777
  60  422.8859
  61  332.6497
  62  332.6314
  63  366.6637
  64  739.563
  65  371.9688
  66  369.8809
  67  673.1544
  68  324.006
  69  391.4338
  70  634.4213
  71  125.8458
  72  160.3911
  73  306.1696
  74  513.7747
  75  520.1889
  76  654.8006
  77  551.09
  78  553.5668
  79  406.1667
  80  787.1282
  81  611.6734
  82  601.365
  83  651.1011
  84  413.1322
  85  198.9435
  86  271.0258
  87  169.0132
  88  376.3401
  89  532.9493
  90  618.6531
  91  414.5814
  92  137.5945
  93  219.7579
  94  463.0826
  95  150.5074
  96  65.92626
  97  41.13286
  98  345.1015
  99  378.6767
 100  565.5087
 101  596.2975
 102  349.4016
 103  -148.2437
 104  115.2521
 105  362.5434
 106  641.0018
 107  173.3727
 108  69.32806
 109  622.8574
 110  673.5447
 111  845.6059
 112  339.0843
 113  294.3591
 114  368.5702
 115  185.0695
 116  356.4369
 117  271.2552
 118  552.8255
 119  609.3521
 120  1007.014
 121  938.7283
 122  491.9067
 123  173.2114
 124  296.5678
 125  520.9388
 126  122.74
 127  264.7783
 128  412.0794
 129  313.8974
 130  472.7285
 131  199.7986
 132  598.2375
 133  654.6158
 134  528.6508
 135  444.325
 136  372.7362
 137  737.9277
 138  491.8785
 139  239.2914
 140  348.4286
 141  286.5159
 142  154.6472
 143  450.6378
 144  568.4855
 145  332.3801
 146  287.5341
 147  423.3026
 148  809.2534
 149  821.4037
 150  603.3897
 151  209.9099
 152  440.1401
 153  496.6925
 154  290.8881
 155  731.367
 156  1126.859
 157  757.8309
 158  344.6101
 159  619.0158
 160  497.2464
 161  351.096
 162  144.9147
 163  635.8183
 164  445.276
 165  343.5798
 166  357.588
 167  376.2193
 168  495.9391
 169  426.4015
 170  286.0052
 171  387.807
 172  518.7028
 173  726.7095
 174  843.9332
 175  618.2451
 176  472.6934
 177  316.2185
 178  271.6621
 179  145.4103
 180  903.3408
 181  789.6976
 182  579.9597
 183  665.6519
 184  327.6832
 185  392.5353
 186  460.4984
 187  431.5784
 188  188.3988
 189  -54.54248
 190  326.1384
 191  522.724
 192  427.4714
 193  345.6321
 194  678.0899
 195  419.8581
 196  554.0827
 197  654.4642
 198  448.324
 199  436.6484
 200  375.641
 201  694.6823
 202  637.1565
 203  607.1562
 204  278.3436
 205  161.6033
 206  534.642
 207  352.5374
 208  118.874
 209  422.8191
 210  583.658
 211  563.2333
 212  532.1795
 213  360.4074
 214  740.0853
 215  762.6633
 216  186.4841
 217  200.8401
 218  198.1434
 219  392.2543
 220  384.1937
 221  458.6352
 222  478.476
 223  307.7206
 224  510.9955
 225  651.7535
 226  497.6363
 227  605.2734
 228  733.1152
 229  892.45
 230  708.4661
 231  521.7664
 232  177.3671
 233  363.7014
 234  848.8168
 235  645.6314
 236  455.3534
 237  274.1479
 238  460.4865
 239  574.5186
 240  207.049
 241  490.41
 242  574.0161
 243  722.6503
 244  331.5166
 245  429.9093
 246  191.2874
 247  121.0313
 248  281.8482
 249  143.0981
 250  117.9937
 251  446.0417
 252  703.7093
 253  513.9167
 254  575.604
 255  183.4886
 256  668.2638
 257  393.7603
 258  411.4861
 259  634.937
 260  123.8942
 261  89.74306
 262  63.42416
 263  764.468
 264  885.3779
 265  847.2772
 266  481.3885
 267  469.4398
 268  306.2261
 269  269.6497
 270  693.1222
 271  585.9415
 272  358.7514
 273  538.0059
 274  645.3813
 275  880.1615
 276  801.1813
 277  839.9579
 278  1012.429
 279  533.6913
 280  567.5596
 281  472.6544
 282  -63.23334
 283  171.4988
 284  450.3122
 285  347.7385
 286  570.0413
 287  533.0666
 288  653.1369
 289  544.4505
 290  48.85428
 291  196.0482
 292  109.3854
 293  637.9541
 294  719.1598
 295  722.4667
 296  529.8779
 297  388.0653
 298  519.3486
 299  393.9036
 300  445.3778
 301  569.8076
 302  599.6492
 303  721.1689
 304  344.4709
 305  410.0077
 306  476.3889
 307  396.7336
 308  656.4276
 309  945.8663
 310  866.485
 311  888.8693
 312  965.0282
 313  982.8167
 314  990.7214
 315  1647.57
 316  2092.516
 317  2139.569
 318  2027.815
 319  1683.107
 320  1076.481
 321  713.8813
 322  360.4029
 323  455.0349
 324  496.8817
 325  721.7448
 326  717.1656
 327  677.884
 328  1050.915
 329  584.2496
 330  383.5609
 331  682.0739
 332  659.0039
 333  451.3961
 334  464.2006
 335  472.8718
 336  236.0332
 337  345.2209
 338  126.8951
 339  380.6481
 340  495.4407
 341  407.4284
 342  343.9688
 343  202.0224
 344  218.8217
 345  530.1822
 346  250.6738
 347  391.6536
 348  628.2722
 349  920.8642
 350  922.6488
 351  749.7089
 352  839.8806
 353  568.878
 354  765.0593
 355  708.4356
 356  409.826
 357  180.7353
 358  440.0677
 359  259.3594
 360  265.0887
 361  492.0703
 362  488.6368
 363  535.6935
 364  121.2286
 365  576.6879
 366  590.2702
 367  739.79
 368  447.7617
 369  380.4023
 370  468.8012
 371  451.7316
 372  465.6921
 373  461.7169
 374  877.0755
 375  583.9057
 376  961.5827
 377  773.1286
 378  504.4938
 379  797.4269
 380  416.4432
 381  277.9641
 382  116.5066
 383  54.36858
 384  317.1218
 385  261.3092
 386  497.1326
 387  505.5442
 388  169.0231
 389  196.6532
 390  -218.9543
 391  23.50699
 392  6.838819
 393  447.6684
 394  814.4012
 395  883.7309
 396  669.3646
 397  273.8823
 398  501.1621
 399  538.7238
 400  110.5942
 401  221.6105
 402  733.5137
 403  624.44
 404  710.9695
 405  331.4719
 406  489.4864
 407  266.2227
 408  158.6525
 409  402.4229
 410  866.3945
 411  769.6232
 412  494.5905
 413  316.3294
 414  451.8878
 415  320.747
 416  481.1265
 417  639.5065
 418  369.83
 419  208.4434
 420  635.5941
 421  365.3261
 422  14.08722
 423  288.3167
 424  352.4041
 425  445.5579
 426  314.7912
 427  368.5656
 428  655.1447
 429  644.1794
 430  227.1063
 431  369.3914
 432  499.3406
 433  36.87562
 434  592.8336
 435  810.1984
 436  459.0329
 437  434.2295
 438  384.7328
 439  484.9164
 440  328.5296
 441  546.7742
 442  506.8377
 443  626.6223
 444  432.1054
 445  576.4345
 446  327.282
 447  272.1086
 448  -3.188055
 449  243.6472
 450  461.5815
 451  238.4369
 452  544.335
 453  444.1277
 454  180.2999
 455  193.5445
 456  540.7576
 457  546.7803
 458  248.179
 459  387.0685
 460  1073.781
 461  1189.274
 462  976.7784
 463  227.6687
 464  194.7169
 465  567.2825
 466  550.2935
 467  357.0394
 468  536.5223
 469  527.3515
 470  433.9496
 471  328.8801
 472  173.4764
 473  193.204
 474  225.4059
 475  340.4476
 476  498.4118
 477  265.2836
 478  251.35
 479  544.4885
 480  606.5982
 481  265.9285
 482  139.3722
 483  507.2443
 484  418.4627
 485  562.9214
 486  742.3347
 487  505.1747
 488  434.1513
 489  265.5206
 490  588.2396
 491  518.8419
 492  204.1283
 493  492.7731
 494  546.6953
 495  687.0689
 496  339.2476
 497  378.4261
 498  232.3648
 499  201.6055
 500  4.353568
 501  207.9456
 502  592.3608
 503  755.5142
 504  498.2226
 505  142.0609
 506  444.1992
 507  230.859
 508  256.2207
 509  378.2393
 510  824.5864
 511  148.3621
