# Input file       =  1193433754.154644_cleaned.dat
# Candidate        =  PSR_0332+5434
# Telescope        =  AR
# Epoch_topo       =  58056.890892993564
# Epoch_bary       =  N/A
# T_sample         =  0.002
# Data Folded      =  7340032
# Data Avg         =  0.0172171680987546
# Data StdDev      =  1.00001481624666 
# Profile Bins     =  512
# Profile Avg      =  246.754699934362 
# Profile StdDev   =  119.734810370966 
# Reduced chi-sqr  =  1.217
# Prob(Noise)      <  0.000544   (~3.3 sigma)
# P_topo (ms)      =  714.494703587761  +/- 0.000377
# P'_topo (s/s)    =  -0                +/- 1.99e-10
# P''_topo (s/s^2) =  0                 +/- 8.79e-14
# P_bary (ms)      =  N/A
# P'_bary (s/s)    =  N/A
# P''_bary (s/s^2) =  N/A
# P_orb (s)        =  N/A
# asin(i)/c (s)    =  N/A
# eccentricity     =  N/A
# w (rad)          =  N/A
# T_peri           =  N/A
######################################################
   0  827.2065
   1  880.2004
   2  678.8184
   3  504.9207
   4  311.6075
   5  266.1869
   6  355.4616
   7  206.4625
   8  189.1024
   9  256.8558
  10  336.64
  11  211.471
  12  297.0204
  13  312.7236
  14  323.0522
  15  294.812
  16  277.3133
  17  152.2153
  18  194.9952
  19  186.8241
  20  173.1188
  21  289.1342
  22  252.1953
  23  149.8616
  24  104.2127
  25  307.6466
  26  337.5545
  27  308.0393
  28  226.9022
  29  147.6603
  30  165.7079
  31  229.2181
  32  211.9727
  33  374.5791
  34  297.7623
  35  90.6573
  36  28.6984
  37  108.5355
  38  277.7867
  39  239.9139
  40  277.1761
  41  304.0415
  42  276.2895
  43  254.077
  44  282.7845
  45  219.8905
  46  353.8636
  47  295.3386
  48  197.8327
  49  135.4249
  50  152.5547
  51  284.6563
  52  166.8613
  53  197.8398
  54  344.8487
  55  332.6379
  56  249.8667
  57  349.7847
  58  357.666
  59  169.1773
  60  168.5737
  61  268.1542
  62  391.2737
  63  352.9062
  64  126.2956
  65  227.7657
  66  255.4931
  67  169.328
  68  305.0718
  69  363.3681
  70  252.7409
  71  207.8741
  72  265.7338
  73  251.9684
  74  151.0003
  75  201.6949
  76  189.5831
  77  216.3753
  78  157.4864
  79  71.69955
  80  166.5278
  81  288.8469
  82  155.1203
  83  148.8381
  84  150.215
  85  131.3036
  86  201.8164
  87  191.0079
  88  249.604
  89  255.3266
  90  174.7657
  91  193.7097
  92  184.9802
  93  176.8437
  94  211.7427
  95  219.3382
  96  367.7421
  97  263.782
  98  241.4799
  99  325.1082
 100  217.0692
 101  132.8882
 102  187.6462
 103  211.4274
 104  234.3499
 105  227.7658
 106  188.2528
 107  395.851
 108  268.735
 109  148.9467
 110  229.3077
 111  165.7747
 112  82.66778
 113  84.71626
 114  322.5778
 115  342.8362
 116  223.457
 117  167.2245
 118  122.8295
 119  193.364
 120  180.011
 121  254.5118
 122  280.1855
 123  331.9944
 124  144.3163
 125  176.542
 126  165.8207
 127  234.1697
 128  305.1565
 129  318.9458
 130  182.2858
 131  189.1573
 132  306.5548
 133  331.7729
 134  305.3146
 135  233.3464
 136  303.2166
 137  266.4117
 138  276.1157
 139  245.7949
 140  270.8235
 141  255.8916
 142  225.8812
 143  233.5507
 144  259.1432
 145  202.7258
 146  243.1634
 147  213.5039
 148  170.8863
 149  211.8767
 150  235.2462
 151  260.5414
 152  216.7975
 153  285.314
 154  389.6841
 155  312.5694
 156  322.6265
 157  315.9591
 158  144.4286
 159  245.9188
 160  187.7276
 161  133.6459
 162  320.1759
 163  391.8763
 164  301.1871
 165  322.993
 166  312.2966
 167  275.7563
 168  163.0908
 169  232.6991
 170  282.0504
 171  275.1513
 172  315.5452
 173  185.9145
 174  299.6574
 175  244.4493
 176  281.2985
 177  256.7693
 178  152.5132
 179  370.6392
 180  392.5887
 181  266.6302
 182  293.5539
 183  249.0833
 184  275.8873
 185  67.09895
 186  168.9476
 187  248.3952
 188  321.1553
 189  190.3845
 190  200.4885
 191  203.2793
 192  302.3139
 193  369.776
 194  136.7943
 195  59.57466
 196  120.8207
 197  190.0708
 198  225.5636
 199  317.8661
 200  327.6184
 201  306.685
 202  209.7712
 203  159.3287
 204  241.3741
 205  293.117
 206  237.7253
 207  156.2283
 208  176.3724
 209  265.6784
 210  238.367
 211  203.223
 212  148.3477
 213  134.7936
 214  157.9356
 215  124.4374
 216  217.6893
 217  311.4008
 218  262.5489
 219  154.9464
 220  172.2774
 221  102.9312
 222  36.17989
 223  198.5154
 224  289.9357
 225  158.4738
 226  264.0866
 227  202.9241
 228  262.5097
 229  267.1755
 230  145.0724
 231  164.2798
 232  182.724
 233  241.1933
 234  262.7208
 235  239.8922
 236  146.9415
 237  129.6794
 238  211.3377
 239  289.0005
 240  371.5511
 241  338.9788
 242  235.6327
 243  245.1544
 244  259.766
 245  264.3273
 246  258.1172
 247  334.2261
 248  399.417
 249  228.7755
 250  261.1829
 251  323.0016
 252  164.6621
 253  81.54419
 254  215.2473
 255  234.3875
 256  208.4347
 257  188.141
 258  242.0886
 259  197.4283
 260  198.3664
 261  231.088
 262  289.6815
 263  292.1037
 264  331.1163
 265  264.1221
 266  230.3913
 267  174.9086
 268  276.5847
 269  321.6137
 270  240.4095
 271  86.69669
 272  116.8824
 273  181.8884
 274  258.2133
 275  264.7079
 276  233.3834
 277  173.0321
 278  135.4948
 279  313.7541
 280  245.0616
 281  150.3851
 282  235.3246
 283  280.1241
 284  281.0785
 285  141.7909
 286  174.1749
 287  304.8273
 288  252.8899
 289  89.7583
 290  158.3003
 291  259.4628
 292  278.3002
 293  271.743
 294  199.5048
 295  229.9296
 296  212.2603
 297  141.8221
 298  344.0359
 299  274.4489
 300  345.4154
 301  232.5701
 302  191.4272
 303  206.0857
 304  164.9938
 305  295.2164
 306  229.3343
 307  328.5575
 308  251.4221
 309  326.6123
 310  385.7981
 311  408.2887
 312  248.9698
 313  185.4621
 314  188.4195
 315  275.8865
 316  250.1969
 317  305.5323
 318  251.3377
 319  269.1129
 320  210.8485
 321  252.6709
 322  151.1906
 323  244.3381
 324  292.7277
 325  219.6561
 326  255.0787
 327  221.4542
 328  240.6957
 329  350.8203
 330  287.8795
 331  218.7314
 332  247.1146
 333  207.3958
 334  127.6345
 335  146.5965
 336  146.448
 337  136.5561
 338  191.3178
 339  217.0242
 340  254.9144
 341  304.7256
 342  312.3092
 343  390.9192
 344  228.452
 345  86.74776
 346  113.4064
 347  129.1431
 348  254.3338
 349  294.9973
 350  298.6803
 351  187.7819
 352  274.174
 353  450.9853
 354  215.7052
 355  259.3248
 356  311.1326
 357  281.0298
 358  260.8631
 359  313.3637
 360  291.1585
 361  101.1941
 362  140.0651
 363  161.4097
 364  184.4586
 365  93.75031
 366  97.67924
 367  149.2598
 368  188.512
 369  222.9191
 370  258.0189
 371  187.9189
 372  92.62179
 373  186.5169
 374  202.0599
 375  157.9476
 376  309.3752
 377  301.1765
 378  193.6936
 379  299.8901
 380  293.7719
 381  268.8988
 382  230.3972
 383  297.1691
 384  348.2006
 385  186.5157
 386  208.0879
 387  354.5608
 388  325.207
 389  295.1118
 390  322.4545
 391  225.0205
 392  326.7615
 393  305.3907
 394  342.1613
 395  184.9876
 396  163.2518
 397  153.2392
 398  248.88
 399  393.2293
 400  284.5421
 401  285.467
 402  301.7434
 403  319.4278
 404  234.3281
 405  231.6387
 406  224.4698
 407  146.418
 408  230.6948
 409  378.1361
 410  267.8122
 411  183.2784
 412  100.0817
 413  252.9677
 414  373.4996
 415  254.6037
 416  242.3498
 417  207.9562
 418  111.4139
 419  215.7361
 420  386.2426
 421  227.1786
 422  195.873
 423  285.1704
 424  293.029
 425  302.4362
 426  286.6556
 427  302.4932
 428  201.7032
 429  357.8721
 430  291.272
 431  253.6972
 432  203.7316
 433  156.1559
 434  164.3467
 435  264.7087
 436  305.8246
 437  253.8748
 438  302.4638
 439  319.652
 440  276.6757
 441  258.5842
 442  226.8605
 443  221.4375
 444  365.3932
 445  280.9303
 446  163.117
 447  83.34865
 448  221.2216
 449  158.0553
 450  221.4066
 451  166.2298
 452  179.3431
 453  208.9996
 454  218.8133
 455  191.14
 456  294.7286
 457  346.4103
 458  335.4981
 459  225.7577
 460  208.7891
 461  225.2962
 462  204.0173
 463  257.1037
 464  188.7285
 465  174.4315
 466  299.1606
 467  276.3328
 468  162.945
 469  197.1316
 470  299.7841
 471  373.6595
 472  238.8058
 473  275.1991
 474  359.1664
 475  287.1512
 476  171.1998
 477  184.2408
 478  160.9665
 479  248.1662
 480  217.6732
 481  86.58007
 482  91.50037
 483  120.9392
 484  199.1109
 485  239.7589
 486  216.5
 487  215.5921
 488  358.4787
 489  385.5509
 490  345.1883
 491  287.6019
 492  303.6008
 493  210.2889
 494  209.9162
 495  287.3666
 496  178.8059
 497  219.5766
 498  234.3655
 499  369.3748
 500  259.755
 501  370.7225
 502  445.7687
 503  287.0741
 504  382.3412
 505  373.8652
 506  340.3205
 507  401.4889
 508  487.7774
 509  624.8736
 510  761.1627
 511  896.7167
