# Input file       =  1193190199.154521_cleaned.dat
# Candidate        =  PSR_0332+5434
# Telescope        =  AR
# Epoch_topo       =  58054.071969381032
# Epoch_bary       =  N/A
# T_sample         =  0.002
# Data Folded      =  7340032
# Data Avg         =  0.0137995405612512
# Data StdDev      =  1.00000720082079 
# Profile Bins     =  512
# Profile Avg      =  197.8564326675   
# Profile StdDev   =  119.733898552903 
# Reduced chi-sqr  =  1.529
# Prob(Noise)      <  1.16e-13   (~7.3 sigma)
# P_topo (ms)      =  714.492518103669  +/- 0.00023
# P'_topo (s/s)    =  -0                +/- 1.21e-10
# P''_topo (s/s^2) =  0                 +/- 5.35e-14
# P_bary (ms)      =  N/A
# P'_bary (s/s)    =  N/A
# P''_bary (s/s^2) =  N/A
# P_orb (s)        =  N/A
# asin(i)/c (s)    =  N/A
# eccentricity     =  N/A
# w (rad)          =  N/A
# T_peri           =  N/A
######################################################
   0  154.0054
   1  153.4238
   2  236.9204
   3  333.0569
   4  374.0217
   5  231.1669
   6  172.7301
   7  158.3279
   8  191.5538
   9  162.4525
  10  67.54402
  11  34.57039
  12  108.4956
  13  138.5931
  14  59.00922
  15  148.8304
  16  184.0544
  17  106.2867
  18  222.1667
  19  161.271
  20  221.1589
  21  281.5022
  22  279.3634
  23  308.2077
  24  284.0625
  25  212.4205
  26  171.2671
  27  198.8649
  28  236.3087
  29  152.2639
  30  112.57
  31  148.3688
  32  129.0959
  33  190.4188
  34  243.3873
  35  111.3204
  36  67.52489
  37  269.7172
  38  396.4553
  39  214.2701
  40  209.1533
  41  200.782
  42  138.8854
  43  50.0764
  44  45.5148
  45  263.5572
  46  152.1906
  47  116.3204
  48  146.3055
  49  127.9675
  50  205.6913
  51  214.4039
  52  181.3692
  53  162.4423
  54  299.5145
  55  327.4557
  56  210.8588
  57  153.317
  58  125.8802
  59  178.9348
  60  129.3636
  61  56.07551
  62  186.5258
  63  99.56851
  64  101.5752
  65  238.0154
  66  283.5821
  67  124.3732
  68  98.0851
  69  194.9938
  70  217.0913
  71  173.0581
  72  129.2841
  73  73.45871
  74  39.10287
  75  64.65933
  76  194.9759
  77  108.4045
  78  44.70008
  79  109.7856
  80  55.98095
  81  147.692
  82  97.06041
  83  190.1865
  84  216.0784
  85  146.8739
  86  160.6635
  87  215.8018
  88  232.5578
  89  290.3678
  90  209.7155
  91  170.3371
  92  196.8363
  93  198.1952
  94  89.78973
  95  133.4682
  96  94.7766
  97  197.4214
  98  316.6225
  99  237.6067
 100  285.2004
 101  314.4518
 102  333.232
 103  211.1652
 104  146.2278
 105  326.9783
 106  293.5666
 107  194.6883
 108  261.1072
 109  188.9761
 110  49.74479
 111  209.0581
 112  238.045
 113  47.9775
 114  101.345
 115  124.1321
 116  190.1155
 117  268.3185
 118  183.2106
 119  292.9442
 120  223.2425
 121  101.273
 122  102.3856
 123  277.4744
 124  311.6805
 125  277.2309
 126  258.8718
 127  214.5643
 128  301.1243
 129  228.7676
 130  274.9944
 131  155.9697
 132  153.2939
 133  260.1846
 134  288.9428
 135  270.4091
 136  279.3652
 137  328.8493
 138  267.5674
 139  162.995
 140  183.5453
 141  98.8443
 142  63.65748
 143  183.6761
 144  194.7566
 145  199.4599
 146  119.8898
 147  196.9761
 148  214.7321
 149  303.7044
 150  268.5272
 151  305.6495
 152  260.2624
 153  179.9392
 154  133.3905
 155  344.544
 156  321.0072
 157  255.8153
 158  309.294
 159  251.9755
 160  237.9495
 161  178.7464
 162  147.3695
 163  175.5589
 164  225.7248
 165  139.4365
 166  210.1239
 167  331.8454
 168  276.2782
 169  134.0584
 170  100.4521
 171  141.3651
 172  92.25596
 173  172.3624
 174  242.7324
 175  134.738
 176  100.528
 177  110.9086
 178  130.3125
 179  147.484
 180  94.60297
 181  254.3784
 182  192.0686
 183  117.6348
 184  89.56385
 185  115.1451
 186  144.7011
 187  142.3962
 188  189.0244
 189  218.1456
 190  78.31973
 191  117.9223
 192  -28.74305
 193  101.1191
 194  41.63364
 195  323.4823
 196  314.0019
 197  211.6432
 198  249.3834
 199  162.926
 200  248.3701
 201  204.3255
 202  70.84176
 203  69.77727
 204  29.22408
 205  115.5933
 206  145.7252
 207  134.1421
 208  200.5521
 209  144.8587
 210  139.4268
 211  133.1169
 212  248.3504
 213  131.724
 214  101.4513
 215  38.58424
 216  91.82141
 217  75.66716
 218  150.3411
 219  183.7753
 220  172.0845
 221  135.1634
 222  73.97274
 223  127.7703
 224  260.8862
 225  219.9428
 226  364.5725
 227  187.1499
 228  28.81069
 229  134.7011
 230  237.0913
 231  113.5054
 232  105.4081
 233  116.1546
 234  134.8859
 235  148.2344
 236  127.1826
 237  171.7844
 238  262.1655
 239  235.2565
 240  276.1344
 241  202.231
 242  156.6087
 243  194.1856
 244  208.6287
 245  187.3848
 246  174.2133
 247  51.57349
 248  133.7481
 249  141.7171
 250  77.79006
 251  92.69695
 252  200.3495
 253  237.7889
 254  232.0072
 255  227.468
 256  226.9178
 257  252.4698
 258  245.2881
 259  285.5053
 260  168.7112
 261  152.312
 262  288.7716
 263  137.639
 264  124.936
 265  219.3069
 266  67.53627
 267  30.21418
 268  78.92879
 269  -30.53529
 270  -85.69983
 271  -2.283133
 272  158.46
 273  148.5094
 274  49.88118
 275  64.01375
 276  115.2642
 277  179.6537
 278  233.5612
 279  248.1305
 280  244.6716
 281  168.4906
 282  186.3445
 283  145.1879
 284  103.4732
 285  214.7996
 286  213.0086
 287  283.9803
 288  146.105
 289  133.4501
 290  181.8629
 291  146.016
 292  226.0488
 293  230.3713
 294  211.5747
 295  227.153
 296  171.8485
 297  220.8732
 298  281.28
 299  214.9102
 300  65.86023
 301  134.1617
 302  178.1532
 303  120.14
 304  64.74846
 305  156.0965
 306  223.1243
 307  223.2308
 308  235.4654
 309  252.0118
 310  177.1109
 311  211.2568
 312  50.04448
 313  73.70425
 314  135.0959
 315  14.31295
 316  115.2718
 317  163.4797
 318  -32.68924
 319  171.4104
 320  159.174
 321  180.0437
 322  193.3618
 323  256.3826
 324  213.0959
 325  60.6348
 326  225.501
 327  169.1672
 328  142.6415
 329  29.56698
 330  127.1693
 331  133.3943
 332  11.17115
 333  84.92639
 334  104.3873
 335  114.9223
 336  84.37823
 337  117.9753
 338  166.5957
 339  203.045
 340  99.05663
 341  254.9709
 342  194.9048
 343  97.90308
 344  353.0142
 345  349.1909
 346  259.361
 347  249.9281
 348  232.3845
 349  290.6481
 350  269.567
 351  258.0298
 352  232.148
 353  223.1773
 354  55.35274
 355  161.9266
 356  255.5303
 357  365.2623
 358  281.6301
 359  272.55
 360  405.1958
 361  282.1194
 362  298.927
 363  269.3978
 364  139.1227
 365  -44.45428
 366  31.0232
 367  292.5035
 368  302.5117
 369  188.3936
 370  119.5168
 371  69.11698
 372  250.4648
 373  467.4808
 374  366.1758
 375  362.0893
 376  339.1712
 377  442.0985
 378  648.3235
 379  655.1887
 380  677.2225
 381  922.9969
 382  993.428
 383  766.0361
 384  471.0063
 385  323.5585
 386  221.8646
 387  131.1316
 388  239.6043
 389  154.0838
 390  165.5146
 391  198.5417
 392  199.3717
 393  113.5772
 394  165.1434
 395  197.7297
 396  281.9869
 397  325.2451
 398  362.1707
 399  339.2301
 400  106.6953
 401  199.7374
 402  258.2159
 403  237.3726
 404  194.0608
 405  258.0919
 406  211.6596
 407  72.83173
 408  84.86092
 409  185.8278
 410  272.3629
 411  304.9218
 412  204.0364
 413  71.21374
 414  281.9661
 415  398.7798
 416  310.3574
 417  58.57622
 418  172.5851
 419  171.295
 420  237.131
 421  143.9647
 422  288.1798
 423  325.3978
 424  277.4715
 425  160.9744
 426  209.4915
 427  271.487
 428  195.7743
 429  177.2194
 430  246.569
 431  218.6232
 432  168.0127
 433  108.6957
 434  187.8505
 435  181.001
 436  153.7232
 437  251.7786
 438  274.2953
 439  253.1924
 440  199.6591
 441  256.1856
 442  300.7428
 443  242.2758
 444  183.5275
 445  179.074
 446  166.8529
 447  253.5098
 448  158.0166
 449  371.0461
 450  314.6134
 451  151.2543
 452  166.7067
 453  161.2836
 454  161.4299
 455  272.8559
 456  319.839
 457  344.8892
 458  216.0771
 459  51.12132
 460  273.295
 461  331.907
 462  262.2414
 463  189.0466
 464  324.4925
 465  300.5921
 466  300.2825
 467  300.8945
 468  258.8222
 469  172.219
 470  84.42361
 471  111.0941
 472  179.5528
 473  318.45
 474  235.6897
 475  208.8176
 476  204.2436
 477  231.648
 478  335.1317
 479  299.6644
 480  111.7161
 481  267.9052
 482  335.4892
 483  359.0248
 484  364.5082
 485  238.3055
 486  103.0087
 487  169.7833
 488  228.0861
 489  117.3044
 490  120.4104
 491  206.0198
 492  287.6548
 493  211.3465
 494  144.7888
 495  204.2059
 496  88.78744
 497  91.59405
 498  151.1417
 499  133.6556
 500  240.8948
 501  214.9556
 502  231.8167
 503  342.8592
 504  337.0895
 505  194.2089
 506  183.6251
 507  157.5957
 508  202.1337
 509  182.1532
 510  217.5681
 511  214.115
