# Input file       =  1193419152.126804_cleaned.dat
# Candidate        =  PSR_0332+5434
# Telescope        =  AR
# Epoch_topo       =  58056.721888041713
# Epoch_bary       =  N/A
# T_sample         =  0.002
# Data Folded      =  7143424
# Data Avg         =  0.0336856831830644
# Data StdDev      =  3.46552699125613 
# Profile Bins     =  256
# Profile Avg      =  939.901603283327 
# Profile StdDev   =  578.898624057865 
# Reduced chi-sqr  =  0.943
# Prob(Noise)      <  0.734   (~0.0 sigma)
# P_topo (ms)      =  714.494541085402  +/- 0.000547
# P'_topo (s/s)    =  -0                +/- 2.97e-10
# P''_topo (s/s^2) =  0                 +/- 1.35e-13
# P_bary (ms)      =  N/A
# P'_bary (s/s)    =  N/A
# P''_bary (s/s^2) =  N/A
# P_orb (s)        =  N/A
# asin(i)/c (s)    =  N/A
# eccentricity     =  N/A
# w (rad)          =  N/A
# T_peri           =  N/A
######################################################
   0  1173.849
   1  755.8477
   2  1084.679
   3  780.5044
   4  734.4567
   5  1153.599
   6  1014.735
   7  683.9581
   8  1021.054
   9  399.7276
  10  849.514
  11  1234.417
  12  697.4171
  13  973.6747
  14  1254.95
  15  1012.811
  16  824.4677
  17  1626.449
  18  932.0073
  19  636.9285
  20  600.9224
  21  728.9706
  22  388.0064
  23  1313.277
  24  921.7676
  25  928.6948
  26  719.6701
  27  707.8607
  28  404.7552
  29  -74.12272
  30  755.5356
  31  699.2951
  32  1111.532
  33  1043.035
  34  715.4398
  35  760.2671
  36  466.5607
  37  1033.964
  38  1205.891
  39  959.7335
  40  1398.802
  41  1252.466
  42  612.0756
  43  440.039
  44  909.2894
  45  1033.234
  46  357.3523
  47  613.59
  48  107.0591
  49  723.7781
  50  1161.806
  51  201.1579
  52  477.7955
  53  814.3744
  54  692.1855
  55  1519.151
  56  633.4434
  57  553.6397
  58  627.6921
  59  1162.178
  60  1945.742
  61  665.118
  62  817.5067
  63  387.5183
  64  725.9768
  65  672.5272
  66  1252.853
  67  972.9757
  68  1110.664
  69  731.1699
  70  634.9445
  71  605.2849
  72  900.8655
  73  710.8367
  74  1630.657
  75  813.2996
  76  936.8326
  77  1022.255
  78  1884.689
  79  963.6259
  80  848.3424
  81  780.733
  82  788.8558
  83  733.8073
  84  922.3406
  85  673.8123
  86  1245.412
  87  1462.178
  88  788.9119
  89  417.0724
  90  1693.038
  91  1245.611
  92  720.2185
  93  892.0768
  94  133.8563
  95  848.8624
  96  773.1035
  97  1097.948
  98  1208.547
  99  884.9724
 100  1070.323
 101  1244.313
 102  439.9469
 103  887.1794
 104  541.6931
 105  1146.891
 106  892.587
 107  1502.749
 108  387.3242
 109  590.3977
 110  842.8289
 111  786.1965
 112  1162.749
 113  1102.91
 114  1625.565
 115  1230.233
 116  541.0685
 117  1494.448
 118  729.5013
 119  1035.005
 120  697.459
 121  1296.666
 122  761.4259
 123  312.3187
 124  424.9463
 125  564.0354
 126  1217.626
 127  759.0927
 128  1062.024
 129  1046.423
 130  213.6372
 131  827.8922
 132  1732.655
 133  950.8283
 134  575.8759
 135  1279.064
 136  896.7574
 137  1525.543
 138  1641.139
 139  1546.12
 140  1040.214
 141  108.2655
 142  798.0507
 143  1103.108
 144  1197.587
 145  244.9025
 146  747.3395
 147  1441.627
 148  917.9432
 149  913.2521
 150  1015.185
 151  1320.818
 152  754.4786
 153  873.1225
 154  1602.294
 155  1755.354
 156  1947.845
 157  2638.292
 158  4232.085
 159  3710.923
 160  1790.362
 161  815.4378
 162  1218.626
 163  1395.05
 164  1635.165
 165  1065.635
 166  1110.4
 167  937.0724
 168  581.2541
 169  507.5432
 170  902.8691
 171  545.9913
 172  749.0038
 173  642.3275
 174  1549.136
 175  1672.358
 176  1408.759
 177  1473.495
 178  590.5614
 179  699.4271
 180  757.1591
 181  1024.33
 182  697.9166
 183  1330.06
 184  828.1641
 185  920.5328
 186  927.4091
 187  1460.981
 188  1734.711
 189  1301.921
 190  694.4072
 191  170.8752
 192  578.431
 193  1002.677
 194  365.6763
 195  -195.4473
 196  454.5073
 197  1698.132
 198  943.2469
 199  1039.886
 200  332.2047
 201  1357.954
 202  1042.441
 203  755.7092
 204  561.0754
 205  1636.018
 206  810.9199
 207  772.6348
 208  1120.633
 209  578.2735
 210  1000.92
 211  302.4039
 212  797.9619
 213  683.3568
 214  1299.324
 215  596.4977
 216  536.2162
 217  1403.032
 218  893.2625
 219  869.6492
 220  875.3039
 221  1133.46
 222  1008.54
 223  599.3906
 224  240.4592
 225  700.0184
 226  988.4626
 227  373.8445
 228  1087.538
 229  635.2475
 230  2263.055
 231  1204.447
 232  761.9994
 233  907.3329
 234  1063.874
 235  762.8297
 236  366.6804
 237  565.8535
 238  763.6954
 239  795.8385
 240  872.5267
 241  646.6165
 242  981.3841
 243  1247.509
 244  699.6719
 245  1107.081
 246  696.9014
 247  1233.764
 248  717.6737
 249  433.9702
 250  212.2991
 251  1347.875
 252  640.2835
 253  675.0582
 254  634.46
 255  972.9485
