# Input file       =  1193433754.154644_cleaned.dat
# Candidate        =  PSR_0332+5434
# Telescope        =  AR
# Epoch_topo       =  58056.890892993564
# Epoch_bary       =  N/A
# T_sample         =  0.002
# Data Folded      =  7340032
# Data Avg         =  0.0561478069555181
# Data StdDev      =  2.74118545457275 
# Profile Bins     =  256
# Profile Avg      =  1609.31575679437 
# Profile StdDev   =  464.159680659651 
# Reduced chi-sqr  =  1.149
# Prob(Noise)      <  0.0514   (~1.6 sigma)
# P_topo (ms)      =  714.494704763567  +/- 0.000636
# P'_topo (s/s)    =  -0                +/- 3.36e-10
# P''_topo (s/s^2) =  0                 +/- 1.48e-13
# P_bary (ms)      =  N/A
# P'_bary (s/s)    =  N/A
# P''_bary (s/s^2) =  N/A
# P_orb (s)        =  N/A
# asin(i)/c (s)    =  N/A
# eccentricity     =  N/A
# w (rad)          =  N/A
# T_peri           =  N/A
######################################################
   0  752.6933
   1  1196.358
   2  1782.267
   3  1722.311
   4  1259.442
   5  1575.715
   6  1182.134
   7  1614.029
   8  1409.279
   9  1042.611
  10  1180.919
  11  2001.148
  12  1348.852
  13  925.0793
  14  1445.346
  15  1450.557
  16  1391.458
  17  1460.02
  18  1249.84
  19  1824.18
  20  1566.488
  21  1175.889
  22  2090.382
  23  2032.586
  24  1601.144
  25  1504.843
  26  2134.579
  27  1690.49
  28  1814.841
  29  1211.404
  30  1544.816
  31  1322.808
  32  1633.926
  33  1559.319
  34  1994.543
  35  1941.411
  36  1650.787
  37  1769.485
  38  867.6473
  39  1174.594
  40  1522.751
  41  1235.784
  42  1719.942
  43  1214.448
  44  1876.556
  45  1181.342
  46  1729.33
  47  1040.692
  48  1680.444
  49  1610.183
  50  1568.91
  51  1426.113
  52  1816.073
  53  1513.86
  54  1366.458
  55  1568.221
  56  1862.139
  57  2068.785
  58  2283.47
  59  1423.047
  60  1950.716
  61  1938.145
  62  1799.532
  63  1590.203
  64  1612.835
  65  1696.437
  66  1640.708
  67  2114.961
  68  1627.872
  69  1457.152
  70  1304.494
  71  1161.283
  72  1585.886
  73  2009.269
  74  2193.292
  75  1264.571
  76  1222.698
  77  1850.063
  78  1415.239
  79  2193.424
  80  1490.815
  81  1832.732
  82  1915.808
  83  1093.841
  84  1275.936
  85  881.6279
  86  1205.597
  87  1442.004
  88  1030.28
  89  1376.164
  90  1502.807
  91  1885.396
  92  1716.719
  93  1592.629
  94  1941.905
  95  1465.672
  96  1997.054
  97  2066.189
  98  1923.764
  99  2065.909
 100  1298.541
 101  1417.69
 102  2054.666
 103  1860.392
 104  1847.795
 105  1498.809
 106  1490.274
 107  2023.363
 108  1238.926
 109  1739.678
 110  1752.493
 111  1307.491
 112  1664.294
 113  1669.346
 114  1839.631
 115  1911.988
 116  1749.886
 117  2050.103
 118  1654.966
 119  1151.128
 120  1666.666
 121  1796.496
 122  1988.64
 123  1702.236
 124  1687.42
 125  1612.817
 126  920.2783
 127  1130.298
 128  1143.539
 129  1292.49
 130  1410.557
 131  2026.812
 132  1373.677
 133  1319.645
 134  1489.157
 135  1379.35
 136  1500.26
 137  1296.506
 138  2108.608
 139  1765.223
 140  1710.145
 141  1294.586
 142  1675.333
 143  1009.753
 144  957.3153
 145  1389.413
 146  1438.765
 147  2042.988
 148  1683.987
 149  1328.048
 150  1438.952
 151  1410.313
 152  1901.361
 153  2260.846
 154  2249.613
 155  2384.722
 156  2344.887
 157  3391.149
 158  4410.972
 159  4305.318
 160  2645.542
 161  1727.165
 162  1519.239
 163  1844.823
 164  1613.416
 165  1980.288
 166  1693.911
 167  1300.761
 168  1207.033
 169  1445.627
 170  1089.803
 171  1694.233
 172  1862.509
 173  1031.328
 174  1313.114
 175  1860.538
 176  727.7386
 177  959.5975
 178  1649.917
 179  1686.194
 180  1643.956
 181  1460.094
 182  1589.371
 183  1034.377
 184  1548.161
 185  1457.871
 186  1912.645
 187  2072.328
 188  1238.553
 189  1702.896
 190  1797.426
 191  1483.332
 192  1481.206
 193  2060.499
 194  1386.751
 195  1634.426
 196  1397.98
 197  1125.67
 198  764.6932
 199  1504.162
 200  1281.828
 201  1009.936
 202  1383.276
 203  1491.349
 204  1443.09
 205  1300.299
 206  1601.174
 207  1626.214
 208  1893.967
 209  1109.066
 210  1423.669
 211  1445.52
 212  2211.797
 213  1212.353
 214  984.6384
 215  997.6887
 216  1942.539
 217  1216.977
 218  1267.687
 219  1643.455
 220  1648.582
 221  1187.806
 222  1595.383
 223  1777.716
 224  1374.265
 225  1893.419
 226  1735.493
 227  1910.36
 228  1608.804
 229  1602.653
 230  1488.051
 231  1521.36
 232  1484.005
 233  1489.578
 234  1783.447
 235  2142.059
 236  2198.569
 237  1886.463
 238  1519.561
 239  1477.899
 240  2150.039
 241  1872.033
 242  1572.97
 243  1533.754
 244  1698.296
 245  1545.714
 246  1623.198
 247  1572.641
 248  2062.483
 249  1961.797
 250  1966.587
 251  1242.448
 252  1774.905
 253  1325.36
 254  1551.607
 255  1972.83
