# Input file       =  1193505289.155681_cleaned.dat
# Candidate        =  PSR_0332+5434
# Telescope        =  AR
# Epoch_topo       =  58057.718844394454
# Epoch_bary       =  N/A
# T_sample         =  0.002
# Data Folded      =  7143424
# Data Avg         =  0.0309741262170219
# Data StdDev      =  1.00013755404423 
# Profile Bins     =  512
# Profile Avg      =  432.113061514235 
# Profile StdDev   =  118.134832170861 
# Reduced chi-sqr  =  1.320
# Prob(Noise)      <  1.45e-06   (~4.7 sigma)
# P_topo (ms)      =  714.495446533075  +/- 0.000154
# P'_topo (s/s)    =  -0                +/- 8.34e-11
# P''_topo (s/s^2) =  0                 +/- 3.78e-14
# P_bary (ms)      =  N/A
# P'_bary (s/s)    =  N/A
# P''_bary (s/s^2) =  N/A
# P_orb (s)        =  N/A
# asin(i)/c (s)    =  N/A
# eccentricity     =  N/A
# w (rad)          =  N/A
# T_peri           =  N/A
######################################################
   0  334.4936
   1  325.4292
   2  353.6513
   3  585.745
   4  640.8174
   5  472.5133
   6  542.4633
   7  521.9983
   8  380.502
   9  278.7012
  10  427.9761
  11  502.6521
  12  505.9583
  13  512.6235
  14  504.2787
  15  340.0105
  16  323.1045
  17  301.5596
  18  340.0674
  19  424.0292
  20  381.3711
  21  469.9175
  22  422.2854
  23  381.8627
  24  354.6134
  25  367.6577
  26  419.1421
  27  387.4801
  28  498.8927
  29  380.0997
  30  350.6637
  31  448.6726
  32  450.5789
  33  490.0848
  34  426.1354
  35  418.9786
  36  468.6185
  37  366.5642
  38  320.256
  39  396.509
  40  422.1256
  41  303.466
  42  263.4656
  43  420.5125
  44  504.0468
  45  448.2725
  46  512.0961
  47  316.1434
  48  343.9898
  49  340.3768
  50  349.1976
  51  406.4413
  52  391.8773
  53  406.6224
  54  400.8602
  55  455.4598
  56  502.2762
  57  460.3816
  58  394.9916
  59  313.5416
  60  459.6701
  61  527.9633
  62  545.2244
  63  429.39
  64  307.8188
  65  376.1234
  66  307.618
  67  365.944
  68  503.9652
  69  405.5409
  70  468.1568
  71  545.9362
  72  411.1604
  73  309.3284
  74  269.4653
  75  410.1263
  76  388.7696
  77  385.6956
  78  391.7933
  79  382.3065
  80  475.6459
  81  484.0679
  82  336.1534
  83  284.6601
  84  350.6194
  85  445.9326
  86  436.205
  87  498.6118
  88  453.6782
  89  395.765
  90  537.7431
  91  400.1747
  92  393.4272
  93  396.9656
  94  463.9278
  95  491.297
  96  467.8413
  97  498.5428
  98  394.4098
  99  387.581
 100  491.2237
 101  433.1899
 102  286.8844
 103  364.0455
 104  453.2506
 105  479.3589
 106  501.5901
 107  377.9802
 108  378.5522
 109  398.7972
 110  357.0936
 111  342.4514
 112  362.9079
 113  495.0561
 114  489.6641
 115  473.6818
 116  439.0799
 117  527.8964
 118  484.3683
 119  349.3211
 120  443.6351
 121  531.719
 122  464.7248
 123  384.9582
 124  409.0324
 125  329.2837
 126  363.3688
 127  456.3953
 128  276.6297
 129  279.0665
 130  393.8532
 131  468.6849
 132  347.8789
 133  349.1606
 134  361.4688
 135  281.2991
 136  383.7263
 137  369.6657
 138  405.9767
 139  495.7176
 140  457.2823
 141  402.8613
 142  504.1198
 143  541.7109
 144  497.3713
 145  553.0466
 146  551.6431
 147  409.4978
 148  246.9255
 149  375.6417
 150  362.7358
 151  332.9413
 152  394.1646
 153  435.8073
 154  352.653
 155  524.8643
 156  370.8165
 157  473.0994
 158  481.1731
 159  384.1493
 160  375.1083
 161  331.8324
 162  394.8578
 163  601.0783
 164  566.7167
 165  536.9649
 166  501.5767
 167  379.6126
 168  541.8353
 169  334.6628
 170  344.2559
 171  375.0275
 172  311.3112
 173  318.0595
 174  356.6335
 175  463.5575
 176  441.5019
 177  422.0575
 178  423.4267
 179  431.9727
 180  419.1174
 181  460.4781
 182  459.8438
 183  476.9929
 184  333.9659
 185  353.5735
 186  386.0866
 187  379.8177
 188  388.2425
 189  399.0967
 190  351.0258
 191  267.1823
 192  301.5963
 193  345.4163
 194  424.2634
 195  331.4059
 196  516.3246
 197  613.6172
 198  528.5583
 199  382.5706
 200  386.3661
 201  508.1002
 202  428.5031
 203  339.3652
 204  495.7011
 205  539.3215
 206  519.3768
 207  513.6823
 208  388.8183
 209  443.4195
 210  438.3149
 211  410.9049
 212  497.4003
 213  480.8274
 214  667.9349
 215  950.443
 216  1023.63
 217  1049.943
 218  993.8623
 219  858.4393
 220  567.7925
 221  403.0301
 222  431.4387
 223  487.2401
 224  455.9301
 225  458.5237
 226  381.1029
 227  310.2597
 228  600.5184
 229  482.8536
 230  524.3392
 231  434.1076
 232  409.1987
 233  410.2654
 234  465.9207
 235  561.3426
 236  524.18
 237  434.1604
 238  516.5089
 239  458.9561
 240  419.2798
 241  443.4047
 242  461.8738
 243  334.7426
 244  278.9518
 245  367.0067
 246  274.4448
 247  316.4792
 248  359.7481
 249  437.4835
 250  507.0238
 251  473.0938
 252  346.9403
 253  436.4721
 254  506.0717
 255  536.1158
 256  364.473
 257  395.5913
 258  464.8615
 259  485.6666
 260  499.0252
 261  487.455
 262  497.8226
 263  526.134
 264  654.1664
 265  659.0069
 266  516.3503
 267  400.0551
 268  383.1778
 269  580.4323
 270  562.0188
 271  396.1551
 272  334.109
 273  391.4005
 274  473.8468
 275  418.4772
 276  448.4397
 277  416.0234
 278  482.4017
 279  637.6276
 280  574.2898
 281  498.5511
 282  517.6774
 283  460.599
 284  333.2214
 285  345.1755
 286  461.07
 287  573.5168
 288  426.5059
 289  417.0843
 290  523.5862
 291  493.9512
 292  557.1189
 293  492.3479
 294  249.2422
 295  229.7111
 296  326.1995
 297  519.2097
 298  516.3894
 299  439.0993
 300  357.5688
 301  398.6876
 302  423.3926
 303  356.9552
 304  342.3582
 305  367.0157
 306  460.552
 307  516.7421
 308  461.2425
 309  352.9343
 310  336.2524
 311  464.7957
 312  427.3967
 313  415.6563
 314  549.2595
 315  534.3655
 316  398.6746
 317  177.9816
 318  384.5853
 319  453.5306
 320  361.2361
 321  449.8605
 322  350.7494
 323  313.0388
 324  366.4218
 325  395.9211
 326  380.6343
 327  404.0982
 328  397.0823
 329  450.8603
 330  478.9885
 331  456.05
 332  378.5245
 333  272.4455
 334  360.3074
 335  421.7874
 336  330.2042
 337  331.4714
 338  267.8828
 339  364.4471
 340  353.9977
 341  277.3391
 342  383.3021
 343  505.4095
 344  522.7073
 345  380.7817
 346  393.957
 347  395.4428
 348  298.1082
 349  249.3271
 350  424.7575
 351  441.6516
 352  382.2884
 353  530.6807
 354  458.4549
 355  353.6309
 356  332.1393
 357  378.7762
 358  394.5696
 359  318.8814
 360  448.4226
 361  550.1525
 362  437.7874
 363  300.4702
 364  474.746
 365  517.7788
 366  348.9233
 367  261.81
 368  425.8787
 369  422.8382
 370  390.6248
 371  508.9359
 372  393.0291
 373  262.6891
 374  351.2756
 375  386.8982
 376  490.5322
 377  489.5931
 378  440.393
 379  401.4909
 380  410.2535
 381  457.5613
 382  475.5821
 383  415.1314
 384  439.4251
 385  334.487
 386  583.1318
 387  667.8163
 388  575.5009
 389  428.007
 390  387.0701
 391  446.9309
 392  510.7906
 393  384.9037
 394  274.2825
 395  270.0679
 396  372.0695
 397  549.906
 398  453.481
 399  386.3591
 400  483.1624
 401  385.5237
 402  292.6004
 403  377.0854
 404  453.5694
 405  547.3929
 406  412.3678
 407  325.4342
 408  250.1539
 409  292.8235
 410  475.5843
 411  527.7578
 412  485.7012
 413  495.1232
 414  559.2728
 415  462.433
 416  467.8412
 417  381.1562
 418  447.3084
 419  431.9777
 420  491.7616
 421  485.885
 422  493.4874
 423  382.4342
 424  302.6881
 425  350.5857
 426  386.9292
 427  320.3806
 428  283.0089
 429  409.2616
 430  481.8845
 431  433.2219
 432  426.7113
 433  413.0419
 434  418.6994
 435  324.4287
 436  343.3185
 437  348.933
 438  378.1331
 439  469.8174
 440  559.8973
 441  578.6812
 442  505.7887
 443  539.7435
 444  440.8829
 445  439.7491
 446  400.2986
 447  419.8663
 448  353.4855
 449  447.9435
 450  554.2416
 451  600.6682
 452  483.1209
 453  423.7765
 454  586.0634
 455  606.5331
 456  531.2631
 457  427.9058
 458  476.0793
 459  349.8891
 460  462.7203
 461  474.2058
 462  334.3673
 463  287.7325
 464  281.403
 465  436.3492
 466  536.6207
 467  520.0238
 468  504.0574
 469  441.9663
 470  483.0776
 471  580.4703
 472  489.2096
 473  493.1313
 474  555.4606
 475  449.8989
 476  404.7726
 477  445.1291
 478  524.2957
 479  469.4154
 480  442.3975
 481  440.641
 482  526.3151
 483  519.1016
 484  539.7957
 485  484.1157
 486  437.9376
 487  570.1848
 488  461.9522
 489  397.2104
 490  363.9724
 491  388.2229
 492  388.9603
 493  337.1877
 494  465.924
 495  458.9598
 496  442.1829
 497  442.6967
 498  433.0331
 499  425.0723
 500  294.1035
 501  418.3231
 502  543.0932
 503  435.3002
 504  254.0431
 505  346.7615
 506  444.9062
 507  381.0723
 508  509.5674
 509  476.3676
 510  518.0094
 511  393.0817
