# Input file       =  1193276335.140115_cleaned.dat
# Candidate        =  PSR_0332+5434
# Telescope        =  AR
# Epoch_topo       =  58055.068913658739
# Epoch_bary       =  N/A
# T_sample         =  0.002
# Data Folded      =  7340032
# Data Avg         =  0.0193106165106962
# Data StdDev      =  1.00005856005918 
# Profile Bins     =  512
# Profile Avg      =  276.854060508705 
# Profile StdDev   =  119.740047950462 
# Reduced chi-sqr  =  1.338
# Prob(Noise)      <  4.47e-07   (~4.9 sigma)
# P_topo (ms)      =  714.493401409062  +/- 0.000139
# P'_topo (s/s)    =  -0                +/- 7.32e-11
# P''_topo (s/s^2) =  0                 +/- 3.23e-14
# P_bary (ms)      =  N/A
# P'_bary (s/s)    =  N/A
# P''_bary (s/s^2) =  N/A
# P_orb (s)        =  N/A
# asin(i)/c (s)    =  N/A
# eccentricity     =  N/A
# w (rad)          =  N/A
# T_peri           =  N/A
######################################################
   0  403.4672
   1  326.6225
   2  269.4262
   3  194.2203
   4  362.5558
   5  414.5489
   6  354.2584
   7  331.4135
   8  362.3352
   9  329.2625
  10  294.7154
  11  230.4513
  12  211.0899
  13  231.6853
  14  256.1064
  15  223.2168
  16  277.3965
  17  184.6959
  18  326.8391
  19  393.1326
  20  236.6664
  21  288.3612
  22  312.4028
  23  281.0639
  24  224.0182
  25  299.0277
  26  247.926
  27  169.195
  28  284.7023
  29  317.7261
  30  226.0023
  31  197.0198
  32  148.0429
  33  204.6842
  34  335.8345
  35  429.2435
  36  291.1056
  37  275.1991
  38  245.0599
  39  337.6172
  40  292.0011
  41  290.2065
  42  306.379
  43  259.6292
  44  206.2721
  45  263.5992
  46  310.3876
  47  255.4242
  48  140.1033
  49  124.8344
  50  217.5317
  51  353.3212
  52  416.0666
  53  442.2629
  54  285.9209
  55  225.4698
  56  315.7418
  57  249.75
  58  174.4213
  59  254.0465
  60  289.4079
  61  348.1717
  62  373.6523
  63  349.1882
  64  375.1987
  65  311.1183
  66  316.3017
  67  346.6562
  68  379.9089
  69  316.9291
  70  353.7854
  71  287.6097
  72  176.0767
  73  111.9223
  74  139.575
  75  133.5182
  76  134.5018
  77  180.8316
  78  208.0645
  79  366.17
  80  421.0432
  81  419.9005
  82  383.4404
  83  317.465
  84  202.8201
  85  285.8549
  86  210.2533
  87  248.8147
  88  252.4576
  89  202.7298
  90  175.0607
  91  309.9668
  92  415.9849
  93  304.7266
  94  261.0704
  95  292.0015
  96  253.0428
  97  294.1146
  98  296.6746
  99  461.2509
 100  481.7005
 101  443.2874
 102  293.6468
 103  238.8533
 104  221.5924
 105  288.9863
 106  223.7423
 107  141.453
 108  220.0673
 109  335.8424
 110  303.675
 111  182.5906
 112  142.2228
 113  299.1758
 114  260.8477
 115  256.888
 116  202.4153
 117  236.9299
 118  166.1586
 119  231.3396
 120  264.7293
 121  285.8199
 122  234.7591
 123  197.2967
 124  307.4529
 125  229.2641
 126  214.0067
 127  462.8098
 128  431.8052
 129  451.886
 130  394.3256
 131  307.1552
 132  343.3573
 133  280.1662
 134  257.4438
 135  231.3611
 136  213.0586
 137  282.4295
 138  271.0245
 139  293.5919
 140  298.4711
 141  206.3105
 142  275.4813
 143  284.3519
 144  281.8057
 145  407.7171
 146  393.8393
 147  306.1565
 148  402.9726
 149  347.5101
 150  302.1242
 151  286.3395
 152  409.4676
 153  360.3706
 154  209.9729
 155  275.5861
 156  332.4164
 157  369.3047
 158  375.9438
 159  352.3167
 160  298.4627
 161  218.0701
 162  241.6132
 163  274.6972
 164  487.1934
 165  504.2701
 166  473.9714
 167  449.6034
 168  448.924
 169  521.0527
 170  659.2622
 171  778.2197
 172  846.4028
 173  852.9373
 174  896.4531
 175  692.2658
 176  428.0251
 177  346.804
 178  303.4638
 179  302.7288
 180  360.3549
 181  248.6013
 182  256.1118
 183  353.5333
 184  364.3166
 185  292.9806
 186  331.2461
 187  437.2623
 188  443.4764
 189  412.9692
 190  241.6853
 191  187.5596
 192  190.9017
 193  324.4005
 194  337.9217
 195  164.0964
 196  207.5623
 197  248.2494
 198  267.3987
 199  267.2601
 200  339.4324
 201  229.2465
 202  100.1298
 203  272.1617
 204  379.7634
 205  217.6585
 206  139.0229
 207  258.526
 208  268.8271
 209  223.4286
 210  366.7044
 211  235.7026
 212  193.678
 213  235.035
 214  314.4103
 215  385.9254
 216  286.46
 217  231.8851
 218  209.5659
 219  231.0321
 220  231.3141
 221  390.7469
 222  362.6135
 223  322.37
 224  369.3303
 225  293.4934
 226  256.336
 227  321.5852
 228  402.2245
 229  326.2033
 230  305.1391
 231  363.8055
 232  188.3486
 233  166.1025
 234  190.8254
 235  172.7175
 236  115.9417
 237  136.1355
 238  255.3493
 239  339.5129
 240  356.6418
 241  262.0336
 242  176.6653
 243  350.2021
 244  345.9843
 245  274.9085
 246  368.4096
 247  334.6114
 248  277.4664
 249  198.9691
 250  203.13
 251  256.5417
 252  177.6535
 253  258.0912
 254  292.0145
 255  249.5999
 256  183.3694
 257  208.3575
 258  320.088
 259  340.8229
 260  357.1433
 261  181.8041
 262  322.3236
 263  390.6644
 264  356.6599
 265  291.0574
 266  257.7201
 267  291.7304
 268  248.559
 269  199.0467
 270  166.9392
 271  221.6731
 272  354.4407
 273  377.7502
 274  448.682
 275  373.3963
 276  337.1595
 277  226.2537
 278  146.7135
 279  188.3728
 280  212.444
 281  253.4928
 282  383.9326
 283  329.3231
 284  245.9053
 285  214.0846
 286  312.0122
 287  344.2788
 288  335.8556
 289  181.3907
 290  169.8171
 291  118.3956
 292  123.2594
 293  132.6033
 294  144.2804
 295  264.7635
 296  359.5847
 297  271.668
 298  291.9471
 299  343.7709
 300  360.6362
 301  235.3128
 302  339.3246
 303  451.1402
 304  307.5164
 305  214.9787
 306  235.1824
 307  160.5997
 308  210.2409
 309  276.4683
 310  242.2738
 311  259.3461
 312  327.5383
 313  205.9408
 314  150.0329
 315  270.4003
 316  311.1818
 317  278.6945
 318  156.2643
 319  189.1194
 320  359.7022
 321  264.9319
 322  222.6677
 323  205.1206
 324  294.2896
 325  209.4862
 326  162.1178
 327  178.9439
 328  192.7329
 329  299.4195
 330  223.1427
 331  136.7765
 332  146.2235
 333  210.1062
 334  248.2879
 335  118.9951
 336  170.5485
 337  241.4882
 338  169.2362
 339  193.5361
 340  182.3498
 341  186.3836
 342  197.0008
 343  212.5677
 344  260.2491
 345  329.1365
 346  384.3933
 347  306.6278
 348  314.5159
 349  259.5097
 350  156.0361
 351  258.4099
 352  305.2393
 353  251.0885
 354  344.1827
 355  390.6897
 356  271.5465
 357  194.4229
 358  361.3994
 359  249.1877
 360  374.1385
 361  328.5661
 362  300.0299
 363  161.5229
 364  206.0977
 365  309.8913
 366  217.4909
 367  171.6565
 368  268.4565
 369  202.6348
 370  183.9895
 371  285.3355
 372  356.1804
 373  319.1446
 374  193.0774
 375  205.1952
 376  132.6861
 377  135.9581
 378  94.45683
 379  271.9939
 380  312.5128
 381  139.647
 382  218.6884
 383  213.7753
 384  106.0622
 385  196.1681
 386  293.9829
 387  422.4753
 388  374.1182
 389  206.1189
 390  174.1126
 391  121.858
 392  120.6597
 393  151.9077
 394  212.3825
 395  328.471
 396  317.8104
 397  296.301
 398  302.5744
 399  234.755
 400  207.005
 401  137.2761
 402  239.5001
 403  205.055
 404  282.3409
 405  322.877
 406  367.0472
 407  212.9606
 408  209.2139
 409  205.5889
 410  220.9061
 411  340.2935
 412  243.4905
 413  280.4173
 414  206.6315
 415  227.1013
 416  252.5416
 417  277.4469
 418  263.485
 419  238.5856
 420  288.771
 421  390.9384
 422  409.4554
 423  372.5892
 424  356.6413
 425  264.4005
 426  319.393
 427  172.2108
 428  268.4257
 429  362.2561
 430  353.334
 431  316.4401
 432  287.1306
 433  281.5159
 434  235.1141
 435  265.9779
 436  345.856
 437  260.334
 438  205.8371
 439  361.7058
 440  355.2433
 441  268.6087
 442  376.9287
 443  374.017
 444  218.8056
 445  382.3215
 446  377.2595
 447  403.1883
 448  283.7319
 449  146.9067
 450  224.4891
 451  279.8465
 452  370.7208
 453  370.9684
 454  283.4725
 455  151.4865
 456  123.2892
 457  263.7373
 458  252.7791
 459  195.8354
 460  204.2555
 461  210.4613
 462  69.23201
 463  71.03666
 464  179.1921
 465  291.698
 466  218.4798
 467  128.9611
 468  194.3404
 469  168.2742
 470  209.1212
 471  254.2025
 472  188.3937
 473  210.2949
 474  169.5694
 475  175.3152
 476  255.282
 477  303.3273
 478  246.3564
 479  207.392
 480  214.242
 481  168.4959
 482  170.8216
 483  255.437
 484  314.2372
 485  179.0462
 486  266.56
 487  314.7444
 488  170.2914
 489  127.3453
 490  156.828
 491  215.5523
 492  339.9778
 493  207.2052
 494  105.4611
 495  142.771
 496  222.7113
 497  264.1005
 498  217.2771
 499  201.8175
 500  257.0331
 501  326.9361
 502  325.2525
 503  300.3331
 504  369.7929
 505  397.5514
 506  315.3039
 507  101.4608
 508  222.9283
 509  339.3915
 510  416.3624
 511  477.285
