# Input file       =  1193261429.141686_cleaned.dat
# Candidate        =  PSR_0332+5434
# Telescope        =  AR
# Epoch_topo       =  58054.896390528775
# Epoch_bary       =  N/A
# T_sample         =  0.002
# Data Folded      =  7340032
# Data Avg         =  0.0243692940781397
# Data StdDev      =  1.00003963730412 
# Profile Bins     =  512
# Profile Avg      =  349.354319616639 
# Profile StdDev   =  119.737782271542 
# Reduced chi-sqr  =  1.186
# Prob(Noise)      <  0.00237   (~2.8 sigma)
# P_topo (ms)      =  714.492913181031  +/- 0.000219
# P'_topo (s/s)    =  -0                +/- 1.16e-10
# P''_topo (s/s^2) =  0                 +/- 5.11e-14
# P_bary (ms)      =  N/A
# P'_bary (s/s)    =  N/A
# P''_bary (s/s^2) =  N/A
# P_orb (s)        =  N/A
# asin(i)/c (s)    =  N/A
# eccentricity     =  N/A
# w (rad)          =  N/A
# T_peri           =  N/A
######################################################
   0  934.9302
   1  902.784
   2  805.7936
   3  522.9843
   4  439.5615
   5  479.4185
   6  382.1029
   7  265.6713
   8  360.8557
   9  308.0695
  10  338.3342
  11  420.5157
  12  381.6667
  13  315.3147
  14  355.9618
  15  383.5875
  16  392.7569
  17  308.0034
  18  336.9559
  19  259.2863
  20  308.9772
  21  319.1078
  22  294.4369
  23  330.6249
  24  355.2807
  25  351.6868
  26  403.8358
  27  364.1768
  28  344.2
  29  333.6979
  30  375.054
  31  308.821
  32  347.9347
  33  380.5641
  34  349.3327
  35  421.5254
  36  376.4012
  37  275.6184
  38  376.8582
  39  509.1179
  40  421.9533
  41  426.9303
  42  462.9763
  43  314.1761
  44  302.2792
  45  316.3795
  46  333.5873
  47  271.6083
  48  284.3017
  49  348.6484
  50  329.2503
  51  281.4516
  52  302.3634
  53  315.6005
  54  348.4916
  55  414.0475
  56  357.663
  57  372.4011
  58  322.0346
  59  279.8542
  60  406.2195
  61  320.9847
  62  338.6647
  63  405.4749
  64  314.6538
  65  213.8478
  66  269.0016
  67  377.8776
  68  405.0616
  69  262.9274
  70  235.8727
  71  419.9171
  72  334.5968
  73  300.6239
  74  277.4328
  75  374.2929
  76  303.4246
  77  297.1059
  78  371.8127
  79  380.9062
  80  213.9804
  81  331.7455
  82  377.1577
  83  389.0874
  84  300.232
  85  319.4993
  86  340.4294
  87  416.3472
  88  526.4096
  89  409.0698
  90  370.3332
  91  455.712
  92  398.966
  93  415.6374
  94  330.819
  95  420.7869
  96  402.744
  97  285.1732
  98  256.9802
  99  180.1374
 100  226.1106
 101  275.0363
 102  296.5312
 103  287.9385
 104  262.3579
 105  168.3285
 106  237.3693
 107  382.1516
 108  462.1707
 109  414.1309
 110  364.2786
 111  291.4487
 112  269.508
 113  349.4116
 114  296.0156
 115  251.5301
 116  397.5693
 117  298.5411
 118  233.9597
 119  317.3602
 120  373.0732
 121  302.7951
 122  344.7449
 123  348.9484
 124  366.4604
 125  489.4541
 126  428.4694
 127  269.1226
 128  338.025
 129  436.3214
 130  429.7584
 131  444.5501
 132  521.5352
 133  475.9481
 134  429.5583
 135  573.7236
 136  500.7693
 137  363.2362
 138  445.91
 139  345.249
 140  196.5769
 141  350.2295
 142  375.2115
 143  328.9778
 144  320.1337
 145  377.9403
 146  384.3044
 147  348.4383
 148  283.8625
 149  333.0551
 150  260.2861
 151  309.8652
 152  323.1703
 153  369.2351
 154  348.3474
 155  344.2872
 156  234.0282
 157  211.1899
 158  246.9576
 159  425.2497
 160  319.5487
 161  382.2241
 162  314.9829
 163  226.9893
 164  227.1193
 165  188.0097
 166  267.544
 167  313.8183
 168  236.3729
 169  325.9744
 170  257.023
 171  286.2147
 172  309.3288
 173  396.5006
 174  507.0042
 175  425.8377
 176  413.6027
 177  408.4288
 178  297.472
 179  418.2603
 180  351.5862
 181  270.2718
 182  307.4932
 183  360.7654
 184  434.334
 185  387.1766
 186  385.3386
 187  367.1373
 188  397.5079
 189  353.876
 190  218.2591
 191  163.2487
 192  203.7073
 193  273.5874
 194  205.2973
 195  221.788
 196  308.2888
 197  315.9059
 198  269.588
 199  285.0666
 200  419.7191
 201  538.4506
 202  558.0424
 203  451.2714
 204  352.8005
 205  364.7756
 206  326.8318
 207  294.595
 208  253.0957
 209  361.0601
 210  441.8574
 211  298.6194
 212  359.9783
 213  360.1921
 214  446.4329
 215  382.6794
 216  252.8632
 217  356.0406
 218  339.4117
 219  167.6575
 220  339.6122
 221  327.0956
 222  292.7071
 223  220.7637
 224  326.4065
 225  361.3376
 226  357.6855
 227  337.4669
 228  312.0952
 229  362.6828
 230  398.8033
 231  427.3294
 232  364.1647
 233  312.1614
 234  301.828
 235  354.4485
 236  360.6668
 237  266.5569
 238  211.0034
 239  253.2825
 240  221.0926
 241  364.9508
 242  276.491
 243  259.7939
 244  285.8884
 245  342.8475
 246  400.3457
 247  350.8855
 248  371.0292
 249  307.9699
 250  405.2212
 251  335.7527
 252  344.8559
 253  344.1812
 254  320.8607
 255  351.3534
 256  339.8313
 257  268.3587
 258  372.0163
 259  321.4755
 260  370.9306
 261  367.0786
 262  321.4256
 263  415.4301
 264  315.9912
 265  441.5144
 266  440.8805
 267  387.3571
 268  412.1659
 269  350.6537
 270  387.1064
 271  379.6771
 272  377.641
 273  507.2563
 274  470.989
 275  337.8034
 276  227.24
 277  276.7985
 278  364.0737
 279  512.6
 280  359.1359
 281  375.9831
 282  397.9565
 283  409.2954
 284  330.1359
 285  356.6875
 286  405.2314
 287  297.2702
 288  367.8897
 289  435.0468
 290  360.7733
 291  313.1507
 292  235.3867
 293  348.2177
 294  355.9057
 295  396.0948
 296  433.4901
 297  408.3463
 298  315.164
 299  253.6581
 300  363.7768
 301  368.1094
 302  298.6607
 303  221.1044
 304  330.3394
 305  320.7506
 306  255.7258
 307  279.0532
 308  306.3876
 309  320.3761
 310  226.9193
 311  179.1189
 312  342.6032
 313  370.0299
 314  258.8628
 315  119.8969
 316  274.7549
 317  364.8902
 318  307.865
 319  238.5324
 320  198.9723
 321  180.342
 322  221.4971
 323  164.0143
 324  246.2325
 325  162.1506
 326  232.6882
 327  237.1728
 328  379.4523
 329  507.1777
 330  390.1639
 331  234.4083
 332  295.5421
 333  438.6129
 334  387.2178
 335  346.5901
 336  418.8201
 337  395.9796
 338  337.1797
 339  265.7204
 340  198.0082
 341  279.8124
 342  438.3838
 343  411.2946
 344  385.506
 345  296.2952
 346  308.982
 347  392.2374
 348  311.79
 349  249.8063
 350  232.8533
 351  280.2012
 352  339.6463
 353  370.7248
 354  310.9855
 355  362.9982
 356  335.8868
 357  399.151
 358  355.0014
 359  275.7444
 360  234.1205
 361  453.9061
 362  450.2189
 363  428.7819
 364  296.0827
 365  406.4981
 366  378.5762
 367  272.097
 368  225.4295
 369  239.806
 370  255.0742
 371  273.0508
 372  201.8641
 373  216.4554
 374  370.5604
 375  376.0374
 376  322.28
 377  253.6677
 378  281.541
 379  369.8993
 380  288.264
 381  250.5264
 382  233.4128
 383  243.7252
 384  359.6032
 385  383.2274
 386  495.9647
 387  306.5654
 388  240.5445
 389  302.4919
 390  459.0035
 391  399.0541
 392  283.8336
 393  288.6448
 394  416.8896
 395  424.645
 396  377.8418
 397  385.9333
 398  366.3387
 399  369.8371
 400  330.1538
 401  404.7701
 402  381.8468
 403  341.0017
 404  316.4478
 405  408.0411
 406  338.3772
 407  322.0124
 408  431.3214
 409  286.9202
 410  379.6021
 411  406.196
 412  441.0019
 413  495.9315
 414  301.7815
 415  291.4321
 416  244.7347
 417  195.5328
 418  363.605
 419  468.6487
 420  422.5097
 421  345.2891
 422  359.0083
 423  277.35
 424  267.6122
 425  304.1366
 426  399.222
 427  473.8749
 428  476.8295
 429  442.6531
 430  240.1068
 431  208.53
 432  226.5063
 433  264.9824
 434  360.8537
 435  420.6966
 436  363.8415
 437  213.2377
 438  205.9114
 439  368.7941
 440  527.2316
 441  483.972
 442  492.6829
 443  503.9528
 444  505.7014
 445  377.8846
 446  330.9844
 447  337.1895
 448  452.7782
 449  402.3671
 450  329.4304
 451  355.6481
 452  302.4388
 453  379.359
 454  338.4713
 455  339.2136
 456  390.8313
 457  363.5439
 458  329.7772
 459  261.9342
 460  277.6943
 461  326.0465
 462  380.2878
 463  259.7257
 464  293.1468
 465  306.8954
 466  303.1579
 467  330.9424
 468  299.0821
 469  373.1861
 470  221.3707
 471  282.6945
 472  447.4497
 473  433.4802
 474  474.7914
 475  468.2334
 476  409.7091
 477  315.1012
 478  374.9501
 479  378.8131
 480  310.1885
 481  295.3297
 482  411.4437
 483  346.0498
 484  251.3602
 485  353.6918
 486  364.4849
 487  344.4122
 488  465.0241
 489  317.3123
 490  264.5638
 491  289.8445
 492  272.2177
 493  379.0752
 494  418.0808
 495  336.6564
 496  540.957
 497  572.5219
 498  528.5013
 499  323.4097
 500  418.0285
 501  467.1324
 502  437.766
 503  353.7542
 504  369.5437
 505  452.4671
 506  510.7699
 507  492.299
 508  462.8372
 509  674.2371
 510  781.4206
 511  923.1927
