# Input file       =  1194036851.116523_cleaned.dat
# Candidate        =  PSR_0332+5434
# Telescope        =  AR
# Epoch_topo       =  58063.871181904200
# Epoch_bary       =  N/A
# T_sample         =  0.002
# Data Folded      =  7340032
# Data Avg         =  0.0214477260830654
# Data StdDev      =  0.999972403158662
# Profile Bins     =  512
# Profile Avg      =  307.466509355719 
# Profile StdDev   =  119.729732123158 
# Reduced chi-sqr  =  1.334
# Prob(Noise)      <  6.03e-07   (~4.9 sigma)
# P_topo (ms)      =  714.501198400457  +/- 0.000168
# P'_topo (s/s)    =  -0                +/- 8.86e-11
# P''_topo (s/s^2) =  0                 +/- 3.91e-14
# P_bary (ms)      =  N/A
# P'_bary (s/s)    =  N/A
# P''_bary (s/s^2) =  N/A
# P_orb (s)        =  N/A
# asin(i)/c (s)    =  N/A
# eccentricity     =  N/A
# w (rad)          =  N/A
# T_peri           =  N/A
######################################################
   0  321.0963
   1  304.4526
   2  373.7507
   3  454.8672
   4  466.9597
   5  350.8336
   6  210.0971
   7  174.4508
   8  222.7196
   9  345.0415
  10  295.5113
  11  268.7173
  12  186.912
  13  235.6469
  14  255.8711
  15  225.8602
  16  181.4727
  17  308.8416
  18  250.4613
  19  212.9173
  20  284.1349
  21  176.8781
  22  218.7559
  23  298.5804
  24  251.7039
  25  170.8253
  26  236.2203
  27  298.4939
  28  329.7169
  29  294.5977
  30  251.8893
  31  334.0925
  32  341.8032
  33  342.2873
  34  228.5783
  35  221.398
  36  475.0697
  37  372.3015
  38  316.5961
  39  300.6261
  40  442.2611
  41  540.6772
  42  319.4896
  43  324.4471
  44  399.127
  45  392.4993
  46  327.3975
  47  306.9925
  48  267.8768
  49  238.9751
  50  231.6252
  51  333.0133
  52  252.7353
  53  196.4971
  54  316.0219
  55  266.054
  56  246.2295
  57  364.5715
  58  421.0192
  59  451.7182
  60  422.8596
  61  323.8135
  62  295.2532
  63  135.8957
  64  312.6489
  65  185.4656
  66  303.7557
  67  440.3843
  68  343.0193
  69  243.0516
  70  314.5708
  71  405.9716
  72  273.2756
  73  237.3772
  74  286.5482
  75  380.7064
  76  434.9539
  77  404.263
  78  383.82
  79  265.938
  80  368.9746
  81  270.9774
  82  296.269
  83  328.078
  84  326.5255
  85  292.62
  86  253.8536
  87  272.0616
  88  348.4297
  89  354.498
  90  205.3827
  91  253.7982
  92  287.7733
  93  323.0742
  94  268.9128
  95  253.5847
  96  215.0336
  97  251.1279
  98  282.4432
  99  135.3011
 100  118.4554
 101  289.9061
 102  268.9473
 103  136.6735
 104  131.9062
 105  168.728
 106  135.8476
 107  210.8158
 108  229.9186
 109  296.2369
 110  268.9998
 111  293.3651
 112  263.1588
 113  268.0226
 114  351.3728
 115  366.7662
 116  318.0762
 117  366.521
 118  292.7372
 119  277.6897
 120  302.7113
 121  275.0072
 122  253.0056
 123  257.585
 124  300.9691
 125  366.8108
 126  267.2222
 127  266.835
 128  382.6865
 129  381.9193
 130  331.8307
 131  226.8554
 132  280.3051
 133  415.063
 134  382.9822
 135  346.7169
 136  340.1673
 137  315.3472
 138  378.4277
 139  392.233
 140  321.5719
 141  310.3638
 142  343.3464
 143  421.9962
 144  380.2257
 145  296.8124
 146  308.3886
 147  291.2877
 148  301.4733
 149  211.3459
 150  261.0795
 151  341.4737
 152  324.1432
 153  354.4197
 154  263.6106
 155  209.265
 156  179.1033
 157  317.194
 158  512.1737
 159  362.3891
 160  425.6432
 161  328.1656
 162  305.0517
 163  233.8454
 164  207.5971
 165  280.7888
 166  433.9925
 167  377.3564
 168  335.1643
 169  284.8837
 170  306.4698
 171  287.0266
 172  150.7268
 173  155.4793
 174  206.106
 175  280.0926
 176  216.0332
 177  323.4644
 178  345.1126
 179  260.7772
 180  160.2664
 181  162.0179
 182  281.9367
 183  395.9972
 184  345.1204
 185  270.7891
 186  340.8598
 187  328.4306
 188  365.26
 189  358.8825
 190  419.8359
 191  522.9756
 192  445.8277
 193  438.6302
 194  255.0613
 195  297.7785
 196  233.5701
 197  154.7952
 198  389.5272
 199  491.5573
 200  527.1445
 201  401.3002
 202  433.2156
 203  463.436
 204  572.1887
 205  510.6642
 206  436.9061
 207  597.6676
 208  837.7832
 209  1019.352
 210  1027.562
 211  841.8101
 212  657.1398
 213  470.3777
 214  345.8863
 215  317.2546
 216  291.0681
 217  418.1046
 218  224.0063
 219  323.2036
 220  510.9407
 221  461.8302
 222  322.9717
 223  410.2849
 224  378.4947
 225  383.8676
 226  360.4669
 227  436.6523
 228  452.9295
 229  355.6366
 230  371.8399
 231  217.1117
 232  303.4753
 233  355.8921
 234  278.8786
 235  204.4524
 236  241.2224
 237  291.0353
 238  335.0695
 239  200.2142
 240  171.9791
 241  258.2193
 242  357.4372
 243  329.4596
 244  234.2163
 245  211.4201
 246  256.4095
 247  272.4168
 248  366.1645
 249  267.995
 250  285.9565
 251  313.1032
 252  280.2189
 253  237.7401
 254  343.5301
 255  295.7661
 256  274.968
 257  364.8502
 258  287.4607
 259  318.0565
 260  387.2563
 261  334.6502
 262  161.9493
 263  263.4051
 264  284.2496
 265  359.2763
 266  431.8622
 267  475.2115
 268  450.7935
 269  389.3429
 270  368.4529
 271  426.4861
 272  435.6725
 273  351.4823
 274  414.8156
 275  430.5614
 276  373.6423
 277  397.4752
 278  442.7842
 279  346.678
 280  279.8367
 281  319.9111
 282  291.699
 283  282.6502
 284  302.4802
 285  345.4863
 286  343.8838
 287  301.4724
 288  272.971
 289  260.5082
 290  224.6864
 291  249.0003
 292  258.0453
 293  356.7028
 294  332.3585
 295  298.1887
 296  487.4339
 297  487.046
 298  228.2685
 299  241.1195
 300  244.9221
 301  303.2737
 302  319.8859
 303  340.8567
 304  380.1054
 305  401.6884
 306  319.063
 307  293.5381
 308  272.5459
 309  193.2986
 310  240.9203
 311  330.6448
 312  345.5371
 313  225.6605
 314  256.6206
 315  251.0888
 316  156.7957
 317  288.9446
 318  400.6989
 319  329.4782
 320  237.6873
 321  397.271
 322  346.2108
 323  210.3203
 324  296.7296
 325  305.2737
 326  390.5348
 327  340.2104
 328  380.0247
 329  335.2396
 330  455.1617
 331  379.5056
 332  327.2587
 333  322.0079
 334  295.4862
 335  250.3868
 336  350.4724
 337  273.0558
 338  292.7793
 339  324.6892
 340  291.4836
 341  259.0757
 342  107.9524
 343  283.4572
 344  387.1198
 345  400.0352
 346  280.376
 347  225.8993
 348  295.9044
 349  259.1244
 350  218.5011
 351  199.1591
 352  178.5144
 353  294.3246
 354  361.3434
 355  373.9236
 356  325.5905
 357  211.6504
 358  215.9784
 359  315.286
 360  156.9854
 361  286.4201
 362  384.5234
 363  318.6546
 364  166.5883
 365  187.4425
 366  256.5988
 367  154.128
 368  257.4152
 369  352.6761
 370  365.0102
 371  248.7628
 372  207.1191
 373  306.758
 374  354.334
 375  401.4585
 376  310.6975
 377  332.5316
 378  260.9488
 379  204.2409
 380  262.6544
 381  324.8026
 382  381.2469
 383  337.4352
 384  282.6367
 385  324.1844
 386  210.3976
 387  174.8209
 388  231.0524
 389  233.7164
 390  257.6899
 391  347.0378
 392  326.633
 393  315.0063
 394  296.4099
 395  323.7782
 396  287.9099
 397  276.6124
 398  218.2221
 399  192.7846
 400  253.0855
 401  369.4131
 402  373.7942
 403  303.487
 404  207.8943
 405  147.1897
 406  165.2319
 407  253.4237
 408  266.4337
 409  240.7285
 410  324.3832
 411  330.9933
 412  332.139
 413  277.7421
 414  201.7728
 415  208.1327
 416  291.3651
 417  285.7039
 418  212.8229
 419  148.8288
 420  301.575
 421  448.1985
 422  346.739
 423  236.6701
 424  310.9121
 425  327.1189
 426  260.0065
 427  377.6346
 428  376.361
 429  313.1647
 430  272.5156
 431  275.6771
 432  258.4576
 433  196.0343
 434  195.1382
 435  296.3774
 436  367.1522
 437  240.2051
 438  263.3689
 439  289.3563
 440  276.0823
 441  262.8275
 442  266.6882
 443  360.3708
 444  339.4477
 445  346.3065
 446  320.9134
 447  138.9611
 448  92.29881
 449  109.6227
 450  156.8091
 451  235.43
 452  295.773
 453  320.6481
 454  292.8102
 455  302.6699
 456  236.7089
 457  185.2684
 458  126.8583
 459  238.887
 460  324.9333
 461  260.8516
 462  290.3458
 463  212.915
 464  390.8689
 465  443.4468
 466  361.3307
 467  293.5256
 468  282.507
 469  353.8135
 470  363.2845
 471  389.6014
 472  322.1396
 473  234.1981
 474  193.1657
 475  254.2307
 476  249.9575
 477  239.7445
 478  293.4951
 479  188.2529
 480  116.9567
 481  235.0181
 482  212.432
 483  252.6667
 484  285.6241
 485  373.2521
 486  259.7179
 487  246.2693
 488  259.8605
 489  185.5834
 490  167.5968
 491  225.9047
 492  269.432
 493  233.5448
 494  254.4777
 495  237.2207
 496  227.4111
 497  279.5979
 498  363.3183
 499  359.4053
 500  290.5373
 501  162.4834
 502  199.352
 503  363.4326
 504  397.1581
 505  345.8654
 506  412.7929
 507  461.0886
 508  379.3912
 509  313.2853
 510  367.8901
 511  427.7328
