# Input file       =  1194654907.104029_cleaned.dat
# Candidate        =  PSR_0332+5434
# Telescope        =  AR
# Epoch_topo       =  58071.024607685518
# Epoch_bary       =  N/A
# T_sample         =  0.002
# Data Folded      =  7340032
# Data Avg         =  -0.0426372671992515
# Data StdDev      =  1.00029487075071 
# Profile Bins     =  512
# Profile Avg      =  -611.290401059419
# Profile StdDev   =  119.768342147087 
# Reduced chi-sqr  =  0.750
# Prob(Noise)      <  1   (~0.0 sigma)
# P_topo (ms)      =  714.508545790186  +/- 0.000136
# P'_topo (s/s)    =  -0                +/- 7.19e-11
# P''_topo (s/s^2) =  0                 +/- 3.17e-14
# P_bary (ms)      =  N/A
# P'_bary (s/s)    =  N/A
# P''_bary (s/s^2) =  N/A
# P_orb (s)        =  N/A
# asin(i)/c (s)    =  N/A
# eccentricity     =  N/A
# w (rad)          =  N/A
# T_peri           =  N/A
######################################################
   0  -586.3662
   1  -567.3001
   2  -603.7141
   3  -594.1066
   4  -572.865
   5  -634.4395
   6  -596.4419
   7  -616.53
   8  -690.4147
   9  -595.7354
  10  -674.8149
  11  -602.6398
  12  -596.5055
  13  -606.0802
  14  -724.0756
  15  -622.7566
  16  -647.5673
  17  -660.5767
  18  -662.8522
  19  -585.7722
  20  -517.9854
  21  -590.0678
  22  -563.2348
  23  -611.6447
  24  -659.8719
  25  -601.8947
  26  -641.4335
  27  -618.7185
  28  -602.9877
  29  -668.4906
  30  -586.564
  31  -514.7568
  32  -500.361
  33  -596.8945
  34  -623.632
  35  -622.1042
  36  -574.5994
  37  -476.7014
  38  -485.4283
  39  -631.1918
  40  -733.8439
  41  -650.6942
  42  -709.6599
  43  -616.0342
  44  -529.6099
  45  -509.9588
  46  -501.5284
  47  -715.3469
  48  -717.118
  49  -736.6857
  50  -537.6494
  51  -509.1602
  52  -536.4517
  53  -567.1261
  54  -640.6057
  55  -684.0417
  56  -626.5854
  57  -591.6867
  58  -644.0927
  59  -657.3654
  60  -608.1681
  61  -568.7269
  62  -682.347
  63  -658.9222
  64  -597.1904
  65  -644.2449
  66  -582.6862
  67  -627.2698
  68  -558.4939
  69  -503.3019
  70  -494.052
  71  -560.3944
  72  -566.9042
  73  -482.6512
  74  -487.6468
  75  -568.8887
  76  -590.2851
  77  -660.0056
  78  -598.9073
  79  -603.6259
  80  -585.3234
  81  -695.0723
  82  -706.572
  83  -576.4622
  84  -609.0034
  85  -652.0644
  86  -641.5953
  87  -579.7511
  88  -643.2891
  89  -627.3845
  90  -672.6133
  91  -671.7729
  92  -637.8521
  93  -611.1804
  94  -585.4255
  95  -516.3457
  96  -478.5385
  97  -545.2266
  98  -706.726
  99  -613.0195
 100  -590.6799
 101  -662.1333
 102  -661.4872
 103  -609.8242
 104  -589.7811
 105  -587.6454
 106  -633.3639
 107  -660.3423
 108  -578.2529
 109  -638.7813
 110  -733.5093
 111  -691.589
 112  -601.7814
 113  -524.3536
 114  -630.549
 115  -692.3339
 116  -668.7233
 117  -645.566
 118  -692.3728
 119  -606.7702
 120  -669.3055
 121  -691.6088
 122  -706.2222
 123  -709.7978
 124  -681.0362
 125  -667.6284
 126  -604.7598
 127  -663.278
 128  -680.4395
 129  -734.5446
 130  -676.8882
 131  -707.5939
 132  -753.6298
 133  -764.0563
 134  -709.0955
 135  -589.0689
 136  -631.4041
 137  -678.0262
 138  -630.0491
 139  -579.4807
 140  -595.6253
 141  -680.8544
 142  -606.8918
 143  -560.4615
 144  -545.2516
 145  -541.684
 146  -576.5933
 147  -663.671
 148  -547.6669
 149  -481.1344
 150  -523.6126
 151  -436.1469
 152  -514.012
 153  -550.0845
 154  -612.1183
 155  -676.6064
 156  -589.6384
 157  -629.6115
 158  -574.3332
 159  -539.4471
 160  -552.1385
 161  -504.5133
 162  -493.0666
 163  -539.3817
 164  -616.6797
 165  -688.8394
 166  -686.8184
 167  -641.85
 168  -659.6497
 169  -722.3939
 170  -635.3319
 171  -484.6346
 172  -457.6429
 173  -629.8449
 174  -714.3978
 175  -727.9329
 176  -628.1727
 177  -642.6551
 178  -607.9724
 179  -559.8126
 180  -610.1487
 181  -566.701
 182  -619.7025
 183  -690.8643
 184  -586.2723
 185  -619.9236
 186  -504.3321
 187  -482.3018
 188  -638.6886
 189  -595.3745
 190  -636.5377
 191  -665.8621
 192  -673.3583
 193  -583.8403
 194  -642.9899
 195  -612.0916
 196  -600.2482
 197  -737.3661
 198  -747.9431
 199  -751.4296
 200  -647.7138
 201  -630.7635
 202  -583.1895
 203  -650.3888
 204  -696.8179
 205  -632.9244
 206  -562.5878
 207  -634.7817
 208  -790.1602
 209  -721.6396
 210  -559.065
 211  -632.0317
 212  -726.0378
 213  -714.4443
 214  -650.155
 215  -605.0294
 216  -631.3957
 217  -665.0682
 218  -680.9036
 219  -633.799
 220  -487.6956
 221  -512.2712
 222  -580.8895
 223  -664.1078
 224  -599.7701
 225  -583.9016
 226  -572.3109
 227  -591.7325
 228  -602.2001
 229  -602.5449
 230  -599.038
 231  -583.5076
 232  -592.7357
 233  -749.861
 234  -768.73
 235  -704.5376
 236  -665.7615
 237  -644.4103
 238  -678.3721
 239  -748.9189
 240  -717.6556
 241  -727.504
 242  -680.0103
 243  -688.0305
 244  -599.0366
 245  -551.4733
 246  -576.9729
 247  -672.1205
 248  -635.2715
 249  -696.1722
 250  -673.7786
 251  -740.8535
 252  -602.2599
 253  -608.3879
 254  -610.0455
 255  -562.1133
 256  -530.2036
 257  -597.3062
 258  -592.72
 259  -612.4146
 260  -644.548
 261  -535.1561
 262  -524.8081
 263  -737.6436
 264  -723.9012
 265  -661.0978
 266  -614.4863
 267  -570.0179
 268  -539.2282
 269  -530.0016
 270  -481.1858
 271  -544.801
 272  -542.4914
 273  -510.2652
 274  -637.0416
 275  -644.1002
 276  -619.411
 277  -636.5671
 278  -670.2063
 279  -505.5443
 280  -495.1391
 281  -558.6518
 282  -430.9599
 283  -328.1958
 284  -346.4383
 285  -341.2019
 286  -241.0158
 287  -325.3566
 288  -438.3234
 289  -600.7618
 290  -761.8263
 291  -694.3019
 292  -695.4426
 293  -645.8337
 294  -560.8308
 295  -681.6369
 296  -620.1604
 297  -464.2218
 298  -591.6258
 299  -633.4531
 300  -601.7247
 301  -588.2539
 302  -572.1412
 303  -547.2949
 304  -653.2773
 305  -625.3539
 306  -666.0776
 307  -651.5705
 308  -696.5195
 309  -644.8336
 310  -511.0686
 311  -516.8035
 312  -629.7242
 313  -642.6182
 314  -705.339
 315  -668.6433
 316  -598.6501
 317  -622.7701
 318  -620.7108
 319  -602.4497
 320  -520.3397
 321  -579.0455
 322  -739.7236
 323  -690.4755
 324  -678.9551
 325  -663.2895
 326  -558.3708
 327  -537.6778
 328  -560.7217
 329  -543.738
 330  -618.9672
 331  -635.3412
 332  -583.6358
 333  -600.5427
 334  -743.7752
 335  -705.3305
 336  -589.9485
 337  -551.2224
 338  -606.7665
 339  -679.6703
 340  -626.801
 341  -621.955
 342  -612.4526
 343  -633.6255
 344  -471.8518
 345  -564.9373
 346  -560.9053
 347  -611.0055
 348  -714.5332
 349  -579.3226
 350  -569.4225
 351  -507.0431
 352  -595.6986
 353  -646.8519
 354  -578.983
 355  -599.1761
 356  -701.6151
 357  -634.4705
 358  -610.7488
 359  -588.1003
 360  -646.4083
 361  -558.3423
 362  -469.6065
 363  -520.1501
 364  -505.0798
 365  -528.7935
 366  -519.6537
 367  -520.1312
 368  -595.5483
 369  -533.4724
 370  -548.3115
 371  -524.1235
 372  -585.5488
 373  -628.8558
 374  -565.7297
 375  -487.3004
 376  -521.4716
 377  -555.8976
 378  -555.0331
 379  -540.5237
 380  -566.2932
 381  -483.7906
 382  -612.4773
 383  -609.8656
 384  -464.715
 385  -445.6796
 386  -544.9094
 387  -623.6613
 388  -640.4946
 389  -726.4555
 390  -628.8104
 391  -545.3824
 392  -472.8213
 393  -462.3346
 394  -536.1896
 395  -598.0259
 396  -634.7108
 397  -634.9575
 398  -579.6155
 399  -538.8723
 400  -577.0914
 401  -530.3107
 402  -514.4878
 403  -549.4854
 404  -616.9309
 405  -546.9631
 406  -481.5243
 407  -553.8325
 408  -729.7254
 409  -658.9838
 410  -559.3555
 411  -620.2001
 412  -582.7867
 413  -558.0574
 414  -618.5249
 415  -647.983
 416  -498.1138
 417  -610.9376
 418  -664.3556
 419  -625.3602
 420  -664.6819
 421  -743.0668
 422  -668.2769
 423  -662.309
 424  -709.06
 425  -599.6428
 426  -507.7941
 427  -561.2889
 428  -573.7871
 429  -620.3438
 430  -637.5782
 431  -644.7579
 432  -710.1935
 433  -716.8182
 434  -668.386
 435  -607.0709
 436  -655.2148
 437  -608.0218
 438  -580.5701
 439  -589.4926
 440  -561.3419
 441  -633.8355
 442  -571.9404
 443  -549.1899
 444  -702.1373
 445  -609.7366
 446  -538.3464
 447  -506.9703
 448  -586.2746
 449  -623.9336
 450  -617.709
 451  -639.3083
 452  -622.3009
 453  -616.8657
 454  -530.0497
 455  -520.36
 456  -665.5252
 457  -670.667
 458  -652.7452
 459  -724.4287
 460  -737.6147
 461  -645.5894
 462  -673.8916
 463  -727.759
 464  -763.0161
 465  -780.3101
 466  -774.305
 467  -752.1136
 468  -677.5844
 469  -611.0626
 470  -633.119
 471  -716.6432
 472  -708.5167
 473  -754.9201
 474  -616.1237
 475  -609.6
 476  -660.7529
 477  -698.0472
 478  -703.4117
 479  -623.3927
 480  -570.5737
 481  -594.1016
 482  -675.7269
 483  -599.7596
 484  -579.1787
 485  -629.5075
 486  -700.7698
 487  -619.3152
 488  -543.9802
 489  -555.5388
 490  -618.6984
 491  -727.5602
 492  -685.7949
 493  -650.9209
 494  -633.2884
 495  -572.7587
 496  -516.406
 497  -662.5053
 498  -725.8528
 499  -636.337
 500  -533.2785
 501  -634.1603
 502  -577.1706
 503  -650.8789
 504  -701.2519
 505  -648.1506
 506  -630.238
 507  -566.0909
 508  -569.7294
 509  -603.2321
 510  -601.5894
 511  -676.0267
