# Input file       =  1194051750.097979_cleaned.dat
# Candidate        =  PSR_0332+5434
# Telescope        =  AR
# Epoch_topo       =  58064.043623819205
# Epoch_bary       =  N/A
# T_sample         =  0.002
# Data Folded      =  7340032
# Data Avg         =  0.0705541583998379
# Data StdDev      =  2.80264532308303 
# Profile Bins     =  1024
# Profile Avg      =  505.707203095918 
# Profile StdDev   =  237.283281215871 
# Reduced chi-sqr  =  1.071
# Prob(Noise)      <  0.0576   (~1.6 sigma)
# P_topo (ms)      =  714.501695485003  +/- 0.000264
# P'_topo (s/s)    =  -0                +/- 1.39e-10
# P''_topo (s/s^2) =  0                 +/- 6.15e-14
# P_bary (ms)      =  N/A
# P'_bary (s/s)    =  N/A
# P''_bary (s/s^2) =  N/A
# P_orb (s)        =  N/A
# asin(i)/c (s)    =  N/A
# eccentricity     =  N/A
# w (rad)          =  N/A
# T_peri           =  N/A
######################################################
   0  481.8469
   1  473.0642
   2  389.186
   3  299.2166
   4  490.8478
   5  659.5105
   6  765.8876
   7  703.1067
   8  660.1219
   9  681.0442
  10  495.7867
  11  291.4545
  12  339.5428
  13  497.8737
  14  525.5241
  15  453.3016
  16  418.007
  17  481.3462
  18  441.4717
  19  518.6885
  20  589.6841
  21  587.621
  22  565.501
  23  500.6078
  24  543.7974
  25  646.7727
  26  625.1354
  27  652.7736
  28  657.9367
  29  702.938
  30  702.6992
  31  650.7896
  32  750.7826
  33  768.7859
  34  758.0289
  35  711.679
  36  769.6815
  37  720.8575
  38  645.3309
  39  497.3044
  40  510.2673
  41  589.1724
  42  635.6596
  43  511.6636
  44  423.3732
  45  440.2442
  46  482.9371
  47  448.159
  48  448.0334
  49  596.5465
  50  702.5127
  51  679.3289
  52  589.4539
  53  613.7393
  54  600.0227
  55  532.017
  56  505.8434
  57  562.4261
  58  642.1685
  59  566.7056
  60  461.4541
  61  470.972
  62  465.5868
  63  441.9348
  64  432.8044
  65  405.0302
  66  477.4414
  67  485.2505
  68  639.7997
  69  668.7558
  70  595.2329
  71  588.4695
  72  639.4975
  73  612.572
  74  593.7714
  75  556.3935
  76  588.7206
  77  660.6053
  78  683.2867
  79  674.5494
  80  562.1138
  81  465.6241
  82  517.6126
  83  561.8527
  84  684.2707
  85  730.8048
  86  627.774
  87  566.0356
  88  385.1526
  89  336.9105
  90  373.2375
  91  564.6124
  92  749.257
  93  702.8479
  94  449.9622
  95  307.3188
  96  307.0215
  97  351.5128
  98  396.2706
  99  463.5062
 100  585.9594
 101  575.8549
 102  429.2469
 103  414.5458
 104  410.7817
 105  413.5601
 106  351.3721
 107  398.7208
 108  361.0753
 109  427.9323
 110  465.148
 111  519.9547
 112  469.2396
 113  445.8567
 114  498.3842
 115  545.7502
 116  622.5025
 117  602.1719
 118  466.9141
 119  283.1652
 120  324.9263
 121  482.2487
 122  629.7455
 123  662.1495
 124  603.5663
 125  533.7327
 126  429.3714
 127  505.4483
 128  641.1671
 129  773.9216
 130  814.585
 131  731.5178
 132  635.6284
 133  564.8982
 134  584.4396
 135  596.4944
 136  650.4106
 137  716.1131
 138  692.0678
 139  555.1501
 140  454.7722
 141  444.4343
 142  474.0113
 143  402.6168
 144  355.2858
 145  302.833
 146  352.5294
 147  372.5414
 148  401.1488
 149  415.8136
 150  448.0105
 151  478.018
 152  505.799
 153  492.6296
 154  433.353
 155  510.8528
 156  516.2789
 157  554.5502
 158  589.3459
 159  503.758
 160  503.1619
 161  490.9557
 162  549.9872
 163  489.3764
 164  386.024
 165  408.9629
 166  522.8453
 167  497.027
 168  513.5808
 169  405.1035
 170  371.7272
 171  433.7166
 172  461.679
 173  490.6954
 174  393.2519
 175  372.6906
 176  383.7661
 177  401.6287
 178  576.42
 179  738.8872
 180  678.5475
 181  548.1215
 182  411.4792
 183  498.7484
 184  562.0999
 185  654.4863
 186  580.4135
 187  498.867
 188  364.3151
 189  439.1215
 190  499.2073
 191  401.5976
 192  347.8052
 193  410.7605
 194  550.9913
 195  532.2776
 196  430.3612
 197  426.2267
 198  516.1129
 199  573.817
 200  563.5775
 201  370.5319
 202  349.7022
 203  502.4351
 204  666.8345
 205  726.3688
 206  656.7615
 207  552.3379
 208  520.42
 209  492.1772
 210  594.0998
 211  567.1285
 212  494.0487
 213  414.1575
 214  397.2822
 215  378.7164
 216  383.6577
 217  421.5498
 218  498.2291
 219  491.2576
 220  567.0016
 221  549.8751
 222  558.5596
 223  483.8819
 224  492.1443
 225  496.6405
 226  512.9869
 227  449.1244
 228  456.0495
 229  374.3863
 230  295.7058
 231  242.1453
 232  265.5296
 233  407.5858
 234  460.485
 235  449.8211
 236  491.9093
 237  456.9217
 238  532.9344
 239  334.9182
 240  225.4528
 241  279.5997
 242  431.6536
 243  531.4623
 244  478.5845
 245  476.2868
 246  542.4677
 247  500.7818
 248  619.9731
 249  734.0989
 250  718.3733
 251  637.8851
 252  500.6407
 253  509.4824
 254  396.7848
 255  403.4271
 256  455.8915
 257  537.5338
 258  582.9583
 259  599.9493
 260  585.2195
 261  514.5709
 262  509.2939
 263  546.734
 264  529.9062
 265  454.8536
 266  407.4927
 267  507.2971
 268  470.6579
 269  457.3625
 270  513.6096
 271  560.4076
 272  424.6191
 273  383.6375
 274  337.6733
 275  346.439
 276  395.5151
 277  475.9491
 278  563.1852
 279  507.2674
 280  496.1238
 281  579.9365
 282  620.7918
 283  581.9111
 284  558.6841
 285  416.0743
 286  404.3076
 287  349.94
 288  475.5647
 289  423.234
 290  398.307
 291  401.6646
 292  499.8064
 293  545.6832
 294  654.1093
 295  577.1455
 296  449.8773
 297  436.865
 298  563.7675
 299  587.3351
 300  586.6403
 301  503.9641
 302  438.5117
 303  365.369
 304  291.6379
 305  381.7261
 306  459.0417
 307  594.9091
 308  711.5699
 309  673.743
 310  496.5866
 311  293.121
 312  262.2524
 313  366.3427
 314  412.4551
 315  420.9005
 316  421.7724
 317  451.776
 318  481.7111
 319  524.1848
 320  423.2607
 321  430.4586
 322  407.9315
 323  553.267
 324  476.5616
 325  481.3268
 326  553.7959
 327  633.4531
 328  584.6861
 329  485.0174
 330  636.4704
 331  642.1949
 332  587.4625
 333  474.4182
 334  444.9138
 335  524.2199
 336  476.2335
 337  526.4626
 338  529.1912
 339  556.113
 340  607.5469
 341  615.6974
 342  519.9781
 343  494.3189
 344  477.1189
 345  651.8011
 346  634.2339
 347  612.657
 348  465.2807
 349  486.3053
 350  542.4929
 351  674.5297
 352  579.5316
 353  571.0503
 354  506.3878
 355  437.126
 356  445.8884
 357  350.555
 358  394.3453
 359  346.6096
 360  445.0129
 361  387.5902
 362  433.6246
 363  428.2854
 364  564.5676
 365  548.4799
 366  593.8615
 367  547.0552
 368  479.4482
 369  413.589
 370  386.7067
 371  370.1631
 372  368.1109
 373  338.2653
 374  411.2046
 375  395.4178
 376  402.256
 377  457.8703
 378  497.1231
 379  470.7769
 380  535.7754
 381  511.641
 382  476.3026
 383  296.4106
 384  311.4796
 385  366.212
 386  522.7224
 387  482.1716
 388  424.3759
 389  409.3047
 390  444.0476
 391  381.4426
 392  444.3969
 393  441.3279
 394  481.1384
 395  398.5602
 396  450.0736
 397  587.7963
 398  596.8566
 399  569.4477
 400  502.6174
 401  475.7735
 402  477.9014
 403  474.1248
 404  441.3679
 405  364.0365
 406  349.9274
 407  457.1046
 408  543.1829
 409  458.9119
 410  461.4913
 411  503.1083
 412  547.7261
 413  544.8945
 414  410.9308
 415  418.9662
 416  448.6431
 417  508.4209
 418  531.8704
 419  519.4485
 420  449.3069
 421  371.2815
 422  269.5946
 423  274.5883
 424  347.7266
 425  437.2859
 426  493.8505
 427  381.8504
 428  368.0496
 429  278.369
 430  282.6613
 431  325.2506
 432  459.5154
 433  468.4978
 434  565.1497
 435  630.2885
 436  595.173
 437  400.7819
 438  292.9018
 439  451.5435
 440  542.7208
 441  475.3646
 442  305.4034
 443  432.3876
 444  500.0011
 445  521.6074
 446  512.6149
 447  652.4473
 448  678.9384
 449  584.1331
 450  571.9207
 451  559.7861
 452  712.2883
 453  783.3687
 454  758.5468
 455  609.759
 456  472.6258
 457  403.3045
 458  379.2096
 459  434.8369
 460  403.525
 461  321.7629
 462  180.9126
 463  297.9331
 464  342.9932
 465  371.1296
 466  298.1422
 467  279.849
 468  338.5751
 469  328.0644
 470  261.316
 471  312.5123
 472  374.6369
 473  568.7767
 474  513.1868
 475  518.16
 476  469.9521
 477  470.6503
 478  469.6437
 479  359.6714
 480  393.9931
 481  374.0745
 482  493.5978
 483  501.3914
 484  509.3397
 485  423.6083
 486  447.0691
 487  525.8369
 488  570.347
 489  649.0273
 490  564.2498
 491  579.1577
 492  555.3948
 493  712.4067
 494  729.8427
 495  702.0515
 496  706.8422
 497  638.103
 498  522.4887
 499  419.1755
 500  464.5598
 501  559.2912
 502  527.8701
 503  541.3816
 504  505.5065
 505  617.7847
 506  583.3317
 507  713.4493
 508  655.6895
 509  642.0216
 510  635.3311
 511  681.4036
 512  601.1641
 513  510.0077
 514  348.0786
 515  427.8638
 516  444.2646
 517  537.621
 518  344.2991
 519  281.8308
 520  262.0511
 521  397.8301
 522  337.6963
 523  359.1073
 524  353.0798
 525  377.5343
 526  418.5773
 527  379.1557
 528  437.9661
 529  506.2878
 530  477.1175
 531  473.5032
 532  435.0089
 533  450.1756
 534  439.4401
 535  414.7141
 536  400.0489
 537  310.0624
 538  362.7486
 539  403.0417
 540  386.8694
 541  436.5196
 542  578.5217
 543  675.0388
 544  726.5477
 545  712.6857
 546  726.0153
 547  722.3998
 548  730.8038
 549  807.2402
 550  746.0917
 551  603.5776
 552  457.308
 553  508.615
 554  720.7573
 555  711.6575
 556  634.6051
 557  498.9963
 558  493.6075
 559  474.5261
 560  454.3956
 561  522.2672
 562  570.4818
 563  713.0971
 564  753.0043
 565  662.3997
 566  505.0428
 567  389.3126
 568  412.3253
 569  463.0326
 570  514.5144
 571  480.565
 572  452.2316
 573  424.7225
 574  475.3355
 575  398.7457
 576  520.2881
 577  669.2569
 578  632.7197
 579  507.7171
 580  430.465
 581  447.5919
 582  480.1903
 583  433.5434
 584  412.2019
 585  445.9104
 586  462.6714
 587  538.8031
 588  551.5911
 589  470.0627
 590  409.924
 591  470.6338
 592  636.8851
 593  661.5756
 594  570.2862
 595  459.3205
 596  472.6228
 597  436.4673
 598  497.7843
 599  397.1618
 600  374.8581
 601  364.2608
 602  332.4172
 603  371.8743
 604  416.8256
 605  376.2964
 606  343.7634
 607  237.5798
 608  361.8929
 609  393.1945
 610  430.3025
 611  529.7167
 612  496.7892
 613  516.6209
 614  492.8989
 615  591.7115
 616  624.0651
 617  612.856
 618  572.7977
 619  490.3682
 620  440.5196
 621  420.1047
 622  647.4805
 623  845.008
 624  1000.625
 625  877.14
 626  806.2314
 627  851.6534
 628  973.3204
 629  1113.227
 630  1149.214
 631  1304.959
 632  1387.528
 633  1346.11
 634  1090.623
 635  1112.895
 636  1189.661
 637  1247.568
 638  982.9541
 639  864.2725
 640  833.8674
 641  879.1082
 642  850.4296
 643  756.5709
 644  690.1207
 645  542.1925
 646  539.8672
 647  578.365
 648  632.0546
 649  573.1494
 650  538.8322
 651  479.9876
 652  459.1505
 653  470.4962
 654  540.0175
 655  626.9945
 656  645.4224
 657  683.5423
 658  636.4687
 659  554.7578
 660  514.8656
 661  584.9534
 662  621.8146
 663  613.9268
 664  586.626
 665  677.8937
 666  649.2463
 667  568.9544
 668  543.628
 669  576.8781
 670  568.6321
 671  606.5568
 672  689.9337
 673  729.8419
 674  784.1721
 675  704.7577
 676  721.1358
 677  583.9423
 678  459.2589
 679  469.1671
 680  481.4373
 681  554.2998
 682  481.6346
 683  358.9773
 684  433.5233
 685  568.8097
 686  623.3082
 687  511.4655
 688  339.8593
 689  345.7084
 690  376.6888
 691  384.5677
 692  517.3424
 693  524.2881
 694  525.2562
 695  433.0262
 696  387.8752
 697  433.6953
 698  345.309
 699  315.9604
 700  386.36
 701  487.0738
 702  609.7303
 703  594.7073
 704  577.8812
 705  619.0289
 706  566.5127
 707  456.1112
 708  285.0306
 709  318.2734
 710  469.7799
 711  600.9565
 712  546.9237
 713  547.9373
 714  548.842
 715  648.001
 716  614.7669
 717  559.1694
 718  529.3522
 719  598.8759
 720  619.5593
 721  506.2384
 722  384.5382
 723  390.266
 724  529.9683
 725  604.5575
 726  465.0287
 727  390.9391
 728  363.7839
 729  472.6225
 730  480.2546
 731  423.9255
 732  309.405
 733  312.4268
 734  353.3424
 735  458.268
 736  415.1111
 737  448.7092
 738  428.2559
 739  447.1538
 740  680.0483
 741  789.7142
 742  816.0713
 743  615.432
 744  488.2882
 745  392.7756
 746  350.5875
 747  340.6938
 748  372.0617
 749  422.2864
 750  423.368
 751  434.8921
 752  430.7501
 753  470.6997
 754  535.2118
 755  609.9105
 756  512.4091
 757  435.0179
 758  449.7309
 759  567.4116
 760  564.8137
 761  492.7914
 762  522.1094
 763  417.1058
 764  394.545
 765  314.5586
 766  324.199
 767  375.2936
 768  487.5082
 769  492.9699
 770  550.5538
 771  514.1553
 772  486.9401
 773  414.8008
 774  358.74
 775  470.808
 776  592.1348
 777  642.715
 778  645.0557
 779  525.3125
 780  535.1131
 781  617.9032
 782  657.6469
 783  652.2809
 784  567.3111
 785  570.9514
 786  511.3164
 787  549.4259
 788  472.5626
 789  530.3804
 790  412.5591
 791  493.2143
 792  342.0093
 793  248.0541
 794  200.4552
 795  371.7614
 796  580.4142
 797  716.8314
 798  658.162
 799  568.0823
 800  500.3477
 801  529.6591
 802  400.9641
 803  315.2226
 804  296.3246
 805  286.5475
 806  290.3032
 807  405.2289
 808  603.3001
 809  579.6383
 810  488.1535
 811  442.264
 812  485.6111
 813  543.6928
 814  560.1082
 815  595.8698
 816  614.6469
 817  580.8969
 818  545.3777
 819  518.6231
 820  433.1611
 821  328.2439
 822  346.2213
 823  423.4257
 824  376.4838
 825  318.5432
 826  331.6486
 827  493.0464
 828  630.6232
 829  644.7165
 830  543.5201
 831  433.8972
 832  445.9367
 833  537.1185
 834  429.3733
 835  421.3772
 836  262.1671
 837  399.1282
 838  335.877
 839  356.6828
 840  340.831
 841  368.1324
 842  397.447
 843  395.5575
 844  398.2442
 845  427.1773
 846  485.882
 847  471.0974
 848  516.826
 849  489.1284
 850  463.5925
 851  542.2455
 852  552.727
 853  557.4166
 854  436.2273
 855  418.6337
 856  461.2748
 857  520.882
 858  558.5971
 859  547.7624
 860  538.9382
 861  481.1969
 862  442.0238
 863  379.187
 864  463.3341
 865  438.8985
 866  428.3419
 867  362.097
 868  337.8208
 869  382.3579
 870  460.155
 871  524.3726
 872  441.8742
 873  448.4244
 874  480.0533
 875  571.9561
 876  601.9476
 877  502.7364
 878  361.1973
 879  335.1791
 880  396.8104
 881  469.3202
 882  447.2571
 883  382.2468
 884  426.1476
 885  409.5559
 886  456.0338
 887  421.6696
 888  388.3553
 889  439.8456
 890  411.6275
 891  412.9147
 892  313.7601
 893  394.4374
 894  441.4757
 895  458.9054
 896  440.3348
 897  411.2401
 898  448.5576
 899  489.9549
 900  472.7444
 901  377.873
 902  324.8341
 903  344.4334
 904  416.7091
 905  519.1799
 906  561.8138
 907  663.9617
 908  562.8152
 909  563.2108
 910  516.2452
 911  531.937
 912  575.3945
 913  587.6554
 914  681.5041
 915  553.9099
 916  543.9506
 917  425.6368
 918  487.2019
 919  454.9257
 920  499.2821
 921  616.2091
 922  538.3154
 923  625.0592
 924  638.2796
 925  764.9439
 926  645.2558
 927  619.6227
 928  606.8058
 929  688.5635
 930  601.8174
 931  564.3682
 932  515.35
 933  442.6674
 934  442.4258
 935  510.6555
 936  638.4602
 937  635.2742
 938  588.5488
 939  593.2849
 940  573.9161
 941  502.6104
 942  471.7359
 943  484.2628
 944  589.5708
 945  599.0735
 946  519.7014
 947  470.2143
 948  444.9158
 949  545.1207
 950  619.1835
 951  644.6186
 952  591.2369
 953  470.2153
 954  393.5054
 955  350.5211
 956  490.1413
 957  585.8235
 958  633.0943
 959  518.6253
 960  510.7589
 961  520.9837
 962  488.0183
 963  421.7417
 964  415.537
 965  466.9777
 966  438.3293
 967  401.7391
 968  378.0168
 969  378.0231
 970  370.6952
 971  374.4851
 972  341.614
 973  410.364
 974  514.3255
 975  615.605
 976  643.1198
 977  523.4442
 978  501.3047
 979  491.8892
 980  426.2257
 981  360.1728
 982  297.3739
 983  377.7873
 984  307.4445
 985  287.2599
 986  272.789
 987  327.3065
 988  433.6275
 989  500.2293
 990  515.7252
 991  497.385
 992  484.847
 993  440.7533
 994  382.494
 995  437.0493
 996  482.1151
 997  548.2792
 998  557.7693
 999  613.5157
1000  620.0444
1001  512.1631
1002  394.8798
1003  398.5067
1004  595.359
1005  657.5275
1006  566.3503
1007  455.1758
1008  363.7225
1009  320.0416
1010  394.6953
1011  500.0703
1012  529.7502
1013  388.7896
1014  223.8452
1015  283.9252
1016  407.6763
1017  644.7878
1018  622.1589
1019  603.2404
1020  493.3698
1021  438.5419
1022  323.9752
1023  418.7042
