# Input file       =  1194022278.105005_cleaned.dat
# Candidate        =  PSR_0332+5434
# Telescope        =  AR
# Epoch_topo       =  58063.702512789409
# Epoch_bary       =  N/A
# T_sample         =  0.002
# Data Folded      =  7143424
# Data Avg         =  0.0317872289394105
# Data StdDev      =  0.999990040352518
# Profile Bins     =  512
# Profile Avg      =  443.466745089631 
# Profile StdDev   =  118.117408062405 
# Reduced chi-sqr  =  1.234
# Prob(Noise)      <  0.00023   (~3.5 sigma)
# P_topo (ms)      =  714.501027415357  +/- 0.000213
# P'_topo (s/s)    =  -0                +/- 1.16e-10
# P''_topo (s/s^2) =  0                 +/- 5.24e-14
# P_bary (ms)      =  N/A
# P'_bary (s/s)    =  N/A
# P''_bary (s/s^2) =  N/A
# P_orb (s)        =  N/A
# asin(i)/c (s)    =  N/A
# eccentricity     =  N/A
# w (rad)          =  N/A
# T_peri           =  N/A
######################################################
   0  476.2451
   1  461.7908
   2  599.4666
   3  597.9109
   4  468.0585
   5  409.9503
   6  406.3897
   7  481.2295
   8  655.46
   9  582.6275
  10  567.0646
  11  443.714
  12  466.2659
  13  430.5087
  14  602.0456
  15  527.8528
  16  513.3714
  17  376.2257
  18  521.3292
  19  563.79
  20  348.11
  21  279.832
  22  496.5739
  23  557.5563
  24  494.4062
  25  401.8373
  26  510.5531
  27  531.4214
  28  545.8827
  29  545.1511
  30  447.7701
  31  424.8384
  32  471.4392
  33  435.7605
  34  337.0379
  35  418.3649
  36  547.0126
  37  400.0442
  38  503.3767
  39  442.6743
  40  363.5244
  41  514.7979
  42  503.3091
  43  340.0118
  44  401.6705
  45  444.2018
  46  410.526
  47  404.5355
  48  355.8689
  49  281.682
  50  215.8163
  51  210.6591
  52  389.4747
  53  390.0658
  54  329.6222
  55  399.4761
  56  365.645
  57  403.8842
  58  429.4634
  59  397.7053
  60  368.4558
  61  391.2716
  62  383.2054
  63  400.996
  64  500.5212
  65  536.822
  66  483.4422
  67  514.0017
  68  381.0052
  69  368.4618
  70  389.5341
  71  550.6127
  72  538.1794
  73  404.7291
  74  286.7389
  75  328.3994
  76  366.1557
  77  445.157
  78  424.5374
  79  435.9743
  80  447.0477
  81  407.2236
  82  351.6697
  83  346.5696
  84  338.7092
  85  338.2357
  86  425.8373
  87  451.9611
  88  481.1052
  89  486.0247
  90  535.6721
  91  508.3652
  92  399.3832
  93  433.9835
  94  541.8654
  95  485.1024
  96  459.4631
  97  403.9539
  98  460.9414
  99  368.4028
 100  439.7712
 101  533.4998
 102  480.0999
 103  418.4178
 104  423.4632
 105  345.2487
 106  498.6537
 107  506.2223
 108  498.2357
 109  447.8404
 110  411.2273
 111  422.9023
 112  433.9014
 113  373.7894
 114  464.206
 115  559.3277
 116  447.2981
 117  367.162
 118  409.1227
 119  502.8165
 120  390.3706
 121  449.1685
 122  325.9947
 123  403.5584
 124  341.0481
 125  450.2614
 126  426.6779
 127  350.1078
 128  528.1068
 129  566.6979
 130  542.4686
 131  525.4618
 132  432.927
 133  330.1204
 134  389.3572
 135  464.8797
 136  366.7605
 137  338.1949
 138  441.2595
 139  319.5324
 140  289.4359
 141  461.4499
 142  505.2547
 143  432.2586
 144  430.7084
 145  423.5088
 146  286.1898
 147  279.3361
 148  314.8357
 149  375.088
 150  488.164
 151  520.4935
 152  450.028
 153  347.3711
 154  369.1151
 155  439.4314
 156  458.7164
 157  509.9786
 158  300.0587
 159  353.1585
 160  369.5018
 161  410.7849
 162  507.0563
 163  501.3598
 164  386.8982
 165  467.8114
 166  499.0797
 167  431.037
 168  460.9893
 169  489.4761
 170  492.5131
 171  611.4688
 172  542.7038
 173  518.7753
 174  450.6344
 175  520.6788
 176  480.1752
 177  388.2911
 178  349.6138
 179  326.8258
 180  444.9435
 181  441.2438
 182  400.8855
 183  383.4941
 184  514.2241
 185  481.7786
 186  487.4214
 187  526.1555
 188  472.7034
 189  494.0617
 190  470.4994
 191  400.5119
 192  365.0785
 193  445.6996
 194  519.8881
 195  407.9714
 196  433.2393
 197  462.3564
 198  496.4859
 199  333.6289
 200  404.5769
 201  472.9936
 202  436.6822
 203  397.6239
 204  382.1563
 205  452.0369
 206  428.729
 207  390.5505
 208  395.2075
 209  418.7896
 210  470.51
 211  442.1982
 212  310.6907
 213  333.5087
 214  340.1967
 215  408.929
 216  534.3248
 217  433.2049
 218  302.2512
 219  296.4216
 220  423.9127
 221  573.8209
 222  467.248
 223  423.3285
 224  322.3562
 225  419.9838
 226  448.5938
 227  444.927
 228  494.004
 229  474.4328
 230  501.8527
 231  433.3534
 232  303.2495
 233  437.6431
 234  551.8201
 235  615.1172
 236  450.9272
 237  415.8975
 238  560.0392
 239  601.7706
 240  606.1687
 241  663.8617
 242  780.7869
 243  900.286
 244  1036.571
 245  1123.709
 246  958.1132
 247  672.3869
 248  555.4446
 249  513.5287
 250  448.5753
 251  370.4087
 252  474.664
 253  519.3644
 254  433.6377
 255  514.84
 256  507.4084
 257  444.2414
 258  416.8052
 259  443.0883
 260  440.0208
 261  499.549
 262  552.8171
 263  630.6383
 264  329.3292
 265  268.4875
 266  394.4558
 267  531.6407
 268  417.0591
 269  330.033
 270  485.2174
 271  476.1756
 272  430.7321
 273  469.8237
 274  484.9051
 275  425.7444
 276  367.6201
 277  407.3301
 278  514.462
 279  473.301
 280  388.9904
 281  435.6661
 282  471.9992
 283  448.8173
 284  324.3686
 285  310.6667
 286  359.1892
 287  447.1584
 288  394.1453
 289  326.5202
 290  357.9629
 291  414.2254
 292  416.1355
 293  357.1797
 294  318.3098
 295  435.3344
 296  488.0233
 297  470.796
 298  375.076
 299  426.801
 300  512.3866
 301  405.8539
 302  351.5185
 303  263.4584
 304  269.7354
 305  385.2843
 306  454.1871
 307  443.5221
 308  462.4163
 309  567.3431
 310  529.5634
 311  497.1593
 312  469.6673
 313  391.0548
 314  533.0867
 315  521.4269
 316  316.6223
 317  356.3919
 318  272.2925
 319  273.8694
 320  333.0902
 321  425.6762
 322  465.3213
 323  541.5615
 324  361.825
 325  350.2244
 326  319.5969
 327  309.9627
 328  275.4763
 329  338.1161
 330  330.3194
 331  276.6943
 332  274.8999
 333  486.4229
 334  551.0392
 335  410.9319
 336  389.436
 337  550.9026
 338  496.8646
 339  378.1753
 340  456.3521
 341  508.9128
 342  453.2401
 343  528.6876
 344  545.8846
 345  443.126
 346  444.1591
 347  408.6492
 348  431.2921
 349  333.1837
 350  404.0279
 351  420.2154
 352  485.6824
 353  470.1788
 354  396.1223
 355  387.6957
 356  408.6707
 357  394.8497
 358  363.6067
 359  326.9604
 360  377.2115
 361  488.2985
 362  441.0938
 363  351.8867
 364  458.6501
 365  462.572
 366  389.687
 367  433.5736
 368  462.7589
 369  428.9905
 370  445.0464
 371  381.459
 372  497.7271
 373  498.309
 374  371.8386
 375  411.0675
 376  467.0572
 377  413.7898
 378  516.8608
 379  584.9734
 380  475.1989
 381  521.2684
 382  460.7617
 383  238.8642
 384  295.1568
 385  462.9212
 386  469.2227
 387  428.3224
 388  351.2226
 389  399.5192
 390  406.4306
 391  438.4441
 392  380.786
 393  361.0931
 394  406.352
 395  390.4899
 396  488.5927
 397  516.5883
 398  496.7528
 399  515.9783
 400  416.4119
 401  464.8636
 402  471.4794
 403  565.9484
 404  607.4041
 405  521.3784
 406  424.2584
 407  408.8448
 408  357.0651
 409  295.4892
 410  504.4055
 411  557.0086
 412  527.9601
 413  450.8733
 414  317.8
 415  402.4075
 416  449.4279
 417  422.0541
 418  438.2375
 419  392.0199
 420  461.3821
 421  421.6051
 422  365.3787
 423  432.7524
 424  403.1549
 425  501.3195
 426  542.8681
 427  519.424
 428  328.2288
 429  359.6026
 430  411.7071
 431  424.1785
 432  375.2404
 433  518.2064
 434  533.241
 435  509.782
 436  561.1164
 437  512.0997
 438  489.1545
 439  471.6986
 440  381.4103
 441  415.4319
 442  571.4248
 443  458.9323
 444  386.9313
 445  482.6436
 446  391.749
 447  303.9631
 448  456.9301
 449  557.0062
 450  518.7802
 451  455.6721
 452  470.2356
 453  542.4932
 454  486.9569
 455  514.2386
 456  491.4507
 457  373.2949
 458  331.7271
 459  374.4853
 460  443.8115
 461  496.6415
 462  499.7642
 463  519.0036
 464  408.4813
 465  341.3155
 466  335.8347
 467  352.2502
 468  480.3346
 469  545.9932
 470  542.3287
 471  481.0988
 472  493.2768
 473  460.1399
 474  484.7176
 475  551.2509
 476  541.3308
 477  450.2664
 478  445.8822
 479  482.6664
 480  539.8871
 481  471.9261
 482  567.538
 483  480.7878
 484  447.1312
 485  443.4296
 486  470.1636
 487  631.4466
 488  620.1444
 489  513.5645
 490  515.0591
 491  510.9665
 492  454.8896
 493  306.0599
 494  410.5016
 495  545.0927
 496  491.0206
 497  451.1126
 498  517.6242
 499  394.9641
 500  464.458
 501  466.5429
 502  301.8399
 503  275.404
 504  226.368
 505  239.1141
 506  407.6974
 507  507.7489
 508  437.4761
 509  323.6407
 510  326.2235
 511  396.0936
