# Input file       =  1194914014.106114_cleaned.dat
# Candidate        =  PSR_0332+5434
# Telescope        =  AR
# Epoch_topo       =  58074.023531320760
# Epoch_bary       =  N/A
# T_sample         =  0.002
# Data Folded      =  7340032
# Data Avg         =  0.176436455478585
# Data StdDev      =  4.84278518083954 
# Profile Bins     =  512
# Profile Avg      =  2529.3237519459  
# Profile StdDev   =  579.841374222325 
# Reduced chi-sqr  =  0.895
# Prob(Noise)      <  0.958   (~0.0 sigma)
# P_topo (ms)      =  714.511597146727  +/- 0.0011
# P'_topo (s/s)    =  -0                +/- 5.8e-10
# P''_topo (s/s^2) =  0                 +/- 2.56e-13
# P_bary (ms)      =  N/A
# P'_bary (s/s)    =  N/A
# P''_bary (s/s^2) =  N/A
# P_orb (s)        =  N/A
# asin(i)/c (s)    =  N/A
# eccentricity     =  N/A
# w (rad)          =  N/A
# T_peri           =  N/A
######################################################
   0  2798.129
   1  2799.477
   2  2670
   3  2490.308
   4  2974.269
   5  3018.356
   6  2783.477
   7  2415.075
   8  2782.692
   9  2315.748
  10  2401.378
  11  2394.965
  12  1894.685
  13  2124.767
  14  2542.82
  15  2884.069
  16  2681.575
  17  2489.517
  18  2399.788
  19  2193.764
  20  2415.494
  21  2594.877
  22  2243.001
  23  2189.235
  24  2321.046
  25  2769.813
  26  2770.803
  27  2243.509
  28  2511.324
  29  2633.017
  30  2209.788
  31  2440.987
  32  2710.549
  33  2695.973
  34  2660.444
  35  2706.404
  36  2854.286
  37  2549.735
  38  2994.064
  39  3086.666
  40  2609.8
  41  2400.956
  42  2348.011
  43  2358.735
  44  2401.095
  45  2501.798
  46  2998.711
  47  3094.232
  48  3163.988
  49  2744.363
  50  2650.845
  51  2762.441
  52  2735.01
  53  2482.148
  54  2465.313
  55  2910.409
  56  2937.6
  57  2899.677
  58  2758.73
  59  2269.098
  60  2331.475
  61  2644.072
  62  3289.697
  63  3106.449
  64  3411.657
  65  3012.113
  66  2296.876
  67  2482.635
  68  2883.548
  69  3120.416
  70  2853.447
  71  2784.156
  72  2353.996
  73  2403.551
  74  2632.384
  75  2872.579
  76  2822.893
  77  2699.132
  78  3174.908
  79  3036.185
  80  2568.315
  81  2493.895
  82  3099.934
  83  2799.805
  84  2588.965
  85  2980.164
  86  2838.295
  87  2481.142
  88  2529.946
  89  2568.185
  90  2803.474
  91  2795.37
  92  2587.278
  93  2617.922
  94  2498.161
  95  2415.393
  96  2317.821
  97  2522.014
  98  2665.223
  99  2550.188
 100  2633.444
 101  2643.178
 102  2617.146
 103  2699.316
 104  3350.871
 105  3354.955
 106  2896.488
 107  2744.112
 108  2478.485
 109  2669.19
 110  2665.749
 111  2988.881
 112  2662.288
 113  2480.634
 114  2516.822
 115  2389.05
 116  2373.219
 117  2378.699
 118  2652.642
 119  2890.97
 120  2515.399
 121  2243.115
 122  2149.785
 123  2415.978
 124  2322.467
 125  2487.945
 126  2394.471
 127  2184.8
 128  2173.913
 129  1943.441
 130  2004.501
 131  2091.608
 132  2187.619
 133  2480.516
 134  2399.257
 135  2229.421
 136  2449.888
 137  2679.681
 138  2145.2
 139  2073.006
 140  2391.78
 141  2771.026
 142  2656.785
 143  2174.701
 144  2260.145
 145  2058.996
 146  2015.012
 147  1695.52
 148  1716.15
 149  2037.745
 150  2359.157
 151  2173.807
 152  2107.019
 153  2182.015
 154  1863.435
 155  1797.296
 156  1730.809
 157  1994.37
 158  1969.215
 159  1805.085
 160  2267.272
 161  1947.045
 162  2108.18
 163  1831.599
 164  1888.571
 165  2305.881
 166  2099.987
 167  1954.604
 168  2071.814
 169  1740.682
 170  2122.982
 171  2209.891
 172  2302.645
 173  2590.252
 174  2351.333
 175  2441.975
 176  2220.7
 177  2325.734
 178  2314.534
 179  2043.861
 180  2149.577
 181  2595.464
 182  2316.261
 183  2042.6
 184  2045.983
 185  2353.385
 186  2099.712
 187  2052.876
 188  2118.099
 189  2154.947
 190  2215.298
 191  2203.537
 192  2156.785
 193  2611.386
 194  2638.165
 195  2196.401
 196  2341.24
 197  1864.955
 198  1907.232
 199  2414.543
 200  2368.348
 201  1855.391
 202  1658.07
 203  1864.807
 204  1833.681
 205  1775.852
 206  2014.131
 207  2053.236
 208  2251.636
 209  2240.057
 210  1990.886
 211  2144.464
 212  2191.094
 213  1910.05
 214  1627.609
 215  1760.185
 216  1913.484
 217  1717.281
 218  2129.353
 219  1689.768
 220  1884.226
 221  2335.852
 222  2088.58
 223  1971.234
 224  2481.069
 225  2711.871
 226  1965.539
 227  1762.258
 228  2160.31
 229  1792.367
 230  1514.734
 231  1755.882
 232  2572.776
 233  2487.991
 234  2384.162
 235  2613.198
 236  2162.32
 237  1856.806
 238  2016.87
 239  2366.196
 240  2671.792
 241  2533.972
 242  2261.849
 243  2313.021
 244  2152.6
 245  2446.315
 246  2588.114
 247  2426.705
 248  2528.713
 249  2594.85
 250  2448.11
 251  2305.782
 252  2371.627
 253  2522.89
 254  2389.625
 255  2785.198
 256  2683.633
 257  2758.374
 258  2906.155
 259  2744.23
 260  2681.775
 261  2665.576
 262  2545.776
 263  2582.816
 264  2917.11
 265  2715.98
 266  2587.482
 267  3079.548
 268  3303.347
 269  2628.379
 270  2483.048
 271  2845.621
 272  2871.595
 273  3112.694
 274  2623.706
 275  2580.391
 276  2658.462
 277  2736.294
 278  2383.266
 279  2863.156
 280  2834.495
 281  2512.622
 282  2441.158
 283  2600.92
 284  2653.077
 285  2954.971
 286  3052.353
 287  3049.277
 288  2802.766
 289  2866.862
 290  2727.502
 291  2788.369
 292  2751.891
 293  2913.48
 294  2636.34
 295  2856.505
 296  2759.703
 297  3007.8
 298  2878.287
 299  2530.227
 300  2834.525
 301  3201.513
 302  2914.461
 303  2337.961
 304  2441.164
 305  2670.917
 306  2737.045
 307  3141.824
 308  3229.921
 309  2729.369
 310  2858.693
 311  3094.706
 312  2875.797
 313  3517.51
 314  4227.342
 315  4532.758
 316  4472.863
 317  4223.555
 318  3666.897
 319  2974.545
 320  2313.034
 321  2443.127
 322  3187.804
 323  3273.487
 324  2939.287
 325  2986.137
 326  3336.791
 327  3507.842
 328  3307.482
 329  2807.711
 330  3017.259
 331  2992.164
 332  2916.144
 333  2714.724
 334  2920.252
 335  2882.753
 336  2693.989
 337  2948.78
 338  2673.647
 339  2223.456
 340  2642.379
 341  2882.37
 342  2789.048
 343  2755.324
 344  2611.226
 345  2438.334
 346  2637.514
 347  3008.022
 348  2784.958
 349  2619.551
 350  2507.878
 351  2522.666
 352  2633.236
 353  2491.799
 354  2665.113
 355  2466.221
 356  2584.072
 357  2455.359
 358  2321.024
 359  2294.445
 360  2038.773
 361  2338.993
 362  2137.047
 363  1919.035
 364  2304.603
 365  2350.778
 366  2526.662
 367  3011.123
 368  2979.497
 369  2473.01
 370  2675.735
 371  3037.915
 372  2905.955
 373  2531.343
 374  2599.769
 375  2928.183
 376  2661.223
 377  2327.333
 378  2372.393
 379  2925.943
 380  3171.617
 381  2891.405
 382  2666.053
 383  2914.363
 384  3051.846
 385  2715.043
 386  2629.775
 387  2449.032
 388  2506.738
 389  2545.602
 390  2267.072
 391  2406.381
 392  2961.738
 393  2771.084
 394  2396.85
 395  2657.36
 396  2762.543
 397  3044.499
 398  2486.268
 399  2346.377
 400  2687.014
 401  2572.009
 402  2981.06
 403  2721.147
 404  2719.647
 405  2608.117
 406  2596.688
 407  2512.342
 408  2725.376
 409  2666.412
 410  2264.071
 411  2200.315
 412  2364.259
 413  2368.665
 414  2364.115
 415  2488.337
 416  2547.327
 417  2366.969
 418  2600.145
 419  2454.612
 420  2461.567
 421  2328.065
 422  2401.059
 423  2095.563
 424  2142.619
 425  2223.583
 426  2440.313
 427  2400.959
 428  2632.396
 429  2767.828
 430  2483.966
 431  2313.589
 432  2136.04
 433  2516.125
 434  2103.129
 435  1821.279
 436  1779.229
 437  1851.08
 438  2094.356
 439  2520.875
 440  2346.994
 441  2396.87
 442  2293.466
 443  2241.523
 444  2012.305
 445  2202.443
 446  2486.418
 447  2574.797
 448  2442.417
 449  2739.249
 450  2800.475
 451  2646.278
 452  2622.188
 453  2292.15
 454  2328.473
 455  2371.838
 456  2404.183
 457  2316.241
 458  2476.408
 459  2336.103
 460  2349.952
 461  2233.246
 462  2316.302
 463  2952.622
 464  2893.052
 465  2969.798
 466  2891.436
 467  2817.636
 468  2488.765
 469  2547.745
 470  2526.067
 471  2807.629
 472  2757.613
 473  2440.632
 474  2423.995
 475  2220.546
 476  2738.815
 477  2774.664
 478  2641.095
 479  2569.184
 480  2560.323
 481  2114.469
 482  2246.196
 483  2242.879
 484  2166.698
 485  2682.22
 486  2957.155
 487  2399.638
 488  2276.251
 489  2165.115
 490  2008.279
 491  2022.233
 492  2265.275
 493  2611.759
 494  2277.08
 495  2060.686
 496  2278.76
 497  2429.047
 498  2734.912
 499  2916.175
 500  2732.549
 501  2724.021
 502  2423.752
 503  2106.19
 504  2613.26
 505  3126.949
 506  3455.734
 507  3752.268
 508  3181.027
 509  2494.419
 510  2813.757
 511  2683.585
