# Input file       =  1194482637.105718_cleaned.dat
# Candidate        =  PSR_0332+5434
# Telescope        =  AR
# Epoch_topo       =  58069.030741964329
# Epoch_bary       =  N/A
# T_sample         =  0.002
# Data Folded      =  7340032
# Data Avg         =  0.0118924833168394
# Data StdDev      =  1.00004076617157 
# Profile Bins     =  512
# Profile Avg      =  170.583632175975 
# Profile StdDev   =  119.73791743427  
# Reduced chi-sqr  =  0.855
# Prob(Noise)      <  0.992   (~0.0 sigma)
# P_topo (ms)      =  714.506555688958  +/- 0.00031
# P'_topo (s/s)    =  -0                +/- 1.64e-10
# P''_topo (s/s^2) =  0                 +/- 7.22e-14
# P_bary (ms)      =  N/A
# P'_bary (s/s)    =  N/A
# P''_bary (s/s^2) =  N/A
# P_orb (s)        =  N/A
# asin(i)/c (s)    =  N/A
# eccentricity     =  N/A
# w (rad)          =  N/A
# T_peri           =  N/A
######################################################
   0  628.4171
   1  691.9962
   2  466.6898
   3  323.6605
   4  238.8183
   5  145.6509
   6  114.6092
   7  163.7099
   8  122.935
   9  142.892
  10  188.3869
  11  168.163
  12  219.155
  13  257.1727
  14  189.7081
  15  103.867
  16  49.58055
  17  179.7742
  18  118.4229
  19  171.8146
  20  162.0112
  21  119.4306
  22  59.11893
  23  48.37683
  24  99.51136
  25  75.73465
  26  152.649
  27  53.07896
  28  -43.07542
  29  39.81374
  30  175.9024
  31  233.3797
  32  245.6779
  33  230.0879
  34  138.1173
  35  87.14198
  36  86.9349
  37  138.5885
  38  137.8548
  39  185.6868
  40  163.1134
  41  231.3274
  42  235.4052
  43  242.3958
  44  221.7475
  45  183.3579
  46  59.82583
  47  85.63012
  48  201.6028
  49  167.2524
  50  92.03459
  51  58.04615
  52  63.77231
  53  65.33717
  54  146.4121
  55  102.9313
  56  130.0592
  57  98.12619
  58  122.8246
  59  115.4213
  60  163.2362
  61  180.7711
  62  161.5839
  63  191.354
  64  215.6891
  65  211.4276
  66  231.8462
  67  150.1729
  68  137.7026
  69  118.6988
  70  134.448
  71  202.1517
  72  181.5105
  73  230.5477
  74  112.1672
  75  182.0586
  76  254.4196
  77  149.6556
  78  16.82211
  79  57.40206
  80  111.9749
  81  49.66108
  82  104.9704
  83  157.9917
  84  108.0944
  85  243.9675
  86  282.6049
  87  234.6172
  88  114.6533
  89  179.0257
  90  174.519
  91  141.7411
  92  95.36055
  93  216.0724
  94  286.3393
  95  307.28
  96  237.6943
  97  180.4615
  98  220.3306
  99  88.94946
 100  54.50839
 101  202.58
 102  209.8361
 103  240.4268
 104  205.739
 105  162.4375
 106  107.5869
 107  -1.445176
 108  208.4871
 109  177.0047
 110  103.6907
 111  195.209
 112  127.8775
 113  5.560941
 114  48.59214
 115  130.6942
 116  112.1644
 117  189.7739
 118  245.3916
 119  177.0801
 120  59.39429
 121  71.29991
 122  170.4791
 123  202.9327
 124  257.4718
 125  302.4698
 126  303.2936
 127  265.878
 128  273.0658
 129  311.7102
 130  332.9902
 131  259.5718
 132  183.6499
 133  244.1328
 134  179.417
 135  111.4117
 136  120.3477
 137  131.7569
 138  162.314
 139  99.06976
 140  133.9044
 141  206.7537
 142  187.9117
 143  199.7714
 144  200.3857
 145  231.5082
 146  178.1441
 147  174.3421
 148  215.1999
 149  183.733
 150  249.9548
 151  271.0955
 152  205.5537
 153  140.351
 154  152.3627
 155  175.5837
 156  251.7317
 157  316.0791
 158  275.0808
 159  201.9655
 160  178.1321
 161  186.4109
 162  166.252
 163  188.5842
 164  265.9767
 165  145.6226
 166  37.22977
 167  56.57317
 168  88.19062
 169  130.3424
 170  209.0746
 171  187.7096
 172  227.4323
 173  188.1156
 174  120.6667
 175  176.0446
 176  142.1353
 177  130.6477
 178  158.4782
 179  260.1063
 180  266.0672
 181  212.9794
 182  223.5815
 183  246.0832
 184  242.697
 185  223.0214
 186  259.365
 187  214.1361
 188  139.703
 189  86.64108
 190  143.0551
 191  252.9408
 192  234.3123
 193  289.6155
 194  262.2372
 195  255.8482
 196  211.1359
 197  193.6739
 198  153.5056
 199  113.4517
 200  48.01976
 201  95.34174
 202  169.1621
 203  220.0471
 204  124.4583
 205  42.48113
 206  144.8292
 207  200.2406
 208  180.285
 209  104.2434
 210  67.0106
 211  41.23122
 212  141.9398
 213  190.5193
 214  126.1804
 215  57.54617
 216  57.74897
 217  81.9661
 218  115.7681
 219  229.9933
 220  180.2675
 221  259.7855
 222  227.3044
 223  109.997
 224  128.3713
 225  144.7038
 226  128.24
 227  127.4341
 228  5.573385
 229  146.3089
 230  192.6994
 231  102.735
 232  24.16525
 233  64.43533
 234  92.17319
 235  81.42049
 236  36.83514
 237  197.4199
 238  206.5062
 239  132.4845
 240  118.3943
 241  29.48621
 242  -6.725248
 243  49.29004
 244  212.7408
 245  206.1759
 246  99.50394
 247  199.6387
 248  183.5764
 249  240.9546
 250  206.0846
 251  177.1359
 252  285.0854
 253  289.5907
 254  124.9083
 255  183.1238
 256  203.9955
 257  24.6646
 258  161.1512
 259  234.7896
 260  119.5765
 261  83.86208
 262  67.39618
 263  149.3742
 264  121.053
 265  63.25529
 266  131.6496
 267  135.1488
 268  221.7658
 269  203.1666
 270  118.7349
 271  125.2546
 272  56.58485
 273  150.748
 274  103.5437
 275  170.6678
 276  111.1809
 277  100.243
 278  108.6996
 279  110.3517
 280  184.3295
 281  96.58209
 282  128.167
 283  179.6559
 284  238.6721
 285  194.4264
 286  165.194
 287  148.5432
 288  314.5533
 289  292.4155
 290  222.2921
 291  249.0522
 292  173.7154
 293  227.5525
 294  283.0355
 295  286.1964
 296  256.117
 297  210.8696
 298  231.7542
 299  200.244
 300  144.4362
 301  122.7089
 302  170.2906
 303  280.8476
 304  173.6872
 305  138.8258
 306  226.7133
 307  86.35867
 308  131.6788
 309  209.3566
 310  223.0642
 311  196.3523
 312  106.2669
 313  163.112
 314  84.91546
 315  132.4229
 316  214.2285
 317  252.2009
 318  132.3842
 319  179.6619
 320  212.5209
 321  155.6646
 322  194.8779
 323  257.1731
 324  224.9077
 325  171.0426
 326  63.47869
 327  249.8032
 328  246.2581
 329  223.6104
 330  221.5673
 331  123.3368
 332  91.78217
 333  91.27045
 334  110.3803
 335  125.0053
 336  135.1636
 337  255.1196
 338  252.4227
 339  178.8796
 340  126.1468
 341  162.1653
 342  134.783
 343  200.9015
 344  226.1445
 345  90.16146
 346  176.6549
 347  251.9607
 348  206.0473
 349  147.8091
 350  70.44899
 351  219.6433
 352  296.3553
 353  324.9804
 354  198.4231
 355  187.7723
 356  131.7377
 357  62.68887
 358  138.8874
 359  198.2795
 360  212.5896
 361  121.8824
 362  111.5431
 363  67.21821
 364  53.4897
 365  240.2567
 366  224.3835
 367  120.4064
 368  187.4281
 369  143.1776
 370  31.59275
 371  75.38554
 372  207.9929
 373  196.8734
 374  186.825
 375  167.7069
 376  164.4365
 377  208.6423
 378  286.5916
 379  282.2064
 380  186.9206
 381  191.7761
 382  216.6578
 383  239.2229
 384  358.1001
 385  331.493
 386  164.0609
 387  130.0808
 388  125.9596
 389  47.14655
 390  154.578
 391  195.1166
 392  162.9245
 393  170.3066
 394  181.9323
 395  237.6053
 396  45.7937
 397  58.39398
 398  55.48994
 399  174.0976
 400  248.0395
 401  291.0962
 402  278.2939
 403  121.9042
 404  170.3625
 405  218.9574
 406  195.1402
 407  132.2829
 408  97.4073
 409  169.2564
 410  186.4408
 411  200.9787
 412  148.4482
 413  227.4804
 414  131.2066
 415  102.0492
 416  133.9612
 417  184.288
 418  250.1342
 419  207.7293
 420  156.2953
 421  105.9994
 422  54.31322
 423  54.64143
 424  94.61621
 425  213.6824
 426  349.3522
 427  194.7084
 428  105.5288
 429  151.7909
 430  269.945
 431  230.7014
 432  98.78529
 433  221.9069
 434  182.8558
 435  136.091
 436  203.6117
 437  127.8639
 438  105.9666
 439  126.6563
 440  180.0173
 441  182.4723
 442  77.50169
 443  126.6059
 444  155.8122
 445  128.7529
 446  106.8971
 447  100.2152
 448  91.98782
 449  157.2517
 450  120.6796
 451  205.7874
 452  216.3204
 453  207.125
 454  185.6435
 455  72.43325
 456  121.3143
 457  106.849
 458  108.1865
 459  98.19807
 460  7.465765
 461  107.2979
 462  97.92642
 463  93.05363
 464  64.47604
 465  168.2264
 466  170.9487
 467  229.8545
 468  168.0099
 469  -2.447247
 470  55.06775
 471  93.77859
 472  96.34621
 473  167.2262
 474  227.2967
 475  192.6328
 476  209.0125
 477  272.077
 478  362.1057
 479  248.8091
 480  161.5898
 481  248.226
 482  248.6085
 483  203.9155
 484  181.1976
 485  171.7211
 486  130.8348
 487  160.7083
 488  207.4579
 489  251.4677
 490  155.5783
 491  206.5853
 492  253.0356
 493  72.94418
 494  175.3286
 495  236.2683
 496  229.3359
 497  186.9891
 498  197.9818
 499  210.2257
 500  203.57
 501  221.8318
 502  132.679
 503  155.6461
 504  206.7356
 505  329.6205
 506  240.9452
 507  201.3611
 508  267.8099
 509  351.3245
 510  455.3756
 511  527.7315
