# Input file       =  1194036851.116523-PSRB0329-2ms-sampling-dd.dat
# Candidate        =  PSR_0332+5434
# Telescope        =  AR
# Epoch_topo       =  58063.871181904200
# Epoch_bary       =  N/A
# T_sample         =  0.002
# Data Folded      =  7340032
# Data Avg         =  9.43222136430422e-10
# Data StdDev      =  4.46704448567926 
# Profile Bins     =  512
# Profile Avg      =  0.953563525508448
# Profile StdDev   =  534.852799900468 
# Reduced chi-sqr  =  0.925
# Prob(Noise)      <  0.885   (~0.0 sigma)
# P_topo (ms)      =  714.501198400457  +/- 0.00034
# P'_topo (s/s)    =  -0                +/- 1.79e-10
# P''_topo (s/s^2) =  0                 +/- 7.91e-14
# P_bary (ms)      =  N/A
# P'_bary (s/s)    =  N/A
# P''_bary (s/s^2) =  N/A
# P_orb (s)        =  N/A
# asin(i)/c (s)    =  N/A
# eccentricity     =  N/A
# w (rad)          =  N/A
# T_peri           =  N/A
######################################################
   0  -60.44301
   1  -76.11219
   2  68.1284
   3  258.4415
   4  210.1207
   5  17.73142
   6  -279.116
   7  -472.2436
   8  -312.6853
   9  -60.60088
  10  -85.08165
  11  -201.7031
  12  -350.0924
  13  -261.1587
  14  -387.2716
  15  -411.1284
  16  -486.4025
  17  -190.7934
  18  -426.4399
  19  -457.6293
  20  -78.38224
  21  -401.7856
  22  -270.6113
  23  -87.58528
  24  -140.6677
  25  -329.9991
  26  -239.5274
  27  -13.6772
  28  -22.57229
  29  -208.6674
  30  -352.9022
  31  0.0923179
  32  86.24911
  33  17.89433
  34  -365.8815
  35  -328.226
  36  148.3669
  37  -112.3988
  38  -53.87655
  39  -62.1759
  40  181.9534
  41  437.8605
  42  10.75193
  43  58.08166
  44  252.5895
  45  285.7931
  46  102.2188
  47  3.469721
  48  -74.99088
  49  -242.8628
  50  -137.9903
  51  200.6348
  52  26.00505
  53  -172.6453
  54  116.7112
  55  -50.93322
  56  -134.2965
  57  208.2223
  58  331.0735
  59  448.0722
  60  482.2839
  61  246.0977
  62  237.9199
  63  -209.0944
  64  58.96684
  65  -333.3424
  66  93.05067
  67  343.7937
  68  126.2169
  69  -10.65568
  70  69.85818
  71  375.4399
  72  211.8522
  73  108.5339
  74  91.13262
  75  262.7518
  76  378.1643
  77  326.7859
  78  220.66
  79  -58.42272
  80  222.9353
  81  -36.06495
  82  27.80737
  83  -95.92181
  84  -130.8192
  85  -65.96424
  86  -65.86572
  87  -30.62063
  88  202.8492
  89  105.8484
  90  -182.1865
  91  -166.9226
  92  -211.6165
  93  -127.7724
  94  -135.8318
  95  -213.9228
  96  -249.0919
  97  -157.202
  98  8.630755
  99  -422.6219
 100  -503.8503
 101  -12.28064
 102  -55.20326
 103  -466.6621
 104  -442.0689
 105  -268.2037
 106  -378.618
 107  -416.5849
 108  -403.3926
 109  -109.4682
 110  -84.75455
 111  -80.27778
 112  -206.2909
 113  -116.7269
 114  66.95797
 115  78.45303
 116  -138.1063
 117  114.7145
 118  -65.40092
 119  -92.25459
 120  8.350837
 121  -64.5752
 122  -180.7953
 123  -215.99
 124  -34.53971
 125  121.566
 126  -118.203
 127  -83.54995
 128  54.91396
 129  -21.51393
 130  -145.1693
 131  -346.4893
 132  -199.1703
 133  159.4164
 134  186.8834
 135  -32.18521
 136  -56.93062
 137  -81.06536
 138  31.40449
 139  75.57147
 140  -42.74859
 141  -44.1497
 142  103.4289
 143  449.996
 144  270.1717
 145  102.1408
 146  -28.16447
 147  -19.30398
 148  -8.396128
 149  -362.8725
 150  -301.2657
 151  -124.9574
 152  -128.8122
 153  -117.7424
 154  -255.0556
 155  -314.0448
 156  -305.111
 157  -34.27632
 158  199.8153
 159  -113.8828
 160  52.48507
 161  -86.60313
 162  -169.0185
 163  -214.6937
 164  -253.3811
 165  -139.0132
 166  188.7795
 167  -89.56738
 168  -120.2827
 169  -292.92
 170  -183.4827
 171  -234.3697
 172  -619.658
 173  -522.6276
 174  -628.6337
 175  -326.8171
 176  -375.1104
 177  -164.5306
 178  -101.5989
 179  -275.2183
 180  -475.6223
 181  -518.6266
 182  -267.7367
 183  97.84186
 184  -26.26109
 185  -216.7083
 186  -30.10466
 187  77.00434
 188  48.726
 189  -50.69681
 190  173.8456
 191  447.6286
 192  208.6584
 193  255.5794
 194  -155.4185
 195  -44.20364
 196  -218.7063
 197  -440.2906
 198  233.1079
 199  383.6024
 200  346.5931
 201  142.7802
 202  186.4991
 203  307.4664
 204  407.0101
 205  413.8752
 206  266.6079
 207  536.3044
 208  1161.794
 209  1493.949
 210  1601.874
 211  1043.427
 212  642.9505
 213  394.6329
 214  38.42911
 215  -22.63936
 216  -169.9216
 217  199.1056
 218  -350.3434
 219  -169.0906
 220  331.7356
 221  246.1736
 222  -94.28888
 223  232.7163
 224  155.3457
 225  89.75796
 226  82.90851
 227  116.5996
 228  266.5699
 229  33.4067
 230  110.3801
 231  -163.4258
 232  117.0039
 233  166.3598
 234  -134.5517
 235  -192.7982
 236  -258.7714
 237  -131.3419
 238  44.13424
 239  -198.6688
 240  -360.5668
 241  -239.3766
 242  67.65334
 243  -50.41375
 244  -198.4834
 245  -139.9043
 246  -46.12554
 247  34.7783
 248  7.789895
 249  -227.7044
 250  -175.9063
 251  4.001037
 252  -46.76735
 253  -277.1302
 254  0.02525675
 255  -58.04684
 256  -127.7985
 257  31.63059
 258  -88.86321
 259  108.6405
 260  140.5449
 261  -57.14995
 262  -522.1397
 263  -162.327
 264  -23.91472
 265  264.2114
 266  1025.951
 267  1638.438
 268  1929.863
 269  2185.077
 270  1512.521
 271  1476.494
 272  1590.45
 273  1455.371
 274  1946.868
 275  2129.597
 276  2107.679
 277  1728.323
 278  1487.684
 279  773.606
 280  134.2919
 281  231.3309
 282  -27.91132
 283  -165.5396
 284  -47.34365
 285  110.5416
 286  156.2374
 287  -50.51943
 288  -165.334
 289  -306.9141
 290  -360.3892
 291  -141.5135
 292  -191.1123
 293  33.07178
 294  40.43551
 295  -48.17559
 296  350.2255
 297  355.8085
 298  -234.6335
 299  -221.4752
 300  -188.6929
 301  -38.61419
 302  -43.5043
 303  -33.56255
 304  116.7706
 305  112.2355
 306  -156.0757
 307  -187.2125
 308  -145.5983
 309  -375.2652
 310  -270.0905
 311  -0.8607975
 312  38.61526
 313  -247.0772
 314  -190.0483
 315  -266.0251
 316  -657.26
 317  -296.7892
 318  21.96909
 319  -72.11218
 320  -201.5323
 321  141.2542
 322  -18.65306
 323  -322.6613
 324  -241.2879
 325  -214.3755
 326  53.92984
 327  -41.8867
 328  75.50376
 329  -63.00675
 330  179.5596
 331  -112.4935
 332  -218.6372
 333  -148.2445
 334  -216.0039
 335  -200.0102
 336  6.034602
 337  -209.2412
 338  -104.5436
 339  33.75103
 340  -233.7672
 341  -296.1489
 342  -657.9792
 343  -342.3117
 344  -81.26978
 345  64.316
 346  -168.1077
 347  -376.9321
 348  -356.5942
 349  -410.0537
 350  -519.5562
 351  -548.8135
 352  -453.4763
 353  -116.9396
 354  64.0681
 355  47.36146
 356  -148.6179
 357  -375.5684
 358  -291.0425
 359  -13.54372
 360  -350.142
 361  -21.74748
 362  220.9334
 363  10.26072
 364  -456.4539
 365  -310.6302
 366  -220.3882
 367  -360.3463
 368  -86.2157
 369  96.24011
 370  114.9791
 371  -65.19985
 372  -142.6626
 373  85.32034
 374  214.6543
 375  229.68
 376  24.20464
 377  182.8412
 378  15.20053
 379  -139.1344
 380  -51.95473
 381  67.98968
 382  224.122
 383  63.03227
 384  -50.43092
 385  81.48804
 386  -229.9953
 387  -318.0855
 388  -218.5449
 389  -197.5862
 390  -261.2482
 391  60.67078
 392  -91.13735
 393  -62.60443
 394  -69.41673
 395  -89.45435
 396  -63.11755
 397  -75.47026
 398  -66.41615
 399  -180.0061
 400  -163.0242
 401  121.5683
 402  267.9151
 403  117.6419
 404  -42.06977
 405  -145.0102
 406  -174.2849
 407  -36.69806
 408  -99.2222
 409  -186.3375
 410  35.9504
 411  179.0369
 412  165.0921
 413  51.61039
 414  -203.9914
 415  -228.5033
 416  53.59643
 417  -20.3639
 418  -257.9435
 419  -414.1273
 420  1.214513
 421  449.0578
 422  253.056
 423  -110.8009
 424  -55.38923
 425  -42.7667
 426  -188.3528
 427  224.3225
 428  262.7337
 429  151.2149
 430  -41.51889
 431  -173.7067
 432  -170.1462
 433  -253.7457
 434  -277.2159
 435  -6.91391
 436  300.1167
 437  -20.16246
 438  22.76598
 439  64.04598
 440  -55.99387
 441  51.44173
 442  50.44876
 443  300.4962
 444  150.9253
 445  122.6642
 446  114.48
 447  -344.4555
 448  -392.4069
 449  -213.5108
 450  -31.96217
 451  102.2061
 452  232.2758
 453  247.0536
 454  105.4919
 455  90.22172
 456  0.9135095
 457  -60.66269
 458  -256.0668
 459  -25.808
 460  139.5661
 461  28.19461
 462  21.77039
 463  -250.9599
 464  159.0684
 465  304.2993
 466  99.33185
 467  28.55826
 468  -87.2291
 469  110.3862
 470  265.4878
 471  307.5354
 472  -29.78463
 473  -195.6843
 474  -240.4573
 475  -203.6882
 476  -173.3429
 477  -126.7761
 478  82.34368
 479  -259.0757
 480  -453.9679
 481  -212.4222
 482  -258.014
 483  -170.6727
 484  -127.183
 485  121.901
 486  -158.6881
 487  -159.374
 488  -29.73007
 489  -316.4484
 490  -388.7581
 491  -252.8615
 492  -221.0499
 493  -328.8751
 494  -39.6487
 495  -7.020241
 496  -131.6761
 497  -87.67905
 498  105.1543
 499  1.375105
 500  -80.76433
 501  -274.5134
 502  -177.2376
 503  224.0312
 504  259.5232
 505  60.95518
 506  214.7374
 507  420.9268
 508  166.3676
 509  -13.53572
 510  115.6096
 511  234.5249
