# Input file       =  1194366952.10939_cleaned.dat
# Candidate        =  PSR_0332+5434
# Telescope        =  AR
# Epoch_topo       =  58067.691795247571
# Epoch_bary       =  N/A
# T_sample         =  0.002
# Data Folded      =  7208960
# Data Avg         =  0.162745815155689
# Data StdDev      =  4.54387935149036 
# Profile Bins     =  256
# Profile Avg      =  4582.81392442958 
# Profile StdDev   =  762.505739017719 
# Reduced chi-sqr  =  0.642
# Prob(Noise)      <  1   (~0.0 sigma)
# P_topo (ms)      =  714.5048904433    +/- 0.000107
# P'_topo (s/s)    =  -0                +/- 5.74e-11
# P''_topo (s/s^2) =  0                 +/- 2.58e-14
# P_bary (ms)      =  N/A
# P'_bary (s/s)    =  N/A
# P''_bary (s/s^2) =  N/A
# P_orb (s)        =  N/A
# asin(i)/c (s)    =  N/A
# eccentricity     =  N/A
# w (rad)          =  N/A
# T_peri           =  N/A
######################################################
   0  4725.795
   1  3998.718
   2  4590.666
   3  5223.106
   4  5601.398
   5  5373.153
   6  3731.462
   7  3987.573
   8  4112.576
   9  4607.249
  10  4614.031
  11  4891.326
  12  4917.555
  13  4617.655
  14  5337.425
  15  4190.132
  16  4731.186
  17  5095.601
  18  4219.506
  19  4335.417
  20  4914.22
  21  4562.924
  22  4515.866
  23  4684.816
  24  4876.938
  25  4791.694
  26  4760.319
  27  4976.048
  28  5053.875
  29  5015.557
  30  4740.402
  31  4562.095
  32  5176.837
  33  5087.538
  34  3930.792
  35  4789.141
  36  6096.068
  37  5517.878
  38  5139.923
  39  4388.183
  40  4621.328
  41  5128.542
  42  4648.555
  43  4630.622
  44  4443.107
  45  5229.414
  46  4975.706
  47  4029.7
  48  3593.672
  49  4646.555
  50  4517.61
  51  4221.317
  52  3961.107
  53  4957.259
  54  4531.372
  55  4002.756
  56  5162.359
  57  5152.694
  58  4853.958
  59  4339.88
  60  3656.861
  61  4516.865
  62  4665.661
  63  4273.791
  64  3891.092
  65  4583.442
  66  4022.29
  67  4738.481
  68  4682.523
  69  4466.911
  70  3678.501
  71  3847.349
  72  4988.241
  73  4590.522
  74  4361.326
  75  4154.656
  76  4426.347
  77  4352.22
  78  4628.206
  79  4405.615
  80  4680.71
  81  3707.409
  82  4763.378
  83  4213.146
  84  4464.921
  85  3918.426
  86  5558.447
  87  4430.733
  88  4466.746
  89  4170.574
  90  4309.708
  91  4102.716
  92  4727.902
  93  4695.731
  94  4683.568
  95  5351.053
  96  4417.208
  97  3721.875
  98  4227.218
  99  5461.118
 100  4254.997
 101  3785.048
 102  4804.378
 103  4813.956
 104  5211.19
 105  5257.833
 106  4204.693
 107  4753.673
 108  5481.954
 109  4648.704
 110  4610.404
 111  5145.63
 112  3945.362
 113  4177.988
 114  4101.715
 115  4464.697
 116  4162.888
 117  3974.248
 118  3847.642
 119  4941.425
 120  4349.662
 121  4691.825
 122  4559.089
 123  5380.796
 124  4966.446
 125  4499.986
 126  4044.283
 127  4272.443
 128  4892.457
 129  5363.937
 130  4569.931
 131  4786.494
 132  4376.013
 133  4617.599
 134  4588.275
 135  4431.046
 136  4616.625
 137  4211.306
 138  4170.187
 139  4738.684
 140  4394.513
 141  3940.003
 142  3761.371
 143  4151.245
 144  4999.571
 145  4648.268
 146  4590.094
 147  3952.656
 148  4899.894
 149  5093.716
 150  4730.437
 151  4457.456
 152  4943.608
 153  4805.789
 154  5360.846
 155  4840.917
 156  5479.83
 157  6737.352
 158  7136.18
 159  5478.965
 160  4574.537
 161  4419.15
 162  4494.261
 163  4595.543
 164  4689.14
 165  4775.817
 166  4548.568
 167  4414.761
 168  4940.708
 169  4526.117
 170  4234.585
 171  3990.51
 172  4397.456
 173  4107.692
 174  4161.559
 175  4895.753
 176  4594.507
 177  4877.94
 178  4354.716
 179  4095.541
 180  4463.841
 181  5653.576
 182  3179.468
 183  4631.583
 184  4276.871
 185  4708.326
 186  4567.755
 187  4417.605
 188  4410.086
 189  3982.903
 190  4118.359
 191  4332.102
 192  3761.976
 193  4189.619
 194  4700.167
 195  5029.42
 196  5212.336
 197  3747.28
 198  3770.846
 199  4143.299
 200  4218.493
 201  4788.49
 202  5384.088
 203  4269.126
 204  4107.219
 205  4130.773
 206  5292.348
 207  4567.647
 208  4532.793
 209  4749.479
 210  5573.004
 211  5145.878
 212  4998.514
 213  3953.924
 214  4312.921
 215  3369.175
 216  4033.075
 217  4480.229
 218  5826.245
 219  5096.986
 220  3853.701
 221  3631.902
 222  4801.596
 223  4289.555
 224  4913.363
 225  4320.415
 226  4168.382
 227  4587.289
 228  4013.568
 229  3962.444
 230  4484.369
 231  4814.263
 232  4003.042
 233  4488.546
 234  4282.359
 235  4371.657
 236  3654.511
 237  4365.743
 238  4354.685
 239  4212.937
 240  4753.933
 241  4829.057
 242  4636.107
 243  5970.112
 244  4223.219
 245  4742.944
 246  4663.836
 247  5291.845
 248  5133.964
 249  4240.74
 250  4707.26
 251  5744.412
 252  5086.219
 253  4343.957
 254  4582.958
 255  4606.929
