# Input file       =  1194224056.102329_cleaned.dat
# Candidate        =  PSR_0332+5434
# Telescope        =  AR
# Epoch_topo       =  58066.037906276957
# Epoch_bary       =  N/A
# T_sample         =  0.002
# Data Folded      =  7340032
# Data Avg         =  0.029999215729988
# Data StdDev      =  1.00004602632791 
# Profile Bins     =  512
# Profile Avg      =  430.321407021847 
# Profile StdDev   =  119.73854724876  
# Reduced chi-sqr  =  0.778
# Prob(Noise)      <  1   (~0.0 sigma)
# P_topo (ms)      =  714.503616469185  +/- 0.000304
# P'_topo (s/s)    =  -0                +/- 1.6e-10
# P''_topo (s/s^2) =  0                 +/- 7.08e-14
# P_bary (ms)      =  N/A
# P'_bary (s/s)    =  N/A
# P''_bary (s/s^2) =  N/A
# P_orb (s)        =  N/A
# asin(i)/c (s)    =  N/A
# eccentricity     =  N/A
# w (rad)          =  N/A
# T_peri           =  N/A
######################################################
   0  436.2873
   1  417.3818
   2  461.1772
   3  395.4557
   4  432.8701
   5  549.3765
   6  424.6594
   7  380.4313
   8  411.5652
   9  372.5339
  10  371.6116
  11  301.4789
  12  385.6025
  13  386.5317
  14  357.5002
  15  420.0053
  16  413.6045
  17  420.4232
  18  430.7504
  19  361.5731
  20  442.578
  21  430.2456
  22  384.8117
  23  358.179
  24  363.1232
  25  438.1256
  26  355.122
  27  294.7528
  28  294.0994
  29  397.0123
  30  378.511
  31  457.9679
  32  506.3506
  33  578.9776
  34  486.3153
  35  411.1522
  36  394.2871
  37  514.5845
  38  442.7691
  39  397.39
  40  417.335
  41  314.0033
  42  411.1984
  43  443.2777
  44  500.0595
  45  517.9287
  46  486.4522
  47  492.1996
  48  459.8604
  49  464.5283
  50  440.9387
  51  474.6369
  52  535.9553
  53  539.9061
  54  456.3989
  55  458.4518
  56  432.0732
  57  502.5721
  58  593.6655
  59  572.2467
  60  604.2357
  61  564.4462
  62  338.9205
  63  427.4435
  64  529.5024
  65  440.4033
  66  454.4368
  67  458.8281
  68  552.6929
  69  500.7438
  70  426.6386
  71  383.9396
  72  344.1903
  73  263.8577
  74  308.0736
  75  403.2993
  76  473.2036
  77  474.3887
  78  371.0444
  79  296.8665
  80  349.6602
  81  460.0883
  82  432.9927
  83  424.1411
  84  441.9282
  85  437.7784
  86  465.2516
  87  481.2466
  88  409.9364
  89  407.9233
  90  326.1299
  91  368.305
  92  372.8088
  93  441.8261
  94  439.6066
  95  433.008
  96  511.0367
  97  469.075
  98  475.3661
  99  387.7577
 100  427.0121
 101  426.0059
 102  358.9183
 103  318.2321
 104  359.1102
 105  380.4375
 106  371.4802
 107  387.3131
 108  339.6944
 109  357.191
 110  293.0443
 111  351.796
 112  421.5508
 113  459.6451
 114  433.7757
 115  460.4745
 116  440.9774
 117  464.1765
 118  505.2809
 119  432.1678
 120  432.3423
 121  423.8733
 122  351.1734
 123  414.0481
 124  443.8055
 125  502.1633
 126  544.217
 127  522.1919
 128  518.832
 129  466.2272
 130  513.1019
 131  565.4826
 132  478.9171
 133  469.3013
 134  419.3948
 135  433.1337
 136  527.2435
 137  392.9322
 138  367.5627
 139  487.128
 140  385.8735
 141  367.7946
 142  505.9953
 143  386.6205
 144  497.9489
 145  581.9432
 146  596.4166
 147  501.2679
 148  464.3194
 149  515.1389
 150  450.8874
 151  405.3083
 152  493.1983
 153  465.4041
 154  440.5256
 155  430.4495
 156  433.6606
 157  505.8088
 158  449.6633
 159  424.0535
 160  414.8976
 161  252.0881
 162  356.3404
 163  424.3812
 164  420.343
 165  377.2668
 166  352.8989
 167  361.9922
 168  375.0578
 169  362.6702
 170  328.0312
 171  308.3813
 172  341.4551
 173  359.9253
 174  370.0432
 175  461.7019
 176  545.4285
 177  533.1711
 178  463.9181
 179  522.8824
 180  486.6979
 181  381.3867
 182  443.4689
 183  394.3582
 184  318.7245
 185  400.0688
 186  552.9443
 187  485.0511
 188  427.0875
 189  516.3449
 190  569.5757
 191  533.5634
 192  480.2937
 193  532.9622
 194  459.2711
 195  357.2584
 196  397.7537
 197  439.5179
 198  468.932
 199  492.1928
 200  399.6862
 201  439.885
 202  382.5206
 203  344.651
 204  340.643
 205  469.3854
 206  517.5725
 207  442.6551
 208  439.775
 209  468.4099
 210  324.0606
 211  287.8955
 212  366.0868
 213  386.092
 214  464.5431
 215  483.3805
 216  451.8946
 217  499.8221
 218  505.5069
 219  463.9784
 220  482.2213
 221  482.6802
 222  461.8794
 223  400.5676
 224  445.7469
 225  417.4585
 226  430.2142
 227  396.35
 228  414.373
 229  445.4599
 230  370.8826
 231  423.5213
 232  386.5049
 233  385.6028
 234  403.3414
 235  328.7423
 236  424.2672
 237  343.5886
 238  276.3182
 239  273.69
 240  305.9727
 241  381.0356
 242  405.0821
 243  270.0187
 244  294.5063
 245  320.2629
 246  369.5196
 247  312.2346
 248  441.0443
 249  504.3357
 250  351.2378
 251  356.2378
 252  380.1918
 253  380.9828
 254  375.3989
 255  359.4953
 256  467.8405
 257  509.6972
 258  436.4287
 259  406.2393
 260  436.3203
 261  437.1376
 262  411.3672
 263  384.6717
 264  420.2277
 265  478.2879
 266  579.0057
 267  564.9771
 268  411.1302
 269  398.1252
 270  398.3521
 271  396.0329
 272  445.2291
 273  431.7991
 274  503.1343
 275  496.1849
 276  436.4574
 277  481.3334
 278  441.0116
 279  400.151
 280  402.1136
 281  434.1532
 282  441.9842
 283  575.8472
 284  564.9385
 285  580.2731
 286  465.8952
 287  466.9379
 288  430.9676
 289  441.1866
 290  567.0855
 291  528.099
 292  464.4013
 293  400.746
 294  470.4745
 295  524.6866
 296  492.0602
 297  461.2245
 298  429.0415
 299  392.2127
 300  504.8762
 301  626.3151
 302  550.2651
 303  410.8286
 304  439.2531
 305  445.6144
 306  480.3462
 307  395.3363
 308  363.4942
 309  357.4248
 310  293.295
 311  336.4383
 312  375.4327
 313  331.7552
 314  441.6597
 315  398.1611
 316  410.8817
 317  505.1533
 318  454.6208
 319  386.3216
 320  449.7372
 321  445.7261
 322  440.3052
 323  411.703
 324  362.3718
 325  345.4548
 326  389.494
 327  477.7966
 328  432.8124
 329  430.5265
 330  481.0892
 331  405.4216
 332  418.8211
 333  454.7787
 334  431.3468
 335  410.2967
 336  527.0361
 337  483.1031
 338  418.143
 339  439.0088
 340  445.9779
 341  358.1185
 342  369.6018
 343  405.2782
 344  491.9417
 345  486.1264
 346  446.5524
 347  519.4389
 348  483.2271
 349  497.9816
 350  406.6053
 351  328.515
 352  290.3842
 353  348.5342
 354  354.6156
 355  341.2819
 356  382.5352
 357  462.2338
 358  499.2662
 359  514.3367
 360  489.9191
 361  460.6054
 362  346.0174
 363  476.0386
 364  485.2823
 365  292.3749
 366  325.8696
 367  308.975
 368  315.6748
 369  388.5119
 370  387.9832
 371  387.6018
 372  290.7599
 373  339.7687
 374  351.2779
 375  303.3277
 376  292.5049
 377  249.1051
 378  265.3542
 379  354.2445
 380  418.4694
 381  370.6247
 382  402.5843
 383  475.3154
 384  431.1768
 385  337.4607
 386  367.3885
 387  414.0451
 388  389.0547
 389  473.5106
 390  455.6587
 391  364.9854
 392  405.883
 393  326.2146
 394  405.2322
 395  434.5621
 396  365.0905
 397  380.7334
 398  331.1511
 399  389.1471
 400  256.9665
 401  340.1845
 402  419.8848
 403  361.1139
 404  394.6776
 405  448.5635
 406  444.7726
 407  441.4908
 408  403.8899
 409  410.1422
 410  334.1053
 411  339.5729
 412  405.3379
 413  404.8168
 414  356.682
 415  313.925
 416  355.287
 417  377.7767
 418  406.5577
 419  515.1409
 420  438.9527
 421  499.938
 422  461.5407
 423  467.749
 424  396.4501
 425  313.4617
 426  369.7457
 427  484.1723
 428  464.7102
 429  452.9222
 430  421.6117
 431  419.8139
 432  420.8141
 433  333.0414
 434  341.0382
 435  474.054
 436  497.02
 437  412.4299
 438  469.0709
 439  446.1585
 440  423.7317
 441  386.9746
 442  340.7061
 443  327.1137
 444  406.0876
 445  492.3698
 446  426.3869
 447  460.5082
 448  522.7583
 449  507.2576
 450  482.0913
 451  427.9785
 452  415.201
 453  420.3951
 454  477.6291
 455  457.4776
 456  353.3755
 457  392.1258
 458  517.9681
 459  571.4942
 460  509.1211
 461  441.6015
 462  416.4967
 463  414.3196
 464  513.2985
 465  502.921
 466  438.0373
 467  457.946
 468  449.3211
 469  401.0227
 470  426.4856
 471  394.4776
 472  395.6798
 473  305.1254
 474  360.6715
 475  438.8176
 476  429.4473
 477  424.3228
 478  489.6224
 479  477.6871
 480  443.8603
 481  362.7481
 482  355.7451
 483  441.6783
 484  595.4869
 485  515.0722
 486  535.4779
 487  560.0082
 488  566.3019
 489  593.0916
 490  679.7178
 491  738.2867
 492  831.6539
 493  787.3681
 494  727.2312
 495  568.6425
 496  598.7982
 497  489.3561
 498  443.0642
 499  531.442
 500  475.1749
 501  323.1009
 502  368.0453
 503  374.6829
 504  373.3737
 505  480.8617
 506  437.4537
 507  534.046
 508  499.8603
 509  469.593
 510  420.784
 511  403.7032
