# Input file       =  1194568782.105574_cleaned.dat
# Candidate        =  PSR_0332+5434
# Telescope        =  AR
# Epoch_topo       =  58070.027790573775
# Epoch_bary       =  N/A
# T_sample         =  0.002
# Data Folded      =  7340032
# Data Avg         =  0.0347190455946624
# Data StdDev      =  1.00014379565215 
# Profile Bins     =  512
# Profile Avg      =  497.795249622408 
# Profile StdDev   =  119.750253466815 
# Reduced chi-sqr  =  0.719
# Prob(Noise)      <  1   (~0.0 sigma)
# P_topo (ms)      =  714.507547347582  +/- 0.000671
# P'_topo (s/s)    =  -0                +/- 3.54e-10
# P''_topo (s/s^2) =  0                 +/- 1.56e-13
# P_bary (ms)      =  N/A
# P'_bary (s/s)    =  N/A
# P''_bary (s/s^2) =  N/A
# P_orb (s)        =  N/A
# asin(i)/c (s)    =  N/A
# eccentricity     =  N/A
# w (rad)          =  N/A
# T_peri           =  N/A
######################################################
   0  715.9824
   1  683.3929
   2  680.4252
   3  645.3994
   4  503.3003
   5  429.1325
   6  498.8628
   7  445.38
   8  550.2149
   9  556.2112
  10  551.0997
  11  495.4915
  12  465.2593
  13  586.9329
  14  584.3853
  15  519.9727
  16  470.9484
  17  475.2422
  18  471.6161
  19  487.0032
  20  405.285
  21  412.0228
  22  474.6053
  23  555.1479
  24  556.9797
  25  384.0869
  26  413.3132
  27  491.7539
  28  552.6064
  29  413.8976
  30  543.8535
  31  524.8181
  32  463.958
  33  476.8226
  34  554.861
  35  634.0114
  36  622.6474
  37  537.0612
  38  498.1106
  39  501.7027
  40  467.283
  41  476.158
  42  500.0303
  43  558.6362
  44  542.4672
  45  575.6942
  46  548.0725
  47  508.6375
  48  604.9921
  49  448.6375
  50  536.9642
  51  549.0934
  52  439.644
  53  436.8442
  54  390.237
  55  518.5002
  56  612.909
  57  617.8018
  58  630.0637
  59  553.5416
  60  501.231
  61  499.0762
  62  497.8184
  63  492.6522
  64  568.4756
  65  602.8535
  66  565.7093
  67  555.8788
  68  563.2277
  69  570.0938
  70  509.8511
  71  521.9924
  72  532.5615
  73  521.6055
  74  527.5446
  75  570.0388
  76  555.7651
  77  564.4829
  78  465.948
  79  470.3555
  80  524.1409
  81  627.0989
  82  624.1506
  83  583.6384
  84  526.5292
  85  609.0082
  86  607.0306
  87  487.2193
  88  437.347
  89  517.7817
  90  455.6135
  91  504.0603
  92  460.5804
  93  491.7665
  94  592.2424
  95  622.585
  96  555.7571
  97  451.9067
  98  522.3791
  99  438.7441
 100  473.1992
 101  582.339
 102  472.3716
 103  396.1228
 104  445.1611
 105  481.3179
 106  453.6048
 107  483.0521
 108  438.3553
 109  427.4176
 110  345.2522
 111  513.6515
 112  555.4706
 113  482.5201
 114  458.8199
 115  460.4302
 116  541.6966
 117  474.5724
 118  420.5062
 119  476.8852
 120  517.5801
 121  455.4224
 122  408.1324
 123  362.3542
 124  358.444
 125  485.458
 126  582.0577
 127  489.6541
 128  483.6687
 129  528.8738
 130  547.8128
 131  489.7129
 132  470.1599
 133  527.0361
 134  499.5637
 135  551.9913
 136  536.4937
 137  473.0457
 138  486.7821
 139  411.9095
 140  475.5909
 141  425.7087
 142  453.7211
 143  522.8757
 144  530.5031
 145  484.3528
 146  547.3774
 147  547.3793
 148  526.5677
 149  592.6764
 150  588.1599
 151  636.3599
 152  552.4708
 153  590.8655
 154  549.3095
 155  459.6556
 156  361.4451
 157  417.1694
 158  509.5255
 159  519.1599
 160  513.3828
 161  650.5225
 162  615.0601
 163  550.658
 164  477.3079
 165  504.5753
 166  484.8705
 167  547.9921
 168  521.2039
 169  502.1967
 170  599.4287
 171  539.1138
 172  475.9148
 173  468.9133
 174  426.7662
 175  539.4543
 176  527.1761
 177  344.1645
 178  383.9095
 179  431.8554
 180  471.1884
 181  448.4764
 182  509.6792
 183  470.3405
 184  525.6436
 185  425.5221
 186  329.4621
 187  275.3009
 188  377.5657
 189  453.3823
 190  430.4129
 191  528.766
 192  514.6668
 193  446.6896
 194  358.5294
 195  435.0728
 196  542.8224
 197  478.5432
 198  484.4005
 199  530.8956
 200  441.0421
 201  417.8723
 202  413.7714
 203  437.2967
 204  421.5106
 205  469.7382
 206  465.0544
 207  414.4493
 208  468.8994
 209  442.4433
 210  438.0916
 211  477.0151
 212  558.9064
 213  485.0217
 214  475.1513
 215  504.8696
 216  481.99
 217  613.026
 218  542.7614
 219  521.8831
 220  527.8593
 221  628.1442
 222  670.5869
 223  638.7668
 224  674.4091
 225  658.6092
 226  534.4078
 227  585.9669
 228  588.5119
 229  562.0005
 230  465.3821
 231  374.425
 232  429.6473
 233  535.1606
 234  543.041
 235  501.1216
 236  516.3257
 237  417.0601
 238  432.4466
 239  587.2169
 240  591.4894
 241  573.5576
 242  464.9767
 243  511.8705
 244  453.1082
 245  357.3539
 246  529.123
 247  689.9601
 248  549.5228
 249  518.8563
 250  512.9078
 251  544.0936
 252  578.6728
 253  556.8965
 254  504.8854
 255  577.6375
 256  568.6429
 257  530.9004
 258  578.6148
 259  605.2184
 260  459.6782
 261  414.7262
 262  441.7932
 263  488.4102
 264  476.1171
 265  486.304
 266  444.0201
 267  332.2508
 268  407.7024
 269  433.5484
 270  346.1066
 271  474.9124
 272  567.9443
 273  432.9765
 274  409.5113
 275  377.0505
 276  524.2339
 277  556.9835
 278  536.6712
 279  517.6148
 280  499.7375
 281  434.7358
 282  567.3135
 283  548.1741
 284  592.769
 285  584.83
 286  588.2621
 287  563.3148
 288  494.8085
 289  523.3159
 290  551.6577
 291  451.5365
 292  487.1764
 293  504.0949
 294  470.4214
 295  434.2539
 296  460.454
 297  471.3018
 298  477.5562
 299  497.869
 300  482.5631
 301  569.8293
 302  509.1477
 303  533.4739
 304  515.6784
 305  454.9196
 306  512.7662
 307  506.9631
 308  455.4225
 309  366.5935
 310  441.7504
 311  459.0931
 312  437.7416
 313  531.9386
 314  524.8852
 315  493.4996
 316  550.3536
 317  549.9899
 318  516.8928
 319  511.7779
 320  509.2196
 321  468.8001
 322  514.5129
 323  573.5939
 324  495.7895
 325  457.6953
 326  500.9822
 327  446.5168
 328  445.5529
 329  543.9656
 330  552.8622
 331  537.8385
 332  516.7439
 333  526.3008
 334  389.6798
 335  378.1367
 336  404.2892
 337  450.5994
 338  409.5895
 339  367.2249
 340  296.9081
 341  462.2707
 342  543.1414
 343  530.9513
 344  431.5193
 345  513.557
 346  365.4439
 347  447.1085
 348  494.9312
 349  501.3209
 350  560.8859
 351  441.8402
 352  488.8333
 353  422.7319
 354  444.4224
 355  396.0883
 356  391.5333
 357  379.6235
 358  485.3713
 359  501.0322
 360  560.7083
 361  471.6384
 362  494.8212
 363  553.7275
 364  541.1249
 365  487.6497
 366  437.4489
 367  365.8144
 368  467.0213
 369  457.6389
 370  479.6909
 371  468.1015
 372  431.7302
 373  439.2506
 374  370.2306
 375  382.8034
 376  462.1264
 377  475.3423
 378  427.6272
 379  407.9962
 380  489.4187
 381  442.1137
 382  417.6555
 383  321.2781
 384  416.0651
 385  472.167
 386  433.0369
 387  397.6442
 388  387.2598
 389  359.5244
 390  337.4964
 391  478.0916
 392  544.3336
 393  587.0287
 394  535.1105
 395  467.8645
 396  410.8448
 397  410.4822
 398  514.1918
 399  544.2125
 400  499.7281
 401  395.7595
 402  367.9144
 403  392.8533
 404  410.1561
 405  404.5681
 406  403.0294
 407  447.6866
 408  513.1599
 409  524.8809
 410  382.6412
 411  311.2952
 412  366.8575
 413  451.1371
 414  491.4844
 415  491.8184
 416  468.1177
 417  410.6181
 418  457.0267
 419  469.7004
 420  443.6718
 421  537.9446
 422  512.5625
 423  480.4253
 424  513.7562
 425  480.7605
 426  449.5644
 427  387.9109
 428  469.4094
 429  502.4316
 430  478.9345
 431  640.8318
 432  528.085
 433  371.5575
 434  497.4049
 435  551.3152
 436  486.0281
 437  513.8015
 438  350.5089
 439  339.4712
 440  438.7733
 441  512.0581
 442  651.1141
 443  536.2
 444  544.1877
 445  562.6306
 446  534.0667
 447  581.5952
 448  550.5557
 449  503.2783
 450  506.3577
 451  519.2684
 452  598.3
 453  534.4456
 454  469.3715
 455  494.4485
 456  420.2115
 457  404.8305
 458  503.1956
 459  581.5485
 460  466.9003
 461  432.8179
 462  506.7695
 463  397.6478
 464  489.4219
 465  542.1616
 466  495.4665
 467  377.9425
 468  428.4293
 469  578.6102
 470  652.3058
 471  662.5706
 472  625.9733
 473  606.1517
 474  510.9068
 475  448.4137
 476  517.0837
 477  587.6395
 478  594.0322
 479  594.1964
 480  575.0591
 481  584.4893
 482  531.098
 483  557.0258
 484  571.0311
 485  537.5311
 486  450.5661
 487  384.7084
 488  436.1809
 489  443.9893
 490  514.2535
 491  604.7606
 492  508.8865
 493  492.9786
 494  471.1518
 495  540.2268
 496  482.9192
 497  478.5294
 498  464.6989
 499  558.845
 500  592.327
 501  488.1659
 502  564.9064
 503  546.9677
 504  587.7524
 505  647.5491
 506  621.0814
 507  535.8362
 508  598.1586
 509  582.5169
 510  681.3028
 511  793.3282
