# Input file       =  1194381597.099506_cleaned.dat
# Candidate        =  PSR_0332+5434
# Telescope        =  AR
# Epoch_topo       =  58067.861297447984
# Epoch_bary       =  N/A
# T_sample         =  0.002
# Data Folded      =  7340032
# Data Avg         =  0.0262771642431053
# Data StdDev      =  1.0001436198535  
# Profile Bins     =  512
# Profile Avg      =  376.922881616212 
# Profile StdDev   =  119.75023241791  
# Reduced chi-sqr  =  0.918
# Prob(Noise)      <  0.907   (~0.0 sigma)
# P_topo (ms)      =  714.505068470414  +/- 0.000226
# P'_topo (s/s)    =  -0                +/- 1.19e-10
# P''_topo (s/s^2) =  0                 +/- 5.26e-14
# P_bary (ms)      =  N/A
# P'_bary (s/s)    =  N/A
# P''_bary (s/s^2) =  N/A
# P_orb (s)        =  N/A
# asin(i)/c (s)    =  N/A
# eccentricity     =  N/A
# w (rad)          =  N/A
# T_peri           =  N/A
######################################################
   0  330.564
   1  394.2679
   2  389.3922
   3  412.8618
   4  455.3925
   5  422.6618
   6  409.0289
   7  407.4477
   8  318.174
   9  222.1021
  10  310.0057
  11  414.6865
  12  424.0209
  13  398.0513
  14  388.3734
  15  266.3934
  16  322.5701
  17  332.2775
  18  259.0782
  19  304.4926
  20  403.9957
  21  386.8936
  22  388.5092
  23  370.9243
  24  426.6886
  25  437.1166
  26  439.1092
  27  352.9235
  28  363.3862
  29  439.7264
  30  361.0707
  31  393.6952
  32  403.1153
  33  436.5558
  34  590.618
  35  433.4427
  36  496.8511
  37  536.9138
  38  453.2678
  39  384.1024
  40  348.487
  41  470.4655
  42  424.4636
  43  414.064
  44  367.4002
  45  341.7513
  46  407.5713
  47  550.2076
  48  632.5665
  49  809.5361
  50  973.4708
  51  790.6007
  52  685.7167
  53  597.4208
  54  425.2198
  55  295.1822
  56  235.6497
  57  219.2144
  58  317.4051
  59  185.4897
  60  243.3533
  61  324.9366
  62  337.7531
  63  357.2191
  64  355.3107
  65  387.2554
  66  374.4373
  67  450.8958
  68  397.3705
  69  285.3591
  70  352.9825
  71  404.2725
  72  315.951
  73  322.7003
  74  325.0188
  75  297.8211
  76  387.297
  77  370.8652
  78  380.5294
  79  341.2754
  80  346.0045
  81  329.4552
  82  258.9876
  83  353.2061
  84  419.5524
  85  410.6819
  86  368.8719
  87  394.2082
  88  445.4921
  89  369.9575
  90  380.9913
  91  453.713
  92  353.7602
  93  270.62
  94  328.7345
  95  424.0223
  96  316.588
  97  304.4203
  98  370.3079
  99  289.7966
 100  288.7484
 101  437.9175
 102  297.2822
 103  187.5707
 104  237.0305
 105  254.3211
 106  264.2467
 107  327.6168
 108  271.7743
 109  301.2598
 110  290.4257
 111  203.4471
 112  170.4612
 113  236.7889
 114  353.6204
 115  358.3894
 116  369.9619
 117  425.9186
 118  318.6679
 119  377.0657
 120  368.8754
 121  251.5225
 122  293.1509
 123  442.8874
 124  355.5355
 125  301.9589
 126  381.5414
 127  329.2155
 128  404.3666
 129  331.203
 130  250.6006
 131  205.5888
 132  260.0482
 133  377.1808
 134  359.0658
 135  320.7547
 136  372.2347
 137  323.23
 138  287.9566
 139  319.6478
 140  310.1224
 141  225.0224
 142  275.6309
 143  318.9766
 144  352.9538
 145  373.6617
 146  378.129
 147  441.7251
 148  462.6462
 149  286.4116
 150  339.0117
 151  470.3357
 152  420.852
 153  409.9662
 154  444.4911
 155  594.2304
 156  371.7714
 157  314.1033
 158  329.6974
 159  293.8893
 160  290.788
 161  339.0524
 162  309.1566
 163  437.8551
 164  400.5439
 165  379.7613
 166  489.1424
 167  497.9219
 168  499.3888
 169  450.6624
 170  468.5071
 171  422.5389
 172  414.5687
 173  442.6473
 174  472.672
 175  491.6429
 176  402.3819
 177  447.252
 178  358.7705
 179  330.494
 180  395.9554
 181  437.2933
 182  564.3513
 183  432.4415
 184  441.0946
 185  439.1513
 186  311.0738
 187  453.9787
 188  402.2349
 189  329.6346
 190  308.477
 191  353.461
 192  473.2209
 193  482.1038
 194  423.6476
 195  501.3519
 196  415.8967
 197  518.3958
 198  550.7484
 199  518.3641
 200  457.4614
 201  483.0852
 202  477.6745
 203  470.8113
 204  426.6286
 205  364.0023
 206  284.5455
 207  318.7832
 208  323.3755
 209  343.5844
 210  353.2992
 211  370.4686
 212  255.6052
 213  367.3783
 214  297.2793
 215  295.5779
 216  430.8231
 217  262.4223
 218  262.2242
 219  263.519
 220  417.4629
 221  315.0308
 222  407.0426
 223  368.4902
 224  362.5497
 225  367.9159
 226  312.8722
 227  289.4201
 228  330.3732
 229  516.2625
 230  519.0352
 231  333.5129
 232  310.3148
 233  337.3657
 234  337.3155
 235  354.0824
 236  272.341
 237  264.4072
 238  279.3543
 239  308.6792
 240  396.9337
 241  416.7512
 242  444.6796
 243  274.6985
 244  239.393
 245  406.4384
 246  471.711
 247  492.108
 248  448.3217
 249  513.0145
 250  467.7029
 251  422.9658
 252  450.4147
 253  457.6676
 254  483.5159
 255  459.2461
 256  386.3866
 257  436.2364
 258  464.7714
 259  455.4534
 260  425.2102
 261  442.1302
 262  480.3534
 263  406.8366
 264  336.679
 265  442.4044
 266  523.9702
 267  436.4554
 268  407.9952
 269  430.6122
 270  339.5498
 271  353.6313
 272  314.7809
 273  465.9774
 274  409.3484
 275  327.765
 276  373.8651
 277  446.2907
 278  442.2022
 279  528.796
 280  415.8845
 281  374.2109
 282  378.0175
 283  365.8892
 284  340.7194
 285  411.2404
 286  452.5233
 287  414.8154
 288  396.7492
 289  328.1708
 290  332.0501
 291  316.2198
 292  387.4518
 293  332.2245
 294  391.4378
 295  482.6417
 296  446.3884
 297  406.8624
 298  298.3461
 299  364.3191
 300  394.4652
 301  407.666
 302  341.3397
 303  364.0639
 304  307.1872
 305  299.1883
 306  296.364
 307  294.2191
 308  204.3285
 309  326.4504
 310  448.6675
 311  419.193
 312  375.4718
 313  352.018
 314  373.8919
 315  389.7888
 316  411.4864
 317  347.4404
 318  357.4328
 319  408.5903
 320  515.9841
 321  425.8008
 322  341.2436
 323  285.9339
 324  433.2854
 325  358.9774
 326  441.7576
 327  404.912
 328  440.613
 329  437.3523
 330  411.7727
 331  466.8046
 332  409.035
 333  327.1209
 334  331.194
 335  401.1769
 336  491.5405
 337  408.3999
 338  298.9748
 339  349.2053
 340  374.9388
 341  336.6722
 342  274.8581
 343  396.1263
 344  339.2746
 345  281.1018
 346  284.2005
 347  352.1893
 348  424.9438
 349  372.8262
 350  425.5786
 351  384.5007
 352  420.7123
 353  418.1907
 354  306.1377
 355  331.3466
 356  329.0652
 357  343.7094
 358  351.1164
 359  326.6816
 360  437.2733
 361  401.1388
 362  363.1375
 363  356.0273
 364  324.1511
 365  416.2187
 366  422.4925
 367  396.7745
 368  368.1194
 369  370.9881
 370  320.2439
 371  412.4821
 372  359.8152
 373  359.2764
 374  416.0417
 375  407.2694
 376  295.3925
 377  344.8275
 378  439.0256
 379  438.8731
 380  426.8251
 381  478.5389
 382  399.3039
 383  355.1589
 384  400.4377
 385  440.302
 386  420.3482
 387  349.1907
 388  294.5569
 389  300.2302
 390  413.1743
 391  360.0269
 392  320.1277
 393  419.3744
 394  487.2953
 395  424.5785
 396  382.0451
 397  425.928
 398  448.5786
 399  378.6222
 400  460.637
 401  368.3661
 402  311.8925
 403  390.2116
 404  322.7108
 405  342.2831
 406  374.1716
 407  341.0276
 408  425.0783
 409  381.7986
 410  535.1581
 411  362.6208
 412  302.6982
 413  439.0081
 414  370.304
 415  289.8017
 416  291.3596
 417  357.3722
 418  243.3898
 419  219.0498
 420  403.5062
 421  459.7722
 422  507.9849
 423  415.7686
 424  482.9987
 425  416.1489
 426  352.2481
 427  298.4082
 428  281.309
 429  259.2133
 430  315.9877
 431  464.1107
 432  401.4121
 433  421.5636
 434  423.5571
 435  295.9606
 436  349.2341
 437  304.4218
 438  346.5307
 439  384.3687
 440  444.227
 441  400.5858
 442  312.2895
 443  275.1264
 444  357.3185
 445  359.2958
 446  305.063
 447  235.4123
 448  249.6425
 449  251.1117
 450  343.3948
 451  401.0988
 452  385.136
 453  431.3572
 454  373.5671
 455  397.8236
 456  299.5573
 457  302.6248
 458  302.7884
 459  457.5431
 460  464.1971
 461  451.3242
 462  399.2454
 463  315.7387
 464  427.1903
 465  386.0223
 466  386.1426
 467  365.1432
 468  427.8186
 469  422.2747
 470  247.2885
 471  157.9601
 472  275.1772
 473  405.664
 474  387.6575
 475  375.1237
 476  453.7236
 477  438.2192
 478  422.3544
 479  253.6091
 480  238.0479
 481  347.7953
 482  284.7897
 483  337.2722
 484  349.5885
 485  347.2278
 486  325.1857
 487  389.1931
 488  469.9362
 489  274.9172
 490  250.7102
 491  339.257
 492  374.1775
 493  385.397
 494  298.3191
 495  353.1887
 496  315.0442
 497  345.916
 498  377.9635
 499  262.9767
 500  348.5026
 501  418.6145
 502  308.4409
 503  388.2337
 504  368.3723
 505  394.9499
 506  332.0107
 507  260.4121
 508  329.8227
 509  445.772
 510  503.4348
 511  342.2988
