# Input file       =  1194108959.124819-PSRB0329-2ms-sampling-dd.dat
# Candidate        =  PSR_0332+5434
# Telescope        =  AR
# Epoch_topo       =  58064.705765333551
# Epoch_bary       =  N/A
# T_sample         =  0.002
# Data Folded      =  7208960
# Data Avg         =  -1.49609398558373e-09
# Data StdDev      =  4.86618136058083 
# Profile Bins     =  512
# Profile Avg      =  -0.356875638475198
# Profile StdDev   =  577.417069508363 
# Reduced chi-sqr  =  0.611
# Prob(Noise)      <  1   (~0.0 sigma)
# P_topo (ms)      =  714.501981801728  +/- 0.000147
# P'_topo (s/s)    =  -0                +/- 7.9e-11
# P''_topo (s/s^2) =  0                 +/- 3.55e-14
# P_bary (ms)      =  N/A
# P'_bary (s/s)    =  N/A
# P''_bary (s/s^2) =  N/A
# P_orb (s)        =  N/A
# asin(i)/c (s)    =  N/A
# eccentricity     =  N/A
# w (rad)          =  N/A
# T_peri           =  N/A
######################################################
   0  -337.1432
   1  -157.4206
   2  -404.3823
   3  -408.8865
   4  9.112145
   5  48.60724
   6  -307.2002
   7  -248.122
   8  92.97007
   9  107.0121
  10  160.8567
  11  -374.081
  12  -92.43249
  13  207.1485
  14  193.766
  15  67.62231
  16  189.9998
  17  127.8446
  18  36.93869
  19  207.1732
  20  287.6294
  21  375.5643
  22  -0.9778731
  23  -103.079
  24  -204.2723
  25  -229.5898
  26  135.8025
  27  138.7139
  28  544.1212
  29  715.5621
  30  357.608
  31  534.5762
  32  274.7512
  33  412.5438
  34  -77.96725
  35  551.9758
  36  392.182
  37  512.5352
  38  287.8523
  39  448.6975
  40  493.6058
  41  29.26772
  42  -450.3182
  43  -166.0778
  44  -11.84978
  45  69.68882
  46  182.966
  47  413.8487
  48  470.6809
  49  82.96402
  50  -126.9592
  51  5.736463
  52  260.6035
  53  287.2516
  54  92.38355
  55  69.15078
  56  -167.3388
  57  -54.13611
  58  313.5282
  59  564.8841
  60  513.4775
  61  427.3497
  62  260.2033
  63  265.607
  64  419.2832
  65  357.3702
  66  513.4658
  67  521.6602
  68  357.2199
  69  371.2992
  70  453.6801
  71  -84.36918
  72  151.5327
  73  126.4184
  74  -117.9669
  75  -49.53883
  76  -107.4367
  77  196.3133
  78  73.25097
  79  -52.57514
  80  104.1087
  81  -84.1311
  82  -90.45567
  83  -32.36802
  84  44.45301
  85  -266.6664
  86  -122.0652
  87  -249.3389
  88  -66.27949
  89  -155.0189
  90  119.551
  91  151.5726
  92  -69.68382
  93  387.4533
  94  280.2042
  95  94.34919
  96  -294.5908
  97  -358.1699
  98  -159.7797
  99  -581.437
 100  -284.8814
 101  7.228207
 102  420.0722
 103  -331.7192
 104  -273.2493
 105  -414.9734
 106  -65.66469
 107  -252.0112
 108  -210.5904
 109  256.2624
 110  284.9988
 111  464.2769
 112  167.0929
 113  563.8418
 114  -24.44889
 115  -80.60059
 116  -198.4362
 117  -14.65307
 118  194.6536
 119  418.6621
 120  737.3125
 121  -246.4936
 122  -217.7551
 123  -89.28997
 124  -360.3669
 125  -272.9064
 126  6.191119
 127  354.039
 128  -162.7381
 129  -99.61729
 130  -217.7301
 131  -360.1118
 132  -427.0768
 133  -616.4061
 134  -339.1396
 135  -29.52102
 136  -222.0047
 137  -295.0541
 138  -463.1412
 139  -377.3869
 140  -426.3638
 141  -204.2023
 142  -161.1128
 143  -362.4052
 144  -227.5809
 145  -365.7108
 146  -629.1819
 147  -710.576
 148  -491.064
 149  -196.8113
 150  -31.97203
 151  -349.8555
 152  -436.2946
 153  -633.9729
 154  -516.5375
 155  -357.4151
 156  -321.3934
 157  53.67829
 158  113.2487
 159  198.1766
 160  -69.76856
 161  -74.53627
 162  199.9805
 163  77.78917
 164  219.5275
 165  244.9198
 166  248.4452
 167  -245.1354
 168  -113.5307
 169  359.4897
 170  2.208201
 171  19.01088
 172  96.14897
 173  -36.71824
 174  -313.619
 175  -691.6089
 176  -103.9885
 177  154.5005
 178  52.38105
 179  -102.2068
 180  242.6035
 181  342.4744
 182  -197.0548
 183  -334.0161
 184  -381.2804
 185  15.26633
 186  164.1922
 187  397.8317
 188  459.3803
 189  299.0117
 190  260.5111
 191  -76.81369
 192  65.39465
 193  512.4261
 194  693.1482
 195  339.4143
 196  104.7495
 197  202.7883
 198  584.5444
 199  601.1365
 200  268.0701
 201  543.6249
 202  457.9256
 203  363.4467
 204  -50.09653
 205  87.286
 206  60.72421
 207  -351.5602
 208  188.2358
 209  292.7866
 210  702.4608
 211  576.2191
 212  255.2121
 213  -283.4458
 214  -839.7738
 215  -556.2173
 216  -104.3644
 217  105.2649
 218  408.1256
 219  711.1937
 220  411.7386
 221  143.8859
 222  65.96964
 223  -144.418
 224  172.1507
 225  271.3821
 226  500.5028
 227  541.3712
 228  89.09116
 229  228.9926
 230  451.9248
 231  432.9793
 232  340.0143
 233  389.3199
 234  -144.1725
 235  -409.904
 236  -434.4413
 237  -404.1127
 238  -115.0822
 239  -194.8634
 240  -280.1317
 241  -391.6474
 242  -254.8035
 243  227.2
 244  -154.3388
 245  138.9915
 246  -293.3185
 247  -169.4843
 248  -41.45035
 249  -256.5059
 250  -314.9873
 251  95.04852
 252  700.5067
 253  383.4841
 254  509.0316
 255  590.982
 256  97.72392
 257  -132.7163
 258  144.8356
 259  496.2952
 260  345.9138
 261  282.7756
 262  31.14284
 263  191.5334
 264  -266.6277
 265  96.98145
 266  52.08546
 267  101.744
 268  451.8553
 269  144.5617
 270  -20.49527
 271  -486.5809
 272  -261.4167
 273  34.74798
 274  -20.37932
 275  -89.40875
 276  -135.8073
 277  -91.73051
 278  -34.16206
 279  -30.41177
 280  -80.28604
 281  -403.652
 282  -468.8459
 283  -243.648
 284  31.86984
 285  -324.4101
 286  -250.2825
 287  -68.88203
 288  -300.7635
 289  -319.3602
 290  -351.6864
 291  -326.215
 292  -173.7643
 293  -133.6974
 294  241.9259
 295  123.7873
 296  -274.9528
 297  -246.7243
 298  -217.85
 299  -163.6321
 300  -77.77125
 301  -231.1166
 302  -281.9289
 303  -907.1805
 304  -702.6781
 305  -31.53939
 306  -122.3269
 307  -129.7495
 308  -72.19518
 309  -108.0809
 310  -240.6692
 311  -256.3314
 312  110.5416
 313  172.4012
 314  156.4838
 315  381.0407
 316  -224.6042
 317  -373.3691
 318  -547.4301
 319  167.0384
 320  -89.08881
 321  109.0068
 322  133.9342
 323  -714.5117
 324  -252.787
 325  -323.4113
 326  510.9102
 327  -183.3608
 328  -139.6196
 329  -117.6411
 330  -148.4393
 331  -256.0001
 332  -589.2554
 333  -144.9265
 334  51.27586
 335  87.22522
 336  -261.8631
 337  -106.4984
 338  -239.4195
 339  -320.1877
 340  -295.7848
 341  12.99738
 342  141.3297
 343  42.6271
 344  129.7283
 345  37.45559
 346  109.5331
 347  -293.8643
 348  -286.5256
 349  162.3248
 350  261.1682
 351  720.0682
 352  79.48373
 353  -165.8128
 354  -354.0425
 355  -165.5857
 356  133.6015
 357  -100.8485
 358  77.56948
 359  84.65175
 360  -16.14317
 361  -243.6536
 362  -380.0139
 363  -97.82181
 364  -98.8847
 365  73.64452
 366  18.9115
 367  480.3486
 368  230.216
 369  204.3948
 370  433.341
 371  558.7436
 372  393.0893
 373  327.0778
 374  110.7018
 375  441.3054
 376  259.3041
 377  180.077
 378  -77.84666
 379  -0.5735726
 380  195.2579
 381  517.894
 382  467.8092
 383  685.2159
 384  969.6251
 385  1221.687
 386  1358.856
 387  1259.982
 388  1134.766
 389  406.8055
 390  363.0112
 391  255.9857
 392  142.3896
 393  298.9845
 394  -273.9537
 395  -29.07741
 396  51.23473
 397  41.95937
 398  -75.42023
 399  184.2637
 400  480.2242
 401  -274.5632
 402  225.7696
 403  163.707
 404  41.21277
 405  38.02444
 406  -158.3267
 407  -173.504
 408  -99.19457
 409  100.145
 410  6.269562
 411  -206.769
 412  -222.9321
 413  -191.3699
 414  -461.997
 415  -198.0478
 416  279.4028
 417  61.14731
 418  -140.6357
 419  -990.1974
 420  -442.5205
 421  -402.5473
 422  -441.1205
 423  67.32055
 424  126.3354
 425  -95.45526
 426  -534.0373
 427  -493.7441
 428  -588.5864
 429  -578.5359
 430  -469.0121
 431  -664.0704
 432  -187.4075
 433  -169.4425
 434  303.5813
 435  -288.3462
 436  -514.014
 437  192.2129
 438  -230.9412
 439  -91.90797
 440  66.48621
 441  78.94403
 442  298.7113
 443  3.559774
 444  141.7092
 445  233.4796
 446  -18.46705
 447  -215.5611
 448  -488.5698
 449  -448.4634
 450  49.25763
 451  78.82011
 452  53.83819
 453  -90.35662
 454  -174.5936
 455  -198.1765
 456  -271.083
 457  342.5654
 458  1.925411
 459  134.4547
 460  -394.7019
 461  -595.4088
 462  -147.2713
 463  29.94327
 464  18.5712
 465  -569.0346
 466  -249.0354
 467  115.5852
 468  -43.69368
 469  127.2937
 470  -275.6186
 471  131.996
 472  -16.21177
 473  6.22189
 474  73.45528
 475  -39.34778
 476  33.23734
 477  -143.0015
 478  299.4873
 479  157.3154
 480  150.6084
 481  -215.6569
 482  -359.6324
 483  -230.9008
 484  -383.8802
 485  23.42946
 486  -130.2374
 487  -75.29596
 488  -397.3151
 489  -192.0289
 490  -28.38986
 491  -210.3449
 492  -233.9816
 493  39.82589
 494  -137.356
 495  -476.3507
 496  -332.7849
 497  30.59373
 498  484.9858
 499  683.8552
 500  192.4422
 501  -29.75179
 502  -492.3358
 503  -86.95325
 504  -246.331
 505  -651.4934
 506  -94.08199
 507  -175.5741
 508  -243.9343
 509  -172.1158
 510  -275.5403
 511  -417.1999
