# Input file       =  1194640006.109184_cleaned.dat
# Candidate        =  PSR_0332+5434
# Telescope        =  AR
# Epoch_topo       =  58070.852142467411
# Epoch_bary       =  N/A
# T_sample         =  0.002
# Data Folded      =  7340032
# Data Avg         =  0.0250169578404284
# Data StdDev      =  1.0000599365738  
# Profile Bins     =  512
# Profile Avg      =  358.758603079107 
# Profile StdDev   =  119.740212764737 
# Reduced chi-sqr  =  1.202
# Prob(Noise)      <  0.00113   (~3.1 sigma)
# P_topo (ms)      =  714.50803896193   +/- 0.000254
# P'_topo (s/s)    =  -0                +/- 1.34e-10
# P''_topo (s/s^2) =  0                 +/- 5.92e-14
# P_bary (ms)      =  N/A
# P'_bary (s/s)    =  N/A
# P''_bary (s/s^2) =  N/A
# P_orb (s)        =  N/A
# asin(i)/c (s)    =  N/A
# eccentricity     =  N/A
# w (rad)          =  N/A
# T_peri           =  N/A
######################################################
   0  946.8276
   1  942.9642
   2  690.2703
   3  485.3703
   4  442.5597
   5  353.3781
   6  395.6439
   7  372.2641
   8  253.9485
   9  290.6664
  10  321.1214
  11  430.4307
  12  373.8647
  13  167.0971
  14  261.6344
  15  424.1266
  16  458.3611
  17  519.1706
  18  459.8574
  19  544.6339
  20  489.828
  21  297.8817
  22  248.7863
  23  266.5849
  24  312.0954
  25  502.94
  26  428.6444
  27  313.5721
  28  421.839
  29  436.8556
  30  307.7039
  31  290.8876
  32  420.3726
  33  333.3206
  34  149.0577
  35  240.6403
  36  465.507
  37  484.7758
  38  448.7935
  39  454.3094
  40  446.9421
  41  369.2412
  42  299.3413
  43  422.0887
  44  451.3542
  45  381.2959
  46  346.7126
  47  277.8775
  48  230.714
  49  406.6223
  50  363.9524
  51  378.7143
  52  349.6955
  53  418.1508
  54  501.8803
  55  446.6509
  56  330.9982
  57  441.09
  58  451.9561
  59  325.2028
  60  327.8597
  61  344.7991
  62  389.3929
  63  337.2681
  64  379.1721
  65  394.0918
  66  352.5329
  67  382.3987
  68  293.0154
  69  358.0555
  70  264.8754
  71  283.8757
  72  360.2555
  73  211.9143
  74  227.4747
  75  146.7933
  76  312.9188
  77  452.7917
  78  397.5288
  79  397.2641
  80  300.7995
  81  319.4508
  82  463.7659
  83  406.1857
  84  350.8666
  85  296.0679
  86  271.7776
  87  214.5415
  88  313.8311
  89  410.2704
  90  403.6866
  91  361.2458
  92  396.5587
  93  303.0455
  94  275.1895
  95  437.4212
  96  539.1581
  97  418.5008
  98  344.5074
  99  492.0764
 100  409.9105
 101  403.8623
 102  385.2984
 103  330.5274
 104  201.9594
 105  244.9457
 106  302.5682
 107  339.8476
 108  328.3352
 109  231.7672
 110  294.6404
 111  418.8378
 112  375.6621
 113  406.0264
 114  219.0174
 115  268.2701
 116  355.1731
 117  375.0764
 118  327.159
 119  306.0622
 120  277.0283
 121  314.2364
 122  276.6236
 123  220.1524
 124  270.1247
 125  330.2235
 126  247.692
 127  237.194
 128  252.1057
 129  221.6684
 130  132.7363
 131  198.3296
 132  286.0772
 133  248.7175
 134  343.8694
 135  295.1563
 136  205.4311
 137  266.4845
 138  308.1728
 139  318.3291
 140  372.2235
 141  321.4801
 142  344.4716
 143  388.4456
 144  401.9383
 145  278.8293
 146  336.0605
 147  402.3758
 148  350.6218
 149  379.2317
 150  439.2059
 151  292.2665
 152  211.7507
 153  211.423
 154  271.3785
 155  264.4614
 156  222.4144
 157  286.8451
 158  337.9415
 159  297.2437
 160  364.3675
 161  385.2452
 162  309.8116
 163  380.5807
 164  391.1687
 165  436.6765
 166  386.451
 167  386.6648
 168  396.4546
 169  287.574
 170  291.7206
 171  324.2091
 172  330.7629
 173  272.9639
 174  236.3798
 175  339.07
 176  426.143
 177  464.6416
 178  354.1147
 179  292.1934
 180  383.7162
 181  260.7834
 182  262.0358
 183  203.864
 184  234.9656
 185  472.1973
 186  431.5559
 187  383.2365
 188  399.9382
 189  333.5672
 190  343.7331
 191  306.1641
 192  305.5393
 193  378.993
 194  373.1528
 195  350.3145
 196  255.1594
 197  214.4277
 198  285.1552
 199  267.5779
 200  208.038
 201  324.9095
 202  323.7444
 203  248.6542
 204  334.399
 205  356.338
 206  358.4641
 207  354.9842
 208  288.3259
 209  264.9542
 210  263.533
 211  370.1673
 212  451.6565
 213  336.0039
 214  381.2923
 215  300.8598
 216  227.4356
 217  227.0099
 218  326.4763
 219  368.6102
 220  302.0568
 221  309.2892
 222  341.2474
 223  380.3121
 224  362.8252
 225  346.5215
 226  394.292
 227  350.1992
 228  388.7711
 229  263.8991
 230  189.2185
 231  180.1979
 232  281.2845
 233  334.275
 234  353.8886
 235  346.3528
 236  347.7787
 237  240.7642
 238  369.166
 239  262.2471
 240  80.65268
 241  296.8922
 242  337.8507
 243  367.9664
 244  390.5328
 245  377.5283
 246  375.0014
 247  318.9137
 248  306.7125
 249  251.1965
 250  315.4291
 251  410.7318
 252  371.1617
 253  269.8239
 254  226.0722
 255  286.8511
 256  238.3407
 257  374.8146
 258  288.9207
 259  369.7522
 260  406.0066
 261  367.8489
 262  362.4438
 263  417.9993
 264  349.5038
 265  281.5878
 266  221.3261
 267  285.4083
 268  317.7915
 269  209.2891
 270  235.4871
 271  329.8026
 272  413.0367
 273  362.5567
 274  250.1515
 275  284.9868
 276  355.135
 277  391.7092
 278  422.5129
 279  449.268
 280  402.3675
 281  424.77
 282  520.8116
 283  353.819
 284  363.4197
 285  428.6742
 286  286.2365
 287  300.9584
 288  326.9263
 289  397.8475
 290  307.7261
 291  392.5343
 292  410.5262
 293  331.4455
 294  320.0723
 295  355.4008
 296  395.1458
 297  338.5657
 298  405.409
 299  448.4339
 300  410.4397
 301  385.6329
 302  424.3365
 303  447.2528
 304  392.0962
 305  338.1518
 306  389.9416
 307  499.2056
 308  481.2826
 309  328.1616
 310  241.0686
 311  313.536
 312  289.6509
 313  294.9305
 314  258.5328
 315  222.013
 316  338.6256
 317  413.6237
 318  346.1439
 319  305.9568
 320  351.9499
 321  218.0875
 322  369.0623
 323  454.3162
 324  363.4979
 325  289.7681
 326  296.1261
 327  298.3298
 328  383.9736
 329  479.2534
 330  432.8094
 331  293.4228
 332  450.2159
 333  409.6672
 334  424.6746
 335  429.0981
 336  362.7172
 337  305.2957
 338  343.0183
 339  401.5008
 340  419.7531
 341  413.7787
 342  356.7231
 343  366.1216
 344  430.984
 345  442.7644
 346  431.2749
 347  509.6424
 348  536.7475
 349  403.2502
 350  371.5061
 351  300.7955
 352  236.3006
 353  273.7466
 354  309.7457
 355  365.2775
 356  329.933
 357  381.4538
 358  412.2218
 359  400.3037
 360  460.5995
 361  414.4336
 362  242.3137
 363  265.9803
 364  361.8886
 365  407.9101
 366  410.711
 367  412.3607
 368  354.9398
 369  278.5184
 370  470.7624
 371  383.9159
 372  319.3013
 373  310.1605
 374  364.5176
 375  497.5202
 376  400.2561
 377  362.5467
 378  398.4553
 379  411.937
 380  429.6255
 381  449.2609
 382  458.438
 383  416.6256
 384  384.9825
 385  370.5602
 386  362.2388
 387  412.645
 388  337.9833
 389  371.8381
 390  454.2656
 391  485.9737
 392  408.977
 393  413.7732
 394  371.1886
 395  414.1631
 396  475.1594
 397  387.1755
 398  511.0481
 399  430.3548
 400  349.647
 401  336.0689
 402  336.6783
 403  411.697
 404  374.8815
 405  449.422
 406  471.3679
 407  390.9521
 408  445.2444
 409  476.167
 410  457.8523
 411  455.3717
 412  358.1897
 413  351.6159
 414  378.9611
 415  352.7385
 416  376.9615
 417  283.0653
 418  270.609
 419  365.2325
 420  449.6027
 421  472.7791
 422  375.8506
 423  413.3523
 424  342.5634
 425  333.0277
 426  386.8451
 427  400.7541
 428  372.4028
 429  381.6026
 430  389.9554
 431  324.7496
 432  345.9618
 433  373.8402
 434  357.8549
 435  318.9382
 436  338.1679
 437  151.5467
 438  260.5869
 439  348.3414
 440  383.7113
 441  394.5871
 442  317.2078
 443  335.0285
 444  384.9084
 445  406.5263
 446  315.5952
 447  390.6304
 448  227.6774
 449  311.5412
 450  350.2118
 451  285.1349
 452  387.6912
 453  380.5472
 454  386.2532
 455  334.109
 456  336.1372
 457  379.3113
 458  333.8975
 459  427.3652
 460  445.1814
 461  409.5544
 462  403.3502
 463  439.5531
 464  369.2702
 465  402.7068
 466  383.1178
 467  266.3883
 468  464.787
 469  624.033
 470  547.8367
 471  379.1144
 472  389.2285
 473  389.2133
 474  268.5447
 475  321.9863
 476  212.3093
 477  235.3391
 478  268.2632
 479  367.5305
 480  438.9999
 481  405.4077
 482  344.2913
 483  260.4116
 484  297.0644
 485  238.6232
 486  316.501
 487  349.4215
 488  355.5836
 489  396.3977
 490  334.0107
 491  260.1591
 492  313.8618
 493  366.3597
 494  402.7482
 495  490.3979
 496  406.3823
 497  325.2406
 498  320.418
 499  338.4689
 500  273.6164
 501  269.0685
 502  434.2953
 503  388.5112
 504  423.6806
 505  392.0419
 506  407.483
 507  453.9826
 508  707.8083
 509  794.269
 510  841.4846
 511  953.5873
