# Input file       =  1194827813.107991_cleaned.dat
# Candidate        =  PSR_0332+5434
# Telescope        =  AR
# Epoch_topo       =  58073.025834583226
# Epoch_bary       =  N/A
# T_sample         =  0.002
# Data Folded      =  7340032
# Data Avg         =  0.152383890817873
# Data StdDev      =  4.14469428016019 
# Profile Bins     =  256
# Profile Avg      =  4369.61950515365 
# Profile StdDev   =  701.813140844527 
# Reduced chi-sqr  =  0.962
# Prob(Noise)      <  0.659   (~0.0 sigma)
# P_topo (ms)      =  714.510581593807  +/- 0.00048
# P'_topo (s/s)    =  -0                +/- 2.53e-10
# P''_topo (s/s^2) =  0                 +/- 1.12e-13
# P_bary (ms)      =  N/A
# P'_bary (s/s)    =  N/A
# P''_bary (s/s^2) =  N/A
# P_orb (s)        =  N/A
# asin(i)/c (s)    =  N/A
# eccentricity     =  N/A
# w (rad)          =  N/A
# T_peri           =  N/A
######################################################
   0  3433.179
   1  3379.426
   2  4201.279
   3  4507.552
   4  5254.762
   5  4798.051
   6  3756.96
   7  3910.676
   8  3565.557
   9  4426.167
  10  3795.952
  11  4151.78
  12  4773.151
  13  4264.54
  14  4509.192
  15  4793.576
  16  4274.546
  17  3684.121
  18  4558.901
  19  3305.749
  20  3531.621
  21  3703.793
  22  4339.466
  23  4207.549
  24  4829.406
  25  4355.583
  26  4503.587
  27  5318.189
  28  4749.48
  29  5451.412
  30  4278.161
  31  3674.093
  32  4286.249
  33  4884.14
  34  5014.614
  35  5073.963
  36  5630.44
  37  5180.238
  38  5002.532
  39  4387.398
  40  4428.796
  41  3693.321
  42  4399.9
  43  4263.062
  44  4086.445
  45  3955.961
  46  4164.042
  47  4006.561
  48  4232.474
  49  4176.184
  50  3959.731
  51  4022.42
  52  4031.793
  53  4472.163
  54  4575.08
  55  3691.554
  56  3567.792
  57  3829.947
  58  4584.539
  59  4884.634
  60  3949.466
  61  4575.104
  62  4570.765
  63  4516.97
  64  4226.889
  65  4820.38
  66  5223.3
  67  4221.307
  68  4692.229
  69  4328.064
  70  4152.544
  71  3975.921
  72  3820.475
  73  4840.393
  74  4124.817
  75  3744.802
  76  4860.2
  77  4274.881
  78  5044.046
  79  4444.475
  80  4216.718
  81  5031.036
  82  5058.431
  83  5318.425
  84  4792.592
  85  5677.582
  86  4643.966
  87  4486.373
  88  4541.896
  89  5214.525
  90  4884.579
  91  4186.844
  92  4350.867
  93  4779.022
  94  4372.361
  95  4208.396
  96  4291.553
  97  5191.296
  98  4666.058
  99  5220.521
 100  4442.13
 101  4629.287
 102  5129.736
 103  4497.861
 104  4408.998
 105  4030.552
 106  3933.851
 107  4024.494
 108  4166.528
 109  3727.084
 110  5017.146
 111  4707.176
 112  4254.648
 113  3542.019
 114  4333.723
 115  4178.4
 116  3566.56
 117  3621.245
 118  3525.596
 119  3362.285
 120  2990.348
 121  3536.477
 122  3312.665
 123  3993.553
 124  4509.381
 125  2951.831
 126  3969.199
 127  3481.904
 128  4641.432
 129  4286.796
 130  4919.808
 131  4814.873
 132  4038.313
 133  3393.743
 134  4112.572
 135  4450.602
 136  4817.548
 137  3651.362
 138  4122.911
 139  4573.991
 140  4505.957
 141  3996.046
 142  3927.705
 143  4575.683
 144  3601.926
 145  4291.866
 146  3753.52
 147  4208.863
 148  4057.418
 149  4185.87
 150  3644.565
 151  3840.163
 152  3752.671
 153  4276.2
 154  3691.063
 155  4048.852
 156  5863.152
 157  6463.65
 158  6989.723
 159  4713.521
 160  4112.056
 161  4406.554
 162  3139.117
 163  4750.644
 164  4955.177
 165  5074.954
 166  4180.49
 167  5154.141
 168  5314.587
 169  4887.88
 170  4109.413
 171  3700.148
 172  4684.639
 173  4093.882
 174  5081.852
 175  5278.975
 176  4577.592
 177  4011.927
 178  5234.238
 179  4905.808
 180  5058.767
 181  4348.803
 182  5488.191
 183  4849.318
 184  4787.508
 185  5357.741
 186  4943.542
 187  3721.977
 188  4137.24
 189  4801.543
 190  3550.997
 191  3233.076
 192  3931.703
 193  3877.058
 194  4060.661
 195  4301.507
 196  4595.125
 197  4314.335
 198  3808.485
 199  3745.49
 200  4413.915
 201  4961.943
 202  5047.83
 203  5053.997
 204  3934.781
 205  4127.946
 206  5056.552
 207  4324.373
 208  4172.061
 209  4025.903
 210  4551.728
 211  4953.166
 212  4596.854
 213  4216.164
 214  4093.754
 215  4708.67
 216  4546.501
 217  4985.563
 218  4819.148
 219  5378.272
 220  5125.595
 221  4962.37
 222  5439.802
 223  4934.856
 224  5316.293
 225  5279.536
 226  5166.968
 227  4123.237
 228  3655.385
 229  3800.666
 230  4149.128
 231  4842.467
 232  4109.911
 233  4321.969
 234  3979.505
 235  4455.205
 236  4604.203
 237  4524.278
 238  3199.48
 239  3742.958
 240  4146.411
 241  3688.706
 242  3934.348
 243  3827.022
 244  4476.861
 245  4613.079
 246  3917.194
 247  4437.568
 248  4183.144
 249  3862.06
 250  3383.598
 251  3830.255
 252  3425.616
 253  4499.113
 254  4091.441
 255  3665.565
