# Input file       =  1194123649.104459-PSRB0329-2ms-sampling-dd.dat
# Candidate        =  PSR_0332+5434
# Telescope        =  AR
# Epoch_topo       =  58064.875788246056
# Epoch_bary       =  N/A
# T_sample         =  0.002
# Data Folded      =  7340032
# Data Avg         =  1.2430478252816e-09
# Data StdDev      =  7.2916282383896  
# Profile Bins     =  512
# Profile Avg      =  -0.0343846995503263
# Profile StdDev   =  873.048789112957 
# Reduced chi-sqr  =  0.277
# Prob(Noise)      <  1   (~0.0 sigma)
# P_topo (ms)      =  714.502170543052  +/- 0.00344
# P'_topo (s/s)    =  -0                +/- 1.82e-09
# P''_topo (s/s^2) =  0                 +/- 8.02e-13
# P_bary (ms)      =  N/A
# P'_bary (s/s)    =  N/A
# P''_bary (s/s^2) =  N/A
# P_orb (s)        =  N/A
# asin(i)/c (s)    =  N/A
# eccentricity     =  N/A
# w (rad)          =  N/A
# T_peri           =  N/A
######################################################
   0  373.2343
   1  598.1796
   2  1320.74
   3  1572.559
   4  1533.913
   5  1310.714
   6  1003.201
   7  570.6197
   8  -69.08098
   9  -171.977
  10  -70.41093
  11  -91.00492
  12  -140.5034
  13  11.98502
  14  -222.1545
  15  -440.6107
  16  -73.31718
  17  -139.0061
  18  -131.0293
  19  100.7535
  20  315.0535
  21  -33.17067
  22  -329.1461
  23  -132.2233
  24  5.877738
  25  34.77394
  26  90.06642
  27  -30.45642
  28  -139.5122
  29  -114.8945
  30  -458.557
  31  -575.3179
  32  -314.7598
  33  -297.6636
  34  -655.9868
  35  -235.6592
  36  -196.2127
  37  -170.3103
  38  -304.0982
  39  -3.875653
  40  370.9355
  41  -0.1051873
  42  -418.0683
  43  -423.9871
  44  -314.4185
  45  -283.4908
  46  -271.9323
  47  -87.24811
  48  -101.7674
  49  -286.813
  50  -371.2858
  51  -320.5476
  52  -81.59327
  53  -130.8927
  54  185.5372
  55  0.436533
  56  129.242
  57  13.14862
  58  190.2856
  59  -213.0956
  60  -547.261
  61  -206.7161
  62  8.022263
  63  -211.3494
  64  -125.7169
  65  -93.85461
  66  71.7795
  67  390.0386
  68  281.0356
  69  382.0697
  70  160.6564
  71  225.315
  72  209.133
  73  474.1512
  74  254.4871
  75  332.9815
  76  483.3594
  77  377.8462
  78  580.1979
  79  362.7552
  80  430.5318
  81  586.992
  82  287.5439
  83  187.1051
  84  -121.8592
  85  90.21067
  86  276.0921
  87  -378.8761
  88  -390.7725
  89  -100.6395
  90  352.3962
  91  306.0343
  92  -67.2001
  93  -375.5184
  94  -215.7108
  95  7.474944
  96  -88.69226
  97  358.8625
  98  181.7287
  99  128.2357
 100  70.41689
 101  49.13799
 102  -28.76665
 103  183.7868
 104  465.679
 105  473.5077
 106  -77.66166
 107  -26.18543
 108  -206.5684
 109  -105.5379
 110  -329.6157
 111  -548.1088
 112  -253.4654
 113  -506.669
 114  -739.3281
 115  -847.766
 116  -265.5541
 117  -404.8762
 118  -296.6487
 119  -246.0442
 120  -119.887
 121  -171.3038
 122  -442.0993
 123  -635.2379
 124  -435.7083
 125  -452.2935
 126  -216.4352
 127  -379.2788
 128  -481.5341
 129  -662.4584
 130  -649.5328
 131  -643.0673
 132  -367.8627
 133  -167.0036
 134  -225.1865
 135  -482.2928
 136  -407.3879
 137  -251.0672
 138  -483.9126
 139  -431.7875
 140  -69.2261
 141  303.2961
 142  -194.8667
 143  -189.8136
 144  -101.7472
 145  -185.3294
 146  -196.627
 147  -308.654
 148  -341.9035
 149  -411.481
 150  -420.6898
 151  -320.9084
 152  -386.0425
 153  -309.9564
 154  -67.84837
 155  -256.635
 156  -335.3354
 157  -305.234
 158  -477.7512
 159  -799.4402
 160  -784.5447
 161  -408.39
 162  -193.1045
 163  -391.4468
 164  -499.5545
 165  -515.9232
 166  -697.9545
 167  -721.2056
 168  -906.191
 169  -765.7233
 170  -731.4952
 171  -532.0018
 172  -540.9432
 173  -538.0856
 174  -223.3193
 175  -294.9796
 176  -345.9693
 177  -134.7242
 178  -128.4748
 179  -71.60213
 180  -226.4807
 181  -419.4172
 182  -264.2235
 183  -427.0653
 184  -456.1362
 185  50.79252
 186  -292.8336
 187  -400.3954
 188  -169.3917
 189  -184.2798
 190  -317.783
 191  -491.4317
 192  -251.8936
 193  227.7665
 194  170.3446
 195  116.656
 196  -51.03596
 197  -286.0395
 198  -240.7004
 199  -89.69817
 200  49.7523
 201  131.0519
 202  -105.5662
 203  -24.10696
 204  -207.807
 205  -129.7573
 206  309.7922
 207  340.5739
 208  312.0364
 209  -111.1261
 210  -67.73204
 211  47.56495
 212  236.6996
 213  -52.57398
 214  67.77644
 215  438.2257
 216  384.9961
 217  138.5082
 218  -51.37501
 219  81.94135
 220  -92.23256
 221  -50.56957
 222  210.1514
 223  271.4905
 224  93.509
 225  -56.57055
 226  -138.4701
 227  -456.1021
 228  71.45555
 229  257.8195
 230  -73.37868
 231  -213.3994
 232  -374.4727
 233  -217.7339
 234  113.8929
 235  -131.184
 236  131.2523
 237  124.7244
 238  361.0042
 239  227.4909
 240  -58.88087
 241  -116.2954
 242  -97.73037
 243  -277.0687
 244  -17.32783
 245  339.2104
 246  -184.531
 247  -391.8878
 248  69.19844
 249  81.15279
 250  256.6774
 251  3.643006
 252  -272.567
 253  -531.1527
 254  -753.8272
 255  -244.7415
 256  -341.2627
 257  -216.5444
 258  -94.55698
 259  -141.0107
 260  -40.09008
 261  -19.76475
 262  -76.26167
 263  75.00508
 264  -44.18075
 265  219.5134
 266  608.295
 267  147.1494
 268  111.2573
 269  288.0259
 270  209.3479
 271  -252.1367
 272  -45.36087
 273  52.63976
 274  279.6565
 275  326.2754
 276  176.1695
 277  -200.5483
 278  -112.7016
 279  130.7677
 280  344.4072
 281  203.6525
 282  -318.1097
 283  -84.41218
 284  -43.44047
 285  -15.17491
 286  -147.8938
 287  7.906923
 288  -86.51176
 289  -196.271
 290  -230.917
 291  -164.8451
 292  96.04498
 293  74.90588
 294  -35.64276
 295  -54.36865
 296  245.2542
 297  -28.23014
 298  -121.0195
 299  -256.3067
 300  -144.5051
 301  -275.1281
 302  -80.38081
 303  -258.3471
 304  -471.7533
 305  -133.1117
 306  36.40989
 307  339.0753
 308  162.7596
 309  -147.439
 310  -90.57344
 311  126.0766
 312  183.1534
 313  1.151621
 314  35.56032
 315  35.36448
 316  196.1651
 317  319.1402
 318  -61.55311
 319  -210.8196
 320  -292.1066
 321  -200.9978
 322  -24.90469
 323  356.7637
 324  -29.95711
 325  -266.6091
 326  -124.573
 327  -259.8121
 328  -68.49938
 329  -9.263603
 330  168.3069
 331  306.525
 332  171.8547
 333  102.5616
 334  -26.73128
 335  -139.3633
 336  -56.4003
 337  -97.12119
 338  124.9157
 339  -147.4678
 340  -325.9665
 341  -296.9156
 342  -238.0701
 343  -265.3753
 344  181.5381
 345  117.7329
 346  -103.9602
 347  -328.2039
 348  -60.66589
 349  -3.108079
 350  81.08525
 351  -4.809412
 352  92.28033
 353  111.6247
 354  4.122456
 355  121.0377
 356  92.87971
 357  -53.69499
 358  36.48867
 359  105.2764
 360  228.7799
 361  116.3301
 362  151.8663
 363  152.5419
 364  35.25818
 365  365.8268
 366  555.9391
 367  -61.49279
 368  -209.3315
 369  -288.2825
 370  94.22214
 371  403.9933
 372  294.6825
 373  106.4125
 374  428.8194
 375  388.0291
 376  283.1887
 377  346.6053
 378  541.8762
 379  662.258
 380  247.577
 381  336.7203
 382  302.1108
 383  422.8561
 384  902.5368
 385  784.009
 386  610.8614
 387  741.5685
 388  563.6942
 389  608.512
 390  589.997
 391  672.8736
 392  299.727
 393  102.9422
 394  196.896
 395  -137.6256
 396  34.98585
 397  170.652
 398  509.3072
 399  336.8136
 400  184.269
 401  98.88468
 402  318.0184
 403  364.4653
 404  412.1291
 405  316.5547
 406  338.9649
 407  -23.55509
 408  23.80154
 409  118.352
 410  347.9123
 411  157.8271
 412  474.342
 413  171.5273
 414  186.5372
 415  204.7652
 416  412.9523
 417  564.1396
 418  767.5849
 419  275.4105
 420  106.1383
 421  32.51628
 422  141.8393
 423  257.5976
 424  467.2863
 425  528.6084
 426  458.757
 427  403.4768
 428  247.8199
 429  -178.7945
 430  131.4103
 431  210.295
 432  420.3736
 433  480.7182
 434  120.0015
 435  33.74043
 436  220.7643
 437  549.1816
 438  467.7444
 439  502.0878
 440  408.7923
 441  285.8463
 442  83.22808
 443  32.52433
 444  361.9221
 445  773.3794
 446  247.7776
 447  262.009
 448  391.1983
 449  390.8576
 450  124.4536
 451  376.141
 452  44.48682
 453  -117.8711
 454  147.0942
 455  185.1673
 456  -82.59882
 457  -487.5214
 458  -633.0138
 459  -358.8284
 460  -128.9521
 461  125.0316
 462  -45.35497
 463  -429.6779
 464  -330.5319
 465  -250.5686
 466  72.69428
 467  31.49891
 468  9.712849
 469  60.95738
 470  74.12069
 471  -124.155
 472  162.1604
 473  76.69974
 474  71.96219
 475  254.1844
 476  33.78414
 477  26.71256
 478  269.7806
 479  2.770277
 480  -280.6145
 481  -181.2362
 482  85.36337
 483  259.0855
 484  235.7094
 485  261.0197
 486  93.94265
 487  -446.7737
 488  -80.44762
 489  105.5514
 490  139.4843
 491  369.8958
 492  637.638
 493  349.3057
 494  224.1835
 495  -166.8298
 496  -365.6808
 497  -269.4024
 498  128.0896
 499  295.781
 500  -79.86028
 501  -99.4409
 502  -119.5837
 503  -287.8746
 504  -396.3468
 505  -204.0578
 506  -284.9669
 507  -63.81222
 508  -64.77835
 509  141.5645
 510  -94.70453
 511  144.2758
