# Input file       =  1194482637.105718_cleaned.dat
# Candidate        =  PSR_0332+5434
# Telescope        =  AR
# Epoch_topo       =  58069.030741964329
# Epoch_bary       =  N/A
# T_sample         =  0.002
# Data Folded      =  7340032
# Data Avg         =  0.0118924833168394
# Data StdDev      =  1.00004076617157 
# Profile Bins     =  512
# Profile Avg      =  170.583652247149 
# Profile StdDev   =  119.73791743427  
# Reduced chi-sqr  =  0.855
# Prob(Noise)      <  0.992   (~0.0 sigma)
# P_topo (ms)      =  714.506556696245  +/- 0.00031
# P'_topo (s/s)    =  -0                +/- 1.63e-10
# P''_topo (s/s^2) =  0                 +/- 7.21e-14
# P_bary (ms)      =  N/A
# P'_bary (s/s)    =  N/A
# P''_bary (s/s^2) =  N/A
# P_orb (s)        =  N/A
# asin(i)/c (s)    =  N/A
# eccentricity     =  N/A
# w (rad)          =  N/A
# T_peri           =  N/A
######################################################
   0  179.5918
   1  184.7074
   2  166.5351
   3  189.1818
   4  267.6634
   5  139.4512
   6  39.44386
   7  55.44917
   8  87.77516
   9  133.31
  10  207.987
  11  191.4776
  12  226.7049
  13  186.9982
  14  119.0728
  15  175.8555
  16  143.0754
  17  130.0596
  18  159.618
  19  261.3633
  20  266.7275
  21  212.4241
  22  223.2824
  23  246.2207
  24  241.3684
  25  225.1105
  26  259.2245
  27  213.1066
  28  135.973
  29  87.57407
  30  147.0987
  31  252.1557
  32  235.7606
  33  289.0865
  34  262.7651
  35  255.6161
  36  210.5912
  37  190.9794
  38  154.6884
  39  109.2174
  40  50.61635
  41  95.8465
  42  169.7171
  43  220.9384
  44  120.9838
  45  44.95883
  46  144.2241
  47  203.054
  48  177.0089
  49  104.3574
  50  64.06538
  51  43.28779
  52  145.4331
  53  188.1178
  54  124.8226
  55  55.78696
  56  61.30939
  57  78.99628
  58  118.6357
  59  232.4712
  60  178.5202
  61  262.6039
  62  224.0629
  63  107.8407
  64  131.3419
  65  142.1429
  66  131.0537
  67  121.2163
  68  7.820865
  69  150.4766
  70  192.3374
  71  97.03935
  72  27.12656
  73  63.38898
  74  94.99987
  75  78.93806
  76  37.35239
  77  201.3509
  78  202.6284
  79  132.0994
  80  118.1012
  81  27.95765
  82  -6.778352
  83  54.93692
  84  213.637
  85  202.8816
  86  100.108
  87  200.6517
  88  184.01
  89  241.4525
  90  205.5158
  91  176.2133
  92  289.5644
  93  286.5271
  94  122.8309
  95  186.762
  96  199.4178
  97  22.99277
  98  166.7756
  99  232.0185
 100  117.717
 101  82.74048
 102  69.91595
 103  149.4902
 104  119.2613
 105  63.39043
 106  131.9709
 107  137.3124
 108  223.3634
 109  201.5281
 110  118.9786
 111  122.518
 112  57.60113
 113  152.1865
 114  102.9767
 115  170.3372
 116  109.5863
 117  101.7262
 118  108.8228
 119  111.463
 120  184.1094
 121  93.63802
 122  129.2737
 123  182.2369
 124  239.3118
 125  194.0498
 126  162.2426
 127  151.882
 128  317.5753
 129  289.3927
 130  222.4039
 131  248.3418
 132  171.8061
 133  231.4567
 134  284.3245
 135  287.0692
 136  252.5528
 137  211.9762
 138  230.658
 139  199.0588
 140  140.9864
 141  122.7239
 142  174.853
 143  282.4285
 144  168.011
 145  142.8915
 146  225.5996
 147  82.60518
 148  137.3277
 149  209.1947
 150  223.9657
 151  192.5762
 152  105.4909
 153  164.0294
 154  83.20692
 155  135.7138
 156  214.8116
 157  252.4049
 158  129.5464
 159  182.8926
 160  210.2612
 161  156.6406
 162  194.0965
 163  260.3513
 164  222.6202
 165  168.8796
 166  64.90785
 167  252.5926
 168  243.6979
 169  224.2129
 170  220.5648
 171  119.9812
 172  95.10432
 173  88.63317
 174  113.2815
 175  123.2625
 176  138.9679
 177  255.8001
 178  251.1395
 179  176.7901
 180  125.2152
 181  163.7833
 182  131.7885
 183  206.9205
 184  222.0311
 185  89.83524
 186  181.5276
 187  251.7106
 188  202.8139
 189  145.633
 190  71.47768
 191  223.4597
 192  296.9021
 193  325.2175
 194  195.2679
 195  185.5886
 196  130.0822
 197  63.38841
 198  144.6953
 199  196.7574
 200  212.8117
 201  116.0472
 202  115.372
 203  62.93624
 204  57.80557
 205  241.3166
 206  224.2347
 207  118.4228
 208  191.7317
 209  137.4041
 210  32.07029
 211  77.77778
 212  210.0961
 213  195.2504
 214  187.047
 215  165.8745
 216  165.2585
 217  210.8365
 218  289.0453
 219  279.9108
 220  186.2795
 221  192.1824
 222  216.6043
 223  240.4348
 224  362.606
 225  326.3299
 226  161.2848
 227  130.7965
 228  123.3792
 229  48.79763
 230  155.2183
 231  196.6687
 232  160.4845
 233  169.26
 234  186.0884
 235  234.4528
 236  41.9566
 237  60.56498
 238  56.72005
 239  176.6513
 240  248.1903
 241  294.1599
 242  273.2895
 243  120.9664
 244  173.8429
 245  219.1451
 246  192.4068
 247  131.9151
 248  95.59798
 249  170.8904
 250  187.7303
 251  199.7612
 252  151.1971
 253  226.6503
 254  128.7775
 255  101.3937
 256  136.4392
 257  184.2046
 258  252.4869
 259  206.4451
 260  155.0932
 261  102.9357
 262  53.29792
 263  55.64413
 264  97.66372
 265  219.1308
 266  348.3823
 267  189.523
 268  104.7502
 269  154.3465
 270  272.5143
 271  226.096
 272  99.6841
 273  223.4797
 274  182.1751
 275  136.1263
 276  202.3933
 277  127.5686
 278  103.9513
 279  129.4092
 280  180.4227
 281  181.2621
 282  76.19054
 283  128.4599
 284  155.9803
 285  128.5246
 286  105.6144
 287  99.37971
 288  94.56987
 289  156.5438
 290  121.8111
 291  206.4822
 292  215.5386
 293  208.6644
 294  182.1751
 295  71.17136
 296  122.4968
 297  106.6739
 298  110.0516
 299  94.77533
 300  6.739817
 301  110.3255
 302  98.30357
 303  90.77425
 304  66.43291
 305  167.4114
 306  173.0973
 307  230.4013
 308  164.865
 309  -5.667066
 310  57.58719
 311  92.77892
 312  98.46492
 313  169.0909
 314  227.9038
 315  192.5195
 316  210.4026
 317  274.686
 318  362.7715
 319  242.2032
 320  164.3889
 321  247.2045
 322  250.0692
 323  201.7312
 324  182.2819
 325  171.6387
 326  129.2575
 327  161.0418
 328  209.8325
 329  251.6749
 330  152.5179
 331  210.3386
 332  248.6507
 333  73.39867
 334  177.9894
 335  236.3951
 336  227.6549
 337  186.8748
 338  199.5865
 339  209.5304
 340  204.9398
 341  220.9585
 342  131.6498
 343  154.9723
 344  211.0376
 345  328.4902
 346  237.5627
 347  202.5276
 348  270.4048
 349  355.2095
 350  459.9228
 351  527.8196
 352  631.3524
 353  689.5248
 354  459.5908
 355  321.6519
 356  235.6218
 357  145.8214
 358  114.326
 359  164.8474
 360  119.6144
 361  145.3379
 362  187.6878
 363  170.2951
 364  219.0997
 365  259.1809
 366  184.4984
 367  102.5703
 368  52.12356
 369  179.5629
 370  118.0677
 371  172.2534
 372  161.9751
 373  116.3326
 374  60.25941
 375  48.1447
 376  101.8062
 377  74.14657
 378  153.9847
 379  49
 380  -44.71271
 381  46.41232
 382  177.0231
 383  235.2449
 384  244.2162
 385  229.3794
 386  135.6675
 387  86.41195
 388  88.22262
 389  138.2086
 390  141.1449
 391  181.6237
 392  166.0686
 393  232.936
 394  235.4037
 395  242.4719
 396  220.0762
 397  181.7314
 398  55.66446
 399  92.13958
 400  201.4197
 401  165.8003
 402  88.90897
 403  57.9455
 404  63.48853
 405  66.46916
 406  147.7902
 407  103.2106
 408  131.2253
 409  95.00916
 410  123.3478
 411  116.7977
 412  165.086
 413  179.4185
 414  160.6991
 415  194.2064
 416  214.4821
 417  213.4901
 418  230.1357
 419  148.9041
 420  138.6159
 421  116.6664
 422  137.3488
 423  200.7612
 424  184.7771
 425  227.427
 426  111.227
 427  184.9934
 428  254.9759
 429  144.1184
 430  15.72434
 431  60.08501
 432  111.7047
 433  48.43766
 434  108.0576
 435  155.0697
 436  111.9804
 437  245.3293
 438  284.807
 439  230.2111
 440  113.8831
 441  178.3222
 442  175.6786
 443  138.5853
 444  98.53268
 445  217.1173
 446  290.4605
 447  306.8206
 448  232.6475
 449  183.224
 450  218.6988
 451  86.52012
 452  55.42558
 453  204.4321
 454  209.5213
 455  241.6213
 456  203.5298
 457  163.6147
 458  104.0493
 459  -1.648426
 460  213.0974
 461  173.1946
 462  105.949
 463  196.6458
 464  123.3344
 465  3.577959
 466  52.4268
 467  130.6918
 468  111.6098
 469  196.0717
 470  241.8718
 471  173.4918
 472  58.5031
 473  73.89773
 474  173.3294
 475  200.8285
 476  260.7773
 477  300.8664
 478  303.9583
 479  266.1636
 480  274.0294
 481  312.8783
 482  331.4234
 483  256.8592
 484  182.7567
 485  245.5804
 486  179.325
 487  108.3627
 488  121.1808
 489  133.5408
 490  159.7926
 491  99.60178
 492  136.2067
 493  206.9902
 494  188.1285
 495  199.0448
 496  201.0565
 497  232.9464
 498  174.9623
 499  177.5831
 500  212.3503
 501  185.1683
 502  250.1899
 503  270.809
 504  202.487
 505  140.2189
 506  153.731
 507  175.6037
 508  255.3395
 509  316.1535
 510  274.0198
 511  199.6919
