# Input file       =  1194899111.10159_cleaned.dat
# Candidate        =  PSR_0332+5434
# Telescope        =  AR
# Epoch_topo       =  58073.851042842478
# Epoch_bary       =  N/A
# T_sample         =  0.002
# Data Folded      =  7340032
# Data Avg         =  0.488193120177521
# Data StdDev      =  6.44059783581377 
# Profile Bins     =  256
# Profile Avg      =  13997.4160472741 
# Profile StdDev   =  1090.57409076122 
# Reduced chi-sqr  =  0.753
# Prob(Noise)      <  0.999   (~0.0 sigma)
# P_topo (ms)      =  714.511081662013  +/- 7.44e-05
# P'_topo (s/s)    =  -0                +/- 3.92e-11
# P''_topo (s/s^2) =  0                 +/- 1.73e-14
# P_bary (ms)      =  N/A
# P'_bary (s/s)    =  N/A
# P''_bary (s/s^2) =  N/A
# P_orb (s)        =  N/A
# asin(i)/c (s)    =  N/A
# eccentricity     =  N/A
# w (rad)          =  N/A
# T_peri           =  N/A
######################################################
   0  13518.23
   1  13476.98
   2  13729.1
   3  13362.98
   4  14398.52
   5  13634.37
   6  13504.38
   7  13302.77
   8  14366.69
   9  15325.51
  10  13183.73
  11  13984.63
  12  13708.28
  13  14736.58
  14  13839.62
  15  15558.24
  16  15874.29
  17  15352.5
  18  14696.78
  19  15347.31
  20  16256.6
  21  15038.38
  22  14821.9
  23  13730.92
  24  13259.8
  25  12497.46
  26  13585.44
  27  14402.56
  28  14097.95
  29  13847.02
  30  14684.39
  31  15942.67
  32  14045.71
  33  14508.46
  34  15736.62
  35  14912.71
  36  15175.98
  37  15244.72
  38  15422.8
  39  14116.42
  40  16068.76
  41  15104.9
  42  14661.59
  43  15216.76
  44  14226.94
  45  14676.6
  46  14330.65
  47  13585.56
  48  13385.06
  49  14385.83
  50  13105.56
  51  12391.67
  52  13246.43
  53  14389.79
  54  14733.97
  55  14691.87
  56  15402.47
  57  14138.9
  58  13785.57
  59  14356.98
  60  14558.58
  61  15544.75
  62  14053.6
  63  13686.83
  64  13208.37
  65  14842.75
  66  14208.45
  67  14976.57
  68  14390.06
  69  14866.63
  70  14457.55
  71  14404.82
  72  13865.07
  73  14166.8
  74  15572.97
  75  14286.76
  76  13840.11
  77  15067.89
  78  14167.13
  79  14209.8
  80  13193.23
  81  13996.44
  82  12522.21
  83  13087.6
  84  12524.49
  85  12860.78
  86  13474.07
  87  13490.95
  88  14381.91
  89  14101.76
  90  14196.03
  91  14624.46
  92  15155.73
  93  13771.92
  94  13870.11
  95  15107.36
  96  14389.54
  97  14281.75
  98  14321.23
  99  14748.59
 100  13806.04
 101  13819.97
 102  15161.18
 103  15426.38
 104  14339.69
 105  13082.06
 106  14706.78
 107  13258.79
 108  13937.61
 109  14087.6
 110  13562.54
 111  12751.84
 112  13481.93
 113  14520.84
 114  13703.4
 115  13596.32
 116  13628.71
 117  15058.83
 118  14077.42
 119  13529.68
 120  14660.84
 121  12609.26
 122  13644.97
 123  12795.61
 124  13931.67
 125  13622.05
 126  14013.84
 127  14735.38
 128  14118.92
 129  13589.46
 130  14329.98
 131  13996.36
 132  14178.46
 133  13571.99
 134  14673.6
 135  13977.24
 136  14540.53
 137  14525.72
 138  13546.62
 139  13346.55
 140  14236.22
 141  13650.55
 142  13647.16
 143  13722.81
 144  13818.2
 145  13891.59
 146  12708.45
 147  13737.12
 148  14278.49
 149  15044.88
 150  14386.84
 151  14815.26
 152  14305.38
 153  13768.69
 154  13887.09
 155  13829.24
 156  15602.72
 157  15598.27
 158  16648.39
 159  14999.57
 160  14263.19
 161  13866.41
 162  14753.88
 163  15061.1
 164  13870.55
 165  15183.06
 166  16041.58
 167  15677.37
 168  13460.73
 169  13712.01
 170  13318.98
 171  13159.55
 172  13659.33
 173  13601.72
 174  13193
 175  13090.83
 176  14150.37
 177  13138.16
 178  13705.97
 179  12617.08
 180  14256.84
 181  13611.73
 182  12762.07
 183  13764.56
 184  14074.75
 185  13798.54
 186  12524.95
 187  14291.2
 188  14319.17
 189  13527.54
 190  13641.78
 191  13725.63
 192  14821.14
 193  13645.28
 194  13020.52
 195  13225.66
 196  13320.54
 197  13236.37
 198  13707.79
 199  14568.99
 200  13858.65
 201  14473.29
 202  13231.15
 203  13219.47
 204  12394.28
 205  13161.1
 206  13881.18
 207  12929.73
 208  12911.81
 209  12728.84
 210  13258.38
 211  12365
 212  12818.84
 213  13514.09
 214  13414.88
 215  13532.29
 216  13093.88
 217  14429.89
 218  13903.98
 219  13931.64
 220  14113.34
 221  13533.24
 222  13886.01
 223  12687.88
 224  13645.51
 225  13251.74
 226  13844.41
 227  13835.11
 228  13927.6
 229  12317.12
 230  13984.06
 231  14173.7
 232  14427.62
 233  13295.24
 234  13508.11
 235  15359.32
 236  14857.41
 237  13777.24
 238  14516.44
 239  13541.23
 240  13250.07
 241  13780.64
 242  13691.62
 243  13183.62
 244  13671.52
 245  13461.15
 246  14414.21
 247  13475.09
 248  13457.34
 249  13467
 250  11850.51
 251  12321.11
 252  13053.59
 253  13124.78
 254  13613.26
 255  13503.3
