# Input file       =  1194051750.097979_cleaned.dat
# Candidate        =  PSR_0332+5434
# Telescope        =  AR
# Epoch_topo       =  58064.043623819205
# Epoch_bary       =  N/A
# T_sample         =  0.002
# Data Folded      =  7340032
# Data Avg         =  0.0705541583998379
# Data StdDev      =  2.80264532308303 
# Profile Bins     =  256
# Profile Avg      =  2022.82881244875 
# Profile StdDev   =  474.566562431742 
# Reduced chi-sqr  =  1.372
# Prob(Noise)      <  7.28e-05   (~3.8 sigma)
# P_topo (ms)      =  714.501695350368  +/- 0.000262
# P'_topo (s/s)    =  -0                +/- 1.38e-10
# P''_topo (s/s^2) =  0                 +/- 6.11e-14
# P_bary (ms)      =  N/A
# P'_bary (s/s)    =  N/A
# P''_bary (s/s^2) =  N/A
# P_orb (s)        =  N/A
# asin(i)/c (s)    =  N/A
# eccentricity     =  N/A
# w (rad)          =  N/A
# T_peri           =  N/A
######################################################
   0  1695.547
   1  2430.44
   2  2343.971
   3  1760.757
   4  1789.421
   5  2262.054
   6  2389.991
   7  2713.927
   8  2956.276
   9  2732.901
  10  2264.39
  11  1818.046
  12  2290.269
  13  2425.681
  14  2260.061
  15  1902.006
  16  1757.67
  17  2457.149
  18  2389.946
  19  2573.708
  20  2144.683
  21  2676.942
  22  1591.863
  23  2385.487
  24  1395.488
  25  2037.777
  26  1588.133
  27  1718.782
  28  1935.404
  29  2120.03
  30  1876.767
  31  2145.931
  32  2888.419
  33  2441.478
  34  2645.494
  35  1838.524
  36  1395.937
  37  1694.715
  38  1915.521
  39  2189.568
  40  2030.678
  41  1820.628
  42  1713.926
  43  1779.739
  44  1895.418
  45  2270.79
  46  2334.67
  47  1750.888
  48  1755.599
  49  1907.423
  50  1816.931
  51  2604.525
  52  2167.279
  53  1750.016
  54  1739.733
  55  2195.711
  56  1953.803
  57  1464.242
  58  1460.343
  59  1906.25
  60  1375.692
  61  1990.975
  62  2669.565
  63  1915.597
  64  2069.801
  65  2181.716
  66  1922.991
  67  1970.391
  68  1612.152
  69  1854.534
  70  2256.493
  71  1813.544
  72  1674.362
  73  2233.847
  74  2027.677
  75  1986.798
  76  1588.279
  77  2357.062
  78  1389.006
  79  1813.642
  80  1810.527
  81  2107.658
  82  2334.733
  83  2068.816
  84  2084.5
  85  2274.368
  86  2336.669
  87  2117.481
  88  2223.412
  89  1576.951
  90  1638.41
  91  2226.359
  92  1736.14
  93  1484.795
  94  1802.18
  95  1921.033
  96  1588.315
  97  1684.212
  98  1752.427
  99  2143.537
 100  1984.834
 101  1571.394
 102  1959.651
 103  1962.6
 104  1983.522
 105  1478.489
 106  1619.94
 107  1246.262
 108  1983.945
 109  1812.254
 110  1762.975
 111  2080.17
 112  2444.646
 113  2883.17
 114  1751.13
 115  1274.212
 116  1305.167
 117  1229.068
 118  1869.974
 119  1848.534
 120  1680.203
 121  1899.038
 122  2325.429
 123  2652.867
 124  2437.185
 125  2018.989
 126  2323.1
 127  2638.49
 128  1989.704
 129  1698.842
 130  1327.922
 131  1514.714
 132  1841.496
 133  1766.474
 134  1484.908
 135  1929.016
 136  2870.506
 137  2990.125
 138  2330.198
 139  2224.95
 140  2086.513
 141  2510.146
 142  1831.748
 143  1757.741
 144  2332.887
 145  1803.987
 146  1800.8
 147  1906.553
 148  2371.329
 149  1825.468
 150  1444.463
 151  1442.91
 152  1575.049
 153  2044.291
 154  2389.24
 155  2129.355
 156  3573.064
 157  4284.027
 158  5044.386
 159  4420.023
 160  3400.729
 161  2396.552
 162  2310.588
 163  1983.154
 164  2580.908
 165  2281.943
 166  2531.407
 167  2251.545
 168  2880.012
 169  2323.622
 170  1964.551
 171  2078.108
 172  1478.962
 173  2005.502
 174  1524.781
 175  1927.547
 176  2307.023
 177  1568.348
 178  2279.228
 179  2323.321
 180  2000.336
 181  1999.593
 182  1748.771
 183  1402.614
 184  1725.348
 185  2861.775
 186  1693.075
 187  1593.894
 188  1966.453
 189  1976.189
 190  2084.478
 191  1389.424
 192  2004.118
 193  1732.931
 194  2403.772
 195  2411.59
 196  2217.294
 197  1941.679
 198  1197.168
 199  2472.61
 200  1846.45
 201  1224.916
 202  2111.744
 203  2125.554
 204  2293.375
 205  1587.466
 206  1449.36
 207  2313.613
 208  1811.67
 209  1380.205
 210  1483.746
 211  1753.093
 212  1959.281
 213  2063.225
 214  2028.262
 215  1908.727
 216  1703.763
 217  1635.095
 218  1910.575
 219  1910.139
 220  1684.53
 221  1697.76
 222  1665.22
 223  1561.779
 224  1788.391
 225  1590.092
 226  2003.151
 227  2231.603
 228  2403.089
 229  1966.089
 230  2187.745
 231  2672.734
 232  2493.764
 233  1914.118
 234  2413.583
 235  2101.025
 236  2183.861
 237  2147.986
 238  1964.032
 239  2154.912
 240  1979.797
 241  1731.334
 242  1529.058
 243  1740.241
 244  2238.242
 245  1504.068
 246  1231.187
 247  1863.75
 248  1791.733
 249  2098.423
 250  1996.576
 251  2293.008
 252  1529.235
 253  1533.731
 254  2141.348
 255  1749.305
