# Input file       =  1194914014.106114_cleaned.dat
# Candidate        =  PSR_0332+5434
# Telescope        =  AR
# Epoch_topo       =  58074.023531320760
# Epoch_bary       =  N/A
# T_sample         =  0.002
# Data Folded      =  7340032
# Data Avg         =  0.0269772585465432
# Data StdDev      =  1.0002251057214  
# Profile Bins     =  512
# Profile Avg      =  386.707972169547 
# Profile StdDev   =  119.759988968295 
# Reduced chi-sqr  =  1.164
# Prob(Noise)      <  0.00607   (~2.5 sigma)
# P_topo (ms)      =  714.511596014141  +/- 0.000397
# P'_topo (s/s)    =  -0                +/- 2.09e-10
# P''_topo (s/s^2) =  0                 +/- 9.24e-14
# P_bary (ms)      =  N/A
# P'_bary (s/s)    =  N/A
# P''_bary (s/s^2) =  N/A
# P_orb (s)        =  N/A
# asin(i)/c (s)    =  N/A
# eccentricity     =  N/A
# w (rad)          =  N/A
# T_peri           =  N/A
######################################################
   0  976.9219
   1  935.0721
   2  793.4516
   3  621.6911
   4  426.384
   5  326.5188
   6  473.768
   7  584.6176
   8  496.1241
   9  471.1375
  10  496.5736
  11  587.5634
  12  602.4634
  13  436.8502
  14  383.1017
  15  467.1884
  16  473.2731
  17  431.7106
  18  381.9211
  19  507.0049
  20  396.1672
  21  407.2487
  22  457.6246
  23  282.4218
  24  308.0999
  25  389.2032
  26  418.4724
  27  366.0049
  28  318.2649
  29  263.7648
  30  287.4845
  31  371.7467
  32  381.6335
  33  446.2456
  34  398.1321
  35  322.9469
  36  358.0672
  37  363.5155
  38  397.9844
  39  392.451
  40  440.2572
  41  386.4379
  42  273.6678
  43  302.1844
  44  299.155
  45  365.7458
  46  333.0296
  47  201.2528
  48  307.7062
  49  461.808
  50  425.9956
  51  534.8563
  52  509.8239
  53  445.1512
  54  368.0438
  55  524.4186
  56  477.9596
  57  430.2986
  58  366.8678
  59  451.838
  60  449.1112
  61  321.9847
  62  290.203
  63  341.0327
  64  433.7792
  65  456.8074
  66  416.3924
  67  446.4427
  68  531.4236
  69  476.1991
  70  415.418
  71  376.3097
  72  341.6101
  73  381.9846
  74  312.9112
  75  228.8626
  76  454.2793
  77  465.8167
  78  342.8238
  79  319.6934
  80  384.7331
  81  446.4276
  82  325.4141
  83  239.1842
  84  349.3622
  85  355.0369
  86  361.6431
  87  361.3314
  88  322.7862
  89  383.9573
  90  448.826
  91  376.7338
  92  384.8235
  93  381.6759
  94  344.0553
  95  304.7663
  96  349.3503
  97  362.9912
  98  338.0179
  99  316.463
 100  358.7817
 101  347.2337
 102  392.4016
 103  350.3629
 104  397.2645
 105  406.7388
 106  352.7599
 107  283.5214
 108  279.374
 109  365.1923
 110  445.9596
 111  450.5637
 112  410.7307
 113  500.335
 114  408.6742
 115  337.6276
 116  302.7179
 117  349.734
 118  351.7838
 119  274.5417
 120  271.5792
 121  294.1176
 122  303.5464
 123  406.4081
 124  382.9578
 125  343.2751
 126  370.2878
 127  323.8431
 128  269.713
 129  295.3553
 130  371.4008
 131  417.3347
 132  361.3048
 133  422.7826
 134  514.6357
 135  440.4417
 136  392.5162
 137  304.5338
 138  304.2826
 139  395.0133
 140  407.1827
 141  391.4841
 142  402.8275
 143  394.0984
 144  396.0002
 145  379.2632
 146  299.1091
 147  432.3537
 148  470.8195
 149  398.8107
 150  410.4176
 151  474.9657
 152  342.7092
 153  343.4437
 154  352.1302
 155  434.2006
 156  425.8271
 157  375.1038
 158  346.1367
 159  372.3967
 160  389.883
 161  400.2365
 162  351.6726
 163  348.1356
 164  383.1414
 165  373.7366
 166  356.2268
 167  417.82
 168  332.4811
 169  423.9278
 170  467.5312
 171  377.8131
 172  323.2515
 173  384.6106
 174  336.1141
 175  245.6757
 176  336.2668
 177  457.93
 178  413.7977
 179  279.3063
 180  346.6575
 181  328.8487
 182  408.4489
 183  546.3048
 184  534.0724
 185  483.8997
 186  440.3775
 187  315.9067
 188  379.1902
 189  482.3688
 190  534.1617
 191  615.3387
 192  584.6459
 193  348.1293
 194  382.198
 195  404.785
 196  344.8914
 197  425.2253
 198  392.7496
 199  282.6603
 200  391.0708
 201  508.0448
 202  455.3651
 203  376.1388
 204  381.5831
 205  420.0756
 206  321.1034
 207  410.5009
 208  266.0491
 209  239.7747
 210  301.7286
 211  446.3349
 212  467.9574
 213  348.9689
 214  330.6812
 215  303.6087
 216  375.3051
 217  436.0944
 218  356.5624
 219  280.2679
 220  260.7833
 221  347.9872
 222  431.8382
 223  382.7885
 224  365.0436
 225  448.9753
 226  353.2546
 227  356.7234
 228  397.3697
 229  399.5593
 230  424.3243
 231  500.1006
 232  525.8687
 233  465.7301
 234  464.8978
 235  621.2123
 236  471.9576
 237  380.0661
 238  367.8071
 239  404.5845
 240  326.8612
 241  363.0104
 242  467.6984
 243  542.5804
 244  571.3008
 245  442.5205
 246  377.4736
 247  415.8662
 248  471.1315
 249  396.9552
 250  253.5916
 251  380.6848
 252  447.6333
 253  424.4593
 254  422.024
 255  353.0284
 256  313.3224
 257  260.0107
 258  392.7079
 259  433.0566
 260  444.0815
 261  494.5639
 262  337.4448
 263  297.2622
 264  435.1079
 265  513.1974
 266  536.0141
 267  407.3529
 268  368.3846
 269  345.2122
 270  416.5365
 271  461.5601
 272  427.0796
 273  421.3918
 274  427.608
 275  533.0764
 276  357.8884
 277  288.2971
 278  454.2259
 279  466.5515
 280  308.852
 281  404.8191
 282  416.3385
 283  363.6154
 284  360.9844
 285  455.8436
 286  435.9627
 287  460.9516
 288  407.1573
 289  434.8542
 290  387.9075
 291  410.301
 292  307.8552
 293  392.2177
 294  322.2279
 295  395.187
 296  385.3214
 297  378.2911
 298  441.7213
 299  366.8783
 300  471.3023
 301  561.1042
 302  535.8115
 303  389.0052
 304  314.647
 305  385.5844
 306  384.9309
 307  438.7166
 308  442.9066
 309  359.6829
 310  368.7653
 311  373.5914
 312  358.8018
 313  370.8287
 314  372.1016
 315  494.5428
 316  416.7714
 317  310.872
 318  326.2655
 319  365.7213
 320  341.5963
 321  253.3656
 322  297.4853
 323  291.5148
 324  292.8421
 325  282.0985
 326  319.1287
 327  371.3515
 328  286.6679
 329  289.8343
 330  367.0526
 331  310.9329
 332  363.4486
 333  442.0019
 334  408.9611
 335  315.9704
 336  356.0758
 337  441.1399
 338  512.6308
 339  392.2416
 340  352.2306
 341  348.3293
 342  317.1946
 343  261.1949
 344  209.9217
 345  311.4901
 346  406.3515
 347  387.4575
 348  305.6345
 349  346.7051
 350  300.1134
 351  296.1276
 352  207.7595
 353  206.1411
 354  303.601
 355  215.8653
 356  317.6847
 357  311.2451
 358  257.3385
 359  270.0194
 360  197.8846
 361  261.1307
 362  277.4971
 363  262.5224
 364  328.8757
 365  241.3272
 366  269.8952
 367  377.5419
 368  293.2174
 369  371.6003
 370  368.1908
 371  345.5647
 372  321.0012
 373  329.9528
 374  364.1094
 375  254.4095
 376  226.3653
 377  412.2729
 378  391.9722
 379  357.0495
 380  343.8265
 381  343.3833
 382  294.5044
 383  283.9626
 384  389.0533
 385  358.7
 386  385.5511
 387  386.9892
 388  316.6241
 389  319.6088
 390  435.1382
 391  356.3339
 392  305.1935
 393  348.3529
 394  294.8724
 395  394.48
 396  407.296
 397  269.5965
 398  181.1247
 399  264.1305
 400  295.1641
 401  270.8274
 402  308.7821
 403  300.5816
 404  328.6342
 405  406.0149
 406  373.5791
 407  321.929
 408  294.37
 409  279.0135
 410  230.9016
 411  181.8557
 412  304.0346
 413  282.2769
 414  280.2337
 415  221.1516
 416  159.6317
 417  290.5574
 418  350.2321
 419  292.3127
 420  374.7105
 421  415.2839
 422  344.3353
 423  141.3735
 424  262.7109
 425  345.8482
 426  247.7977
 427  162.3477
 428  366.986
 429  430.9025
 430  379.6822
 431  415.7805
 432  433.8737
 433  335.4845
 434  422.151
 435  433.8106
 436  468.3296
 437  449.6782
 438  328.8162
 439  389.9369
 440  402.0754
 441  380.7733
 442  462.0897
 443  346.3723
 444  324.1883
 445  444.2571
 446  456.9612
 447  455.7426
 448  392.8962
 449  432.6191
 450  353.6885
 451  380.9439
 452  484.439
 453  490.3824
 454  562.321
 455  460.8624
 456  461.0345
 457  372.9676
 458  384.4591
 459  406.5225
 460  536.3129
 461  477.0171
 462  315.4862
 463  402.0347
 464  534.9963
 465  419.8312
 466  321.2863
 467  412.7809
 468  484.0561
 469  472.2707
 470  434.128
 471  404.1122
 472  382.3192
 473  443.1176
 474  291.9852
 475  375.2018
 476  438.5717
 477  361.3286
 478  306.7356
 479  363.347
 480  445.487
 481  414.8679
 482  432.1131
 483  415.2176
 484  399.9609
 485  395.9698
 486  409.0999
 487  408.838
 488  377.6265
 489  444.6695
 490  390.2378
 491  464.1126
 492  498.1435
 493  464.3681
 494  487.7542
 495  449.962
 496  399.6555
 497  490.0407
 498  495.565
 499  401.4702
 500  324.5384
 501  390.1502
 502  431.0664
 503  409.6884
 504  509.4467
 505  459.5956
 506  445.8062
 507  560.7033
 508  486.1099
 509  585.6046
 510  804.5538
 511  962.3799
