# Input file       =  1194827813.107991_cleaned.dat
# Candidate        =  PSR_0332+5434
# Telescope        =  AR
# Epoch_topo       =  58073.025834583226
# Epoch_bary       =  N/A
# T_sample         =  0.002
# Data Folded      =  7340032
# Data Avg         =  0.0266942840378806
# Data StdDev      =  1.00016578218473 
# Profile Bins     =  512
# Profile Avg      =  382.789746895641 
# Profile StdDev   =  119.752885981121 
# Reduced chi-sqr  =  1.065
# Prob(Noise)      <  0.151   (~1.0 sigma)
# P_topo (ms)      =  714.510581462361  +/- 0.000324
# P'_topo (s/s)    =  -0                +/- 1.71e-10
# P''_topo (s/s^2) =  0                 +/- 7.56e-14
# P_bary (ms)      =  N/A
# P'_bary (s/s)    =  N/A
# P''_bary (s/s^2) =  N/A
# P_orb (s)        =  N/A
# asin(i)/c (s)    =  N/A
# eccentricity     =  N/A
# w (rad)          =  N/A
# T_peri           =  N/A
######################################################
   0  483.8429
   1  452.0405
   2  466.4215
   3  410.7323
   4  516.845
   5  535.3224
   6  365.2409
   7  381.103
   8  518.3639
   9  484.8978
  10  496.2946
  11  521.9214
  12  436.6191
  13  434.317
  14  346.6708
  15  327.5418
  16  271.1639
  17  328.3268
  18  447.7173
  19  397.8961
  20  378.8399
  21  412.3703
  22  506.4118
  23  438.1601
  24  518.0132
  25  539.3923
  26  392.1278
  27  392.9725
  28  322.5421
  29  339.6016
  30  455.1069
  31  449.683
  32  446.8676
  33  568.5338
  34  483.9674
  35  348.7043
  36  260.247
  37  377.8913
  38  473.0109
  39  433.4132
  40  473.6219
  41  484.3244
  42  497.0807
  43  406.7393
  44  468.6748
  45  541.1664
  46  418.8359
  47  364.8359
  48  317.6521
  49  321.0126
  50  353.6508
  51  444.1962
  52  434.0683
  53  338.3605
  54  237.4672
  55  272.9018
  56  218.2943
  57  395.9334
  58  321.4043
  59  271.7897
  60  414.7151
  61  323.7368
  62  348.6883
  63  311.9919
  64  298.6815
  65  416.211
  66  416.0807
  67  376.6659
  68  401.9952
  69  390.2495
  70  309.3893
  71  314.6473
  72  318.1885
  73  426.9601
  74  434.038
  75  367.3871
  76  458.6058
  77  477.4207
  78  456.3659
  79  518.0384
  80  432.0114
  81  409.781
  82  280.95
  83  365.7963
  84  334.9976
  85  426.0917
  86  466.1904
  87  357.6898
  88  305.2058
  89  327.6308
  90  319.8263
  91  294.5673
  92  311.8322
  93  468.3015
  94  363.3393
  95  412.2143
  96  429.2937
  97  409.9304
  98  377.4487
  99  351.161
 100  347.5314
 101  324.741
 102  330.5609
 103  379.294
 104  427.1112
 105  485.4111
 106  394.2745
 107  420.1632
 108  512.0575
 109  574.9923
 110  454.5216
 111  424.9592
 112  539.7834
 113  420.5583
 114  463.152
 115  425.9652
 116  455.1979
 117  459.3104
 118  498.114
 119  424.8136
 120  459.6776
 121  482.1562
 122  526.6964
 123  416.4172
 124  496.7601
 125  557.918
 126  471.509
 127  346.6783
 128  369.8777
 129  407.7131
 130  278.1963
 131  186.2375
 132  273.2472
 133  312.3091
 134  316.4738
 135  468.2401
 136  485.3448
 137  378.2913
 138  331.7639
 139  336.7136
 140  336.4623
 141  332.1283
 142  313.6745
 143  360.6656
 144  419.267
 145  369.493
 146  406.9081
 147  428.3588
 148  416.6159
 149  263.5336
 150  184.732
 151  282.8991
 152  265.4671
 153  324.6926
 154  394.5078
 155  372.0914
 156  369.6362
 157  297.1674
 158  372.7975
 159  302.1523
 160  403.8452
 161  510.687
 162  449.9224
 163  465.732
 164  481.7233
 165  470.0071
 166  390.8238
 167  457.9769
 168  451.9778
 169  382.6809
 170  300.3315
 171  321.6058
 172  345.545
 173  323.0281
 174  298.7097
 175  309.2084
 176  358.4784
 177  217.8863
 178  312.3198
 179  242.9029
 180  411.3141
 181  455.3435
 182  495.6422
 183  364.9135
 184  303.166
 185  404.7725
 186  324.1936
 187  258.1178
 188  281.3883
 189  317.0441
 190  401.7362
 191  407.7827
 192  438.339
 193  489.2564
 194  567.5715
 195  489.1075
 196  457.4071
 197  407.0697
 198  337.2236
 199  305.3646
 200  386.3431
 201  290.0816
 202  307.3038
 203  323.8447
 204  407.4912
 205  343.3714
 206  352.5264
 207  283.1604
 208  314.7672
 209  407.8387
 210  436.1391
 211  358.0013
 212  280.8271
 213  338.8249
 214  374.4789
 215  358.0434
 216  449.456
 217  445.4038
 218  418.4925
 219  317.2288
 220  223.2511
 221  368.5165
 222  429.7523
 223  296.3226
 224  216.7797
 225  229.7177
 226  341.7955
 227  231.3928
 228  333.5108
 229  354.7725
 230  420.3008
 231  328.9745
 232  368.5565
 233  421.5518
 234  473.4993
 235  421.6898
 236  358.2908
 237  381.3203
 238  396.7118
 239  484.7491
 240  479.8854
 241  437.3095
 242  390.4481
 243  374.8001
 244  505.8333
 245  409.8801
 246  323.8429
 247  276.1637
 248  225.1696
 249  255.2989
 250  327.2814
 251  441.9229
 252  335.9264
 253  300.54
 254  410.1721
 255  445.388
 256  472.8846
 257  494.9247
 258  538.9946
 259  586.3266
 260  469.4394
 261  405.8915
 262  448.2725
 263  367.3993
 264  381.1523
 265  438.8802
 266  433.7487
 267  346.3104
 268  295.9986
 269  351.9479
 270  416.3111
 271  375.2797
 272  283.2389
 273  316.7346
 274  364.1241
 275  374.936
 276  257.4852
 277  323.0703
 278  325.3183
 279  235.4656
 280  348.5279
 281  418.1722
 282  365.3499
 283  276.2112
 284  364.9283
 285  344.363
 286  329.3572
 287  398.8976
 288  377.1852
 289  374.2612
 290  312.5621
 291  332.7813
 292  400.5504
 293  381.2377
 294  402.3781
 295  360.4816
 296  244.2479
 297  243.3819
 298  287.2484
 299  287.386
 300  261.5994
 301  436.4524
 302  407.6135
 303  382.6222
 304  411.1945
 305  405.3387
 306  309.3679
 307  305.4132
 308  460.145
 309  535.5054
 310  374.9605
 311  469.9566
 312  411.9432
 313  368.8752
 314  338.3451
 315  445.7848
 316  453.3939
 317  464.0849
 318  518.502
 319  355.9579
 320  414.4653
 321  424.0245
 322  413.1498
 323  372.428
 324  320.4159
 325  334.6796
 326  314.5227
 327  307.4909
 328  323.1922
 329  312.22
 330  288.7367
 331  517.7092
 332  426.5135
 333  344.1241
 334  305.5694
 335  299.1967
 336  283.8508
 337  303.5673
 338  531.3514
 339  384.0302
 340  289.3224
 341  385.2038
 342  487.1099
 343  452.7837
 344  408.5272
 345  373.6704
 346  286.2918
 347  362.67
 348  451.9727
 349  366.9012
 350  388.1939
 351  501.3589
 352  501.6653
 353  411.6911
 354  384.8396
 355  417.9207
 356  546.3942
 357  408.2631
 358  428.5121
 359  296.235
 360  341.2506
 361  399.3615
 362  313.8839
 363  417.6016
 364  502.4055
 365  478.2101
 366  469.924
 367  336.4474
 368  304.2781
 369  391.7226
 370  381.0549
 371  338.0642
 372  474.4169
 373  450.6548
 374  364.1225
 375  322.9556
 376  349.1023
 377  339.7087
 378  378.5954
 379  418.163
 380  491.5077
 381  474.064
 382  369.5447
 383  442.3662
 384  483.4323
 385  476.3502
 386  411.9899
 387  375.4655
 388  357.742
 389  353.785
 390  437.3062
 391  440.5739
 392  381.5939
 393  434.8503
 394  370.0518
 395  319.9919
 396  316.9076
 397  360.8856
 398  343.716
 399  382.3021
 400  360.5858
 401  428.9362
 402  416.8903
 403  275.8402
 404  267.2368
 405  431.1497
 406  492.8995
 407  387.4576
 408  463.4794
 409  441.7878
 410  421.5617
 411  319.8839
 412  201.1682
 413  378.0569
 414  365.6859
 415  329.9944
 416  328.4752
 417  351.2556
 418  307.6074
 419  344.002
 420  313.994
 421  309.9487
 422  241.2874
 423  271.5684
 424  224.3683
 425  245.5238
 426  179.0693
 427  299.4066
 428  321.4429
 429  297.6149
 430  241.3994
 431  307.1123
 432  375.8483
 433  482.185
 434  463.1686
 435  278.3057
 436  200.5948
 437  289.2909
 438  295.5706
 439  250.6624
 440  164.0932
 441  226.6287
 442  396.3516
 443  316.3199
 444  334.7248
 445  441.2349
 446  413.6592
 447  492.5028
 448  392.1723
 449  360.6351
 450  292.0756
 451  242.2677
 452  205.2878
 453  261.36
 454  383.6886
 455  343.4247
 456  303.8855
 457  393.6759
 458  402.849
 459  308.5033
 460  236.2963
 461  300.4124
 462  323.6154
 463  298.081
 464  405.8933
 465  420.2369
 466  441.5439
 467  391.1284
 468  346.5201
 469  391.8844
 470  276.0115
 471  362.768
 472  457.2976
 473  439.4202
 474  308.859
 475  270.6509
 476  463.196
 477  315.1055
 478  260.0739
 479  328.0287
 480  331.4196
 481  450.4713
 482  326.3889
 483  240.4316
 484  337.6713
 485  402.1442
 486  261.4722
 487  358.5757
 488  404.1226
 489  360.5986
 490  348.3849
 491  408.2276
 492  422.5316
 493  331.0083
 494  301.8076
 495  331.0692
 496  448.7769
 497  619.0712
 498  722.5764
 499  670.0334
 500  773.0428
 501  887.1038
 502  836.187
 503  749.5132
 504  527.0013
 505  469.783
 506  409.9914
 507  401.8181
 508  445.4347
 509  384.2903
 510  240.3047
 511  362.0634
