# Input file       =  1194640006.109184_cleaned.dat
# Candidate        =  PSR_0332+5434
# Telescope        =  AR
# Epoch_topo       =  58070.852142467411
# Epoch_bary       =  N/A
# T_sample         =  0.002
# Data Folded      =  7340032
# Data Avg         =  0.0250169578404284
# Data StdDev      =  1.0000599365738  
# Profile Bins     =  512
# Profile Avg      =  358.75861599087  
# Profile StdDev   =  119.740212764737 
# Reduced chi-sqr  =  1.207
# Prob(Noise)      <  0.00089   (~3.1 sigma)
# P_topo (ms)      =  714.508040128517  +/- 0.000256
# P'_topo (s/s)    =  -0                +/- 1.35e-10
# P''_topo (s/s^2) =  0                 +/- 5.95e-14
# P_bary (ms)      =  N/A
# P'_bary (s/s)    =  N/A
# P''_bary (s/s^2) =  N/A
# P_orb (s)        =  N/A
# asin(i)/c (s)    =  N/A
# eccentricity     =  N/A
# w (rad)          =  N/A
# T_peri           =  N/A
######################################################
   0  423.8801
   1  393.5136
   2  516.827
   3  415.4505
   4  334.7969
   5  415.4377
   6  379.5366
   7  253.6327
   8  338.7852
   9  366.5411
  10  343.7726
  11  351.2159
  12  415.2709
  13  372.5155
  14  300.9055
  15  341.8083
  16  393.7987
  17  358.216
  18  366.8281
  19  429.2308
  20  448.3273
  21  366.7968
  22  416.6278
  23  417.4596
  24  455.9772
  25  343.7945
  26  358.8092
  27  442.7188
  28  521.4422
  29  385.4636
  30  255.4797
  31  283.8342
  32  306.6773
  33  299.1101
  34  270.5662
  35  232.4622
  36  270.8792
  37  403.9414
  38  383.3565
  39  305.4669
  40  358.9312
  41  268.4709
  42  272.7603
  43  455.5383
  44  394.7917
  45  323.3006
  46  271.9468
  47  311.5906
  48  322.5596
  49  472.0564
  50  465.1904
  51  328.1266
  52  380.9551
  53  448.6242
  54  398.7937
  55  432.0814
  56  395.8764
  57  314.7869
  58  323.3292
  59  385.4518
  60  405.2601
  61  431.3807
  62  375.3528
  63  360.2703
  64  406.7064
  65  435.1614
  66  430.7508
  67  477.8887
  68  545.6001
  69  456.5117
  70  365.4048
  71  351.0834
  72  254.5207
  73  248.1787
  74  284.7486
  75  363.0938
  76  342.1509
  77  363.9086
  78  388.1323
  79  424.0444
  80  405.9515
  81  482.7711
  82  286.3519
  83  242.5855
  84  312.6035
  85  402.2554
  86  392.6154
  87  433.3968
  88  379.1262
  89  287.0452
  90  390.1299
  91  461.6863
  92  322.4536
  93  325.2544
  94  317.041
  95  454.3789
  96  460.2137
  97  351.6308
  98  385.9045
  99  412.1533
 100  420.7031
 101  445.7763
 102  464.8084
 103  432.9489
 104  391.7516
 105  371.3492
 106  362.9048
 107  391.8851
 108  380.1898
 109  329.171
 110  439.144
 111  474.5611
 112  463.5555
 113  380.1564
 114  416.3044
 115  357.21
 116  493.4037
 117  381.516
 118  484.6332
 119  473.7096
 120  378.2041
 121  323.9063
 122  341.2581
 123  379.4613
 124  416.2365
 125  380.6824
 126  501.9363
 127  405.5172
 128  410.9852
 129  483.1671
 130  455.1367
 131  476.2737
 132  394.9022
 133  337.8271
 134  386.5323
 135  350.2101
 136  372.9394
 137  315.3677
 138  256.4573
 139  324.1869
 140  418.0717
 141  489.4055
 142  413.475
 143  380.016
 144  390.7396
 145  305.2674
 146  392.282
 147  389.5795
 148  397.2883
 149  359.1155
 150  399.1002
 151  352.7091
 152  325.2451
 153  360.8144
 154  378.0414
 155  312.8177
 156  358.0988
 157  210.2722
 158  182.3607
 159  344.14
 160  363.3667
 161  408.982
 162  347.5855
 163  310.4879
 164  355.0483
 165  425.4659
 166  329.2963
 167  390.9011
 168  276.3012
 169  261.5638
 170  361.7628
 171  300.8225
 172  332.4395
 173  392.5351
 174  390.4135
 175  350.2115
 176  326.3082
 177  359.2739
 178  377.221
 179  361.1248
 180  455.8562
 181  424.068
 182  382.9091
 183  457.6064
 184  393.1058
 185  393.3387
 186  411.2158
 187  276.1461
 188  358.9047
 189  573.4814
 190  638.9025
 191  413.1775
 192  378.2063
 193  397.8385
 194  317.4752
 195  279.8821
 196  283.3309
 197  204.707
 198  255.8339
 199  333.0614
 200  400.1761
 201  449.8355
 202  351.4109
 203  290.9357
 204  283.055
 205  270.6917
 206  257.3636
 207  349.9607
 208  340.553
 209  394.4132
 210  374.1112
 211  277.1938
 212  281.1878
 213  349.5685
 214  382.581
 215  468.9276
 216  441.524
 217  358.694
 218  309.5359
 219  350.8982
 220  297.5268
 221  265.0377
 222  361.876
 223  437.6454
 224  374.9041
 225  406.48
 226  405.9644
 227  397.5465
 228  625.1044
 229  765.625
 230  823.279
 231  911.0423
 232  948.7194
 233  980.4107
 234  801.0536
 235  546.0216
 236  453.6058
 237  380.2915
 238  358.3208
 239  412.7344
 240  290.8678
 241  275.3371
 242  307.6962
 243  382.3909
 244  442.2777
 245  209.4125
 246  206.3519
 247  347.0923
 248  473.8345
 249  483.5573
 250  489.4167
 251  509.8721
 252  525.8288
 253  383.6269
 254  248.1552
 255  265.6951
 256  291.7138
 257  409.4712
 258  509.7421
 259  327.7233
 260  349.9893
 261  479.1052
 262  341.8068
 263  285.8022
 264  366.0057
 265  414.1792
 266  197.134
 267  182.2247
 268  364.2814
 269  514.2666
 270  439.304
 271  461.5058
 272  445.5045
 273  420.6871
 274  292.1526
 275  378.5852
 276  452.3172
 277  416.731
 278  356.8104
 279  330.256
 280  203.9866
 281  345.5672
 282  387.1659
 283  377.288
 284  359.2992
 285  380.4769
 286  472.2739
 287  508.5389
 288  334.3009
 289  400.6516
 290  464.6715
 291  378.6465
 292  302.863
 293  340.7913
 294  388.5706
 295  366.6022
 296  348.3046
 297  403.6274
 298  339.163
 299  385.5931
 300  322.1285
 301  333.3835
 302  327.6749
 303  244.2123
 304  355.6933
 305  266.0372
 306  208.9809
 307  188.0479
 308  205.4428
 309  436.2516
 310  423.5201
 311  394.5621
 312  357.888
 313  267.7917
 314  424.545
 315  431.4321
 316  375.6226
 317  312.8439
 318  280.0584
 319  233.0611
 320  253.3162
 321  401.237
 322  417.3016
 323  374.4063
 324  375.9053
 325  362.2051
 326  244.3301
 327  374.3782
 328  503.1011
 329  516.048
 330  306.0308
 331  452.9487
 332  467.348
 333  385.3418
 334  402.9851
 335  365.8375
 336  233.9873
 337  219.4299
 338  272.9106
 339  336.3713
 340  331.3295
 341  291.498
 342  234.9749
 343  408.6455
 344  367.5692
 345  409.6878
 346  299.4566
 347  221.1315
 348  324.8008
 349  393.8508
 350  321.8796
 351  343.8463
 352  247.5303
 353  316.0367
 354  291.5143
 355  254.0784
 356  234.0351
 357  330.9688
 358  262.4948
 359  235.1177
 360  247.7635
 361  248.6553
 362  161.4885
 363  141.6166
 364  293.8409
 365  240.3977
 366  307.5526
 367  327.3054
 368  226.8332
 369  240.2741
 370  291.4587
 371  311.0893
 372  348.2588
 373  360.6034
 374  314.2312
 375  382.7667
 376  410.3599
 377  322.8745
 378  284.8746
 379  396.2175
 380  376.8304
 381  353.3891
 382  440.3187
 383  345.878
 384  242.6905
 385  198.0502
 386  247.4709
 387  287.1853
 388  218.7479
 389  261.4028
 390  311.6378
 391  333.1672
 392  320.5106
 393  409.8176
 394  326.8675
 395  336.3095
 396  392.0743
 397  405.8374
 398  433.8901
 399  365.0495
 400  425.6695
 401  313.8389
 402  284.2208
 403  319.8946
 404  321.3764
 405  312.6315
 406  206.7747
 407  314.8994
 408  398.8323
 409  463.5253
 410  427.8386
 411  262.3224
 412  387.0484
 413  289.6888
 414  262.5001
 415  218.1512
 416  192.5862
 417  399.2776
 418  470.4998
 419  390.6121
 420  381.9372
 421  374.7951
 422  314.3053
 423  358.0114
 424  280.8457
 425  354.9773
 426  371.7316
 427  371.1031
 428  308.4306
 429  211.4791
 430  252.4618
 431  293.9211
 432  219.5165
 433  255.6983
 434  358.8168
 435  257.4653
 436  288.2085
 437  365.833
 438  352.4008
 439  369.524
 440  315.4471
 441  256.8051
 442  261.2924
 443  310.0167
 444  458.7342
 445  374.8102
 446  361.4376
 447  334.7981
 448  249.7325
 449  203.6674
 450  297.7771
 451  366.575
 452  330.9149
 453  301.9618
 454  326.031
 455  377.6006
 456  363.8675
 457  346.3554
 458  381.4369
 459  365.2011
 460  388.1822
 461  326.4504
 462  198.9337
 463  168.3731
 464  248.7216
 465  304.9835
 466  364.536
 467  323.6559
 468  374.28
 469  265.0726
 470  302.218
 471  363.8957
 472  92.08852
 473  218.8295
 474  349.4907
 475  349.3436
 476  387.467
 477  362.5098
 478  394.5661
 479  322.0245
 480  329.6008
 481  253.5702
 482  304.2148
 483  359.4427
 484  421.6367
 485  290.263
 486  235.143
 487  271.1111
 488  233.5695
 489  343.7923
 490  324.5117
 491  339.31
 492  386.7241
 493  384.0813
 494  355.2428
 495  396.2174
 496  405.7212
 497  289.0844
 498  256.5684
 499  231.9263
 500  338.8686
 501  235.1717
 502  216.419
 503  277.9136
 504  388.2779
 505  408.2241
 506  274.2395
 507  274.2334
 508  311.6369
 509  395.8501
 510  390.5824
 511  456.1084
