# Input file       =  1194467733.106676_cleaned.dat
# Candidate        =  PSR_0332+5434
# Telescope        =  AR
# Epoch_topo       =  58068.858241975417
# Epoch_bary       =  N/A
# T_sample         =  0.002
# Data Folded      =  7340032
# Data Avg         =  0.0202432399696762
# Data StdDev      =  1.00009631437907 
# Profile Bins     =  512
# Profile Avg      =  290.109349294147 
# Profile StdDev   =  119.744568389818 
# Reduced chi-sqr  =  1.132
# Prob(Noise)      <  0.0207   (~2.0 sigma)
# P_topo (ms)      =  714.506051415557  +/- 0.000357
# P'_topo (s/s)    =  -0                +/- 1.89e-10
# P''_topo (s/s^2) =  0                 +/- 8.32e-14
# P_bary (ms)      =  N/A
# P'_bary (s/s)    =  N/A
# P''_bary (s/s^2) =  N/A
# P_orb (s)        =  N/A
# asin(i)/c (s)    =  N/A
# eccentricity     =  N/A
# w (rad)          =  N/A
# T_peri           =  N/A
######################################################
   0  792.3183
   1  825.8039
   2  794.2503
   3  560.3358
   4  528.3389
   5  407.9365
   6  435.2651
   7  246.0799
   8  173.5141
   9  340.7161
  10  400.2859
  11  373.7737
  12  373.2655
  13  399.1147
  14  389.9944
  15  427.7935
  16  358.7447
  17  358.5858
  18  309.8958
  19  254.5959
  20  321.0415
  21  457.3402
  22  290.9476
  23  236.0819
  24  311.7523
  25  312.3572
  26  250.2478
  27  205.2244
  28  133.7541
  29  177.7896
  30  275.9377
  31  367.643
  32  421.978
  33  193.7131
  34  339.5523
  35  406.0885
  36  257.9998
  37  215.6404
  38  327.296
  39  362.5396
  40  330.4413
  41  306.9441
  42  327.2609
  43  360.1028
  44  376.4901
  45  225.9442
  46  310.633
  47  140.6164
  48  171.8015
  49  95.26639
  50  245.9386
  51  336.8443
  52  356.3
  53  242.0349
  54  209.3041
  55  207.811
  56  232.0816
  57  323.257
  58  345.0949
  59  265.1058
  60  277.838
  61  200.5882
  62  202.1135
  63  212.5051
  64  270.5481
  65  205.2685
  66  155.8354
  67  249.5887
  68  248.1632
  69  195.0844
  70  165.3869
  71  254.5954
  72  256.3755
  73  281.0294
  74  284.3257
  75  274.8928
  76  342.1258
  77  319.2409
  78  286.1461
  79  254.2535
  80  336.7796
  81  281.1954
  82  311.7493
  83  350.4603
  84  356.77
  85  245.5698
  86  213.9749
  87  261.7525
  88  296.9228
  89  248.584
  90  187.5097
  91  381.3187
  92  421.6953
  93  412.6865
  94  355.9713
  95  376.534
  96  356.0304
  97  212.1832
  98  236.7494
  99  328.7394
 100  270.5146
 101  303.5406
 102  257.2703
 103  357.2173
 104  432.5464
 105  443.632
 106  367.359
 107  312.5134
 108  282.3413
 109  272.9388
 110  218.2714
 111  215.0982
 112  214.6676
 113  292.5899
 114  345.9702
 115  304.313
 116  124.4453
 117  332.0615
 118  354.7504
 119  287.9538
 120  158.5892
 121  104.2338
 122  218.7553
 123  306.3997
 124  285.0765
 125  220.7557
 126  268.9866
 127  289.5988
 128  318.9407
 129  323.7674
 130  208.7634
 131  235.9615
 132  252.9394
 133  250.7412
 134  212.4182
 135  253.5559
 136  151.6788
 137  198.6761
 138  317.1491
 139  373.4348
 140  283.0858
 141  163.3435
 142  337.3283
 143  326.2343
 144  181.7807
 145  132.5995
 146  240.6468
 147  279.8954
 148  279.1631
 149  405.297
 150  280.974
 151  254.2131
 152  290.6824
 153  406.601
 154  311.2144
 155  253.1373
 156  222.9202
 157  252.3238
 158  199.7839
 159  306.5762
 160  387.9959
 161  337.3243
 162  307.2353
 163  244.5278
 164  280.8986
 165  235.4577
 166  244.9406
 167  207.5495
 168  345.0921
 169  268.5469
 170  197.9309
 171  234.9344
 172  189.6335
 173  389.1723
 174  431.5231
 175  362.1982
 176  275.426
 177  279.4726
 178  292.981
 179  306.3859
 180  321.9396
 181  317.4306
 182  279.8376
 183  240.1378
 184  236.3334
 185  286.8749
 186  267.0544
 187  285.5652
 188  249.8051
 189  219.9691
 190  185.6703
 191  244.5574
 192  287.0384
 193  278.7216
 194  403.8328
 195  320.2323
 196  290.566
 197  321.9251
 198  347.2554
 199  349.5805
 200  353.5766
 201  240.1444
 202  123.2855
 203  307.9771
 204  405.094
 205  328.6866
 206  269.0316
 207  279.4744
 208  220.4397
 209  224.8161
 210  252.2574
 211  292.2823
 212  315.7437
 213  335.6977
 214  352.151
 215  293.7239
 216  266.3705
 217  274.3776
 218  231.2891
 219  304.3336
 220  329.7057
 221  340.1187
 222  271.607
 223  139.3511
 224  178.4787
 225  174.7859
 226  242.8894
 227  223.3949
 228  324.3781
 229  380.3771
 230  236.016
 231  237.0085
 232  272.3459
 233  196.0338
 234  116.7523
 235  308.3238
 236  390.6109
 237  346.154
 238  301.8284
 239  288.6203
 240  295.9643
 241  216.8503
 242  389.894
 243  318.5288
 244  251.2321
 245  273.7929
 246  299.178
 247  363.3666
 248  284.2144
 249  328.405
 250  361.9814
 251  375.1175
 252  212.3421
 253  209.7578
 254  258.675
 255  200.2267
 256  117.9369
 257  179.0789
 258  156.519
 259  258.2051
 260  306.9914
 261  355.0707
 262  257.321
 263  268.1229
 264  244.7059
 265  378.2858
 266  351.1057
 267  236.3206
 268  281.7909
 269  248.4653
 270  257.3418
 271  259.4956
 272  226.0334
 273  95.89631
 274  210.062
 275  331.0292
 276  330.6617
 277  298.4472
 278  463.7064
 279  408.1356
 280  288.8403
 281  284.9933
 282  267.976
 283  282.8018
 284  250.3426
 285  337.9485
 286  436.0555
 287  405.5048
 288  349.8593
 289  438.2279
 290  428.9974
 291  358.3326
 292  291.8981
 293  415.2828
 294  401.8081
 295  344.0244
 296  306.9332
 297  385.1455
 298  424.0819
 299  293.8195
 300  232.8068
 301  236.5029
 302  254.9812
 303  314.4931
 304  377.9779
 305  363.7423
 306  278.1784
 307  261.6269
 308  321.1066
 309  273.0325
 310  226.3094
 311  219.9501
 312  224.3196
 313  288.3359
 314  281.4034
 315  328.3013
 316  180.553
 317  177.0348
 318  175.3894
 319  305.3203
 320  333.2382
 321  413.0455
 322  363.9912
 323  350.1236
 324  301.4349
 325  362.4877
 326  279.7598
 327  260.7438
 328  243.7726
 329  233.2865
 330  236.0928
 331  253.9182
 332  251.0928
 333  227.1833
 334  291.3904
 335  303.6089
 336  302.2415
 337  308.4326
 338  256.1217
 339  221.9043
 340  363.6563
 341  372.5907
 342  232.3469
 343  134.52
 344  236.498
 345  238.9887
 346  292.6706
 347  232.1191
 348  180.8376
 349  359.1854
 350  234.2982
 351  144.8443
 352  83.83992
 353  220.375
 354  339.3761
 355  317.8523
 356  331.4455
 357  339.7105
 358  276.81
 359  311.4962
 360  281.5703
 361  263.3834
 362  346.636
 363  257.1204
 364  189.9539
 365  224.8609
 366  391.5153
 367  267.3865
 368  245.7326
 369  229.6452
 370  315.8427
 371  276.4071
 372  178.9178
 373  293.7362
 374  326.9002
 375  322.3299
 376  197.408
 377  310.6428
 378  334.9713
 379  249.1357
 380  176.9555
 381  211.3889
 382  287.0169
 383  401.2593
 384  315.2757
 385  261.1031
 386  189.8037
 387  427.8035
 388  301.346
 389  92.21479
 390  17.47856
 391  164.4396
 392  286.3319
 393  335.082
 394  420.0735
 395  425.9029
 396  347
 397  297.452
 398  270.2453
 399  390.1359
 400  434.5797
 401  354.1288
 402  375.506
 403  255.027
 404  301.1765
 405  316.1772
 406  274.6452
 407  149.8186
 408  252.6158
 409  245.7243
 410  223.8223
 411  298.8873
 412  357.2212
 413  355.8162
 414  314.2914
 415  157.6701
 416  132.2545
 417  311.4291
 418  321.8149
 419  229.4721
 420  191.2028
 421  302.3316
 422  296.272
 423  327.0081
 424  381.1401
 425  286.3886
 426  169.3051
 427  263.3069
 428  282.644
 429  253.5332
 430  295.1613
 431  176.0301
 432  159.8446
 433  183.3591
 434  163.6273
 435  381.9287
 436  274.0264
 437  220.4144
 438  331.2325
 439  385.3409
 440  288.2772
 441  196.2814
 442  339.087
 443  341.4337
 444  257.3489
 445  218.5934
 446  169.421
 447  281.1926
 448  232.9391
 449  160.0679
 450  212.2619
 451  254.2548
 452  182.6763
 453  216.6654
 454  157.8417
 455  209.06
 456  126.9291
 457  258.3262
 458  343.2853
 459  292.6779
 460  338.0631
 461  258.6409
 462  226.2166
 463  245.2709
 464  279.398
 465  255.5047
 466  270.9378
 467  318.9023
 468  301.5693
 469  374.558
 470  297.8031
 471  285.2131
 472  353.4822
 473  233.4643
 474  218.632
 475  348.8843
 476  221.5706
 477  62.11392
 478  210.4576
 479  331.0831
 480  211.4982
 481  234.2301
 482  323.5685
 483  322.4649
 484  248.7381
 485  219.599
 486  263.5436
 487  271.8662
 488  221.0014
 489  271.2685
 490  237.9801
 491  352.1806
 492  365.9857
 493  409.6832
 494  344.7185
 495  399.5854
 496  435.8167
 497  401.3131
 498  311.6936
 499  284.8109
 500  328.0086
 501  426.3409
 502  390.5886
 503  459.3974
 504  357.0775
 505  300.6021
 506  315.4369
 507  358.0068
 508  555.6927
 509  565.7627
 510  741.3139
 511  810.223
