# Input file       =  1194884445.113245_cleaned.dat
# Candidate        =  PSR_0332+5434
# Telescope        =  AR
# Epoch_topo       =  58073.681297607000
# Epoch_bary       =  N/A
# T_sample         =  0.002
# Data Folded      =  7208960
# Data Avg         =  0.0279380779633362
# Data StdDev      =  1.00009622220397 
# Profile Bins     =  512
# Profile Avg      =  393.295837784766 
# Profile StdDev   =  118.670593440947 
# Reduced chi-sqr  =  1.411
# Prob(Noise)      <  2.27e-09   (~5.9 sigma)
# P_topo (ms)      =  714.510883686945  +/- 6.63e-05
# P'_topo (s/s)    =  -0                +/- 3.56e-11
# P''_topo (s/s^2) =  0                 +/- 1.6e-14
# P_bary (ms)      =  N/A
# P'_bary (s/s)    =  N/A
# P''_bary (s/s^2) =  N/A
# P_orb (s)        =  N/A
# asin(i)/c (s)    =  N/A
# eccentricity     =  N/A
# w (rad)          =  N/A
# T_peri           =  N/A
######################################################
   0  352.945
   1  311.7316
   2  304.2274
   3  262.2307
   4  484.5415
   5  466.989
   6  364.3502
   7  373.1479
   8  454.5657
   9  518.429
  10  362.7839
  11  395.8706
  12  420.5419
  13  470.4405
  14  363.3391
  15  321.4348
  16  292.6288
  17  376.9005
  18  498.8651
  19  378.6053
  20  357.1787
  21  485.4205
  22  419.491
  23  468.3177
  24  472.5047
  25  618.1795
  26  430.7657
  27  340.8258
  28  409.4072
  29  378.5801
  30  497.3302
  31  485.5744
  32  457.0686
  33  468.1541
  34  342.269
  35  377.3873
  36  559.6354
  37  459.5639
  38  312.4995
  39  353.8118
  40  363.2206
  41  286.439
  42  190.9604
  43  353.6002
  44  391.846
  45  314.0239
  46  358.6434
  47  332.9554
  48  364.4269
  49  367.7611
  50  356.7769
  51  340.097
  52  282.2065
  53  385.7308
  54  343.7238
  55  291.2279
  56  425.9165
  57  614.897
  58  300.5686
  59  203.7233
  60  377.321
  61  587.655
  62  657.5275
  63  480.342
  64  480.0532
  65  473.6203
  66  447.5991
  67  434.2012
  68  550.119
  69  428.428
  70  282.7691
  71  434.8197
  72  391.1949
  73  307.0644
  74  450.6342
  75  425.7318
  76  433.6334
  77  493.423
  78  490.7435
  79  413.8544
  80  488.1687
  81  634.9821
  82  699.5203
  83  673.3672
  84  804.2127
  85  891.4476
  86  963.5482
  87  1051.658
  88  949.5656
  89  885.6418
  90  585.4407
  91  440.9029
  92  398.4467
  93  431.6913
  94  313.989
  95  392.9592
  96  490.8715
  97  508.0803
  98  471.8537
  99  484.9136
 100  439.6624
 101  477.0559
 102  493.864
 103  440.6377
 104  498.5484
 105  453.6078
 106  324.2041
 107  302.5063
 108  440.7276
 109  420.0441
 110  447.624
 111  457.4965
 112  436.8909
 113  312.4274
 114  424.5285
 115  333.7275
 116  330.0288
 117  428.1352
 118  476.4688
 119  525.6493
 120  534.5734
 121  599.3337
 122  447.9221
 123  423.0844
 124  525.2741
 125  439.1032
 126  436.7191
 127  374.3575
 128  498.3823
 129  553.4023
 130  463.7058
 131  321.7289
 132  303.0049
 133  394.7653
 134  385.3589
 135  317.5127
 136  375.0679
 137  309.8494
 138  342.3332
 139  292.8222
 140  311.4473
 141  411.9354
 142  400.0419
 143  492.1415
 144  430.8567
 145  352.5619
 146  323.1047
 147  385.3945
 148  312.9314
 149  384.1203
 150  400.2116
 151  359.3717
 152  436.939
 153  361.2532
 154  303.3153
 155  420.7604
 156  367.7036
 157  399.884
 158  397.729
 159  343.791
 160  348.7181
 161  442.9774
 162  315.8877
 163  397.2321
 164  426.2735
 165  432.4097
 166  326.0577
 167  346.4078
 168  467.9106
 169  496.9484
 170  385.2287
 171  468.2741
 172  557.3896
 173  487.3539
 174  335.3897
 175  414.0602
 176  544.962
 177  440.0664
 178  421.322
 179  451.937
 180  428.8336
 181  449.0288
 182  369.9862
 183  402.2162
 184  419.3474
 185  390.1484
 186  528.0293
 187  340.0964
 188  286.7237
 189  307.7718
 190  323.2595
 191  382.7314
 192  324.8888
 193  295.9346
 194  210.7636
 195  358.9007
 196  389.1312
 197  418.1392
 198  250.4798
 199  342.8343
 200  457.2161
 201  324.1153
 202  300.0392
 203  411.2217
 204  380.0284
 205  296.9069
 206  165.6053
 207  210.8199
 208  318.9984
 209  191.8855
 210  202.3623
 211  392.4133
 212  453.2684
 213  339.3338
 214  386.7065
 215  469.5045
 216  472.9822
 217  364.5647
 218  298.9952
 219  366.6026
 220  387.1646
 221  360.9068
 222  453.9487
 223  580.7991
 224  394.1343
 225  345.5103
 226  411.279
 227  289.0834
 228  379.1688
 229  391.0073
 230  463.0721
 231  440.9541
 232  356.2265
 233  357.1471
 234  430.4186
 235  481.8614
 236  549.8687
 237  408.8729
 238  382.5531
 239  299.722
 240  410.2738
 241  458.3801
 242  360.8406
 243  311.006
 244  358.1211
 245  207.0031
 246  340.9973
 247  435.4933
 248  337.3877
 249  320.1207
 250  341.0852
 251  333.8576
 252  363.382
 253  372.4884
 254  450.8679
 255  437.8965
 256  300.7082
 257  354.6744
 258  374.2076
 259  322.9217
 260  334.3596
 261  381.0503
 262  344.1162
 263  428.0909
 264  417.3405
 265  455.7194
 266  286.6748
 267  312.8695
 268  366.5566
 269  334.6678
 270  354.956
 271  257.0071
 272  383.992
 273  306.9812
 274  365.5149
 275  342.7777
 276  344.8475
 277  361.0629
 278  323.5933
 279  383.5598
 280  305.6736
 281  239.2534
 282  368.6819
 283  331.6353
 284  330.6377
 285  377.1734
 286  382.593
 287  109.2329
 288  76.65903
 289  224.7199
 290  329.5059
 291  196.9765
 292  284.6097
 293  269.6021
 294  272.1995
 295  330.2096
 296  301.0931
 297  413.1961
 298  297.8804
 299  335.5946
 300  431.6784
 301  361.5808
 302  310.9524
 303  325.1535
 304  322.6452
 305  296.7885
 306  283.1265
 307  453.317
 308  455.2434
 309  388.7854
 310  337.4371
 311  444.715
 312  399.2728
 313  405.6837
 314  324.4724
 315  393.5496
 316  352.9927
 317  365.4214
 318  460.6103
 319  450.0314
 320  448.7762
 321  386.6801
 322  492.9337
 323  345.8897
 324  409.6907
 325  573.1437
 326  495.5399
 327  343.6307
 328  389.1407
 329  573.78
 330  426.4334
 331  282.0717
 332  365.0238
 333  344.4755
 334  327.9979
 335  226.9059
 336  295.4346
 337  374.4855
 338  422.3007
 339  488.2846
 340  644.7733
 341  575.5509
 342  422.8521
 343  414.3889
 344  488.2621
 345  419.4891
 346  412.3212
 347  421.7434
 348  354.7375
 349  440.7702
 350  428.9583
 351  330.7642
 352  333.4006
 353  393.5991
 354  351.0143
 355  307.3903
 356  346.4233
 357  516.9343
 358  431.7293
 359  469.4971
 360  390.2026
 361  397.5709
 362  391.4702
 363  384.1393
 364  399.8102
 365  464.5295
 366  484.4799
 367  438.0055
 368  424.4811
 369  478.6146
 370  324.6406
 371  277.3048
 372  361.2247
 373  435.3997
 374  344.3725
 375  356.8333
 376  322.2703
 377  436.8411
 378  288.734
 379  365.6573
 380  433.7918
 381  338.6881
 382  257.7745
 383  281.9699
 384  370.598
 385  307.4164
 386  425.6182
 387  468.757
 388  370.8753
 389  359.2159
 390  547.2028
 391  430.6745
 392  380.4684
 393  382.5615
 394  437.3015
 395  391.019
 396  286.9911
 397  449.4293
 398  492.179
 399  310.6843
 400  175.7707
 401  258.0532
 402  372.8226
 403  435.1095
 404  491.1242
 405  395.5936
 406  242.3157
 407  185.4401
 408  426.3791
 409  467.7002
 410  356.533
 411  337.0887
 412  321.2487
 413  302.1034
 414  226.8254
 415  401.8816
 416  316.6743
 417  373.6545
 418  342.2552
 419  439.6122
 420  405.4366
 421  516.5322
 422  465.4392
 423  380.6539
 424  410.8096
 425  480.5797
 426  325.341
 427  296.5676
 428  309.9758
 429  383.5087
 430  238.4996
 431  264.5724
 432  369.7784
 433  400.6835
 434  375.2681
 435  310.5514
 436  278.962
 437  255.9856
 438  279.5776
 439  286.4542
 440  311.9192
 441  362.7686
 442  375.7697
 443  451.1712
 444  321.8202
 445  193.2441
 446  364.3155
 447  399.7466
 448  389.1812
 449  356.632
 450  312.7315
 451  328.3958
 452  372.7677
 453  162.5998
 454  387.7707
 455  408.8804
 456  420.0011
 457  435.9948
 458  452.5601
 459  512.2051
 460  380.2632
 461  495.6718
 462  433.5984
 463  407.3273
 464  443.3671
 465  430.1683
 466  481.1877
 467  366.6341
 468  349.7969
 469  317.5583
 470  337.4249
 471  339.6823
 472  483.7259
 473  367.1968
 474  314.6122
 475  295.9471
 476  466.214
 477  347.1077
 478  224.7576
 479  399.4559
 480  436.8207
 481  405.5153
 482  381.1477
 483  452.0621
 484  442.4345
 485  458.5681
 486  412.9782
 487  427.0172
 488  299.627
 489  231.2767
 490  436.7004
 491  459.0359
 492  479.9051
 493  419.9047
 494  380.1736
 495  494.4992
 496  391.1279
 497  431.8989
 498  431.5346
 499  477.6435
 500  441.2576
 501  368.7532
 502  393.7594
 503  371.0383
 504  348.9771
 505  405.1341
 506  398.276
 507  283.5654
 508  262.9213
 509  414.039
 510  379.3027
 511  389.7579
