# Input file       =  1194224056.102329_cleaned.dat
# Candidate        =  PSR_0332+5434
# Telescope        =  AR
# Epoch_topo       =  58066.037906276957
# Epoch_bary       =  N/A
# T_sample         =  0.002
# Data Folded      =  7340032
# Data Avg         =  0.029999215729988
# Data StdDev      =  1.00004602632791 
# Profile Bins     =  512
# Profile Avg      =  430.32138457014  
# Profile StdDev   =  119.73854724876  
# Reduced chi-sqr  =  0.776
# Prob(Noise)      <  1   (~0.0 sigma)
# P_topo (ms)      =  714.503615388715  +/- 0.000299
# P'_topo (s/s)    =  -0                +/- 1.58e-10
# P''_topo (s/s^2) =  0                 +/- 6.97e-14
# P_bary (ms)      =  N/A
# P'_bary (s/s)    =  N/A
# P''_bary (s/s^2) =  N/A
# P_orb (s)        =  N/A
# asin(i)/c (s)    =  N/A
# eccentricity     =  N/A
# w (rad)          =  N/A
# T_peri           =  N/A
######################################################
   0  820.427
   1  786.7893
   2  691.4568
   3  563.9685
   4  594.2723
   5  452.4283
   6  466.4605
   7  530.5815
   8  448.936
   9  323.925
  10  375.0436
  11  363.1208
  12  390.4324
  13  486.4644
  14  434.656
  15  558.05
  16  476.0534
  17  472.8687
  18  404.4065
  19  408.3945
  20  439.6276
  21  418.4666
  22  465.0636
  23  389.8148
  24  458.6826
  25  541.8706
  26  399.352
  27  391.6187
  28  411.4344
  29  363.6762
  30  359.4335
  31  298.5347
  32  407.266
  33  377.6591
  34  363.0707
  35  428.4821
  36  400.0371
  37  432.3456
  38  414.1761
  39  370.1737
  40  452.9388
  41  422.0028
  42  383.7521
  43  350.6696
  44  382.0052
  45  428.0916
  46  328.0272
  47  299.7397
  48  313.3862
  49  396.5256
  50  379.7988
  51  471.5377
  52  521.8943
  53  576.9688
  54  464.3715
  55  404.5973
  56  412.051
  57  519.0971
  58  418.6617
  59  419.5334
  60  396.5526
  61  312.6178
  62  419.3048
  63  459.1138
  64  500.6059
  65  510.2766
  66  488.2207
  67  486.8295
  68  469.3445
  69  455.6301
  70  442.4994
  71  488.2423
  72  550.8712
  73  523.3693
  74  446.0639
  75  451.4973
  76  438.2734
  77  520.2333
  78  596.0284
  79  573.423
  80  606.1685
  81  528.103
  82  317.5829
  83  475.8986
  84  509.7336
  85  442.2263
  86  461.4043
  87  471.3893
  88  551.2443
  89  480.0903
  90  421.7341
  91  368.7906
  92  337.39
  93  260.0281
  94  328.9582
  95  417.3358
  96  478.4911
  97  462.7859
  98  361.7174
  99  276.119
 100  383.8286
 101  454.8028
 102  429.5655
 103  430.5459
 104  448.9492
 105  429.7215
 106  480.1552
 107  467.6358
 108  411.5172
 109  391.4941
 110  320.1566
 111  379.8839
 112  376.8891
 113  450.1332
 114  427.1362
 115  455.5243
 116  505.4376
 117  467.4555
 118  467.6527
 119  375.2209
 120  438.5239
 121  416.5991
 122  346.9364
 123  328.6008
 124  359.6492
 125  380.1581
 126  371.0257
 127  391.1992
 128  333.2574
 129  355.9291
 130  295.3091
 131  360.4585
 132  438.049
 133  449.4661
 134  437.0001
 135  460.7127
 136  439.0249
 137  480.7838
 138  498.307
 139  414.8754
 140  441.333
 141  409.6176
 142  355.6882
 143  426.6371
 144  442.7357
 145  521.2529
 146  533.5972
 147  528.1237
 148  514.905
 149  465.0587
 150  531.3729
 151  542.0434
 152  472.3892
 153  468.1119
 154  407.0429
 155  460.6243
 156  515.9227
 157  368.6365
 158  387.9577
 159  496.8026
 160  350.1341
 161  403.3731
 162  496.4724
 163  385.9109
 164  525.5505
 165  581.118
 166  594.9573
 167  490.5521
 168  466.2827
 169  513.2371
 170  416.631
 171  433.7231
 172  489.9728
 173  466.0826
 174  434.3467
 175  431.5593
 176  436.9539
 177  512.4908
 178  433.9373
 179  430.6911
 180  388.5945
 181  241.9325
 182  387.7009
 183  419.3425
 184  418.0954
 185  379.9828
 186  345.0941
 187  370.1284
 188  369.8906
 189  352.6668
 190  330.315
 191  295.9895
 192  370.8284
 193  341.2156
 194  399.6315
 195  466.4867
 196  560.4514
 197  521.398
 198  463.7191
 199  528.4352
 200  459.4387
 201  382.8681
 202  452.1437
 203  372.7408
 204  321.2271
 205  436.981
 206  553.0192
 207  469.2871
 208  431.0799
 209  530.8594
 210  572.5862
 211  511.3663
 212  490.3324
 213  527.7558
 214  427.7994
 215  362.3932
 216  408.6401
 217  447.9196
 218  479.8986
 219  481.8705
 220  389.3689
 221  451.4633
 222  354.3198
 223  358.6364
 224  342.8147
 225  500.4557
 226  500.3112
 227  430.7125
 228  452.8607
 229  462.5206
 230  292.8206
 231  312.6706
 232  361.2126
 233  395.032
 234  473.1933
 235  480.8151
 236  461.6136
 237  511.6883
 238  495.7972
 239  453.8571
 240  486.5924
 241  487.6427
 242  444.6597
 243  401.1617
 244  450.6658
 245  407.3103
 246  430.7
 247  383.1697
 248  440.6427
 249  428.6281
 250  376.4175
 251  425.6555
 252  370.9774
 253  402.2276
 254  383.8185
 255  343.9653
 256  425.4459
 257  317.2809
 258  269.7785
 259  275.052
 260  319.9327
 261  400.0084
 262  381.0342
 263  263.4598
 264  297.9937
 265  334.7759
 266  361.184
 267  328.6221
 268  474.8084
 269  475.0199
 270  337.0564
 271  360.5854
 272  382.3213
 273  383.3906
 274  368.3356
 275  370.4347
 276  489.6331
 277  489.6719
 278  434.0993
 279  408.4829
 280  442.7939
 281  432.5437
 282  406.1086
 283  377.262
 284  434.5711
 285  494.6961
 286  611.1472
 287  520.2122
 288  408.563
 289  386.7836
 290  397.7588
 291  396.1339
 292  458.583
 293  435.1903
 294  522.7977
 295  472.389
 296  435.5007
 297  486.789
 298  423.7514
 299  404.2265
 300  405.1109
 301  433.1572
 302  461.5599
 303  589.5438
 304  556.9026
 305  579.1769
 306  446.8719
 307  472.5291
 308  412.6316
 309  465.0378
 310  571.7475
 311  522.3534
 312  447.3467
 313  413.5632
 314  473.5583
 315  526.7271
 316  480.3341
 317  467.8831
 318  412.1625
 319  410.1613
 320  530.7446
 321  629.6542
 322  511.0758
 323  402.3292
 324  452.6599
 325  456.9315
 326  474.3866
 327  365.324
 328  369.5191
 329  340.5105
 330  293.805
 331  358.1333
 332  365.3132
 333  341.1765
 334  444.9872
 335  395.2495
 336  428.1092
 337  520.6369
 338  422.5106
 339  398.6069
 340  447.0222
 341  438.4763
 342  440.0382
 343  399.2729
 344  371.6364
 345  336.8658
 346  420.6177
 347  470.157
 348  420.7953
 349  450.5598
 350  463.4399
 351  406.4388
 352  423.0526
 353  461.3363
 354  419.5093
 355  430.7569
 356  535.2908
 357  458.7771
 358  418.1951
 359  445.9687
 360  431.7891
 361  345.0335
 362  380.9648
 363  423.1551
 364  506.3574
 365  460.2795
 366  460.7347
 367  517.757
 368  495.8234
 369  481.257
 370  388.8565
 371  307.4352
 372  290.3761
 373  370.4513
 374  341.5527
 375  358.0155
 376  393.2128
 377  474.4799
 378  496.8164
 379  514.3879
 380  492.1659
 381  434.9907
 382  353.6268
 383  500.9141
 384  440.2004
 385  277.6656
 386  342.832
 387  300.2624
 388  338.0505
 389  390.8481
 390  377.6158
 391  380.6586
 392  272.7524
 393  371.4344
 394  341.1683
 395  301.7302
 396  282.2247
 397  240.9073
 398  282.688
 399  367.4299
 400  421.98
 401  368.4211
 402  416.2244
 403  474.7021
 404  406.1411
 405  338.2153
 406  378.6512
 407  416.9627
 408  390.7903
 409  487.8196
 410  426.8979
 411  378.012
 412  396.3329
 413  322.1852
 414  430.3086
 415  408.9069
 416  382.0838
 417  362.6891
 418  345.1267
 419  366.6194
 420  254.0513
 421  368.2844
 422  408.0153
 423  352.6849
 424  418.2997
 425  445.85
 426  454.0146
 427  421.0173
 428  413.8417
 429  393.5197
 430  330.5385
 431  350.9628
 432  421.4436
 433  391.0283
 434  347.7941
 435  306.5457
 436  369.9459
 437  364.9405
 438  449.0814
 439  504.1447
 440  450.7022
 441  488.0933
 442  456.6557
 443  459.0081
 444  383.7834
 445  309.4454
 446  404.3932
 447  476.5928
 448  466.9948
 449  445.1611
 450  427.5054
 451  416.5205
 452  407.9676
 453  312.0103
 454  378.1523
 455  477.5536
 456  495.7028
 457  401.1567
 458  487.8205
 459  428.9863
 460  424.1464
 461  366.7098
 462  342.3169
 463  328.8474
 464  440.9267
 465  483.4735
 466  421.2686
 467  476.2814
 468  523.6005
 469  499.1877
 470  480.4918
 471  410.5302
 472  429.5681
 473  415.9024
 474  491.7076
 475  430.8082
 476  350.4611
 477  415.9181
 478  535.321
 479  562.019
 480  492.7955
 481  433.8144
 482  415.6897
 483  428.5988
 484  525.9906
 485  496.8401
 486  426.5943
 487  465.7788
 488  435.7416
 489  405.9616
 490  417.7799
 491  394.0764
 492  382.1888
 493  300.4436
 494  387.6671
 495  444.8708
 496  427.1892
 497  430.8131
 498  490.2301
 499  471.6743
 500  431.4555
 501  360.9887
 502  353.8753
 503  484.3995
 504  574.0046
 505  519.1194
 506  537.4333
 507  575.4938
 508  560.5925
 509  620.1793
 510  678.5453
 511  768.3469
