# Input file       =  1194812911.096002-PSRB0329-2ms-sampling-dd.dat
# Candidate        =  PSR_0332+5434
# Telescope        =  AR
# Epoch_topo       =  58072.853357592619
# Epoch_bary       =  N/A
# T_sample         =  0.002
# Data Folded      =  7340032
# Data Avg         =  -6.53252797725788e-11
# Data StdDev      =  5.54387862527222 
# Profile Bins     =  512
# Profile Avg      =  -0.0437227458840326
# Profile StdDev   =  663.785421108095 
# Reduced chi-sqr  =  0.586
# Prob(Noise)      <  1   (~0.0 sigma)
# P_topo (ms)      =  714.510067192094  +/- 0.000555
# P'_topo (s/s)    =  -0                +/- 2.93e-10
# P''_topo (s/s^2) =  0                 +/- 1.29e-13
# P_bary (ms)      =  N/A
# P'_bary (s/s)    =  N/A
# P''_bary (s/s^2) =  N/A
# P_orb (s)        =  N/A
# asin(i)/c (s)    =  N/A
# eccentricity     =  N/A
# w (rad)          =  N/A
# T_peri           =  N/A
######################################################
   0  35.74464
   1  144.0689
   2  84.57957
   3  164.2641
   4  23.09851
   5  209.139
   6  217.1239
   7  315.4635
   8  333.2272
   9  62.96416
  10  177.5986
  11  116.2402
  12  -55.34452
  13  -230.488
  14  -108.5661
  15  -0.5727319
  16  -111.8167
  17  -265.5582
  18  -144.5164
  19  3.053565
  20  -258.8815
  21  -146.9546
  22  -215.2495
  23  -351.9597
  24  -245.9742
  25  -297.402
  26  -312.6934
  27  -48.98955
  28  141.9695
  29  84.03766
  30  -31.99845
  31  29.63858
  32  -131.8724
  33  -196.7126
  34  -185.3475
  35  -53.10757
  36  -258.9834
  37  -446.8942
  38  -354.5894
  39  -187.4704
  40  -301.6751
  41  -269.8695
  42  -373.2847
  43  -257.7508
  44  -253.1203
  45  -256.0559
  46  -374.2909
  47  -268.4706
  48  -255.1117
  49  -318.0027
  50  -89.8112
  51  -419.1377
  52  -243.7471
  53  -103.5876
  54  -165.9439
  55  -197.8033
  56  252.7101
  57  52.92669
  58  -283.0997
  59  -36.91162
  60  293.9424
  61  154.9648
  62  280.6928
  63  151.0867
  64  430.9302
  65  194.8368
  66  44.54419
  67  135.6959
  68  302.6077
  69  69.47112
  70  238.4578
  71  129.7802
  72  -126.7597
  73  206.2576
  74  407.9424
  75  469.7262
  76  121.8941
  77  -19.2781
  78  -22.09628
  79  -223.664
  80  -388.5935
  81  -44.10938
  82  33.87961
  83  -47.21929
  84  186.9131
  85  612.2649
  86  748.8496
  87  915.3973
  88  1221.5
  89  1145.301
  90  715.8424
  91  788.0086
  92  743.0748
  93  1167.752
  94  1514.925
  95  1149.409
  96  1215.295
  97  597.5995
  98  309.4675
  99  274.9896
 100  -96.13467
 101  66.48382
 102  -218.0001
 103  -158.9317
 104  -271.8302
 105  -459.6093
 106  -567.1926
 107  -241.4495
 108  -141.5105
 109  -147.2462
 110  25.13456
 111  -166.895
 112  -591.6957
 113  -519.8327
 114  -234.9201
 115  -124.543
 116  28.9851
 117  284.5746
 118  365.4374
 119  532.3993
 120  890.4689
 121  998.4583
 122  970.219
 123  1012.84
 124  559.6155
 125  155.0247
 126  17.4319
 127  185.9134
 128  -86.28645
 129  -138.6376
 130  256.8776
 131  477.2496
 132  275.0829
 133  287.1328
 134  481.7845
 135  536.1117
 136  111.1155
 137  335.2342
 138  422.523
 139  459.3665
 140  390.9042
 141  12.88888
 142  33.5677
 143  45.63912
 144  66.72374
 145  -43.93637
 146  -269.7964
 147  -153.7715
 148  -81.41643
 149  95.88826
 150  160.6397
 151  8.889054
 152  -315.0884
 153  -232.9027
 154  -129.8673
 155  -387.1575
 156  -372.3529
 157  -357.791
 158  -398.1129
 159  -351.1737
 160  -688.6589
 161  -856.506
 162  -621.0165
 163  -721.4379
 164  -955.6232
 165  -861.134
 166  -812.0958
 167  -778.5164
 168  -875.9984
 169  -1243.297
 170  -1239.327
 171  -963.7407
 172  -896.7299
 173  -907.0255
 174  -798.8334
 175  -384.0927
 176  -223.6677
 177  -275.5324
 178  -325.1457
 179  -739.1481
 180  -767.0978
 181  -545.7811
 182  -647.2953
 183  -452.6456
 184  -75.12453
 185  -443.3672
 186  -608.9458
 187  -855.894
 188  -680.4672
 189  -468.5634
 190  -325.3105
 191  -436.4204
 192  -567.1569
 193  -269.7704
 194  -185.4987
 195  -224.0489
 196  -259.7454
 197  -415.2211
 198  -258.7347
 199  -227.5759
 200  -197.3157
 201  -224.8665
 202  -151.5991
 203  -121.5703
 204  98.14417
 205  -102.6636
 206  -115.0248
 207  -147.0378
 208  -193.1437
 209  -296.3013
 210  65.79125
 211  134.8253
 212  -27.08581
 213  -215.9929
 214  -162.2741
 215  56.27834
 216  41.74764
 217  -240.9138
 218  -240.6616
 219  119.547
 220  274.2077
 221  -156.6518
 222  -116.4469
 223  385.2934
 224  217.1026
 225  13.25007
 226  -196.4066
 227  -69.96539
 228  -45.62186
 229  -166.9171
 230  -46.13475
 231  124.3677
 232  67.64752
 233  19.95552
 234  36.5574
 235  -17.76714
 236  -41.01962
 237  -376.7528
 238  -425.8337
 239  -480.5522
 240  -103.5775
 241  40.5983
 242  -498.8806
 243  -351.6012
 244  -72.1007
 245  -69.58327
 246  -152.6855
 247  -664.8114
 248  -356.8112
 249  -204.2374
 250  -328.007
 251  -3.728264
 252  23.4717
 253  -273.7672
 254  -357.1313
 255  -569.3607
 256  -215.624
 257  115.2591
 258  241.494
 259  241.594
 260  -116.9418
 261  -126.9195
 262  -278.247
 263  -349.133
 264  -275.5764
 265  -152.408
 266  -121.6901
 267  -173.4948
 268  -306.299
 269  -201.5398
 270  64.97988
 271  210.623
 272  100.8506
 273  -54.23676
 274  -220.3574
 275  95.10004
 276  64.48239
 277  -37.88488
 278  -165.7349
 279  -163.2351
 280  -83.1612
 281  306.0108
 282  473.3154
 283  269.4617
 284  41.35944
 285  226.4775
 286  199.1078
 287  147.8064
 288  312.8543
 289  608.2703
 290  531.6091
 291  436.139
 292  179.9958
 293  -43.00042
 294  41.93559
 295  261.0399
 296  250.6243
 297  -35.30176
 298  -111.7719
 299  -13.7895
 300  -222.9227
 301  -115.2418
 302  -95.61689
 303  13.82504
 304  -153.1203
 305  -65.14915
 306  -171.8269
 307  -107.0929
 308  -114.2276
 309  -359.5797
 310  -161.4985
 311  -270.8957
 312  -382.7917
 313  -218.2446
 314  -218.4525
 315  -40.08843
 316  -477.6635
 317  -389.3054
 318  -261.3238
 319  -491.5533
 320  -621.0386
 321  -123.1256
 322  117.8145
 323  -28.37484
 324  -119.2917
 325  -120.3608
 326  -275.687
 327  -33.76887
 328  -58.05731
 329  61.20188
 330  -83.8909
 331  -160.1399
 332  -245.9037
 333  88.1219
 334  -147.2108
 335  -236.4904
 336  -214.2935
 337  -304.2223
 338  102.3119
 339  285.3677
 340  98.6422
 341  -36.08915
 342  -5.432896
 343  -110.6153
 344  -216.4007
 345  -43.92955
 346  144.8244
 347  146.22
 348  199.3156
 349  164.9696
 350  268.3455
 351  268.1198
 352  485.5104
 353  411.4513
 354  490.2563
 355  454.1403
 356  735.161
 357  850.6985
 358  508.3837
 359  515.9252
 360  317.1722
 361  248.7225
 362  192.7279
 363  512.2567
 364  244.3606
 365  152.9576
 366  45.23563
 367  489.0145
 368  633.9401
 369  386.3998
 370  28.15078
 371  -66.84885
 372  -163.6087
 373  -172.4802
 374  72.15701
 375  196.5548
 376  99.2242
 377  244.4843
 378  -3.789546
 379  -409.7494
 380  -376.8633
 381  -204.5347
 382  -1.176701
 383  -445.6828
 384  -223.5379
 385  -193.0997
 386  -329.3373
 387  -383.3282
 388  -481.6249
 389  -205.0515
 390  -133.601
 391  0.2972314
 392  40.92298
 393  -312.7163
 394  -227.8428
 395  61.41821
 396  125.6706
 397  18.18058
 398  -188.5826
 399  -482.1223
 400  -188.1484
 401  -41.97092
 402  112.6999
 403  17.55094
 404  466.8131
 405  199.9308
 406  -116.7208
 407  -57.76693
 408  -134.671
 409  17.06835
 410  180.4116
 411  323.9331
 412  157.1521
 413  207.0406
 414  153.8229
 415  118.6926
 416  119.0687
 417  108.5693
 418  331.0349
 419  283.5988
 420  253.4504
 421  -301.4639
 422  -127.6066
 423  -36.73779
 424  204.3552
 425  305.0135
 426  506.7511
 427  197.2487
 428  93.25026
 429  69.82676
 430  514.9755
 431  937.8596
 432  596.0706
 433  648.9866
 434  335.1191
 435  290.9561
 436  380.7873
 437  575.9197
 438  503.1079
 439  543.5493
 440  628.8197
 441  75.54723
 442  -33.93861
 443  43.40306
 444  233.0403
 445  97.29331
 446  -90.73462
 447  -128.3772
 448  -178.9225
 449  -208.8472
 450  -321.2047
 451  -318.9864
 452  -280.1563
 453  -199.9386
 454  -92.54855
 455  -186.6346
 456  -11.20442
 457  125.896
 458  183.8805
 459  144.1451
 460  -10.62718
 461  -77.18803
 462  43.69873
 463  -180.9114
 464  -124.223
 465  -65.43372
 466  -34.90143
 467  -81.30798
 468  -23.78289
 469  -228.2781
 470  -137.5722
 471  209.5861
 472  -119.8488
 473  -381.3623
 474  -424.24
 475  -76.96117
 476  -21.41759
 477  275.1147
 478  148.207
 479  -307.6048
 480  -326.9884
 481  83.0256
 482  287.6175
 483  104.6289
 484  259.5982
 485  -4.799129
 486  319.2741
 487  311.7768
 488  234.302
 489  289.3677
 490  70.82558
 491  268.1693
 492  166.2876
 493  -5.373683
 494  512.3897
 495  471.3906
 496  480.0811
 497  779.5784
 498  526.3096
 499  371.5842
 500  373.9583
 501  521.8029
 502  382.5424
 503  219.6723
 504  638.7179
 505  763.4158
 506  690.6656
 507  568.8339
 508  580.7245
 509  493.1111
 510  484.5582
 511  275.434
