# Input file       =  1194194576.102522_cleaned.dat
# Candidate        =  PSR_0332+5434
# Telescope        =  AR
# Epoch_topo       =  58065.696702575486
# Epoch_bary       =  N/A
# T_sample         =  0.002
# Data Folded      =  7143424
# Data Avg         =  0.0282808690525338
# Data StdDev      =  1.00000429391405 
# Profile Bins     =  512
# Profile Avg      =  394.632683615911 
# Profile StdDev   =  118.119091672917 
# Reduced chi-sqr  =  1.152
# Prob(Noise)      <  0.00963   (~2.3 sigma)
# P_topo (ms)      =  714.502944612657  +/- 0.000139
# P'_topo (s/s)    =  -0                +/- 7.55e-11
# P''_topo (s/s^2) =  0                 +/- 3.42e-14
# P_bary (ms)      =  N/A
# P'_bary (s/s)    =  N/A
# P''_bary (s/s^2) =  N/A
# P_orb (s)        =  N/A
# asin(i)/c (s)    =  N/A
# eccentricity     =  N/A
# w (rad)          =  N/A
# T_peri           =  N/A
######################################################
   0  512.6582
   1  484.6088
   2  507.1023
   3  472.998
   4  437.1792
   5  551.4008
   6  473.735
   7  426.0319
   8  426.4928
   9  556.449
  10  398.0546
  11  319.9027
  12  295.6018
  13  515.1992
  14  548.0579
  15  356.8258
  16  432.3934
  17  474.3328
  18  466.091
  19  382.444
  20  332.7924
  21  368.6816
  22  392.1578
  23  412.135
  24  406.3925
  25  448.0434
  26  403.5051
  27  368.2516
  28  395.03
  29  386.4029
  30  355.9353
  31  323.1234
  32  322.4899
  33  360.2384
  34  389.7662
  35  358.8249
  36  352.1381
  37  303.0078
  38  273.7393
  39  342.8189
  40  428.3106
  41  466.4748
  42  392.6943
  43  372.5506
  44  440.0702
  45  316.6914
  46  364.6537
  47  350.08
  48  313.3465
  49  313.7237
  50  394.5859
  51  436.4649
  52  393.826
  53  244.8103
  54  222.9809
  55  230.2849
  56  348.9762
  57  354.7093
  58  408.0478
  59  468.6016
  60  538.5507
  61  364.8241
  62  462.304
  63  501.7621
  64  331.3409
  65  407.8393
  66  425.9672
  67  373.0761
  68  355.2161
  69  425.9351
  70  404.0918
  71  342.3876
  72  349.4767
  73  401.7883
  74  510.0107
  75  472.3571
  76  466.8924
  77  326.946
  78  344.9644
  79  493.3011
  80  388.5033
  81  479.394
  82  495.166
  83  495.1236
  84  458.7238
  85  379.6341
  86  435.8337
  87  477.8593
  88  530.9882
  89  383.3734
  90  471.7021
  91  455.4509
  92  383.4099
  93  448.2594
  94  429.8091
  95  436.0552
  96  369.586
  97  347.4499
  98  392.9706
  99  418.3604
 100  412.5229
 101  341.3954
 102  410.7152
 103  396.2761
 104  417.6483
 105  261.8133
 106  241.0657
 107  251.0911
 108  401.7549
 109  414.2548
 110  266.8949
 111  386.9277
 112  393.129
 113  356.2763
 114  349.4522
 115  356.0308
 116  382.8471
 117  422.9723
 118  460.9783
 119  381.3732
 120  400.1098
 121  384.3039
 122  433.473
 123  419.5569
 124  435.9549
 125  423.0917
 126  460.3752
 127  338.9583
 128  387.4767
 129  392.3563
 130  357.2216
 131  357.901
 132  371.749
 133  300.0237
 134  310.9496
 135  197.8848
 136  352.3755
 137  415.2927
 138  377.5077
 139  374.89
 140  393.0656
 141  494.274
 142  485.3194
 143  475.6113
 144  408.5805
 145  251.5986
 146  259.497
 147  313.9274
 148  319.913
 149  335.8648
 150  275.5468
 151  402.8704
 152  394.4352
 153  291.6968
 154  332.4274
 155  466.2313
 156  425.8134
 157  396.5439
 158  320.2195
 159  435.6511
 160  478.893
 161  453.0709
 162  471.9731
 163  381.6274
 164  413.7946
 165  461.2981
 166  429.0747
 167  401.2274
 168  429.5947
 169  519.3256
 170  426.6656
 171  337.9627
 172  308.6311
 173  344.7925
 174  238.375
 175  354.322
 176  426.4948
 177  411.1684
 178  270.5287
 179  174.1701
 180  276.7134
 181  229.7703
 182  264.5385
 183  114.544
 184  211.719
 185  373.7713
 186  411.0057
 187  523.3018
 188  433.1592
 189  446.7567
 190  304.0939
 191  287.3561
 192  378.7069
 193  464.7915
 194  466.3462
 195  362.1497
 196  373.1414
 197  349.3559
 198  405.8654
 199  435.6765
 200  530.1906
 201  689.6016
 202  727.3043
 203  817.9913
 204  850.9642
 205  874.4381
 206  790.3239
 207  624.8659
 208  495.6519
 209  476.5673
 210  544.171
 211  573.8753
 212  430.7041
 213  323.2723
 214  329.213
 215  325.1376
 216  309.6788
 217  426.6959
 218  389.776
 219  465.5161
 220  557.5722
 221  511.8972
 222  392.308
 223  270.872
 224  369.6891
 225  503.2625
 226  438.6475
 227  351.4828
 228  390.0526
 229  435.2458
 230  455.8122
 231  451.8872
 232  482.6246
 233  502.5894
 234  376.3629
 235  359.9004
 236  370.3523
 237  367.4517
 238  257.4304
 239  337.453
 240  398.3579
 241  372.0043
 242  408.4013
 243  303.4802
 244  304.7337
 245  322.4023
 246  379.828
 247  403.1136
 248  357.9192
 249  394.5508
 250  423.8271
 251  326.7245
 252  292.3612
 253  282.4013
 254  245.6528
 255  268.5328
 256  243.3585
 257  335.5552
 258  333.0291
 259  327.562
 260  292.7476
 261  277.5912
 262  283.8145
 263  409.2517
 264  328.8562
 265  415.2611
 266  220.3909
 267  172.2155
 268  333.8456
 269  353.5096
 270  381.476
 271  346.4877
 272  322.0324
 273  291.0822
 274  372.1528
 275  542.6821
 276  376.8652
 277  360.7712
 278  288.5336
 279  189.5111
 280  288.2654
 281  337.7416
 282  312.3644
 283  463.2118
 284  570.0367
 285  454.6214
 286  352.465
 287  373.3421
 288  251.7954
 289  382.4571
 290  503.6176
 291  586.0039
 292  439.4467
 293  301.3872
 294  286.3253
 295  383.35
 296  396.4498
 297  499.1381
 298  465.2121
 299  466.9289
 300  507.7908
 301  461.419
 302  420.847
 303  315.2972
 304  361.3115
 305  497.9701
 306  501.5384
 307  471.4865
 308  503.8962
 309  372.9044
 310  425.118
 311  406.7896
 312  330.9773
 313  385.9229
 314  538.0338
 315  552.3506
 316  456.8866
 317  402.6329
 318  405.8266
 319  421.6492
 320  438.9525
 321  300.9588
 322  227.5364
 323  360.4501
 324  305.2319
 325  246.0592
 326  247.8169
 327  261.1577
 328  196.3858
 329  343.5391
 330  337.2911
 331  311.5202
 332  109.0361
 333  288.1674
 334  247.2932
 335  354.1165
 336  371.2837
 337  378.6417
 338  327.3013
 339  423.7648
 340  481.2601
 341  480.3359
 342  428.6782
 343  427.2814
 344  350.5842
 345  373.6081
 346  400.8252
 347  437.3495
 348  489.3663
 349  414.3214
 350  398.1765
 351  383.1739
 352  350.1717
 353  386.057
 354  379.9968
 355  347.8953
 356  373.4471
 357  396.8914
 358  552.2028
 359  401.5146
 360  338.2414
 361  281.2399
 362  499.7791
 363  429.0505
 364  398.3929
 365  426.0068
 366  557.1636
 367  490.7125
 368  503.8877
 369  388.8549
 370  393.7874
 371  436.0269
 372  316.5565
 373  439.2135
 374  486.1765
 375  423.5766
 376  342.3081
 377  337.2816
 378  336.5041
 379  402.0398
 380  575.5551
 381  434.9487
 382  406.3233
 383  376.0155
 384  335.3728
 385  288.3819
 386  328.6387
 387  462.8476
 388  382.4572
 389  323.3169
 390  332.5758
 391  388.4504
 392  441.2977
 393  443.8619
 394  446.1512
 395  519.6987
 396  564.2017
 397  423.9917
 398  306.5013
 399  415.1299
 400  408.3437
 401  293.3669
 402  350.3702
 403  386.5488
 404  552.1546
 405  467.9844
 406  460.6441
 407  396.084
 408  548.4691
 409  340.9439
 410  265.4158
 411  351.0938
 412  548.3383
 413  467.1674
 414  496.2002
 415  428.3642
 416  275.2284
 417  408.0466
 418  450.7213
 419  356.5717
 420  335.9218
 421  322.3198
 422  433.6573
 423  503.0379
 424  500.8239
 425  449.9935
 426  539.3036
 427  543.0333
 428  380.9527
 429  290.8918
 430  287.4529
 431  434.2367
 432  348.8616
 433  276.6415
 434  306.129
 435  347.7866
 436  273.1561
 437  276.3448
 438  485.8666
 439  376.4488
 440  364.4194
 441  354.6438
 442  377.7404
 443  391.5595
 444  275.6884
 445  374.8247
 446  444.9212
 447  553.6302
 448  555.7374
 449  477.3578
 450  411.552
 451  472.3059
 452  442.3895
 453  371.8896
 454  459.7516
 455  502.6215
 456  336.9825
 457  326.8301
 458  378.1514
 459  347.6129
 460  326.0913
 461  378.5027
 462  395.1679
 463  445.6019
 464  426.1327
 465  433.4715
 466  452.5376
 467  351.5742
 468  486.619
 469  523.9438
 470  424.9188
 471  312.9989
 472  334.3131
 473  396.7563
 474  368.0596
 475  307.7293
 476  360.9376
 477  375.7762
 478  330.2642
 479  338.5668
 480  442.5677
 481  546.6185
 482  428.2027
 483  317.0861
 484  313.5962
 485  305.4987
 486  338.8803
 487  248.9809
 488  287.9956
 489  426.2232
 490  487.0122
 491  323.6008
 492  332.0233
 493  235.4562
 494  290.597
 495  371.7907
 496  458.1972
 497  440.0509
 498  448.1433
 499  291.98
 500  331.4209
 501  370.9085
 502  506.1793
 503  462.7743
 504  409.142
 505  511.489
 506  447.7525
 507  394.8379
 508  384.2925
 509  424.4149
 510  346.3712
 511  410.3682
