# Input file       =  1194281335.097739-PSRB0329-2ms-sampling-dd.dat
# Candidate        =  PSR_0332+5434
# Telescope        =  AR
# Epoch_topo       =  58066.700857612719
# Epoch_bary       =  N/A
# T_sample         =  0.002
# Data Folded      =  7208960
# Data Avg         =  -1.16560946285313e-09
# Data StdDev      =  5.42834540548373 
# Profile Bins     =  512
# Profile Avg      =  -0.278209152675169
# Profile StdDev   =  644.122991737299 
# Reduced chi-sqr  =  0.690
# Prob(Noise)      <  1   (~0.0 sigma)
# P_topo (ms)      =  714.503913191014  +/- 0.000122
# P'_topo (s/s)    =  -0                +/- 6.56e-11
# P''_topo (s/s^2) =  0                 +/- 2.95e-14
# P_bary (ms)      =  N/A
# P'_bary (s/s)    =  N/A
# P''_bary (s/s^2) =  N/A
# P_orb (s)        =  N/A
# asin(i)/c (s)    =  N/A
# eccentricity     =  N/A
# w (rad)          =  N/A
# T_peri           =  N/A
######################################################
   0  -597.1724
   1  -115.8672
   2  72.62693
   3  150.0447
   4  95.08298
   5  -149.7849
   6  -64.38503
   7  -247.7209
   8  37.42068
   9  134.7821
  10  -206.4324
  11  -243.6558
  12  6.432028
  13  -12.02637
  14  -518.287
  15  22.29931
  16  373.6587
  17  -172.7929
  18  -240.742
  19  -336.5334
  20  -888.043
  21  -471.8582
  22  196.4647
  23  80.50741
  24  192.6189
  25  -62.15614
  26  -165.9966
  27  -310.1082
  28  -519.0867
  29  -295.4565
  30  -110.1449
  31  -70.14981
  32  -172.7039
  33  -4.387673
  34  -189.1212
  35  -448.7607
  36  -462.3965
  37  -381.305
  38  -182.7144
  39  -66.0638
  40  -90.69727
  41  -16.66677
  42  54.33774
  43  0.5532622
  44  -350.5458
  45  -226.3577
  46  -194.2844
  47  -650.1186
  48  -393.2152
  49  -191.0392
  50  -262.4669
  51  -759.3152
  52  -376.4066
  53  -21.17432
  54  31.62496
  55  -14.82799
  56  -310.9576
  57  -936.6113
  58  -912.2462
  59  -480.3834
  60  -620.2787
  61  -707.5339
  62  -157.0135
  63  -152.4056
  64  -581.2205
  65  -559.5789
  66  -615.4119
  67  -756.9391
  68  -691.2418
  69  -179.7255
  70  322.3174
  71  132.0596
  72  65.57468
  73  -264.1974
  74  -160.1852
  75  -99.45265
  76  -74.00087
  77  22.74693
  78  13.31858
  79  -248.8435
  80  -299.3008
  81  -154.1906
  82  228.3221
  83  -135.8112
  84  -363.5961
  85  -264.9841
  86  -609.454
  87  -387.6645
  88  -273.0762
  89  -212.1146
  90  -43.35341
  91  376.9147
  92  102.9993
  93  -199.0827
  94  -157.4748
  95  -72.85523
  96  -426.7559
  97  -267.4745
  98  191.9828
  99  84.86536
 100  -179.5993
 101  -339.0638
 102  -526.7267
 103  -729.785
 104  -815.5809
 105  -166.932
 106  290.528
 107  129.8002
 108  -154.9035
 109  -29.96203
 110  -263.6739
 111  -515.4939
 112  -99.09678
 113  -191.443
 114  -370.0568
 115  -76.99226
 116  345.5595
 117  18.76199
 118  -303.9026
 119  -159.8671
 120  -122.9488
 121  -213.2297
 122  -349.8416
 123  -414.3236
 124  -106.5772
 125  187.1545
 126  -433.7458
 127  -546.2222
 128  -170.9836
 129  -335.0702
 130  -361.8238
 131  -409.2003
 132  -344.429
 133  -646.7262
 134  -347.7426
 135  -643.5386
 136  -481.1743
 137  -399.4944
 138  -590.7888
 139  -687.1425
 140  -650.899
 141  -254.1415
 142  -43.4949
 143  -623.1276
 144  -291.5591
 145  -224.6535
 146  -208.7965
 147  -194.9136
 148  61.89193
 149  -2.119125
 150  171.2853
 151  -106.2495
 152  279.9895
 153  144.6001
 154  -27.88411
 155  83.00034
 156  91.27218
 157  546.5415
 158  748.1142
 159  305.4173
 160  180.306
 161  107.7639
 162  117.7839
 163  91.33096
 164  341.7635
 165  431.7312
 166  408.8951
 167  -210.1605
 168  -219.4032
 169  -405.6893
 170  -292.4851
 171  -303.0526
 172  -215.0358
 173  213.0189
 174  172.5723
 175  171.4795
 176  247.4498
 177  379.1046
 178  357.1336
 179  97.08677
 180  18.02892
 181  468.4956
 182  726.5416
 183  214.4848
 184  133.5368
 185  140.3971
 186  234.9949
 187  400.1274
 188  298.0782
 189  237.86
 190  -45.18335
 191  -24.96968
 192  -75.6104
 193  101.4583
 194  41.31876
 195  188.9194
 196  103.51
 197  -327.3063
 198  -267.8875
 199  -335.0639
 200  -144.8011
 201  -53.45566
 202  -0.3958044
 203  503.4439
 204  300.1021
 205  457.0794
 206  547.9569
 207  464.062
 208  611.8367
 209  99.80114
 210  51.39328
 211  486.0399
 212  475.3594
 213  578.1743
 214  791.7903
 215  427.3532
 216  63.80319
 217  -222.702
 218  -147.0765
 219  402.7179
 220  328.0547
 221  120.3672
 222  299.1619
 223  316.3653
 224  -4.50737
 225  -471.4176
 226  -242.2093
 227  95.98747
 228  -43.08926
 229  -44.54601
 230  142.1096
 231  222.7932
 232  23.48962
 233  166.8739
 234  283.4039
 235  620.5963
 236  420.6841
 237  232.2048
 238  262.5453
 239  78.36452
 240  390.0338
 241  827.922
 242  614.5471
 243  339.8954
 244  432.7421
 245  377.7653
 246  295.1205
 247  379.2088
 248  358.3774
 249  428.6193
 250  -65.79528
 251  -75.52546
 252  189.9201
 253  309.9541
 254  107.4249
 255  -51.54491
 256  103.467
 257  -123.5774
 258  -439.3029
 259  -447.4927
 260  -101.6359
 261  354.1407
 262  19.89521
 263  -191.4347
 264  -451.0751
 265  -214.2234
 266  -561.0822
 267  -439.2012
 268  -169.3897
 269  84.93209
 270  56.57385
 271  -57.56787
 272  -609.3286
 273  -151.4247
 274  36.55026
 275  -249.6809
 276  -195.2978
 277  13.34997
 278  -49.1634
 279  -259.0764
 280  -322.8846
 281  292.7906
 282  540.0614
 283  192.6765
 284  -74.72971
 285  -52.89026
 286  -17.20123
 287  -197.0481
 288  14.90746
 289  295.2535
 290  250.2479
 291  -24.50455
 292  -428.7956
 293  -282.2691
 294  -421.9933
 295  231.8144
 296  471.4347
 297  519.7964
 298  141.7536
 299  -683.0858
 300  -313.6333
 301  -253.0459
 302  374.1726
 303  499.458
 304  367.7305
 305  210.2924
 306  4.78992
 307  -149.3785
 308  26.85039
 309  143.1962
 310  176.5525
 311  318.4981
 312  -39.65275
 313  -253.0077
 314  -41.23983
 315  137.0074
 316  178.5793
 317  298.7444
 318  126.7925
 319  -116.7737
 320  5.031215
 321  -166.5902
 322  53.28484
 323  365.9629
 324  322.3041
 325  27.96685
 326  -119.5399
 327  -122.6282
 328  326.141
 329  245.737
 330  393.8773
 331  392.751
 332  -12.72026
 333  -235.0416
 334  -111.9659
 335  177.6824
 336  -207.3371
 337  187.6153
 338  486.0269
 339  267.406
 340  470.5055
 341  -73.27271
 342  233.8772
 343  173.1675
 344  -59.32659
 345  170.5746
 346  -1.540663
 347  -245.3559
 348  -275.8509
 349  -345.8354
 350  7.702759
 351  123.4414
 352  253.0806
 353  58.77433
 354  -24.41983
 355  -175.1779
 356  288.9259
 357  143.8199
 358  367.4082
 359  527.8237
 360  109.2286
 361  175.9469
 362  181.2683
 363  96.27605
 364  234.5352
 365  234.4645
 366  281.6075
 367  128.3863
 368  -160.7482
 369  -229.7907
 370  -87.88262
 371  95.52698
 372  -131.6524
 373  -155.9769
 374  -260.1247
 375  -655.0864
 376  -669.5862
 377  -204.6992
 378  -70.62458
 379  -157.3916
 380  -103.4173
 381  -171.9797
 382  -218.3298
 383  -391.3747
 384  -290.8783
 385  -178.5652
 386  -289.5849
 387  -414.0168
 388  -471.5884
 389  -211.0926
 390  -458.7477
 391  -247.1361
 392  -71.99767
 393  -205.6256
 394  7.487992
 395  17.67739
 396  102.3285
 397  35.58198
 398  180.8924
 399  414.664
 400  676.1346
 401  621.5587
 402  826.9648
 403  807.4541
 404  754.4305
 405  156.4259
 406  683.998
 407  859.9177
 408  622.8545
 409  1297.107
 410  1354.772
 411  1195.766
 412  80.80746
 413  87.70949
 414  319.0511
 415  -12.35932
 416  238.6361
 417  647.5221
 418  796.8589
 419  717.2351
 420  410.7053
 421  327.7647
 422  21.92057
 423  174.886
 424  487.58
 425  1154.584
 426  533.8278
 427  -94.91381
 428  263.3421
 429  -28.45885
 430  -77.34507
 431  474.0372
 432  598.8887
 433  389.4859
 434  323.3546
 435  17.71848
 436  -439.9312
 437  44.09446
 438  341.9874
 439  515.9381
 440  470.9333
 441  602.4731
 442  432.2478
 443  1116.161
 444  1702.943
 445  1714.312
 446  1900.743
 447  1365.845
 448  614.4359
 449  -93.20322
 450  -91.75898
 451  -129.8307
 452  80.48527
 453  423.3277
 454  413.1301
 455  41.55485
 456  -232.1909
 457  -455.694
 458  -163.7925
 459  -167.4012
 460  371.7087
 461  403.8122
 462  295.991
 463  115.4202
 464  -23.63404
 465  99.1422
 466  181.1227
 467  236.8517
 468  -177.2519
 469  -73.78577
 470  -625.8237
 471  -507.0562
 472  -769.327
 473  -293.0113
 474  153.4634
 475  -312.4558
 476  -175.7459
 477  -331.9781
 478  -455.544
 479  -327.6807
 480  -418.0892
 481  -931.0083
 482  -1027.253
 483  -524.5008
 484  -290.1047
 485  -3.50266
 486  -217.7139
 487  -574.4502
 488  -348.5622
 489  -316.7686
 490  -573.2811
 491  -418.4118
 492  -108.9063
 493  -9.935424
 494  -280.1667
 495  32.43781
 496  -204.8401
 497  -201.228
 498  -347.2244
 499  -272.7158
 500  -362.9168
 501  -400.9308
 502  -357.4767
 503  -385.6685
 504  -191.1158
 505  -436.7157
 506  16.63176
 507  142.8304
 508  47.99357
 509  240.1709
 510  231.1079
 511  195.2735
