# Input file       =  1194138544.111448_cleaned.dat
# Candidate        =  PSR_0332+5434
# Telescope        =  AR
# Epoch_topo       =  58065.048184160281
# Epoch_bary       =  N/A
# T_sample         =  0.002
# Data Folded      =  7340032
# Data Avg         =  0.160111991748896
# Data StdDev      =  4.54147336106311 
# Profile Bins     =  256
# Profile Avg      =  4590.86042509765 
# Profile StdDev   =  768.998982348649 
# Reduced chi-sqr  =  0.919
# Prob(Noise)      <  0.82   (~0.0 sigma)
# P_topo (ms)      =  714.502676276688  +/- 0.000842
# P'_topo (s/s)    =  -0                +/- 4.44e-10
# P''_topo (s/s^2) =  0                 +/- 1.96e-13
# P_bary (ms)      =  N/A
# P'_bary (s/s)    =  N/A
# P''_bary (s/s^2) =  N/A
# P_orb (s)        =  N/A
# asin(i)/c (s)    =  N/A
# eccentricity     =  N/A
# w (rad)          =  N/A
# T_peri           =  N/A
######################################################
   0  5371.069
   1  5021.221
   2  4993.965
   3  4911.906
   4  4981.506
   5  4780.452
   6  4636.967
   7  4449.308
   8  5036.656
   9  4539.07
  10  4609.872
  11  3926.529
  12  4023.074
  13  4088.181
  14  4787.219
  15  4785.831
  16  4874.371
  17  4596.94
  18  5420.757
  19  5397.587
  20  5018.629
  21  5269.817
  22  5407.751
  23  5377.29
  24  5325.212
  25  5036.646
  26  4700.312
  27  5301.495
  28  5191.81
  29  5166.401
  30  4487.003
  31  4876.783
  32  4084.756
  33  5095.428
  34  5074.694
  35  4487.857
  36  5595.013
  37  4931.842
  38  4750.362
  39  4798.005
  40  5041.246
  41  4276.898
  42  3276.793
  43  4198.896
  44  4863.708
  45  4408.829
  46  4878.311
  47  4575.811
  48  4405.784
  49  5193.38
  50  5874.038
  51  4605.724
  52  4756.837
  53  4679.408
  54  4963.889
  55  3867.012
  56  4368.69
  57  3763.628
  58  4288.858
  59  4434.576
  60  4066.792
  61  4766.387
  62  4820.1
  63  5168.781
  64  5143.147
  65  4642.677
  66  4580.575
  67  4476.353
  68  5545.609
  69  5016.301
  70  4664.62
  71  5045.706
  72  5203.34
  73  4256.861
  74  5202.912
  75  5463.438
  76  4498.855
  77  4534.229
  78  4518.897
  79  4952.801
  80  4458.799
  81  5034.213
  82  4179.029
  83  4406.769
  84  4036.924
  85  4347.713
  86  4917.795
  87  4629.504
  88  4675.52
  89  4311.006
  90  4954.28
  91  4250.482
  92  3974.016
  93  4651.019
  94  4379.358
  95  3789.257
  96  4443.864
  97  4860.992
  98  4484.189
  99  4484.335
 100  4518.299
 101  5338.366
 102  5366.141
 103  4913.74
 104  5437.937
 105  4553.239
 106  4379.832
 107  4797.254
 108  4595.569
 109  4697.263
 110  4121.776
 111  4948.447
 112  4119.601
 113  3768.341
 114  4189.591
 115  4399.575
 116  3175.869
 117  3585.547
 118  4235.176
 119  3776.015
 120  3468.323
 121  3876.167
 122  4552.096
 123  5036.51
 124  4791.211
 125  3945.916
 126  4452.431
 127  4387.181
 128  4567.404
 129  4406.741
 130  4580.664
 131  3910.523
 132  3570.82
 133  4239.628
 134  5009.573
 135  4095.605
 136  3893.625
 137  3614.333
 138  3582.33
 139  3757.374
 140  3499.409
 141  2659.381
 142  3469.853
 143  3797.409
 144  3569.467
 145  3930.08
 146  4370.926
 147  4582.09
 148  4745.559
 149  4300.579
 150  5260.494
 151  4576.818
 152  4496.417
 153  4445.06
 154  5639.621
 155  5088.454
 156  5922
 157  7502.223
 158  7611.978
 159  6591.147
 160  5430.029
 161  5165.072
 162  5063.375
 163  5492.958
 164  5047.711
 165  4836.407
 166  5754.484
 167  5583.648
 168  5222.572
 169  4517.474
 170  4719.402
 171  5275.23
 172  4504.432
 173  5048.386
 174  4736.018
 175  4336.927
 176  4669.938
 177  4903.015
 178  4194.467
 179  5419.004
 180  5145.148
 181  5078.479
 182  4707.401
 183  4026.329
 184  4900.805
 185  4692.578
 186  4331.64
 187  4477.81
 188  4719.043
 189  4766.022
 190  4875.48
 191  4257.852
 192  4294.468
 193  4900.086
 194  4262.865
 195  3261.24
 196  3953.77
 197  3898.575
 198  4138.484
 199  3041.745
 200  3931.64
 201  5270.733
 202  4499.814
 203  3961.906
 204  4345.231
 205  4326.029
 206  4049.338
 207  3484.658
 208  3525.596
 209  3482.869
 210  3707.821
 211  3807.902
 212  3216.568
 213  3086.654
 214  3884.096
 215  4786.163
 216  3868.047
 217  3822.77
 218  4522.048
 219  4991.73
 220  4644.828
 221  3882.315
 222  3656.914
 223  4003.897
 224  3900.759
 225  5077.432
 226  4555.129
 227  4604.259
 228  5081.243
 229  5506.393
 230  5087.125
 231  4901.749
 232  4655.203
 233  4342.03
 234  4576.704
 235  4133.343
 236  4394.622
 237  4770.148
 238  4246.287
 239  4331.57
 240  4839.607
 241  4629.625
 242  4567.19
 243  4882.799
 244  4613.215
 245  4707.359
 246  4905.06
 247  4449.955
 248  4005.111
 249  4242.443
 250  4574.407
 251  4757.181
 252  5127.103
 253  5129.648
 254  5429.665
 255  5341.623
