# Input file       =  1194899111.101590-PSRB0329-2ms-sampling-dd.dat
# Candidate        =  PSR_0332+5434
# Telescope        =  AR
# Epoch_topo       =  58073.851042842478
# Epoch_bary       =  N/A
# T_sample         =  0.002
# Data Folded      =  7340032
# Data Avg         =  3.53772096727814e-10
# Data StdDev      =  7.31104631956892 
# Profile Bins     =  512
# Profile Avg      =  0.176847493348954
# Profile StdDev   =  875.373774933168 
# Reduced chi-sqr  =  0.598
# Prob(Noise)      <  1   (~0.0 sigma)
# P_topo (ms)      =  714.511081748073  +/- 6e-05
# P'_topo (s/s)    =  -0                +/- 3.17e-11
# P''_topo (s/s^2) =  0                 +/- 1.4e-14
# P_bary (ms)      =  N/A
# P'_bary (s/s)    =  N/A
# P''_bary (s/s^2) =  N/A
# P_orb (s)        =  N/A
# asin(i)/c (s)    =  N/A
# eccentricity     =  N/A
# w (rad)          =  N/A
# T_peri           =  N/A
######################################################
   0  195.8611
   1  346.5349
   2  108.3759
   3  -485.797
   4  -254.6833
   5  6.185609
   6  -338.9457
   7  613.47
   8  798.5335
   9  506.6947
  10  -35.59422
  11  2.239588
  12  100.1102
  13  -8.499768
  14  550.5025
  15  455.2107
  16  479.0786
  17  1.062294
  18  37.05472
  19  -477.6599
  20  -374.7599
  21  133.0248
  22  580.5677
  23  242.8153
  24  -187.5337
  25  -373.3914
  26  -456.1928
  27  -1196.857
  28  -707.2646
  29  114.7689
  30  360.2614
  31  -227.2365
  32  -252.6502
  33  -130.3033
  34  -587.4588
  35  -359.7171
  36  -314.5289
  37  -738.3614
  38  -749.3661
  39  -794.557
  40  -257.213
  41  -435.8286
  42  -162.4965
  43  29.68701
  44  291.8932
  45  -354.7238
  46  -299.6009
  47  -199.4287
  48  -216.4243
  49  -487.1342
  50  -206.7661
  51  417.8264
  52  444.015
  53  -338.3431
  54  -302.0329
  55  -403.8292
  56  -363.7458
  57  7.61255
  58  -112.6153
  59  -802.8348
  60  -1155.613
  61  -703.8434
  62  -527.6815
  63  -919.9514
  64  -754.6856
  65  -312.798
  66  -338.4005
  67  -280.6038
  68  -324.3764
  69  -109.0583
  70  -290.0694
  71  221.6299
  72  245.4446
  73  126.2451
  74  -484.1967
  75  -563.0034
  76  16.27381
  77  98.82613
  78  575.6191
  79  591.986
  80  410.5616
  81  286.2634
  82  419.1347
  83  108.0004
  84  180.7179
  85  646.0578
  86  435.6216
  87  241.4186
  88  117.5505
  89  425.7193
  90  577.8414
  91  850.8789
  92  143.7806
  93  56.48179
  94  -98.94331
  95  -542.9008
  96  -357.014
  97  -33.96169
  98  -57.21508
  99  -169.8356
 100  -45.41037
 101  -65.01927
 102  -653.6953
 103  -377.8748
 104  -374.5671
 105  -340.4551
 106  -274.3921
 107  38.38889
 108  -445.0985
 109  -1050.703
 110  -714.6558
 111  130.2775
 112  134.2402
 113  -154.6875
 114  237.3194
 115  567.3699
 116  80.92102
 117  -187.3573
 118  293.4464
 119  619.6508
 120  58.98661
 121  -171.4354
 122  -225.5183
 123  -370.482
 124  -470.8278
 125  -476.515
 126  -209.0366
 127  -399.4116
 128  -77.04823
 129  543.5591
 130  1045.295
 131  671.8756
 132  946.9305
 133  928.1212
 134  854.1008
 135  28.25697
 136  59.33572
 137  -30.218
 138  -199.8441
 139  -351.6646
 140  60.14992
 141  652.2874
 142  389.8407
 143  513.304
 144  -87.20026
 145  35.40357
 146  230.9601
 147  509.5329
 148  894.046
 149  815.1769
 150  568.2216
 151  684.4454
 152  -173.6033
 153  -429.2915
 154  -212.0044
 155  242.9573
 156  -498.4644
 157  -868.5781
 158  -579.2177
 159  -787.7818
 160  -806.881
 161  -540.8088
 162  -76.50166
 163  -495.0826
 164  -437.9173
 165  -654.7418
 166  -866.1345
 167  -980.6792
 168  -781.56
 169  -249.1407
 170  -70.71038
 171  -610.8405
 172  -462.4725
 173  -106.0578
 174  -192.8053
 175  -838.6902
 176  -609.7413
 177  74.84083
 178  12.33523
 179  -340.3752
 180  -285.3404
 181  -870.2831
 182  -679.7811
 183  -346.5738
 184  -713.2546
 185  -621.2847
 186  119.0526
 187  -83.44147
 188  -599.7151
 189  -787.6447
 190  -133.2451
 191  410.9961
 192  -269.0283
 193  149.1866
 194  25.81294
 195  -617.9517
 196  -516.4631
 197  -408.3347
 198  -27.36681
 199  -69.29682
 200  156.2089
 201  138.3817
 202  -145.5708
 203  -371.174
 204  -424.468
 205  -393.8832
 206  -382.827
 207  -580.7297
 208  -233.3683
 209  -438.877
 210  -1066.974
 211  -969.4699
 212  -303.8109
 213  -292.7659
 214  -72.13391
 215  193.4017
 216  -49.17515
 217  -484.9166
 218  -113.6562
 219  246.6709
 220  -31.54017
 221  -276.6119
 222  -556.5244
 223  -450.3914
 224  -563.5422
 225  -782.288
 226  -510.3494
 227  -295.5129
 228  -513.5165
 229  -170.9042
 230  174.943
 231  -158.1349
 232  -598.7249
 233  -644.4777
 234  -207.2043
 235  -294.4256
 236  32.92837
 237  -138.961
 238  -681.811
 239  -819.666
 240  -849.2585
 241  -789.5399
 242  -214.9344
 243  353.1574
 244  444.4852
 245  2.846613
 246  92.67406
 247  72.15487
 248  -299.0955
 249  -678.2974
 250  -7.269855
 251  499.4357
 252  454.4252
 253  -140.0922
 254  64.41251
 255  212.6995
 256  190.7814
 257  843.7383
 258  603.429
 259  175.0225
 260  53.30129
 261  73.15965
 262  356.5447
 263  -121.8486
 264  -336.1224
 265  157.6769
 266  485.8336
 267  121.5227
 268  -210.6835
 269  11.53238
 270  471.4376
 271  179.6417
 272  714.6375
 273  278.0726
 274  -377.7034
 275  -534.2582
 276  204.7379
 277  171.7236
 278  356.9129
 279  677.2075
 280  780.2109
 281  570.3918
 282  -3.474967
 283  37.85181
 284  -233.0486
 285  -183.6211
 286  650.2323
 287  1007.448
 288  731.6237
 289  663.9483
 290  490.1517
 291  343.3913
 292  149.1509
 293  401.0648
 294  657.2332
 295  227.6029
 296  -483.0508
 297  -366.2341
 298  513.7917
 299  438.2982
 300  45.59744
 301  62.3397
 302  262.9083
 303  -45.53063
 304  -202.9378
 305  121.8552
 306  57.15444
 307  -227.3881
 308  584.4294
 309  651.7245
 310  63.83982
 311  -312.7906
 312  -327.118
 313  96.77831
 314  -243.9818
 315  93.5358
 316  293.4351
 317  -383.9976
 318  -877.0546
 319  -925.0197
 320  -736.0133
 321  -309.0973
 322  -310.4623
 323  -664.7217
 324  -659.0573
 325  -454.0377
 326  49.99738
 327  -203.436
 328  -303.7561
 329  -354.0515
 330  30.40206
 331  -242.4509
 332  -14.09757
 333  -120.4991
 334  -255.8553
 335  -253.9353
 336  -86.24588
 337  270.8403
 338  307.4405
 339  -73.45123
 340  -62.49707
 341  -116.044
 342  -457.7236
 343  -209.4707
 344  -167.8531
 345  463.5385
 346  617.0322
 347  725.8444
 348  200.08
 349  -208.2496
 350  -237.9111
 351  -18.38321
 352  213.5276
 353  233.9552
 354  481.0498
 355  694.4279
 356  473.613
 357  -65.43199
 358  564.3445
 359  1028.002
 360  563.8289
 361  1344.211
 362  2092.255
 363  1379.415
 364  655.5521
 365  911.3624
 366  1071.782
 367  672.5355
 368  830.7518
 369  1324.552
 370  535.6082
 371  748.2543
 372  632.1575
 373  723.3464
 374  29.78511
 375  124.4241
 376  202.1254
 377  42.85975
 378  -615.0142
 379  -417.7577
 380  -577.7755
 381  -20.75661
 382  61.64451
 383  304.3877
 384  485.2924
 385  206.2475
 386  21.8505
 387  -484.8667
 388  104.9238
 389  87.71737
 390  837.0773
 391  1581.555
 392  989.9376
 393  526.1257
 394  465.0411
 395  840.5642
 396  708.0394
 397  956.1614
 398  1409.082
 399  598.5728
 400  -251.4349
 401  410.9189
 402  665.4965
 403  577.712
 404  809.5582
 405  1003.491
 406  357.6347
 407  -146.6248
 408  76.22913
 409  868.5704
 410  795.8729
 411  587.4028
 412  1037.143
 413  851.8854
 414  461.2757
 415  561.9788
 416  551.6408
 417  164.0302
 418  175.8306
 419  504.7593
 420  506.2465
 421  363.5533
 422  305.5677
 423  416.0811
 424  -638.0456
 425  -509.2387
 426  143.9681
 427  61.89245
 428  89.14089
 429  -306.0063
 430  -497.0959
 431  -539.6738
 432  -781.3895
 433  -454.4464
 434  -274.5878
 435  11.88056
 436  -38.15112
 437  192.3969
 438  425.6279
 439  218.5434
 440  532.0323
 441  715.7545
 442  854.079
 443  444.3016
 444  52.73148
 445  -9.933303
 446  -85.70506
 447  216.9233
 448  325.2422
 449  77.22297
 450  408.3089
 451  1153.178
 452  763.5701
 453  195.7866
 454  -242.1334
 455  -387.2427
 456  -29.74092
 457  -287.8662
 458  317.0394
 459  603.0667
 460  -99.92171
 461  -379.4476
 462  151.2005
 463  209.6822
 464  278.9071
 465  -46.51743
 466  70.52869
 467  259.8018
 468  127.3865
 469  -143.0491
 470  111.9361
 471  -125.8486
 472  35.06575
 473  107.2925
 474  -93.07028
 475  -177.0914
 476  307.2594
 477  739.5899
 478  284.231
 479  -205.5867
 480  -395.4506
 481  -60.18757
 482  -473.7466
 483  27.23231
 484  548.0047
 485  -65.57285
 486  -515.8263
 487  -210.1442
 488  -448.7067
 489  -794.8045
 490  -385.0029
 491  -94.68869
 492  83.19712
 493  -365.2369
 494  -949.0331
 495  -705.7589
 496  -693.0701
 497  -1036.347
 498  -775.4398
 499  -939.1905
 500  -611.9558
 501  -549.0267
 502  -368.7366
 503  -224.0358
 504  -284.0341
 505  44.32021
 506  142.5683
 507  -283.7098
 508  -367.9392
 509  -13.48158
 510  -189.909
 511  -88.88206
