# Input file       =  1194726807.10001_cleaned.dat
# Candidate        =  PSR_0332+5434
# Telescope        =  AR
# Epoch_topo       =  58071.856783564930
# Epoch_bary       =  N/A
# T_sample         =  0.002
# Data Folded      =  7340032
# Data Avg         =  0.147141001729843
# Data StdDev      =  3.88274009778604 
# Profile Bins     =  256
# Profile Avg      =  4218.99065774655 
# Profile StdDev   =  657.456941071389 
# Reduced chi-sqr  =  0.841
# Prob(Noise)      <  0.969   (~0.0 sigma)
# P_topo (ms)      =  714.509060139595  +/- 0.000536
# P'_topo (s/s)    =  -0                +/- 2.83e-10
# P''_topo (s/s^2) =  0                 +/- 1.25e-13
# P_bary (ms)      =  N/A
# P'_bary (s/s)    =  N/A
# P''_bary (s/s^2) =  N/A
# P_orb (s)        =  N/A
# asin(i)/c (s)    =  N/A
# eccentricity     =  N/A
# w (rad)          =  N/A
# T_peri           =  N/A
######################################################
   0  4777.279
   1  4442.509
   2  5099.832
   3  4497.524
   4  4462.659
   5  3772.646
   6  3430.998
   7  3103.436
   8  3672.279
   9  3467.202
  10  3602.704
  11  3159.807
  12  3613.146
  13  4082.771
  14  4142.568
  15  4214.311
  16  4080.681
  17  4094.631
  18  4406.491
  19  4961.889
  20  4771.49
  21  4826.784
  22  4263.127
  23  4081.652
  24  3742.483
  25  4008.203
  26  3854.891
  27  3863.144
  28  4392.569
  29  4953.018
  30  4307.469
  31  3816.641
  32  4424.529
  33  4430.684
  34  4308.559
  35  4211.87
  36  4828.66
  37  4132.432
  38  4614.489
  39  4518.559
  40  3956.817
  41  4285.719
  42  4335.08
  43  4401.565
  44  3772.934
  45  4123.354
  46  4977.383
  47  4544.383
  48  4357.253
  49  4060.211
  50  4760.002
  51  4469.309
  52  3677.557
  53  4175.21
  54  4128.23
  55  4387.894
  56  4280.919
  57  3867.123
  58  4195.618
  59  4196.63
  60  4388.869
  61  4294.638
  62  4626.92
  63  4488.789
  64  4715.878
  65  4723.099
  66  4796.933
  67  4131.381
  68  3988.531
  69  4261.957
  70  4107.22
  71  4652.179
  72  4650.424
  73  4356.251
  74  4893.615
  75  4960.994
  76  4716.312
  77  4545.677
  78  4944.592
  79  4736.417
  80  4503.993
  81  4689.074
  82  4087.056
  83  4453.914
  84  4057.066
  85  4181.826
  86  2879.161
  87  4369.203
  88  4318.04
  89  4071.954
  90  4571.667
  91  4194.833
  92  3860.444
  93  4327.88
  94  4115.512
  95  4682.743
  96  4379.498
  97  3690.422
  98  4039.502
  99  3880.34
 100  4462.398
 101  3986.864
 102  4120.073
 103  4150.64
 104  4260.773
 105  3415.234
 106  3822.822
 107  3349.223
 108  4164.984
 109  4548.577
 110  4421.794
 111  4052.22
 112  4278.06
 113  4829.713
 114  5501.235
 115  4219.782
 116  4822.406
 117  3908.704
 118  4142.299
 119  4290.484
 120  4351.618
 121  4238.316
 122  3928.632
 123  4424.74
 124  4302.851
 125  4558.506
 126  4765.797
 127  4208.357
 128  4467.684
 129  4409.989
 130  4525.804
 131  4763.12
 132  3989.604
 133  4371.505
 134  4198.862
 135  3135.6
 136  3837.127
 137  4185.539
 138  4105.57
 139  3687.103
 140  3458.396
 141  4175.579
 142  4270.705
 143  5157.531
 144  4937.881
 145  4321.694
 146  5274.22
 147  5538.478
 148  4456.131
 149  4142.365
 150  3727.704
 151  4593.098
 152  3818.912
 153  4796.812
 154  4950.95
 155  5035.264
 156  5621.714
 157  6717.179
 158  6510.396
 159  5187.171
 160  3984.428
 161  4402.052
 162  4006.483
 163  4032.118
 164  4250.438
 165  4345.804
 166  4040.37
 167  3489.928
 168  3311.896
 169  2893.423
 170  3698.58
 171  3369.738
 172  4185.008
 173  4262.168
 174  4324.246
 175  3922.807
 176  3467.483
 177  4392.375
 178  4358.737
 179  3656.38
 180  4009.036
 181  3376.047
 182  4253.205
 183  3667.307
 184  4735.068
 185  4835.889
 186  4068.701
 187  3414.386
 188  3931.966
 189  4254.074
 190  3719.76
 191  4552.084
 192  3496.386
 193  3970.532
 194  4059.308
 195  4112.167
 196  4032.731
 197  3966.583
 198  3589.565
 199  4294.068
 200  3900.632
 201  3860.538
 202  3705.499
 203  3257.935
 204  4153.68
 205  4272.814
 206  4263.6
 207  4581.797
 208  4339.949
 209  3685.577
 210  4398.812
 211  4387.518
 212  4640.368
 213  4807.517
 214  3671.243
 215  3993.454
 216  4503.937
 217  4190.171
 218  4114.515
 219  4105.282
 220  4331.734
 221  4215.297
 222  3811.995
 223  3964.723
 224  4194.108
 225  4200.498
 226  3620.21
 227  3960.871
 228  4211.38
 229  4124.481
 230  4348.713
 231  4524.666
 232  4932.286
 233  4369.693
 234  4916.605
 235  4086.375
 236  4120.522
 237  4270.24
 238  3619.951
 239  4219.26
 240  3373.355
 241  2352.353
 242  3427.899
 243  3857.172
 244  3233.127
 245  3171.128
 246  3698.947
 247  3972.396
 248  3630.95
 249  3844.473
 250  4541.002
 251  4363.148
 252  4760.885
 253  4493.593
 254  4893.818
 255  4214.191
