# Input file       =  1194797738.111993-PSRB0329-2ms-sampling-dd.dat
# Candidate        =  PSR_0332+5434
# Telescope        =  AR
# Epoch_topo       =  58072.677744351771
# Epoch_bary       =  N/A
# T_sample         =  0.002
# Data Folded      =  7471104
# Data Avg         =  2.22748407865999e-10
# Data StdDev      =  9.33891055059359 
# Profile Bins     =  512
# Profile Avg      =  -0.214290117426987
# Profile StdDev   =  1128.11565540456 
# Reduced chi-sqr  =  1.017
# Prob(Noise)      <  0.385   (~0.3 sigma)
# P_topo (ms)      =  714.509871206274  +/- 0.000635
# P'_topo (s/s)    =  -0                +/- 3.29e-10
# P''_topo (s/s^2) =  0                 +/- 1.43e-13
# P_bary (ms)      =  N/A
# P'_bary (s/s)    =  N/A
# P''_bary (s/s^2) =  N/A
# P_orb (s)        =  N/A
# asin(i)/c (s)    =  N/A
# eccentricity     =  N/A
# w (rad)          =  N/A
# T_peri           =  N/A
######################################################
   0  -294.6519
   1  98.19552
   2  283.9858
   3  327.7336
   4  370.5016
   5  671.5074
   6  781.0144
   7  328.2585
   8  357.0676
   9  59.74497
  10  -532.1295
  11  -465.5662
  12  -231.5979
  13  62.6018
  14  409.4441
  15  -140.4857
  16  -409.3495
  17  -686.9855
  18  -725.7734
  19  -364.8708
  20  -418.6159
  21  -91.85501
  22  -392.4495
  23  -509.9077
  24  -337.5818
  25  -765.0591
  26  -1060.265
  27  -1350.711
  28  -663.8465
  29  -334.1642
  30  -485.5696
  31  -170.8269
  32  -566.9052
  33  -620.9575
  34  -489.8216
  35  -52.4262
  36  295.4775
  37  -149.6481
  38  -457.0585
  39  14.22808
  40  260.6284
  41  549.6827
  42  367.0973
  43  -25.00823
  44  285.0064
  45  -297.4586
  46  -231.9894
  47  -271.4611
  48  48.03928
  49  237.056
  50  140.5365
  51  -64.11429
  52  -560.375
  53  -158.3141
  54  -366.3242
  55  12.09584
  56  -276.2705
  57  -523.2089
  58  -258.4953
  59  -894.2889
  60  -380.3085
  61  -285.5901
  62  -631.1211
  63  -924.7583
  64  -794.9559
  65  -323.2569
  66  -186.6024
  67  -430.2514
  68  -98.65048
  69  -45.16016
  70  -216.3725
  71  77.70664
  72  -82.73527
  73  -414.2457
  74  64.14809
  75  66.08437
  76  -119.8499
  77  258.5219
  78  177.2493
  79  62.53982
  80  -168.8322
  81  226.3361
  82  220.048
  83  359.195
  84  1011.366
  85  1029.158
  86  737.0336
  87  233.0939
  88  444.3979
  89  1866.527
  90  2968.076
  91  2572.801
  92  2173.648
  93  2017.541
  94  129.2419
  95  -385.8485
  96  15.6314
  97  773.1804
  98  238.3743
  99  -456.9287
 100  -293.2517
 101  -522.2709
 102  -666.4802
 103  -641.6638
 104  -620.2391
 105  -193.6077
 106  -516.3946
 107  -500.4901
 108  -612.2009
 109  -373.8922
 110  -244.0965
 111  465.6856
 112  351.8882
 113  500.5061
 114  634.3371
 115  138.0792
 116  836.4727
 117  1252.826
 118  1080.163
 119  484.2337
 120  603.9753
 121  531.2806
 122  247.308
 123  497.2768
 124  442.3458
 125  149.7822
 126  -110.943
 127  -24.41016
 128  -56.29479
 129  289.7868
 130  144.152
 131  -158.0879
 132  126.2241
 133  -615.0121
 134  -320.4687
 135  -492.981
 136  -267.9974
 137  -628.689
 138  -714.0888
 139  -451.1466
 140  -549.9807
 141  59.99948
 142  297.3536
 143  -3.445368
 144  -453.4507
 145  -196.4885
 146  137.0539
 147  -120.8114
 148  -254.304
 149  190.3194
 150  554.9775
 151  232.2435
 152  373.9113
 153  146.4312
 154  -169.9867
 155  -138.4952
 156  -129.1561
 157  -238.3068
 158  -447.3463
 159  -255.5422
 160  -372.771
 161  -266.1861
 162  -522.6657
 163  -580.7508
 164  -208.711
 165  -122.0983
 166  -287.2457
 167  -574.7784
 168  -341.2383
 169  -592.4941
 170  -269.2963
 171  34.20318
 172  54.23837
 173  -425.7116
 174  -274.6637
 175  -194.6928
 176  -216.3453
 177  106.7581
 178  14.22822
 179  -606.2918
 180  -684.7676
 181  -246.2036
 182  -25.5053
 183  -422.4068
 184  -367.7686
 185  -241.1299
 186  53.56977
 187  -121.8964
 188  -561.6071
 189  -419.2534
 190  -371.9718
 191  -745.7996
 192  -778.173
 193  -264.3371
 194  193.4879
 195  116.2954
 196  228.2946
 197  223.288
 198  418.8557
 199  -139.4044
 200  -430.9738
 201  -64.81594
 202  -307.9393
 203  60.78506
 204  774.3906
 205  1859.174
 206  2104.707
 207  2184.635
 208  2049.971
 209  1619.496
 210  1215.187
 211  1976.466
 212  1803.816
 213  1789.753
 214  1778.516
 215  1818.626
 216  1173.995
 217  168.0434
 218  -396.2191
 219  -222.5614
 220  -333.1713
 221  -23.53065
 222  -202.623
 223  -136.1086
 224  -353.2324
 225  -552.0402
 226  -351.3092
 227  -198.6221
 228  -679.8499
 229  -536.0097
 230  -907.5641
 231  -102.5671
 232  -286.825
 233  -395.9951
 234  -454.6568
 235  -182.2403
 236  -572.8561
 237  -1069.511
 238  -256.397
 239  -163.2087
 240  -124.0325
 241  320.7968
 242  29.19906
 243  -322.2127
 244  -367.1784
 245  -573.4265
 246  -184.1912
 247  16.07885
 248  20.87081
 249  143.4332
 250  -224.5679
 251  -497.1213
 252  84.84007
 253  1026.76
 254  1770.297
 255  2011.618
 256  1668.045
 257  982.2772
 258  97.6861
 259  1378.173
 260  3173.163
 261  3536.614
 262  3195.182
 263  2908.733
 264  1756.076
 265  2208.337
 266  865.4688
 267  904.3821
 268  518.5762
 269  -30.22654
 270  835.5693
 271  3313.153
 272  3686.128
 273  3284.543
 274  3149.531
 275  294.4764
 276  38.72054
 277  584.7578
 278  2942.834
 279  3430.835
 280  2741.213
 281  1543.935
 282  215.5092
 283  -549.7213
 284  -405.0746
 285  -375.043
 286  -981.5804
 287  -807.3903
 288  760.0262
 289  5729.582
 290  1956.089
 291  -733.1593
 292  -59.24271
 293  -533.0051
 294  -984.965
 295  -780.7684
 296  -1204.491
 297  -775.7073
 298  -655.4277
 299  -757.7023
 300  -450.2434
 301  -342.2206
 302  -678.0671
 303  -779.1811
 304  -489.2601
 305  -299.4817
 306  -400.164
 307  -209.4479
 308  -351.9623
 309  -487.9188
 310  -599.3224
 311  -436.2612
 312  202.3708
 313  -92.71118
 314  94.18576
 315  35.89723
 316  -135.8342
 317  -813.1314
 318  -905.4224
 319  -563.4893
 320  -775.1594
 321  -783.1246
 322  -291.6091
 323  -6.315304
 324  -277.0923
 325  -670.3759
 326  -492.7943
 327  -688.8637
 328  -931.9413
 329  -710.3878
 330  -131.4491
 331  -811.3281
 332  -744.9133
 333  -393.5036
 334  -304.2161
 335  -364.5452
 336  -546.3246
 337  -252.4364
 338  -122.6992
 339  -149.7893
 340  -41.13977
 341  126.295
 342  -8.613439
 343  -210.6371
 344  211.2135
 345  247.6448
 346  458.9225
 347  -212.9657
 348  17.5338
 349  -7.283712
 350  262.828
 351  769.9206
 352  806.7908
 353  191.1115
 354  -552.4625
 355  -452.4577
 356  -366.4146
 357  -746.3297
 358  -409.8292
 359  -638.3555
 360  -790.7791
 361  -591.0356
 362  85.08548
 363  -214.9556
 364  -472.4856
 365  -238.0335
 366  -464.4388
 367  -829.4858
 368  -711.8932
 369  -190.6505
 370  -549.1058
 371  -177.6586
 372  202.0004
 373  -211.2586
 374  -408.3089
 375  -632.9987
 376  53.61879
 377  94.57
 378  716.3576
 379  710.1438
 380  478.0469
 381  614.3954
 382  432.1162
 383  1020.942
 384  813.4701
 385  942.1036
 386  457.613
 387  -164.5694
 388  -275.999
 389  -370.7117
 390  -468.2859
 391  -424.3329
 392  -231.6095
 393  -208.9693
 394  -503.6999
 395  -452.6817
 396  -256.7701
 397  -193.1249
 398  -396.8298
 399  -165.0221
 400  -558.5334
 401  -435.2206
 402  -379.9621
 403  -603.8975
 404  -426.4828
 405  -680.5516
 406  -415.858
 407  -404.0697
 408  -40.76472
 409  -192.792
 410  -115.2279
 411  -196.8132
 412  -353.4832
 413  -154.6025
 414  -430.3698
 415  15.20536
 416  -100.04
 417  -362.5771
 418  -450.0202
 419  -771.908
 420  -236.5834
 421  -227.6922
 422  -177.3769
 423  -235.0997
 424  -467.1033
 425  -806.4936
 426  -956.205
 427  -1007.305
 428  -983.4384
 429  -811.6735
 430  -652.0211
 431  -678.6816
 432  -538.9692
 433  -885.0229
 434  -990.5263
 435  -801.5231
 436  -314.1261
 437  -509.6822
 438  -847.7049
 439  -578.0566
 440  -414.5882
 441  -388.9946
 442  -752.0558
 443  -383.4985
 444  300.1263
 445  -61.68853
 446  -801.686
 447  -663.6691
 448  -123.3809
 449  -555.9835
 450  -331.086
 451  -161.7885
 452  174.1084
 453  -435.2612
 454  -446.2336
 455  -39.35542
 456  -172.7776
 457  -39.33657
 458  -39.67059
 459  103.2418
 460  -81.90955
 461  -316.3263
 462  13.83678
 463  -166.5079
 464  -27.94056
 465  -315.8526
 466  -276.3077
 467  -655.7924
 468  -1008.534
 469  -513.4151
 470  -640.8671
 471  -158.2078
 472  -444.7286
 473  -321.8034
 474  -505.6628
 475  -792.8452
 476  -698.9671
 477  -686.3146
 478  -323.9121
 479  -346.9153
 480  -585.9783
 481  -655.5501
 482  -714.3929
 483  -1010.206
 484  -672.6152
 485  -264.9503
 486  -537.9382
 487  -360.1024
 488  -276.2318
 489  -408.5698
 490  -719.5045
 491  -249.9758
 492  -4.103075
 493  98.56358
 494  357.9926
 495  302.9604
 496  77.06265
 497  189.1746
 498  23.68373
 499  209.2704
 500  1056.719
 501  831.7676
 502  610.0809
 503  540.6606
 504  290.594
 505  340.2137
 506  837.2067
 507  689.4395
 508  411.2713
 509  -76.8684
 510  126.186
 511  -37.38142
