# Input file       =  1194209154.098369-PSRB0329-2ms-sampling-dd.dat
# Candidate        =  PSR_0332+5434
# Telescope        =  AR
# Epoch_topo       =  58065.865429379272
# Epoch_bary       =  N/A
# T_sample         =  0.002
# Data Folded      =  7340032
# Data Avg         =  -1.078888119614e-09
# Data StdDev      =  6.87597694589421 
# Profile Bins     =  512
# Profile Avg      =  -5.22181118592348
# Profile StdDev   =  823.281597788556 
# Reduced chi-sqr  =  0.449
# Prob(Noise)      <  1   (~0.0 sigma)
# P_topo (ms)      =  714.503117025339  +/- 0.000992
# P'_topo (s/s)    =  -0                +/- 5.24e-10
# P''_topo (s/s^2) =  0                 +/- 2.31e-13
# P_bary (ms)      =  N/A
# P'_bary (s/s)    =  N/A
# P''_bary (s/s^2) =  N/A
# P_orb (s)        =  N/A
# asin(i)/c (s)    =  N/A
# eccentricity     =  N/A
# w (rad)          =  N/A
# T_peri           =  N/A
######################################################
   0  -652.6152
   1  -460.5306
   2  -634.2139
   3  -449.9847
   4  -541.9651
   5  -573.9222
   6  -726.1978
   7  -844.9285
   8  -602.8022
   9  -557.4761
  10  -464.7045
  11  -576.3109
  12  -473.411
  13  -559.5233
  14  -754.8235
  15  -747.5463
  16  -650.3948
  17  -797.9788
  18  -779.0345
  19  -322.6183
  20  -424.7126
  21  -708.3617
  22  -520.6514
  23  -499.8224
  24  -454.3867
  25  -669.5229
  26  -304.7274
  27  -136.9239
  28  -518.119
  29  -571.7442
  30  -468.9321
  31  -425.6179
  32  -581.6161
  33  -392.8201
  34  -188.4812
  35  -222.5216
  36  -256.0948
  37  -209.6181
  38  -92.30025
  39  -274.4951
  40  214.9155
  41  118.7726
  42  -30.15569
  43  -333.9213
  44  -316.3707
  45  -160.1597
  46  -463.2113
  47  -723.8441
  48  -451.13
  49  -483.2371
  50  -334.767
  51  -331.0779
  52  -666.4091
  53  -865.6795
  54  -744.4744
  55  -497.5649
  56  -475.3454
  57  -11.428
  58  105.0064
  59  -267.4716
  60  -167.8564
  61  -217.8357
  62  -749.4244
  63  -531.1378
  64  -189.4994
  65  -167.2553
  66  -425.8753
  67  -277.9695
  68  -728.2346
  69  -525.365
  70  -415.9306
  71  -388.0009
  72  -445.1026
  73  -663.3105
  74  -830.5118
  75  -710.7981
  76  -601.074
  77  -135.7561
  78  -402.4488
  79  -567.4596
  80  -678.0834
  81  -515.0861
  82  -609.2358
  83  -287.285
  84  -610.0451
  85  -778.6068
  86  -350.1677
  87  -633.9694
  88  -619.4574
  89  -481.1457
  90  -162.4169
  91  213.475
  92  -25.0325
  93  -109.6165
  94  -209.5763
  95  -302.5672
  96  -282.0723
  97  -72.95461
  98  -19.34519
  99  182.0286
 100  234.7314
 101  286.0729
 102  472.1304
 103  125.6171
 104  447.9459
 105  568.4677
 106  332.282
 107  161.0805
 108  67.95318
 109  -12.34386
 110  378.386
 111  408.5612
 112  6.524782
 113  63.57127
 114  60.11323
 115  426.2376
 116  111.7503
 117  -160.1221
 118  -491.4665
 119  -411.9938
 120  -26.41588
 121  -180.0498
 122  -532.1835
 123  -432.1295
 124  -267.9449
 125  -399.158
 126  -315.7158
 127  -375.7257
 128  -443.879
 129  -484.2854
 130  -341.7755
 131  -382.9699
 132  -338.8873
 133  -210.0745
 134  -301.5415
 135  -103.675
 136  -246.5349
 137  -528.6851
 138  -437.7166
 139  -58.12003
 140  -339.2476
 141  -181.6797
 142  -223.6825
 143  -0.3942296
 144  -230.6061
 145  -416.8327
 146  -317.3056
 147  -43.63958
 148  87.93605
 149  -12.39641
 150  -41.29326
 151  -145.1402
 152  -108.0284
 153  223.9111
 154  392.9966
 155  134.7312
 156  131.436
 157  254.1216
 158  70.7241
 159  34.41027
 160  172.8962
 161  351.8047
 162  367.8348
 163  303.2663
 164  489.6877
 165  208.2264
 166  141.8724
 167  -59.02355
 168  -238.9466
 169  -262.3412
 170  146.8949
 171  303.7818
 172  232.7457
 173  245.5287
 174  334.7399
 175  175.2871
 176  438.4364
 177  422.0883
 178  257.2252
 179  281.01
 180  458.8466
 181  621.1805
 182  968.1104
 183  742.6442
 184  639.4666
 185  262.7529
 186  629.0255
 187  1044.543
 188  973.7366
 189  904.4206
 190  908.4915
 191  687.4235
 192  539.777
 193  137.0301
 194  81.1544
 195  542.5981
 196  462.1566
 197  388.7355
 198  -109.0283
 199  -320.539
 200  -194.77
 201  -299.5245
 202  -217.5244
 203  -32.68808
 204  105.659
 205  338.9303
 206  389.118
 207  -229.3351
 208  -110.8535
 209  724.8171
 210  1492.662
 211  1504.141
 212  1065.62
 213  936.7701
 214  231.2865
 215  -44.04646
 216  -20.41751
 217  -78.98965
 218  155.6341
 219  -171.0976
 220  -487.42
 221  -160.032
 222  274.24
 223  108.7539
 224  207.1764
 225  417.7013
 226  445.7865
 227  125.2341
 228  203.4236
 229  298.3633
 230  159.0245
 231  571.6518
 232  400.6771
 233  546.6135
 234  186.9605
 235  -186.3091
 236  266.1538
 237  651.7153
 238  748.9093
 239  796.1984
 240  539.0141
 241  11.38783
 242  106.0938
 243  389.9376
 244  587.226
 245  655.5658
 246  537.9443
 247  417.6541
 248  150.2988
 249  32.92615
 250  -101.8785
 251  -9.56622
 252  481.2251
 253  449.5409
 254  412.5988
 255  105.4367
 256  220.2803
 257  194.5377
 258  -10.0295
 259  105.4609
 260  68.28573
 261  437.8918
 262  449.3817
 263  567.1772
 264  42.42597
 265  71.02619
 266  -12.052
 267  163.946
 268  282.3456
 269  509.5341
 270  604.2489
 271  450.6585
 272  244.7865
 273  35.92304
 274  47.98701
 275  351.6108
 276  290.6317
 277  337.8579
 278  508.6691
 279  447.013
 280  316.1092
 281  366.3158
 282  530.6174
 283  46.5049
 284  301.7165
 285  517.9513
 286  479.2132
 287  380.5404
 288  486.318
 289  456.2046
 290  409.7126
 291  438.4748
 292  88.59761
 293  -348.1371
 294  -257.5721
 295  -93.01774
 296  -257.472
 297  62.15605
 298  23.77997
 299  265.3244
 300  -10.41066
 301  -26.10409
 302  241.0074
 303  367.2402
 304  241.1636
 305  58.23356
 306  312.8441
 307  371.6344
 308  267.2581
 309  -19.08835
 310  153.3182
 311  344.235
 312  278.2389
 313  478.5181
 314  159.4382
 315  250.2111
 316  -77.87579
 317  150.0213
 318  223.8735
 319  152.3745
 320  386.0533
 321  242.4504
 322  269.6768
 323  288.5269
 324  -46.28081
 325  143.311
 326  133.6664
 327  300.5674
 328  -101.3186
 329  20.33851
 330  39.08293
 331  75.80807
 332  293.7424
 333  621.871
 334  413.7694
 335  345.7148
 336  217.2125
 337  229.1698
 338  531.4641
 339  699.8145
 340  380.2562
 341  110.7162
 342  53.15578
 343  2.859396
 344  -86.81593
 345  -56.32616
 346  -186.0269
 347  -116.7409
 348  -355.2407
 349  -342.8802
 350  -61.43341
 351  147.9329
 352  -52.65278
 353  -37.63293
 354  -196.5623
 355  -273.5997
 356  -474.1851
 357  -168.8019
 358  -40.39342
 359  -23.45555
 360  120.2027
 361  -94.14197
 362  -183.5641
 363  -143.1455
 364  -380.781
 365  -235.7935
 366  -194.4387
 367  -68.18763
 368  -214.5552
 369  55.61195
 370  -3.64298
 371  90.56923
 372  -3.804458
 373  -41.52794
 374  -107.3971
 375  259.132
 376  423.6413
 377  323.1693
 378  44.43118
 379  -202.1013
 380  -42.99872
 381  3.165096
 382  -2.315357
 383  224.3749
 384  158.6637
 385  155.2607
 386  111.7203
 387  15.67779
 388  -68.15984
 389  57.32777
 390  378.4247
 391  311.8073
 392  400.6573
 393  82.64902
 394  41.3568
 395  67.27859
 396  391.2009
 397  365.0085
 398  590.6932
 399  747.9607
 400  621.3994
 401  428.0074
 402  131.6679
 403  444.1772
 404  648.8754
 405  461.2902
 406  309.1597
 407  33.4272
 408  263.558
 409  654.6574
 410  670.1536
 411  327.1477
 412  22.78011
 413  8.627568
 414  258.4203
 415  448.8919
 416  59.03754
 417  -107.4084
 418  55.25388
 419  251.2278
 420  -357.9192
 421  -733.7141
 422  -109.9074
 423  -57.35679
 424  -167.3066
 425  -36.14753
 426  14.26612
 427  -703.6362
 428  -751.7034
 429  -414.6357
 430  -410.7393
 431  -615.0946
 432  -289.4641
 433  -82.80218
 434  -261.1311
 435  -648.8111
 436  -778.6896
 437  -476.7344
 438  -124.1336
 439  -111.5166
 440  -223.0215
 441  -602.2709
 442  -600.3563
 443  -34.92319
 444  6.215464
 445  -138.6116
 446  -108.7675
 447  -60.23292
 448  -253.6273
 449  -63.73324
 450  -221.4037
 451  -31.57519
 452  55.22338
 453  230.6248
 454  296.7826
 455  98.22147
 456  142.8916
 457  70.03036
 458  -109.3603
 459  150.6587
 460  184.02
 461  203.1874
 462  290.4359
 463  201.0379
 464  -75.79388
 465  -4.30468
 466  336.8317
 467  488.4221
 468  349.0807
 469  296.1425
 470  572.4047
 471  570.6077
 472  412.3673
 473  212.5612
 474  262.6387
 475  431.1436
 476  292.5237
 477  277.163
 478  191.9151
 479  36.15496
 480  -10.95556
 481  436.2028
 482  298.3353
 483  -179.044
 484  -146.0104
 485  -281.3796
 486  -519.1234
 487  -415.9916
 488  -147.4099
 489  105.0303
 490  -267.2931
 491  -368.6133
 492  -666.447
 493  -809.905
 494  -935.783
 495  -731.3705
 496  -312.4815
 497  -622.5757
 498  -640.2281
 499  -368.8823
 500  -688.7783
 501  -773.671
 502  -568.8972
 503  19.38734
 504  89.57375
 505  -622.6463
 506  -619.1581
 507  -428.2322
 508  -174.0393
 509  101.9624
 510  -356.3373
 511  -769.7947
