# Input file       =  1194482637.105718_cleaned.dat
# Candidate        =  PSR_0332+5434
# Telescope        =  AR
# Epoch_topo       =  58069.030741964329
# Epoch_bary       =  N/A
# T_sample         =  0.002
# Data Folded      =  7340032
# Data Avg         =  0.0587986977833294
# Data StdDev      =  3.9695494166057  
# Profile Bins     =  256
# Profile Avg      =  1686.39096702383 
# Profile StdDev   =  672.156196692494 
# Reduced chi-sqr  =  0.825
# Prob(Noise)      <  0.981   (~0.0 sigma)
# P_topo (ms)      =  714.506556890091  +/- 0.000362
# P'_topo (s/s)    =  -0                +/- 1.91e-10
# P''_topo (s/s^2) =  0                 +/- 8.43e-14
# P_bary (ms)      =  N/A
# P'_bary (s/s)    =  N/A
# P''_bary (s/s^2) =  N/A
# P_orb (s)        =  N/A
# asin(i)/c (s)    =  N/A
# eccentricity     =  N/A
# w (rad)          =  N/A
# T_peri           =  N/A
######################################################
   0  1858.137
   1  1503.933
   2  967.0544
   3  1695.886
   4  1317.205
   5  2012.766
   6  1697.389
   7  1060.615
   8  1870.242
   9  1320.04
  10  953.1046
  11  1795.381
  12  2085.235
  13  1376.389
  14  1184.772
  15  1242.023
  16  860.2704
  17  1739.479
  18  793.1572
  19  1058.056
  20  1333.212
  21  1744.821
  22  1038.991
  23  709.0167
  24  2052.311
  25  1690.768
  26  1979.318
  27  1758.319
  28  2614.873
  29  1724.739
  30  1536.18
  31  1781.759
  32  1092.015
  33  1062.341
  34  1169.141
  35  1339.277
  36  1836.366
  37  1183.585
  38  1146.853
  39  1388.346
  40  1169.928
  41  1335.702
  42  1648.71
  43  1414.791
  44  2182.103
  45  2048.107
  46  2537.557
  47  2088.491
  48  1930.605
  49  2639.888
  50  2157.839
  51  2062.647
  52  1551.084
  53  1905.84
  54  1433.539
  55  1690.845
  56  1427.967
  57  1853.848
  58  1481.774
  59  1343.429
  60  2188.542
  61  1718.638
  62  1769.851
  63  1917.741
  64  1855.734
  65  1446.566
  66  2281.543
  67  1629.711
  68  973.4963
  69  1110.852
  70  1850.512
  71  2024.767
  72  1434.656
  73  1727.207
  74  1872.876
  75  2125.168
  76  1736.517
  77  1395.949
  78  2687.104
  79  1969.528
  80  1109.397
  81  1655.213
  82  1845.525
  83  952.6968
  84  1303.679
  85  1951.157
  86  1617.983
  87  665.1172
  88  1968.364
  89  1874.042
  90  1774.516
  91  2678.899
  92  2084.32
  93  2531.134
  94  3091.885
  95  1770.919
  96  1236.725
  97  1745.852
  98  1922.169
  99  2224.304
 100  1025.249
 101  1448.169
 102  2338.746
 103  2100.98
 104  1652.854
 105  1883.097
 106  1433.454
 107  1935.532
 108  1651.721
 109  1242.117
 110  1880.116
 111  2368.546
 112  1884.081
 113  1092.039
 114  1362.184
 115  2313.849
 116  1432.753
 117  2171.084
 118  1541.553
 119  1429.176
 120  1675.005
 121  1214.884
 122  1522.839
 123  1215.084
 124  1423.208
 125  1234.087
 126  1184.363
 127  1673.742
 128  2016.984
 129  1464.2
 130  1313.128
 131  1481.837
 132  872.941
 133  1279.757
 134  1298.436
 135  1833.234
 136  1113.933
 137  943.0533
 138  1671.81
 139  2275.416
 140  2116.708
 141  2976.708
 142  2231.689
 143  1855.846
 144  1516.579
 145  1617.631
 146  2040.561
 147  1732.18
 148  1960.718
 149  1810.357
 150  1823.341
 151  1855.998
 152  2107.535
 153  1525.89
 154  2261.385
 155  2254.161
 156  2513.562
 157  3672.869
 158  5007.689
 159  3490.766
 160  1519.043
 161  1436.767
 162  1254.521
 163  1735.483
 164  1898.544
 165  1270.25
 166  1265.831
 167  1658.789
 168  1568.962
 169  754.1879
 170  1246.695
 171  1183.029
 172  364.1816
 173  1777.465
 174  2154.629
 175  1400.896
 176  1437.867
 177  1687.316
 178  1783.674
 179  2215.789
 180  1878.658
 181  923.3107
 182  1953.536
 183  1233.43
 184  1088.264
 185  1344.479
 186  1275.483
 187  1541.601
 188  1850.259
 189  1750.19
 190  2023.641
 191  1920.032
 192  1408.084
 193  1509.125
 194  1843.477
 195  1489.68
 196  1762.402
 197  354.1314
 198  732.4636
 199  1408.769
 200  1684.156
 201  1982.734
 202  1335.317
 203  1623.197
 204  1479.991
 205  2394.513
 206  1841.864
 207  1483.515
 208  1122.297
 209  1753.588
 210  1636.923
 211  695.1393
 212  1504.599
 213  1366.939
 214  922.3309
 215  1133.008
 216  1558.085
 217  1905.709
 218  742.1457
 219  1545.039
 220  2267.298
 221  2286.119
 222  2365.022
 223  2674.793
 224  1955.032
 225  1918.803
 226  1720.6
 227  1528.273
 228  1723.483
 229  1881.707
 230  1775.078
 231  1620.234
 232  1791.473
 233  2107.606
 234  1534.579
 235  1519.536
 236  2672.112
 237  2100.265
 238  1575.519
 239  1840.824
 240  2131.126
 241  786.4464
 242  1091.234
 243  1696.232
 244  2170.483
 245  1597.348
 246  1502.966
 247  1993.068
 248  2215.336
 249  2197.049
 250  2175.32
 251  2148.328
 252  1259.025
 253  1514.602
 254  2212.997
 255  2083.821
