# Input file       =  1194281335.097739_cleaned.dat
# Candidate        =  PSR_0332+5434
# Telescope        =  AR
# Epoch_topo       =  58066.700857612719
# Epoch_bary       =  N/A
# T_sample         =  0.002
# Data Folded      =  7208960
# Data Avg         =  0.0195454077648647
# Data StdDev      =  1.00016862481631 
# Profile Bins     =  512
# Profile Avg      =  275.136364173048 
# Profile StdDev   =  118.679184675252 
# Reduced chi-sqr  =  1.297
# Prob(Noise)      <  6.27e-06   (~4.4 sigma)
# P_topo (ms)      =  714.503913191014  +/- 0.000261
# P'_topo (s/s)    =  -0                +/- 1.4e-10
# P''_topo (s/s^2) =  0                 +/- 6.31e-14
# P_bary (ms)      =  N/A
# P'_bary (s/s)    =  N/A
# P''_bary (s/s^2) =  N/A
# P_orb (s)        =  N/A
# asin(i)/c (s)    =  N/A
# eccentricity     =  N/A
# w (rad)          =  N/A
# T_peri           =  N/A
######################################################
   0  139.2785
   1  253.5978
   2  274.1555
   3  369.9582
   4  388.8647
   5  322.4384
   6  314.8275
   7  251.9298
   8  242.0782
   9  311.069
  10  230.6144
  11  290.6449
  12  269.8519
  13  239.142
  14  212.3798
  15  280.9716
  16  359.1952
  17  193.6214
  18  262.1564
  19  317.4533
  20  164.6557
  21  362.7402
  22  422.3302
  23  352.4102
  24  314.662
  25  380.4262
  26  386.9151
  27  293.101
  28  246.9059
  29  317.191
  30  352.9522
  31  298.3867
  32  248.8138
  33  319.0329
  34  258.0759
  35  265.9262
  36  287.747
  37  310.4542
  38  341.2953
  39  380.6081
  40  348.9546
  41  298.5721
  42  347.1976
  43  377.325
  44  301.0473
  45  311.2188
  46  313.7458
  47  159.3031
  48  234.1908
  49  261.784
  50  227.3064
  51  155.1466
  52  214.6579
  53  289.9751
  54  277.9901
  55  264.8033
  56  213.5736
  57  93.71092
  58  154.5669
  59  195.4736
  60  197.6867
  61  141.2121
  62  328.8575
  63  307.401
  64  128.2582
  65  198.147
  66  189.8495
  67  244.3305
  68  212.9988
  69  402.3764
  70  473.7527
  71  365.4898
  72  403.8826
  73  255.3058
  74  270.5508
  75  294.3881
  76  291.4515
  77  305.7127
  78  300.5223
  79  239.3831
  80  255.0309
  81  328.9534
  82  405.4431
  83  280.2718
  84  191.6948
  85  190.4533
  86  37.85122
  87  147.3636
  88  199.4255
  89  223.3497
  90  257.0381
  91  306.8986
  92  235.0078
  93  223.8548
  94  308.2916
  95  388.5137
  96  299.3335
  97  308.2977
  98  341.2
  99  233.2404
 100  234.5665
 101  277.0584
 102  246.9634
 103  197.9598
 104  173.5555
 105  287.362
 106  385.2536
 107  359.1118
 108  234.7527
 109  296.5713
 110  228.6831
 111  213.3881
 112  319.2473
 113  256.4899
 114  224.1228
 115  283.0774
 116  359.5097
 117  258.6552
 118  222.252
 119  312.2872
 120  273.1395
 121  216.4543
 122  171.4549
 123  156.3468
 124  264.8479
 125  374.1165
 126  208.2363
 127  162.2542
 128  278.4318
 129  199.7803
 130  296.9201
 131  238.5262
 132  233.294
 133  173.4151
 134  230.8068
 135  108.9659
 136  174.5381
 137  204.8375
 138  145.466
 139  140.2161
 140  121.0442
 141  172.6788
 142  252.6626
 143  129.4541
 144  149.0635
 145  106.6523
 146  238.3863
 147  233.2565
 148  215.771
 149  169.867
 150  264.5567
 151  183.8715
 152  276.1743
 153  356.6749
 154  382.2516
 155  228.2438
 156  173.4822
 157  237.2176
 158  327.5511
 159  166.0545
 160  229.2504
 161  348.3282
 162  342.9977
 163  331.835
 164  310.204
 165  280.2925
 166  216.8881
 167  91.94139
 168  214.0707
 169  237.2168
 170  219.0255
 171  240.405
 172  405.5485
 173  384.8398
 174  216.9537
 175  257.9888
 176  349.9332
 177  338.3953
 178  283.852
 179  200.8202
 180  197.8543
 181  355.8495
 182  407.524
 183  279.4478
 184  276.9579
 185  292.1924
 186  339.0502
 187  322.6216
 188  297.9487
 189  350.7486
 190  291.4863
 191  268.9292
 192  272.8198
 193  290.2743
 194  197.6012
 195  249.2475
 196  275.9064
 197  176.3815
 198  155.0208
 199  146.4079
 200  252.6228
 201  291.5201
 202  269.7065
 203  409.4315
 204  360.9659
 205  408.9072
 206  453.3756
 207  335.783
 208  354.7628
 209  213.6881
 210  165.6453
 211  330.1453
 212  404.3732
 213  323.1848
 214  370.3816
 215  279.4779
 216  282.4344
 217  218.3074
 218  271.0997
 219  356.6679
 220  249.0381
 221  221.586
 222  287.4131
 223  309.1138
 224  216.7124
 225  65.78427
 226  137.2141
 227  201.9142
 228  155.7256
 229  160.4621
 230  296.493
 231  320.6712
 232  284.4607
 233  239.9382
 234  222.9197
 235  303.2169
 236  320.7716
 237  306.2064
 238  364.4804
 239  312.6022
 240  377.3199
 241  466.0344
 242  303.4393
 243  288.5224
 244  305.6533
 245  275.6393
 246  278.4079
 247  284.0924
 248  307.5069
 249  235.9225
 250  131.2981
 251  140.0137
 252  264.004
 253  320.8037
 254  263.531
 255  212.7767
 256  217.2761
 257  140.0771
 258  126.6799
 259  90.15443
 260  167.6279
 261  316.0367
 262  312.6082
 263  196.4861
 264  108.7447
 265  257.6034
 266  120.0512
 267  146.7356
 268  254.4076
 269  365.1928
 270  362.3084
 271  368.0435
 272  152.432
 273  257.0988
 274  297.7041
 275  200.2628
 276  280.3689
 277  257.6223
 278  224.3358
 279  244.1781
 280  216.7349
 281  318.7717
 282  396.8924
 283  415.2198
 284  356.8526
 285  380.2979
 286  350.9622
 287  221.2921
 288  263.3476
 289  314.8025
 290  346.3005
 291  317.4834
 292  168.4596
 293  211.5712
 294  140.0919
 295  256.7885
 296  303.9025
 297  358.1177
 298  278.117
 299  37.60905
 300  147.4634
 301  164.7263
 302  243.4623
 303  289.178
 304  286.2472
 305  333.4244
 306  259.0132
 307  231.213
 308  268.4804
 309  280.4833
 310  305.7516
 311  326.7514
 312  320.9223
 313  270.2827
 314  308.6623
 315  307.9184
 316  286.8972
 317  331.8807
 318  343.8103
 319  316.0811
 320  416.5317
 321  277.7997
 322  251.0007
 323  376.8205
 324  322.1792
 325  301.5717
 326  227.5597
 327  258.7688
 328  332.0801
 329  298.346
 330  355.7284
 331  354.7337
 332  201.8975
 333  130.8451
 334  204.1266
 335  290.0179
 336  130.055
 337  274.9666
 338  343.8506
 339  330.7294
 340  410.824
 341  300.5194
 342  321.9402
 343  261.7996
 344  213.4105
 345  266.5953
 346  268.8497
 347  163.8627
 348  211.8822
 349  199.4581
 350  336.0704
 351  345.7068
 352  345.6436
 353  336.8139
 354  334.1173
 355  288.5297
 356  345.2078
 357  362.0038
 358  418.0621
 359  433.9642
 360  300.5854
 361  433.5766
 362  403.9025
 363  328.149
 364  253.3822
 365  232.8137
 366  297.7703
 367  258.315
 368  215.2773
 369  290.1149
 370  228.3508
 371  222.4255
 372  228.0505
 373  206.665
 374  293.8051
 375  183.7818
 376  142.8414
 377  164.945
 378  147.0917
 379  199.4113
 380  256.085
 381  280.51
 382  255.4434
 383  254.0583
 384  163.5695
 385  161.9317
 386  118.3745
 387  60.16142
 388  117.2724
 389  217.6812
 390  190.3685
 391  244.4041
 392  304.4748
 393  233.3897
 394  319.3514
 395  255.5782
 396  276.01
 397  292.6562
 398  294.3026
 399  362.4219
 400  325.7608
 401  298.6616
 402  288.5756
 403  235.3628
 404  282.3689
 405  286.5682
 406  363.9773
 407  333.3191
 408  205.5912
 409  364.128
 410  349.2434
 411  436.1885
 412  292.3885
 413  288.1678
 414  299.3587
 415  161.5587
 416  187.9131
 417  356.2021
 418  417.9651
 419  443.786
 420  315.1332
 421  255.1542
 422  189.1724
 423  164.3656
 424  283.8651
 425  515.1664
 426  334.6391
 427  230.7593
 428  320.8844
 429  228.9509
 430  96.44137
 431  169.3947
 432  228.1556
 433  281.0229
 434  272.29
 435  223.5582
 436  154.034
 437  167.8389
 438  277.2013
 439  314.3309
 440  408.9816
 441  531.7885
 442  421.4117
 443  721.3667
 444  835.4337
 445  867.779
 446  909.5152
 447  750.2778
 448  582.6461
 449  418.9549
 450  419.4966
 451  355.08
 452  337.1404
 453  248.2824
 454  285.0642
 455  283.4817
 456  290.6112
 457  274.489
 458  315.316
 459  312.4726
 460  314.1545
 461  371.2581
 462  352.4518
 463  354.2664
 464  262.2617
 465  252.2501
 466  334.4192
 467  216.0193
 468  215.5301
 469  205.5036
 470  152.0653
 471  162.432
 472  42.17379
 473  268.4418
 474  394.6568
 475  317.0297
 476  288.5834
 477  335.8405
 478  317.0908
 479  285.5071
 480  243.7523
 481  36.87348
 482  52.3598
 483  136.0219
 484  239.4803
 485  341.3637
 486  329.2747
 487  250.5527
 488  288.5304
 489  311.2672
 490  260.8884
 491  254.2144
 492  296.6818
 493  352.6401
 494  316.5685
 495  403.5619
 496  311.6087
 497  274.4652
 498  245.7862
 499  261.0704
 500  154.3654
 501  113.5055
 502  147.7781
 503  147.5122
 504  202.8555
 505  212.0629
 506  247.5926
 507  257.1527
 508  319.5511
 509  346.7834
 510  378.4669
 511  290.2598
