# Input file       =  1194914014.106114_cleaned.dat
# Candidate        =  PSR_0332+5434
# Telescope        =  AR
# Epoch_topo       =  58074.023531320760
# Epoch_bary       =  N/A
# T_sample         =  0.002
# Data Folded      =  7340032
# Data Avg         =  0.176436455478585
# Data StdDev      =  4.84278518083954 
# Profile Bins     =  256
# Profile Avg      =  5058.6475038918  
# Profile StdDev   =  820.019535450265 
# Reduced chi-sqr  =  1.120
# Prob(Noise)      <  0.0918   (~1.3 sigma)
# P_topo (ms)      =  714.511597146727  +/- 0.0011
# P'_topo (s/s)    =  -0                +/- 5.81e-10
# P''_topo (s/s^2) =  0                 +/- 2.56e-13
# P_bary (ms)      =  N/A
# P'_bary (s/s)    =  N/A
# P''_bary (s/s^2) =  N/A
# P_orb (s)        =  N/A
# asin(i)/c (s)    =  N/A
# eccentricity     =  N/A
# w (rad)          =  N/A
# T_peri           =  N/A
######################################################
   0  5597.606
   1  5160.308
   2  5992.625
   3  5198.552
   4  5098.44
   5  4796.343
   6  4019.452
   7  5426.889
   8  5171.092
   9  4593.552
  10  5010.372
  11  4432.236
  12  5090.86
  13  5014.312
  14  5144.341
  15  4650.775
  16  5406.523
  17  5366.848
  18  5404.021
  19  6080.729
  20  5010.755
  21  4706.746
  22  4902.893
  23  6092.944
  24  5908.351
  25  5413.286
  26  5217.159
  27  5375.722
  28  5837.276
  29  5027.828
  30  4975.546
  31  6396.146
  32  6423.77
  33  4779.511
  34  6003.964
  35  5637.604
  36  4757.547
  37  5504.962
  38  5522.025
  39  6211.093
  40  5062.21
  41  5899.739
  42  5569.129
  43  5319.437
  44  5098.131
  45  5598.844
  46  5205.2
  47  4913.554
  48  4839.835
  49  5215.411
  50  5276.623
  51  5316.461
  52  6705.826
  53  5640.6
  54  5147.675
  55  5654.63
  56  5142.921
  57  4905.871
  58  4751.917
  59  5543.612
  60  4758.514
  61  4565.763
  62  4810.412
  63  4579.271
  64  4117.354
  65  4096.109
  66  4668.135
  67  4628.678
  68  5129.569
  69  4218.207
  70  5162.807
  71  4831.485
  72  4319.141
  73  3710.532
  74  3753.896
  75  4532.964
  76  4289.034
  77  3660.73
  78  3725.178
  79  3774.3
  80  4214.318
  81  3939.779
  82  4194.451
  83  4054.591
  84  3812.496
  85  4332.873
  86  4892.897
  87  4793.308
  88  4546.434
  89  4358.395
  90  4745.041
  91  4358.861
  92  4399.369
  93  4152.588
  94  4273.046
  95  4418.835
  96  4768.17
  97  4834.566
  98  4206.194
  99  4321.775
 100  4223.739
 101  3522.876
 102  3609.533
 103  4067.368
 104  4491.694
 105  4135.351
 106  4101.143
 107  3387.794
 108  3630.765
 109  3819.121
 110  4220.077
 111  4059.814
 112  5192.941
 113  3727.797
 114  3952.677
 115  3270.616
 116  5060.767
 117  4997.36
 118  4019.127
 119  4383.066
 120  5205.765
 121  4574.869
 122  4598.915
 123  5014.819
 124  5123.563
 125  4753.892
 126  4894.517
 127  5174.823
 128  5442.007
 129  5650.385
 130  5347.351
 131  5128.592
 132  5633.09
 133  5667.03
 134  5931.726
 135  5328.669
 136  5984.289
 137  5204.096
 138  5394.755
 139  5246.422
 140  5347.116
 141  5042.078
 142  5608.048
 143  6101.63
 144  5669.628
 145  5515.871
 146  5665.372
 147  5492.845
 148  5767.503
 149  5408.514
 150  6036.038
 151  5252.422
 152  5112.082
 153  5878.869
 154  5959.29
 155  5953.399
 156  6393.307
 157  8760.101
 158  8696.417
 159  6641.443
 160  4756.162
 161  6461.292
 162  5925.424
 163  6844.632
 164  6115.194
 165  6009.422
 166  5630.868
 167  5803.005
 168  5642.769
 169  4897.103
 170  5524.749
 171  5544.372
 172  5049.56
 173  5645.536
 174  5404.509
 175  5030.544
 176  5125.034
 177  5131.334
 178  5039.431
 179  4615.469
 180  4377.767
 181  4056.082
 182  4655.381
 183  5537.785
 184  5452.507
 185  5713.65
 186  5437.298
 187  5527.952
 188  4988.556
 189  5298.336
 190  6063.022
 191  5580.415
 192  5766.889
 193  5078.806
 194  5052.34
 195  4673.453
 196  5732.822
 197  5054.21
 198  5807.042
 199  4832.646
 200  5259.023
 201  5702.207
 202  5327.764
 203  5109.03
 204  5391.788
 205  4464.386
 206  4732.923
 207  4852.452
 208  4914.297
 209  5054.757
 210  4789.632
 211  4496.622
 212  4366.202
 213  4841.271
 214  5400.224
 215  4797.555
 216  4652.166
 217  3924.409
 218  3630.309
 219  4615.231
 220  4743.864
 221  4534.99
 222  4214.749
 223  5061.216
 224  5181.667
 225  5446.753
 226  4914.337
 227  4700.312
 228  4720.424
 229  4812.511
 230  4583.199
 231  5268.924
 232  5862.851
 233  5709.071
 234  5036.51
 235  5333.696
 236  5198.245
 237  4644.541
 238  5513.479
 239  5210.278
 240  4674.792
 241  4489.076
 242  4848.918
 243  5356.793
 244  4441.366
 245  4030.512
 246  4877.034
 247  4337.766
 248  4707.808
 249  5651.086
 250  5456.57
 251  4529.942
 252  5740.209
 253  7208.001
 254  5675.446
 255  5497.342
