# Input file       =  1194224056.102329-PSRB0329-2ms-sampling-dd.dat
# Candidate        =  PSR_0332+5434
# Telescope        =  AR
# Epoch_topo       =  58066.037906276957
# Epoch_bary       =  N/A
# T_sample         =  0.002
# Data Folded      =  7340032
# Data Avg         =  -4.50246613936872e-10
# Data StdDev      =  7.71922917780369 
# Profile Bins     =  512
# Profile Avg      =  0.308395564489556
# Profile StdDev   =  924.246747946564 
# Reduced chi-sqr  =  0.386
# Prob(Noise)      <  1   (~0.0 sigma)
# P_topo (ms)      =  714.503616469185  +/- 0.000644
# P'_topo (s/s)    =  -0                +/- 3.4e-10
# P''_topo (s/s^2) =  0                 +/- 1.5e-13
# P_bary (ms)      =  N/A
# P'_bary (s/s)    =  N/A
# P''_bary (s/s^2) =  N/A
# P_orb (s)        =  N/A
# asin(i)/c (s)    =  N/A
# eccentricity     =  N/A
# w (rad)          =  N/A
# T_peri           =  N/A
######################################################
   0  -40.09716
   1  -232.3791
   2  117.3444
   3  -313.9922
   4  -292.071
   5  -76.60423
   6  -710.1611
   7  -646.3811
   8  -187.8256
   9  126.0809
  10  29.69652
  11  -630.3713
  12  -602.0812
  13  -800.5566
  14  -942.462
  15  -615.9385
  16  -292.3652
  17  0.2394106
  18  27.65631
  19  -352.5536
  20  -284.4426
  21  -509.3091
  22  -669.7296
  23  -651.5015
  24  -219.897
  25  264.7756
  26  102.2774
  27  -207.4939
  28  -378.975
  29  -152.2046
  30  -268.642
  31  80.21069
  32  296.3066
  33  554.9333
  34  338.6278
  35  91.44965
  36  65.51331
  37  32.46282
  38  -140.2582
  39  -191.626
  40  -268.4159
  41  -240.5713
  42  463.3961
  43  468.2165
  44  327.7501
  45  462.316
  46  545.0411
  47  402.555
  48  339.0016
  49  313.4625
  50  380.8628
  51  599.1825
  52  1016.909
  53  819.3502
  54  -50.18127
  55  -165.0475
  56  -94.01888
  57  373.5208
  58  1096.704
  59  1448.479
  60  1199.558
  61  797.7122
  62  226.0699
  63  65.85124
  64  350.9286
  65  -0.5552118
  66  621.5724
  67  481.0581
  68  609.8543
  69  169.7372
  70  -482.6011
  71  -436.2772
  72  -557.5978
  73  -674.6506
  74  -464.0492
  75  -204.3295
  76  -4.292264
  77  -150.2471
  78  -351.431
  79  -659.8511
  80  -462.6281
  81  -88.98519
  82  -9.333304
  83  97.16685
  84  181.0052
  85  60.73401
  86  127.4741
  87  282.3417
  88  -176.49
  89  -187.5627
  90  -316.0027
  91  -104.828
  92  -64.87233
  93  -197.9026
  94  -323.3933
  95  -331.8647
  96  352.7734
  97  315.7463
  98  493.7849
  99  76.74065
 100  138.3524
 101  90.42681
 102  -168.2829
 103  -512.9487
 104  -226.5376
 105  -193.9681
 106  -569.4186
 107  -178.4886
 108  333.4132
 109  152.0835
 110  -339.3437
 111  -606.1607
 112  -345.6553
 113  -104.238
 114  -184.0699
 115  138.2068
 116  322.0337
 117  -10.4018
 118  41.08838
 119  -85.80132
 120  18.62343
 121  -139.4075
 122  -102.322
 123  165.2302
 124  597.4632
 125  865.2643
 126  839.3192
 127  334.3199
 128  188.6486
 129  147.8499
 130  373.692
 131  619.646
 132  707.533
 133  1033.241
 134  656.6805
 135  354.7978
 136  108.9633
 137  -559.5774
 138  -451.6846
 139  -93.16144
 140  134.5595
 141  293.1667
 142  704.1124
 143  350.4644
 144  344.2951
 145  496.1933
 146  702.9478
 147  362.5771
 148  466.5609
 149  817.5897
 150  691.5855
 151  298.9845
 152  507.3706
 153  375.1952
 154  89.34151
 155  346.1109
 156  210.777
 157  514.1055
 158  263.9572
 159  241.7408
 160  301.8944
 161  -344.2962
 162  -75.35019
 163  229.3703
 164  -112.1896
 165  -317.8756
 166  -216.9677
 167  -141.027
 168  -136.9687
 169  -296.5431
 170  -289.7997
 171  -412.5598
 172  -702.3822
 173  -561.0513
 174  -535.649
 175  -144.8418
 176  134.6348
 177  321.7746
 178  55.74977
 179  173.5103
 180  -81.5504
 181  -348.5753
 182  51.39465
 183  83.92418
 184  -41.59886
 185  50.86597
 186  435.0365
 187  133.152
 188  -46.81018
 189  375.1712
 190  547.5809
 191  408.6372
 192  188.3465
 193  259.1876
 194  264.8708
 195  -93.68766
 196  -81.67722
 197  157.4485
 198  -62.64651
 199  -72.10421
 200  -196.3226
 201  66.52692
 202  -146.6649
 203  -555.3133
 204  -672.3886
 205  -194.1242
 206  -112.513
 207  -147.9869
 208  69.02767
 209  136.8162
 210  -257.2709
 211  -293.6208
 212  149.7484
 213  112.6345
 214  246.1836
 215  310.9626
 216  351.2204
 217  317.1808
 218  408.3241
 219  436.1057
 220  39.42308
 221  76.77205
 222  245.5624
 223  -72.66535
 224  10.12863
 225  -26.00329
 226  -195.7166
 227  -269.9872
 228  -96.85776
 229  67.11198
 230  -289.1887
 231  -94.771
 232  -298.0799
 233  -370.5829
 234  -125.2062
 235  -409.6321
 236  107.3705
 237  -41.35551
 238  -349.9109
 239  -673.0928
 240  -785.6609
 241  -772.8297
 242  -890.5449
 243  -978.6133
 244  -719.0146
 245  -437.3742
 246  -316.2711
 247  -533.6232
 248  -301.8512
 249  -25.31655
 250  -541.2573
 251  -453.8267
 252  7.292347
 253  298.4075
 254  -95.43586
 255  -366.124
 256  7.447234
 257  221.5503
 258  223.1925
 259  287.0209
 260  501.9429
 261  354.1867
 262  131.1752
 263  112.5877
 264  270.9057
 265  318.0606
 266  812.5345
 267  1016.213
 268  400.8461
 269  253.5054
 270  410.2038
 271  272.4814
 272  217.5323
 273  309.3211
 274  616.4218
 275  707.0223
 276  432.4815
 277  755.2762
 278  651.4944
 279  404.5325
 280  325.7426
 281  493.6929
 282  600.8393
 283  901.0714
 284  712.3309
 285  817.0012
 286  348.7418
 287  359.705
 288  8.390105
 289  -41.11467
 290  497.1276
 291  584.092
 292  500.845
 293  169.4967
 294  341.5477
 295  482.3774
 296  540.8134
 297  423.961
 298  309.8583
 299  152.3899
 300  504.4344
 301  734.6525
 302  689.7949
 303  -84.00661
 304  -176.0282
 305  -296.9333
 306  -382.981
 307  -383.8398
 308  -757.7145
 309  -852.4055
 310  -641.1857
 311  -506.49
 312  -460.9357
 313  -609.7164
 314  -216.2704
 315  -682.0922
 316  -792.6386
 317  -413.3885
 318  -430.1067
 319  -597.628
 320  -426.9339
 321  -630.1509
 322  -1009.657
 323  -1119.334
 324  -960.734
 325  -960.2615
 326  -590.0839
 327  -229.6133
 328  -188.3376
 329  -397.0789
 330  -30.49597
 331  -209.2402
 332  73.23037
 333  171.4935
 334  169.0204
 335  280.6894
 336  792.5419
 337  542.6871
 338  -112.0243
 339  -266.9668
 340  -119.7261
 341  -577.4818
 342  -522.0855
 343  -352.2304
 344  61.82467
 345  65.83359
 346  51.35795
 347  257.8878
 348  -65.81736
 349  42.48692
 350  -280.048
 351  -347.8178
 352  -388.666
 353  -206.7159
 354  -337.943
 355  -488.2983
 356  -227.2707
 357  -35.65842
 358  75.13211
 359  373.3981
 360  430.1398
 361  108.0568
 362  -280.0829
 363  -38.16343
 364  53.75449
 365  -567.6046
 366  -301.6018
 367  -239.6676
 368  -447.861
 369  -312.8173
 370  -442.7889
 371  -354.3487
 372  -571.5546
 373  -300.7414
 374  -164.9625
 375  -525.5346
 376  -753.8374
 377  -830.6744
 378  -718.7249
 379  -95.32527
 380  24.4502
 381  65.16071
 382  80.1797
 383  172.8082
 384  -34.99181
 385  -269.5615
 386  -315.0437
 387  -167.989
 388  -280.1036
 389  -261.5396
 390  -222.6008
 391  -305.8363
 392  290.0431
 393  57.89724
 394  338.9344
 395  55.42085
 396  -443.7636
 397  -242.3135
 398  -325.41
 399  -131.7953
 400  -575.0439
 401  -99.88987
 402  107.7446
 403  -293.687
 404  -149.8193
 405  -163.7293
 406  -278.0948
 407  -415.2589
 408  -424.0505
 409  -243.4314
 410  -315.902
 411  -72.56553
 412  -234.1592
 413  -321.2972
 414  -440.1713
 415  -473.5885
 416  -538.3768
 417  -451.8371
 418  -8.386269
 419  191.8808
 420  -186.6226
 421  -173.3565
 422  -283.3625
 423  -235.4568
 424  -545.1283
 425  -484.1648
 426  -236.035
 427  298.1227
 428  157.0467
 429  219.973
 430  -173.6271
 431  -124.9017
 432  47.21961
 433  -157.1564
 434  -82.43929
 435  145.8868
 436  319.8686
 437  3.140465
 438  264.7268
 439  231.7752
 440  -4.339134
 441  -173.813
 442  -277.2812
 443  -369.614
 444  -248.0596
 445  113.101
 446  -97.43356
 447  -67.17677
 448  30.32003
 449  -197.8706
 450  -362.883
 451  -389.2059
 452  -272.4474
 453  -260.47
 454  58.96089
 455  159.8519
 456  -270.6462
 457  -664.0894
 458  -279.4478
 459  190.0051
 460  346.159
 461  196.0894
 462  114.021
 463  58.80159
 464  223.7204
 465  424.5114
 466  244.6137
 467  256.7448
 468  302.1059
 469  -40.34939
 470  -42.22829
 471  -25.23848
 472  207.0965
 473  -368.1279
 474  -323.6393
 475  86.12977
 476  36.46241
 477  -225.256
 478  2.840139
 479  28.56698
 480  192.7623
 481  10.09005
 482  -275.8256
 483  -296.8571
 484  331.0623
 485  282.9735
 486  345.4876
 487  862.6746
 488  962.3613
 489  1042.509
 490  773.9261
 491  873.2913
 492  1331.316
 493  1288.446
 494  1132.656
 495  912.8032
 496  865.9999
 497  242.814
 498  15.2062
 499  320.1254
 500  163.587
 501  -85.1069
 502  16.86935
 503  6.175909
 504  105.0471
 505  378.523
 506  -43.95359
 507  267.4156
 508  226.6386
 509  19.06829
 510  -350.3414
 511  -343.8359
