# Input file       =  1194726807.10001_cleaned.dat
# Candidate        =  PSR_0332+5434
# Telescope        =  AR
# Epoch_topo       =  58071.856783564930
# Epoch_bary       =  N/A
# T_sample         =  0.002
# Data Folded      =  7340032
# Data Avg         =  0.0298496046330419
# Data StdDev      =  1.00029974825182 
# Profile Bins     =  512
# Profile Avg      =  427.948824389216 
# Profile StdDev   =  119.768926145105 
# Reduced chi-sqr  =  1.100
# Prob(Noise)      <  0.0584   (~1.6 sigma)
# P_topo (ms)      =  714.509058952547  +/- 0.000245
# P'_topo (s/s)    =  -0                +/- 1.29e-10
# P''_topo (s/s^2) =  0                 +/- 5.71e-14
# P_bary (ms)      =  N/A
# P'_bary (s/s)    =  N/A
# P''_bary (s/s^2) =  N/A
# P_orb (s)        =  N/A
# asin(i)/c (s)    =  N/A
# eccentricity     =  N/A
# w (rad)          =  N/A
# T_peri           =  N/A
######################################################
   0  922.8641
   1  908.3652
   2  819.1904
   3  559.5146
   4  381.6848
   5  374.4306
   6  488.4633
   7  533.154
   8  413.7195
   9  429.1957
  10  443.9617
  11  443.9836
  12  470.8431
  13  514.4174
  14  516.2616
  15  579.9547
  16  517.5002
  17  469.6344
  18  375.2665
  19  370.7183
  20  440.0489
  21  276.6507
  22  296.2587
  23  301.2821
  24  355.5336
  25  508.917
  26  360.1644
  27  292.9362
  28  374.877
  29  484.8427
  30  471.2089
  31  485.5594
  32  475.1654
  33  533.9627
  34  493.2579
  35  422.0326
  36  303.5403
  37  298.1699
  38  390.3513
  39  496.437
  40  511.5343
  41  425.1868
  42  284.4627
  43  379.7872
  44  417.5875
  45  345.022
  46  309.8066
  47  344.1083
  48  416.7764
  49  444.5772
  50  368.8671
  51  321.9461
  52  472.5858
  53  487.0089
  54  467.6324
  55  546.0792
  56  515.7275
  57  354.0896
  58  245.3666
  59  319.9454
  60  371.8312
  61  364.735
  62  376.3401
  63  473.721
  64  380.3813
  65  403.3481
  66  485.5538
  67  580.8549
  68  355.3437
  69  281.5932
  70  373.039
  71  352.3412
  72  429.6963
  73  500.1087
  74  514.175
  75  431.0747
  76  402.1943
  77  456.2023
  78  454.7758
  79  465.0037
  80  362.4225
  81  428.4061
  82  421.851
  83  540.5359
  84  458.6195
  85  455.45
  86  459.432
  87  421.1361
  88  417.244
  89  392.8221
  90  295.4093
  91  231.1216
  92  406.2032
  93  404.7202
  94  413.4489
  95  410.1331
  96  461.3128
  97  383.8331
  98  397.3669
  99  453.1887
 100  489.6167
 101  415.5544
 102  335.7904
 103  355.2977
 104  440.8742
 105  447.5958
 106  436.7043
 107  371.875
 108  355.3196
 109  457.4659
 110  590.0049
 111  487.5192
 112  239.1355
 113  344.7285
 114  373.8275
 115  399.757
 116  435.9619
 117  458.2103
 118  430.8246
 119  448.2379
 120  443.2799
 121  394.4708
 122  338.545
 123  326.8372
 124  382.4521
 125  449.7133
 126  424.855
 127  459.228
 128  378.351
 129  361.3126
 130  392.4136
 131  310.3553
 132  375.1591
 133  469.4438
 134  434.5437
 135  481.1644
 136  367.0211
 137  321.476
 138  325.5386
 139  449.8323
 140  420.2849
 141  499.1812
 142  479.5545
 143  384.8633
 144  430.5909
 145  486.2879
 146  450.8738
 147  427.5051
 148  510.8836
 149  590.212
 150  449.7567
 151  433.1098
 152  506.4525
 153  552.891
 154  418.8306
 155  382.0131
 156  398.7048
 157  458.5828
 158  493.4342
 159  455.7043
 160  362.7792
 161  271.6994
 162  393.4071
 163  415.9003
 164  341.1545
 165  228.1799
 166  202.3681
 167  173.7777
 168  319.31
 169  375.4355
 170  433.5848
 171  406.3835
 172  341.963
 173  238.576
 174  256.4901
 175  305.7068
 176  325.2076
 177  375.0627
 178  339.4144
 179  346.6203
 180  367.2974
 181  354.5583
 182  355.1294
 183  382.5882
 184  436.0109
 185  481.5514
 186  432.5275
 187  441.9435
 188  472.0724
 189  582.9052
 190  550.7416
 191  450.8688
 192  518.9432
 193  546.9308
 194  425.0247
 195  445.0524
 196  488.1772
 197  490.135
 198  432.9861
 199  427.1314
 200  554.136
 201  569.5623
 202  444.8252
 203  563.627
 204  564.9311
 205  491.9581
 206  448.0608
 207  382.4155
 208  452.0387
 209  313.1498
 210  234.7532
 211  259.8286
 212  305.4219
 213  399.21
 214  287.0924
 215  352.2247
 216  413.8287
 217  325.9235
 218  272.1409
 219  332.3044
 220  321.9691
 221  373.8867
 222  415.6098
 223  429.6902
 224  435.0997
 225  412.2535
 226  426.7713
 227  421.7145
 228  492.4286
 229  392.9652
 230  391.7522
 231  430.0616
 232  424.8315
 233  389.543
 234  411.7428
 235  538.1113
 236  525.657
 237  424.0691
 238  414.3806
 239  507.6795
 240  551.8252
 241  303.3024
 242  354.9658
 243  399.5344
 244  301.7506
 245  366.0885
 246  374.6596
 247  425.6863
 248  368.1309
 249  292.5966
 250  300.2873
 251  357.1542
 252  409.0368
 253  468.5745
 254  597.9327
 255  579.8765
 256  523.1541
 257  347.2811
 258  337.7535
 259  381.2789
 260  475.0404
 261  484.3862
 262  422.7737
 263  424.521
 264  420.0518
 265  425.8448
 266  387.9599
 267  421.3277
 268  439.5742
 269  514.3982
 270  470.8044
 271  280.5458
 272  389.6364
 273  464.8931
 274  442.0162
 275  440.3822
 276  395.194
 277  377.5679
 278  375.2491
 279  434.4281
 280  413.2963
 281  404.0075
 282  535.996
 283  476.7999
 284  359.4185
 285  397.4425
 286  372.4375
 287  448.3135
 288  517.8677
 289  500.106
 290  431.4085
 291  497.0716
 292  432.8564
 293  452.6211
 294  481.84
 295  355.839
 296  450.0165
 297  596.5518
 298  431.8868
 299  421.8636
 300  364.7932
 301  369.3281
 302  406.7514
 303  459.3497
 304  487.0394
 305  427.4948
 306  563.6893
 307  510.136
 308  504.7299
 309  484.0934
 310  396.0876
 311  276.5356
 312  357.1107
 313  429.6246
 314  478.4659
 315  425.0895
 316  504.6388
 317  377.3255
 318  381.563
 319  450.6896
 320  515.3764
 321  527.5519
 322  460.1756
 323  500.0045
 324  461.161
 325  438.2134
 326  454.4597
 327  497.4202
 328  521.9135
 329  484.3089
 330  367.5847
 331  289.5267
 332  385.8522
 333  291.086
 334  368.1179
 335  436.9818
 336  393.6932
 337  356.2689
 338  374.7869
 339  529.5536
 340  464.3057
 341  357.8982
 342  333.6822
 343  390.4593
 344  463.719
 345  489.2552
 346  542.735
 347  452.6742
 348  412.5209
 349  442.399
 350  430.6987
 351  389.4282
 352  434.3736
 353  496.6523
 354  526.9788
 355  412.4779
 356  365.3476
 357  378.5118
 358  373.0079
 359  496.7982
 360  433.1562
 361  347.6924
 362  406.1209
 363  462.502
 364  380.9941
 365  369.5827
 366  526.2173
 367  448.2188
 368  239.9915
 369  244.9414
 370  420.0181
 371  560.1988
 372  554.8397
 373  465.1829
 374  454.0283
 375  454.0805
 376  535.9813
 377  520.7405
 378  463.1709
 379  469.9308
 380  403.0167
 381  430.1615
 382  455.186
 383  434.5176
 384  380.3525
 385  371.3528
 386  471.1187
 387  528.1143
 388  477.4553
 389  449.47
 390  361.6146
 391  342.4167
 392  393.6997
 393  432.2799
 394  374.1849
 395  386.1976
 396  455.1912
 397  418.5145
 398  398.117
 399  366.4956
 400  378.911
 401  409.6533
 402  428.6331
 403  451.3517
 404  423.1498
 405  439.4641
 406  319.5569
 407  363.8626
 408  413.713
 409  434.6331
 410  271.7094
 411  280.1965
 412  398.8849
 413  463.106
 414  425.0091
 415  427.8596
 416  337.2176
 417  490.3864
 418  348.6185
 419  312.3239
 420  350.0988
 421  441.6575
 422  403.5629
 423  573.6202
 424  644.0494
 425  635.2225
 426  372.2112
 427  380.9536
 428  470.5662
 429  497.5018
 430  457.7422
 431  359.3385
 432  345.1425
 433  455.1556
 434  419.3891
 435  426.9324
 436  401.6951
 437  446.6399
 438  430.5222
 439  388.338
 440  405.9535
 441  426.6436
 442  552.9124
 443  400.5369
 444  370.924
 445  418.2844
 446  360.3336
 447  527.8712
 448  519.5831
 449  523.9514
 450  473.9973
 451  395.1058
 452  459.6909
 453  410.8433
 454  422.4867
 455  376.0036
 456  386.3508
 457  545.7156
 458  563.7907
 459  560.6317
 460  436.6556
 461  330.5452
 462  340.1179
 463  480.1136
 464  462.7622
 465  460.0506
 466  311.7553
 467  189.5292
 468  303.8999
 469  455.0732
 470  509.2196
 471  409.7776
 472  450.1049
 473  408.2865
 474  370.8586
 475  395.3984
 476  259.1016
 477  264.7764
 478  508.3781
 479  372.9467
 480  404.7474
 481  426.1628
 482  492.5233
 483  552.0767
 484  532.5624
 485  507.1077
 486  435.6237
 487  413.3406
 488  497.7187
 489  515.5699
 490  535.5757
 491  575.3687
 492  509.4271
 493  338.8643
 494  413.7086
 495  436.254
 496  296.5136
 497  301.5796
 498  452.7838
 499  433.285
 500  455.1354
 501  359.0724
 502  501.4129
 503  574.389
 504  488.4211
 505  574.6651
 506  501.3768
 507  567.4714
 508  645.2402
 509  775.1982
 510  844.9192
 511  904.8652
