# Input file       =  1194884445.113245_cleaned.dat
# Candidate        =  PSR_0332+5434
# Telescope        =  AR
# Epoch_topo       =  58073.681297607000
# Epoch_bary       =  N/A
# T_sample         =  0.002
# Data Folded      =  7208960
# Data Avg         =  0.0279380779633362
# Data StdDev      =  1.00009622220397 
# Profile Bins     =  512
# Profile Avg      =  393.295827548    
# Profile StdDev   =  118.670593440947 
# Reduced chi-sqr  =  1.410
# Prob(Noise)      <  2.48e-09   (~5.8 sigma)
# P_topo (ms)      =  714.510882559108  +/- 6.49e-05
# P'_topo (s/s)    =  -0                +/- 3.48e-11
# P''_topo (s/s^2) =  0                 +/- 1.57e-14
# P_bary (ms)      =  N/A
# P'_bary (s/s)    =  N/A
# P''_bary (s/s^2) =  N/A
# P_orb (s)        =  N/A
# asin(i)/c (s)    =  N/A
# eccentricity     =  N/A
# w (rad)          =  N/A
# T_peri           =  N/A
######################################################
   0  1051.874
   1  952.7064
   2  895.5802
   3  602.8226
   4  446.755
   5  397.5614
   6  433.6551
   7  316.1273
   8  382.8997
   9  489.5458
  10  510.1476
  11  475.5093
  12  479.5883
  13  444.7643
  14  470.9359
  15  498.9579
  16  441.8414
  17  494.8132
  18  457.3098
  19  331.892
  20  296.7269
  21  436.3079
  22  423.8467
  23  447.3651
  24  452.9127
  25  443.9661
  26  314.2097
  27  419.4973
  28  347.5096
  29  319.513
  30  427.1943
  31  469.4412
  32  525.3621
  33  526.6868
  34  606.7427
  35  456.4686
  36  418.5916
  37  523.4979
  38  442.595
  39  437.7139
  40  373.236
  41  489.2408
  42  555.4568
  43  471.6676
  44  331.1998
  45  295.7702
  46  393.2994
  47  387.3004
  48  317.5002
  49  374.4289
  50  311.7884
  51  339.6301
  52  302.4776
  53  305.5666
  54  408.2251
  55  396.3548
  56  488.7278
  57  437.0178
  58  359.8762
  59  315.9539
  60  386.9753
  61  311.8042
  62  379.8889
  63  405.8134
  64  359.0154
  65  432.9478
  66  370.7334
  67  297.5895
  68  414.0659
  69  373.894
  70  398.1527
  71  400.5046
  72  347.099
  73  339.8041
  74  449.3354
  75  318.8339
  76  389.9512
  77  423.1819
  78  437.486
  79  331.6538
  80  339.4875
  81  462.9133
  82  503.4775
  83  388.44
  84  454.4975
  85  561.098
  86  491.007
  87  342.3774
  88  407.6425
  89  538.4315
  90  450.4679
  91  415.5591
  92  457.7249
  93  425.133
  94  449.6813
  95  373.58
  96  398.3421
  97  424.1707
  98  382.8506
  99  528.8445
 100  351.4735
 101  283.3149
 102  306.7115
 103  322.025
 104  381.3555
 105  326.9991
 106  304.1521
 107  208.4235
 108  355.8784
 109  379.3289
 110  427.2544
 111  253.7263
 112  332.1772
 113  455.8464
 114  338.7092
 115  287.2586
 116  415.7343
 117  379.3516
 118  305.144
 119  171.7124
 120  200.5454
 121  324.083
 122  194.3902
 123  195.5934
 124  379.7168
 125  457.0008
 126  348.393
 127  376.4855
 128  470.3707
 129  471.588
 130  376.6475
 131  294.4662
 132  362.6348
 133  390.0831
 134  359.6935
 135  442.1236
 136  582.6476
 137  406.2245
 138  340.4255
 139  418.2399
 140  289.4922
 141  373.841
 142  391.3721
 143  455.3312
 144  446.3848
 145  358.8005
 146  357.8992
 147  422.8534
 148  479.6396
 149  549.6004
 150  418.8189
 151  384.5151
 152  299.9692
 153  402.8369
 154  459.9383
 155  367.7809
 156  305.7818
 157  368.4151
 158  210.1729
 159  325.07
 160  439.6319
 161  341.8941
 162  317.2776
 163  345.6628
 164  331.2701
 165  362.7561
 166  372.1727
 167  443.7546
 168  441.4958
 169  307.2182
 170  349.5528
 171  376.5686
 172  325.2057
 173  329.4959
 174  384.338
 175  338.6825
 176  426.1256
 177  414.564
 178  463.9538
 179  293.1961
 180  301.3511
 181  373.6572
 182  331.0255
 183  358.4871
 184  254.5031
 185  385.2501
 186  310.7356
 187  360.7057
 188  346.712
 189  339.8352
 190  364.5425
 191  319.4627
 192  383.1241
 193  313.3108
 194  236.485
 195  361.8589
 196  336.4207
 197  324.5733
 198  375.3219
 199  391.8617
 200  125.6407
 201  72.41166
 202  209.1645
 203  338.6742
 204  194.8439
 205  283.9972
 206  269.8716
 207  272.199
 208  331.9979
 209  294.0247
 210  413.7097
 211  303.9656
 212  330.5361
 213  427.9536
 214  367.1826
 215  309.4574
 216  323.5244
 217  326.1
 218  301.5249
 219  277.7484
 220  441.9646
 221  457.9507
 222  395.517
 223  331.6331
 224  442.5481
 225  401.6264
 226  406.5971
 227  330.7234
 228  387.4928
 229  358.9105
 230  358.3919
 231  461.299
 232  446.7786
 233  454.5191
 234  380.0918
 235  495.4772
 236  352.4164
 237  399.315
 238  569.2773
 239  506.9315
 240  346.0876
 241  380.2122
 242  568.5787
 243  442.2326
 244  280.6429
 245  364.013
 246  344.4258
 247  331.621
 248  234.5344
 249  282.8422
 250  374.1126
 251  416.5782
 252  481.8674
 253  638.3837
 254  586.71
 255  430.5739
 256  409.5189
 257  487.4056
 258  422.6583
 259  409.4893
 260  425.4174
 261  358.5465
 262  436.0184
 263  426.3437
 264  340.641
 265  323.7004
 266  400.324
 267  351.7797
 268  310.0613
 269  335.0778
 270  512.8684
 271  439.4044
 272  467.5396
 273  397.5876
 274  391.7547
 275  393.8215
 276  382.1813
 277  399.2692
 278  462.0982
 279  484.0154
 280  442.741
 281  421.121
 282  480.4717
 283  334.2232
 284  274.2967
 285  356.2918
 286  429.724
 287  356.0576
 288  353.6115
 289  322.916
 290  432.9
 291  299.8937
 292  352.9673
 293  436.9767
 294  345.5606
 295  259.035
 296  278.1632
 297  367.7133
 298  309.5955
 299  414.6071
 300  472.8744
 301  377.9407
 302  349.0962
 303  543.2583
 304  440.9633
 305  380.6734
 306  377.9528
 307  438.0302
 308  397.3528
 309  287.862
 310  439.8694
 311  493.133
 312  331.2101
 313  166.4021
 314  259.5599
 315  358.7921
 316  436.4698
 317  491.9879
 318  401.981
 319  254.1944
 320  174.0563
 321  416.2912
 322  472.0699
 323  362.433
 324  335.6385
 325  326.2602
 326  306.7425
 327  221.3952
 328  393.5253
 329  322.2758
 330  370.883
 331  339.8623
 332  438.8781
 333  404.3958
 334  513.6552
 335  472.497
 336  380.8126
 337  403.2104
 338  485.2051
 339  335.0959
 340  294.942
 341  305.1545
 342  386.2687
 343  244.9983
 344  260.8233
 345  361.9796
 346  401.2797
 347  377.5258
 348  310.9854
 349  282.8011
 350  254.4121
 351  280.2253
 352  286.0014
 353  309.1595
 354  363.8786
 355  367.8421
 356  455.0001
 357  333.3755
 358  194.0708
 359  349.8349
 360  405.7331
 361  384.9343
 362  361.2773
 363  314.7536
 364  324.17
 365  379.3772
 366  165.1363
 367  373.3068
 368  412.1662
 369  419.0026
 370  435.5572
 371  447.407
 372  518.5906
 373  381.373
 374  486.1523
 375  444.2765
 376  404.9279
 377  440.9978
 378  430.8325
 379  482.5579
 380  370.4585
 381  351.5032
 382  317.8444
 383  335.2207
 384  335.9751
 385  481.3459
 386  374.8643
 387  320.2863
 388  291.1187
 389  459.045
 390  360.5331
 391  217.9198
 392  393.9092
 393  435.6215
 394  408.2397
 395  379.0674
 396  444.9986
 397  447.5153
 398  459.8511
 399  411.7478
 400  429.6525
 401  309.0347
 402  227.5507
 403  427.0854
 404  458.7279
 405  479.8873
 406  425.2199
 407  377.155
 408  493.8116
 409  396.9134
 410  427.0652
 411  429.7775
 412  477.9477
 413  445.0591
 414  372.4491
 415  388.8132
 416  379.3086
 417  344.2166
 418  401.0203
 419  403.674
 420  292.7834
 421  254.9351
 422  410.5966
 423  379.8689
 424  391.4374
 425  355.3022
 426  310.6519
 427  310.1088
 428  255.466
 429  473.3686
 430  475.1512
 431  366.57
 432  372.0467
 433  445.8011
 434  523.3519
 435  367.4604
 436  391.4161
 437  419.9446
 438  471.5023
 439  368.7726
 440  321.5199
 441  297.4644
 442  366.3538
 443  494.8326
 444  389.0619
 445  347.1767
 446  486.321
 447  424.1891
 448  463.9366
 449  467.2816
 450  615.4069
 451  446.9083
 452  341.09
 453  408.2347
 454  379.4043
 455  483.8069
 456  492.473
 457  455.1165
 458  469.4969
 459  354.6647
 460  361.0062
 461  558.4198
 462  468.3973
 463  313.9263
 464  352.8585
 465  364.4222
 466  296.7926
 467  185.1147
 468  345.2569
 469  394.5876
 470  315.3918
 471  357.0255
 472  337.4234
 473  359.9298
 474  372.1177
 475  353.5427
 476  347.2661
 477  273.5111
 478  384.0601
 479  347.8038
 480  295.7851
 481  405.2942
 482  622.1343
 483  317.5455
 484  201.7266
 485  363.3239
 486  579.6027
 487  655.1522
 488  491.7078
 489  480.152
 490  476.886
 491  449.0612
 492  424.6081
 493  546.9084
 494  444.4476
 495  278.1946
 496  431.4627
 497  398.7191
 498  307.3605
 499  440.7326
 500  437.1766
 501  423.2261
 502  496.8959
 503  486.3673
 504  417.4011
 505  482.3591
 506  626.179
 507  699.3776
 508  668.8694
 509  797.7736
 510  889.0573
 511  957.6433
