# Input file       =  1194914014.106114-PSRB0329-2ms-sampling-dd.dat
# Candidate        =  PSR_0332+5434
# Telescope        =  AR
# Epoch_topo       =  58074.023531320760
# Epoch_bary       =  N/A
# T_sample         =  0.002
# Data Folded      =  7340032
# Data Avg         =  7.26324878690005e-10
# Data StdDev      =  6.32362959413285 
# Profile Bins     =  512
# Profile Avg      =  -0.00162998402402204
# Profile StdDev   =  757.147372227503 
# Reduced chi-sqr  =  0.612
# Prob(Noise)      <  1   (~0.0 sigma)
# P_topo (ms)      =  714.511597148011  +/- 0.0008
# P'_topo (s/s)    =  -0                +/- 4.22e-10
# P''_topo (s/s^2) =  0                 +/- 1.86e-13
# P_bary (ms)      =  N/A
# P'_bary (s/s)    =  N/A
# P''_bary (s/s^2) =  N/A
# P_orb (s)        =  N/A
# asin(i)/c (s)    =  N/A
# eccentricity     =  N/A
# w (rad)          =  N/A
# T_peri           =  N/A
######################################################
   0  57.52768
   1  40.1423
   2  -326.638
   3  -757.8324
   4  -200.3472
   5  520.6053
   6  725.2416
   7  862.4861
   8  485.8499
   9  -245.5299
  10  -48.98405
  11  -10.08324
  12  232.0164
  13  394.1751
  14  191.2757
  15  -18.75995
  16  620.0276
  17  644.4464
  18  467.1768
  19  -91.92194
  20  -67.07332
  21  -474.4001
  22  -540.6454
  23  -297.2674
  24  -545.3417
  25  -388.2187
  26  -219.2326
  27  -166.868
  28  -362.6203
  29  -438.9693
  30  -242.3315
  31  -360.7273
  32  -251.7789
  33  -17.69961
  34  -671.0743
  35  -879.5661
  36  -908.838
  37  -518.8592
  38  -196.0458
  39  -348.8327
  40  155.7914
  41  229.7189
  42  -346.3801
  43  -309.256
  44  -35.33237
  45  165.2181
  46  207.4254
  47  171.3616
  48  344.6381
  49  277.0386
  50  557.9138
  51  931.8209
  52  400.3402
  53  491.1624
  54  101.4102
  55  -262.5544
  56  -293.0964
  57  -202.1253
  58  495.7034
  59  502.9308
  60  778.5067
  61  336.5851
  62  170.3029
  63  55.73237
  64  74.56306
  65  -83.02294
  66  -306.078
  67  320.504
  68  343.5939
  69  466.9382
  70  242.148
  71  14.42172
  72  -69.51797
  73  38.57982
  74  695.2402
  75  552.796
  76  746.5026
  77  431.4214
  78  -281.3253
  79  -129.4492
  80  503.6994
  81  561.0444
  82  792.3727
  83  753.4226
  84  159.2891
  85  -91.63402
  86  -29.06357
  87  462.2297
  88  155.6557
  89  52.27115
  90  475.7937
  91  727.378
  92  217.331
  93  -32.57774
  94  790.9631
  95  719.1523
  96  41.71062
  97  330.9527
  98  637.019
  99  114.5332
 100  114.418
 101  131.879
 102  311.0681
 103  565.8326
 104  481.7388
 105  572.1292
 106  63.10835
 107  52.88102
 108  -221.2513
 109  -161.2222
 110  -208.1445
 111  -40.60516
 112  528.7037
 113  369.9067
 114  424.7047
 115  428.554
 116  944.772
 117  732.5202
 118  477.1055
 119  261.4742
 120  -250.0894
 121  -187.9322
 122  109.6342
 123  628.8954
 124  470.5331
 125  81.36525
 126  143.454
 127  135.5731
 128  -4.308813
 129  -229.6138
 130  -206.65
 131  161.6748
 132  13.07593
 133  -36.61713
 134  -231.4937
 135  -65.76804
 136  -223.2142
 137  -268.3194
 138  -528.0927
 139  -585.301
 140  -305.9061
 141  -517.8669
 142  -265.549
 143  -367.2855
 144  -365.3581
 145  -168.9706
 146  -163.127
 147  -255.7025
 148  76.09389
 149  357.4858
 150  -253.3331
 151  -593.619
 152  -346.5871
 153  140.2387
 154  258.753
 155  -357.6454
 156  -27.63334
 157  -282.4899
 158  -526.858
 159  -830.5087
 160  -886.0125
 161  -558.2373
 162  -400.9881
 163  -487.0821
 164  -377.6989
 165  25.73851
 166  -311.157
 167  -644.6094
 168  -1061.451
 169  -933.8355
 170  -657.7134
 171  -915.0448
 172  -117.3155
 173  -229.0853
 174  -294.1186
 175  -665.2839
 176  -992.6709
 177  -525.1618
 178  -631.5963
 179  -681.6748
 180  -251.7042
 181  -107.5172
 182  -112.0775
 183  -223.8275
 184  -213.0823
 185  -10.43439
 186  -6.092995
 187  -17.22097
 188  -400.2864
 189  -199.2108
 190  -135.5425
 191  -646.5762
 192  -632.9312
 193  -13.31572
 194  -180.4911
 195  -575.6301
 196  -812.86
 197  -673.0684
 198  -620.8423
 199  -556.5416
 200  -485.4937
 201  -386.6356
 202  -637.3351
 203  -965.004
 204  -1077.168
 205  -409.435
 206  69.00089
 207  -129.4424
 208  -2.014597
 209  -523.0384
 210  -858.0445
 211  -746.2126
 212  -648.5697
 213  -974.7965
 214  -994.1677
 215  -611.6208
 216  -469.1786
 217  -777.4179
 218  -673.5209
 219  -514.1113
 220  -258.1288
 221  -335.839
 222  -384.1079
 223  -196.0249
 224  -60.02874
 225  -290.9441
 226  -640.7451
 227  -829.7174
 228  -869.3012
 229  -1296.605
 230  -780.1135
 231  -971.9344
 232  -950.8461
 233  -545.5291
 234  -493.3065
 235  -759.5988
 236  -751.5302
 237  -365.9431
 238  -830.9697
 239  -857.3477
 240  -263.6138
 241  -398.2691
 242  -797.6989
 243  -989.8447
 244  21.4634
 245  -170.718
 246  -94.23451
 247  258.0031
 248  229.5621
 249  -84.2251
 250  -365.5444
 251  -23.11585
 252  203.7225
 253  158.0024
 254  60.2293
 255  62.61095
 256  52.80572
 257  90.40434
 258  127.2917
 259  -180.5282
 260  -41.32244
 261  -274.8374
 262  -328.3157
 263  -251.2526
 264  -167.0323
 265  186.4538
 266  16.25883
 267  289.5529
 268  138.3887
 269  1.464538
 270  275.8732
 271  -110.4677
 272  -1.368757
 273  331.2672
 274  475.1489
 275  528.1982
 276  669.9743
 277  426.2781
 278  -158.5921
 279  299.7828
 280  721.0366
 281  315.3068
 282  498.0745
 283  658.3604
 284  564.0872
 285  641.3286
 286  148.2205
 287  -103.7586
 288  118.1906
 289  546.5875
 290  218.4204
 291  661.0328
 292  402.9794
 293  73.87392
 294  -195.5719
 295  -111.4896
 296  13.92419
 297  237.4092
 298  608.1821
 299  300.0438
 300  -108.2297
 301  83.61557
 302  137.5976
 303  -138.4937
 304  -315.1655
 305  -264.4889
 306  -391.4391
 307  154.6111
 308  -40.4673
 309  510.8901
 310  308.6172
 311  -174.7249
 312  -236.2146
 313  223.3944
 314  144.4109
 315  -564.4473
 316  -228.5708
 317  121.0678
 318  267.0629
 319  179.5099
 320  336.0878
 321  -18.58915
 322  31.8965
 323  312.6549
 324  32.74057
 325  713.2759
 326  1208.059
 327  1664.177
 328  1484.921
 329  1261.971
 330  797.8632
 331  48.37915
 332  -376.4846
 333  -436.6858
 334  590.6943
 335  513.6419
 336  -59.80559
 337  -19.76353
 338  313.2057
 339  731.3923
 340  566.4576
 341  17.59779
 342  79.62937
 343  38.18542
 344  68.34507
 345  -107.9562
 346  175.3626
 347  401.7224
 348  347.8701
 349  697.3766
 350  646.0572
 351  -172.6655
 352  3.717038
 353  379.0347
 354  110.6004
 355  155.3521
 356  45.53761
 357  -157.8711
 358  -83.60664
 359  244.5309
 360  310.1839
 361  -2.264977
 362  -80.82806
 363  -90.4872
 364  53.709
 365  -254.3769
 366  49.77771
 367  -175.1902
 368  -137.7548
 369  -172.3105
 370  -262.8392
 371  -123.3526
 372  -426.1291
 373  -243.8539
 374  -235.0577
 375  -389.4033
 376  51.09117
 377  157.1577
 378  44.37992
 379  266.9242
 380  276.4386
 381  -20.7401
 382  170.1877
 383  535.2475
 384  285.6481
 385  41.748
 386  -52.42244
 387  303.7828
 388  375.0968
 389  194.7557
 390  266.0131
 391  512.9896
 392  589.9995
 393  176.9963
 394  -152.3552
 395  430.4122
 396  853.3513
 397  632.3862
 398  152.946
 399  -3.350921
 400  -42.18475
 401  -254.0543
 402  -186.0431
 403  -341.4531
 404  258.7654
 405  321.9027
 406  -123.4217
 407  266.0608
 408  434.3419
 409  638.7535
 410  482.2589
 411  -161.8939
 412  -39.48076
 413  220.3977
 414  636.9673
 415  619.192
 416  527.0877
 417  585.176
 418  511.4974
 419  13.72367
 420  297.6908
 421  181.74
 422  49.33686
 423  -202.8479
 424  88.4856
 425  -58.79883
 426  -200.1617
 427  105.2464
 428  31.06473
 429  -77.65781
 430  97.38754
 431  488.275
 432  298.0439
 433  -10.09633
 434  208.5198
 435  -162.6245
 436  -197.9449
 437  -259.6973
 438  7.611316
 439  -208.9854
 440  -99.9314
 441  503.326
 442  347.1563
 443  155.8286
 444  -118.8764
 445  378.2247
 446  63.56924
 447  -454.9828
 448  -397.6349
 449  -411.8933
 450  -380.5614
 451  138.8434
 452  176.3155
 453  -43.70411
 454  110.1731
 455  127.566
 456  -73.3657
 457  -123.8604
 458  171.7307
 459  285.498
 460  193.4108
 461  913.3033
 462  1029.272
 463  663.6085
 464  514.1686
 465  73.10064
 466  -55.42749
 467  -266.7714
 468  -77.81837
 469  -18.86415
 470  249.8246
 471  377.8642
 472  121.3873
 473  0.4071328
 474  -254.0596
 475  331.0707
 476  455.6955
 477  432.1729
 478  533.9738
 479  422.5571
 480  105.216
 481  108.5092
 482  39.11925
 483  391.3619
 484  275.528
 485  251.1779
 486  41.66781
 487  -469.2314
 488  92.96584
 489  142.2964
 490  246.6064
 491  468.253
 492  386.8102
 493  -27.01716
 494  -345.8216
 495  -325.7867
 496  -117.0363
 497  54.46811
 498  219.079
 499  -123.2488
 500  -235.3633
 501  -225.8101
 502  -486.8972
 503  -543.6835
 504  -452.8014
 505  -54.77756
 506  -471.5192
 507  -750.6816
 508  -533.2213
 509  -492.1931
 510  102.247
 511  302.8384
