# Input file       =  1194396499.114743_cleaned.dat
# Candidate        =  PSR_0332+5434
# Telescope        =  AR
# Epoch_topo       =  58068.033774476193
# Epoch_bary       =  N/A
# T_sample         =  0.002
# Data Folded      =  7340032
# Data Avg         =  0.0487934302873331
# Data StdDev      =  4.29049149883424 
# Profile Bins     =  1024
# Profile Avg      =  349.872999086905 
# Profile StdDev   =  363.250352260869 
# Reduced chi-sqr  =  0.785
# Prob(Noise)      <  1   (~0.0 sigma)
# P_topo (ms)      =  714.505571946109  +/- 0.000367
# P'_topo (s/s)    =  -0                +/- 1.94e-10
# P''_topo (s/s^2) =  0                 +/- 8.55e-14
# P_bary (ms)      =  N/A
# P'_bary (s/s)    =  N/A
# P''_bary (s/s^2) =  N/A
# P_orb (s)        =  N/A
# asin(i)/c (s)    =  N/A
# eccentricity     =  N/A
# w (rad)          =  N/A
# T_peri           =  N/A
######################################################
   0  551.1652
   1  506.8499
   2  479.4974
   3  400.694
   4  464.5591
   5  493.9755
   6  459.6972
   7  448.3349
   8  410.5033
   9  351.4142
  10  410.4525
  11  370.9677
  12  265.7674
  13  320.7271
  14  466.0468
  15  506.2602
  16  389.9507
  17  386.4979
  18  465.2057
  19  376.9086
  20  249.2913
  21  265.6295
  22  337.6944
  23  327.8312
  24  402.2896
  25  375.6196
  26  308.4284
  27  320.4487
  28  420.2997
  29  600.7296
  30  534.3392
  31  404.1059
  32  310.0923
  33  305.9664
  34  215.5929
  35  299.0018
  36  276.3636
  37  293.0874
  38  111.3967
  39  128.7742
  40  278.1779
  41  420.3036
  42  551.9031
  43  617.3868
  44  542.3608
  45  492.533
  46  332.8596
  47  209.9569
  48  103.0572
  49  52.62371
  50  68.01588
  51  125.0572
  52  155.1023
  53  269.8373
  54  339.3455
  55  314.6816
  56  219.4982
  57  171.7642
  58  211.6429
  59  267.012
  60  425.734
  61  470.1478
  62  420.5666
  63  186.6894
  64  263.426
  65  222.415
  66  245.2787
  67  213.1656
  68  325.9854
  69  442.3727
  70  399.4914
  71  395.62
  72  450.5899
  73  355.6443
  74  310.764
  75  212.3763
  76  215.505
  77  172.5171
  78  183.5918
  79  266.6952
  80  285.4244
  81  328.4373
  82  190.6358
  83  199.5689
  84  275.3782
  85  332.5368
  86  330.7657
  87  266.5007
  88  302.5437
  89  261.9524
  90  340.0224
  91  407.4158
  92  364.8622
  93  330.0008
  94  261.7478
  95  307.8348
  96  304.1687
  97  334.2502
  98  364.6721
  99  412.5462
 100  455.1081
 101  466.309
 102  372.5069
 103  321.0088
 104  308.3691
 105  336.0691
 106  325.0948
 107  357.8119
 108  388.8636
 109  358.6026
 110  338.3633
 111  309.5435
 112  206.8846
 113  205.8497
 114  204.4677
 115  395.7065
 116  377.5545
 117  304.2282
 118  161.8183
 119  73.76732
 120  11.87442
 121  78.1827
 122  124.4108
 123  264.3611
 124  275.1787
 125  334.2078
 126  233.4021
 127  221.9925
 128  233.141
 129  383.1824
 130  476.105
 131  603.8898
 132  543.8279
 133  400.0864
 134  287.4174
 135  226.7131
 136  203.4298
 137  268.928
 138  343.0331
 139  444.7468
 140  423.7061
 141  287.156
 142  290.7173
 143  275.9622
 144  399.4545
 145  362.3908
 146  473.5677
 147  506.2726
 148  574.4401
 149  575.1162
 150  532.3572
 151  613.4179
 152  665.71
 153  749.2463
 154  789.7147
 155  773.915
 156  636.6296
 157  563.1105
 158  601.1793
 159  490.675
 160  368.4292
 161  343.7437
 162  389.8784
 163  440.6016
 164  437.289
 165  618.2725
 166  684.3591
 167  704.6073
 168  588.7558
 169  503.461
 170  435.7095
 171  425.427
 172  427.5367
 173  451.6937
 174  436.862
 175  445.9388
 176  420.1986
 177  442.2618
 178  551.3011
 179  602.2417
 180  663.0788
 181  449.9473
 182  432.1548
 183  448.3685
 184  623.8012
 185  659.7947
 186  717.4698
 187  670.526
 188  648.9453
 189  600.1301
 190  529.1248
 191  517.6286
 192  544.1443
 193  700.2112
 194  602.3848
 195  586.6031
 196  537.8268
 197  584.8133
 198  517.506
 199  496.1865
 200  484.4989
 201  636.6317
 202  628.7546
 203  657.187
 204  621.2129
 205  518.7039
 206  415.5049
 207  425.326
 208  449.4717
 209  363.2466
 210  298.3835
 211  282.5422
 212  332.7234
 213  248.2904
 214  270.387
 215  231.8144
 216  234.3996
 217  233.8975
 218  229.1966
 219  237.7225
 220  265.3869
 221  330.5641
 222  387.6437
 223  497.543
 224  383.8042
 225  200.1029
 226  111.5802
 227  220.5812
 228  343.2133
 229  400.4008
 230  463.4899
 231  402.589
 232  340.934
 233  259.6756
 234  274.2796
 235  256.0348
 236  293.0046
 237  244.5374
 238  185.7229
 239  252.5686
 240  352.0824
 241  431.6604
 242  522.2668
 243  461.1276
 244  467.2873
 245  380.184
 246  376.9142
 247  394.2963
 248  407.3573
 249  453.8149
 250  339.1762
 251  406.6597
 252  298.7427
 253  328.1889
 254  284.9809
 255  292.5886
 256  348.9641
 257  325.405
 258  281.8721
 259  92.68024
 260  137.9605
 261  264.7376
 262  400.7419
 263  284.3543
 264  293.6941
 265  216.155
 266  329.7456
 267  299.2101
 268  386.2042
 269  455.3828
 270  365.0031
 271  255.6153
 272  237.0831
 273  306.6957
 274  417.5567
 275  530.1356
 276  556.7442
 277  562.7935
 278  343.3126
 279  427.2603
 280  398.6105
 281  369.4303
 282  321.0322
 283  339.1049
 284  224.2698
 285  128.3526
 286  218.9118
 287  446.1428
 288  388.3109
 289  381.3214
 290  386.7007
 291  363.8914
 292  346.6081
 293  332.709
 294  404.6128
 295  423.6871
 296  396.834
 297  445.1936
 298  549.6057
 299  552.845
 300  524.0434
 301  386.0184
 302  259.0724
 303  122.2778
 304  132.3815
 305  194.3452
 306  224.99
 307  323.4315
 308  416.7822
 309  350.842
 310  394.7488
 311  440.7524
 312  329.8633
 313  184.441
 314  184.5797
 315  315.2562
 316  430.489
 317  552.4697
 318  579.0209
 319  502.4007
 320  381.5733
 321  425.6042
 322  282.9604
 323  208.6534
 324  176.7495
 325  401.2157
 326  477.0701
 327  417.6775
 328  442.2456
 329  478.7841
 330  505.8416
 331  375.8026
 332  377.989
 333  435.4963
 334  380.2026
 335  421.0628
 336  351.8296
 337  314.9318
 338  247.524
 339  282.0981
 340  422.6098
 341  472.2531
 342  497.6867
 343  452.9879
 344  482.1895
 345  369.4788
 346  375.4923
 347  358.7718
 348  403.8304
 349  320.488
 350  387.1228
 351  447.1716
 352  461.0804
 353  365.2206
 354  338.5478
 355  421.7946
 356  438.0109
 357  416.8714
 358  320.6824
 359  379.183
 360  363.3539
 361  370.8482
 362  311.4173
 363  375.1444
 364  372.0259
 365  421.8423
 366  324.8752
 367  187.2043
 368  168.6294
 369  241.7682
 370  255.6742
 371  191.3343
 372  156.3852
 373  335.4417
 374  426.8096
 375  361.7676
 376  280.0513
 377  300.4015
 378  367.076
 379  505.8671
 380  585.724
 381  568.7426
 382  289.3332
 383  287.1748
 384  391.2892
 385  459.4368
 386  350.4418
 387  177.1518
 388  173.6828
 389  274.2877
 390  386.1246
 391  367.001
 392  283.8091
 393  415.772
 394  444.8805
 395  476.2302
 396  339.6166
 397  219.1894
 398  200.3531
 399  264.9636
 400  407.1198
 401  437.9931
 402  437.9492
 403  378.2305
 404  363.145
 405  440.4741
 406  417.5087
 407  456.6155
 408  458.6425
 409  566.9841
 410  505.8437
 411  426.915
 412  316.027
 413  247.3983
 414  313.1818
 415  268.6687
 416  222.5865
 417  247.4092
 418  348.0242
 419  453.8532
 420  439.0327
 421  453.4003
 422  491.8723
 423  387.6945
 424  338.0142
 425  336.2652
 426  483.6475
 427  485.6423
 428  448.0283
 429  317.7284
 430  364.0151
 431  305.2196
 432  218.4141
 433  203.0434
 434  129.1388
 435  331.6805
 436  372.7255
 437  398.3353
 438  389.3796
 439  384.8764
 440  470.6451
 441  369.3743
 442  358.0663
 443  324.2624
 444  335.1812
 445  416.9826
 446  423.562
 447  391.7378
 448  338.0407
 449  329.1987
 450  334.8618
 451  536.775
 452  494.3022
 453  497.6286
 454  445.8705
 455  400.115
 456  284.1744
 457  326.008
 458  474.0698
 459  556.7749
 460  489.3017
 461  531.6411
 462  450.0972
 463  530.679
 464  630.8337
 465  756.2265
 466  586.5135
 467  576.645
 468  523.9979
 469  456.1284
 470  325.4627
 471  259.6397
 472  427.6484
 473  440.5115
 474  436.812
 475  265.7025
 476  306.3845
 477  324.6731
 478  515.1057
 479  623.844
 480  671.5729
 481  624.1279
 482  567.4346
 483  529.8093
 484  571.4987
 485  556.1757
 486  735.194
 487  575.3467
 488  512.7526
 489  384.8108
 490  472.3421
 491  510.9575
 492  377.3119
 493  374.345
 494  384.3877
 495  368.9634
 496  330.9323
 497  345.7525
 498  515.9496
 499  698.8098
 500  719.5225
 501  807.8677
 502  685.0856
 503  585.7585
 504  554.9427
 505  595.6625
 506  621.8814
 507  606.563
 508  684.114
 509  672.2466
 510  571.8687
 511  525.7191
 512  572.7701
 513  558.7932
 514  628.0129
 515  629.0275
 516  533.4
 517  316.4886
 518  334.2002
 519  338.764
 520  302.3339
 521  193.7674
 522  274.7837
 523  329.9631
 524  344.9344
 525  261.6394
 526  275.2806
 527  331.6892
 528  433.5207
 529  405.836
 530  352.123
 531  286.598
 532  220.3337
 533  190.6811
 534  211.9836
 535  208.827
 536  250.3617
 537  245.8403
 538  247.949
 539  209.9342
 540  193.5027
 541  281.2981
 542  312.6156
 543  309.1608
 544  221.2038
 545  198.2215
 546  248.6697
 547  304.5034
 548  371.2383
 549  385.9703
 550  396.757
 551  594.7001
 552  602.5946
 553  518.144
 554  361.0607
 555  329.1101
 556  366.8908
 557  249.9839
 558  306.2115
 559  362.3893
 560  428.7252
 561  470.7405
 562  454.711
 563  390.2639
 564  351.9418
 565  465.6424
 566  598.9299
 567  539.8853
 568  404.9531
 569  432.1881
 570  400.4952
 571  347.2609
 572  264.261
 573  446.5972
 574  560.5551
 575  660.293
 576  510.2095
 577  345.4511
 578  301.6891
 579  309.1645
 580  577.5002
 581  550.143
 582  464.5049
 583  462.2999
 584  660.4771
 585  739.8075
 586  591.1368
 587  399.7132
 588  309.2662
 589  325.9739
 590  346.0899
 591  466.8753
 592  458.3542
 593  441.0508
 594  391.1409
 595  319.613
 596  302.7521
 597  220.463
 598  287.3047
 599  331.1389
 600  364.9183
 601  323.5109
 602  370.1303
 603  522.9721
 604  598.1912
 605  576.1582
 606  443.9936
 607  419.3151
 608  382.3037
 609  343.3172
 610  294.5692
 611  407.7956
 612  402.9637
 613  395.3747
 614  234.4732
 615  298.7701
 616  336.7776
 617  368.4402
 618  443.6438
 619  582.7306
 620  573.9769
 621  590.9323
 622  589.2387
 623  721.5609
 624  802.5706
 625  776.3583
 626  762.9313
 627  682.118
 628  706.1052
 629  825.9296
 630  1060.177
 631  1158.985
 632  1086.869
 633  1056.757
 634  1064.029
 635  1104.97
 636  914.7079
 637  819.8235
 638  639.6731
 639  775.952
 640  636.8744
 641  483.7593
 642  253.6038
 643  233.2778
 644  124.2775
 645  89.95436
 646  48.44265
 647  184.9969
 648  323.8576
 649  411.7871
 650  525.3061
 651  604.3133
 652  751.9377
 653  815.5827
 654  804.7281
 655  804.2747
 656  553.3895
 657  468.2654
 658  419.8786
 659  355.0101
 660  298.1126
 661  279.4521
 662  360.4094
 663  410.2794
 664  384.6049
 665  445.6545
 666  432.9918
 667  412.3001
 668  377.9827
 669  360.0077
 670  276.897
 671  180.6405
 672  67.33662
 673  -48.91286
 674  -147.521
 675  -184.4815
 676  -171.2277
 677  56.68605
 678  78.88787
 679  150.1183
 680  266.5783
 681  254.311
 682  169.5722
 683  166.9514
 684  284.9892
 685  370.6492
 686  234.9591
 687  254.798
 688  221.5514
 689  268.6155
 690  305.1358
 691  426.4948
 692  435.8658
 693  458.1782
 694  422.9245
 695  480.4438
 696  531.8925
 697  588.2346
 698  546.6193
 699  465.2772
 700  279.3309
 701  120.1829
 702  53.74103
 703  77.09548
 704  157.2088
 705  238.9058
 706  280.9474
 707  361.3182
 708  350.3795
 709  344.9916
 710  422.5757
 711  398.4377
 712  316.9185
 713  229.2959
 714  358.4727
 715  465.1189
 716  268.9564
 717  200.0134
 718  270.4434
 719  162.706
 720  120.7315
 721  207.408
 722  390.1364
 723  427.2236
 724  316.8815
 725  386.4463
 726  335.6498
 727  422.226
 728  361.9802
 729  320.5668
 730  347.241
 731  485.2996
 732  528.7302
 733  519.149
 734  408.1759
 735  338.0657
 736  301.9671
 737  208.9717
 738  121.2997
 739  146.1018
 740  271.5079
 741  258.2259
 742  70.79668
 743  9.546062
 744  38.78493
 745  139.1448
 746  189.1229
 747  314.5301
 748  339.458
 749  313.7443
 750  291.9164
 751  344.1584
 752  382.3221
 753  397.8211
 754  460.7682
 755  437.338
 756  377.6697
 757  310.3116
 758  352.7118
 759  327.5595
 760  307.7548
 761  240.6726
 762  230.5826
 763  150.6024
 764  142.2612
 765  104.0485
 766  168.7795
 767  39.66893
 768  32.52298
 769  87.33629
 770  242.4373
 771  315.3598
 772  242.5127
 773  239.2818
 774  193.4405
 775  207.0248
 776  264.8311
 777  279.7901
 778  186.9221
 779  270.8556
 780  397.4645
 781  420.004
 782  366.3525
 783  327.771
 784  269.4102
 785  136.7338
 786  104.9111
 787  162.924
 788  160.9588
 789  174.9257
 790  246.5835
 791  343.0602
 792  340.1546
 793  177.1651
 794  57.51365
 795  177.432
 796  331.3849
 797  414.1793
 798  457.79
 799  374.7129
 800  269.6884
 801  243.4163
 802  246.4377
 803  345.3678
 804  414.9027
 805  450.567
 806  348.0443
 807  238.187
 808  226.7271
 809  191.8073
 810  155.6102
 811  -58.09816
 812  0.4310434
 813  89.77357
 814  174.6385
 815  94.58685
 816  43.05981
 817  -100.3205
 818  -309.9436
 819  -288.9913
 820  -56.51484
 821  26.69988
 822  84.9941
 823  177.1384
 824  167.4924
 825  95.21091
 826  -8.298141
 827  17.95482
 828  -73.49081
 829  -126.9822
 830  -77.64331
 831  -33.46015
 832  -42.78551
 833  -39.44674
 834  53.90516
 835  101.7973
 836  204.7116
 837  308.7643
 838  256.8583
 839  10.72134
 840  -38.21856
 841  35.77054
 842  -33.13511
 843  -155.2006
 844  -115.5377
 845  -79.97572
 846  -26.78094
 847  28.59991
 848  -1.342045
 849  4.460582
 850  44.09399
 851  237.2484
 852  192.4134
 853  141.1974
 854  -46.8987
 855  -100.4894
 856  -49.32804
 857  108.887
 858  208.2431
 859  232.451
 860  139.6253
 861  101.477
 862  75.42297
 863  180.908
 864  260.8676
 865  286.4067
 866  93.57201
 867  13.22622
 868  27.02059
 869  69.96447
 870  108.9995
 871  162.5804
 872  176.6199
 873  281.1063
 874  209.6173
 875  264.987
 876  287.2323
 877  376.178
 878  475.569
 879  375.2387
 880  286.0952
 881  301.9193
 882  367.7251
 883  426.7943
 884  344.9983
 885  249.7954
 886  183.9421
 887  317.1995
 888  459.1546
 889  436.1558
 890  280.487
 891  246.2739
 892  354.5174
 893  372.6729
 894  379.5709
 895  341.6687
 896  452.1035
 897  396.5007
 898  386.1288
 899  350.1766
 900  490.6621
 901  539.8435
 902  425.4262
 903  465.8865
 904  463.6368
 905  529.8082
 906  495.4518
 907  467.1399
 908  519.1297
 909  321.4742
 910  271.2909
 911  278.9492
 912  399.1296
 913  511.9648
 914  494.1874
 915  395.8693
 916  432.5471
 917  622.8295
 918  640.4213
 919  551.028
 920  453.1219
 921  345.963
 922  249.65
 923  113.6691
 924  203.1843
 925  190.9146
 926  235.1743
 927  242.6913
 928  267.0468
 929  230.9744
 930  193.4979
 931  258.2237
 932  327.6381
 933  371.7702
 934  453.4723
 935  450.6643
 936  467.4335
 937  380.7784
 938  374.6288
 939  272.8795
 940  212.6317
 941  252.5841
 942  151.9334
 943  216.8884
 944  234.0114
 945  297.8357
 946  404.5876
 947  468.899
 948  402.0037
 949  320.3715
 950  204.9193
 951  356.146
 952  263.6989
 953  277.6712
 954  204
 955  201.8218
 956  187.2531
 957  206.2121
 958  379.1522
 959  421.0297
 960  396.6523
 961  350.488
 962  525.1894
 963  507.4499
 964  430.6545
 965  240.0597
 966  330.5245
 967  386.7507
 968  396.7192
 969  245.2221
 970  87.4365
 971  -47.8735
 972  -131.8549
 973  -146.0388
 974  -43.89558
 975  87.65564
 976  329.6703
 977  383.8646
 978  440.5
 979  315.4778
 980  235.7488
 981  116.4626
 982  161.1745
 983  281.4392
 984  359.169
 985  311.494
 986  231.8206
 987  81.95928
 988  -5.779648
 989  51.76051
 990  134.1483
 991  228.9065
 992  330.1819
 993  331.5909
 994  300.9257
 995  187.5576
 996  99.91309
 997  158.5662
 998  164.2688
 999  124.0009
1000  -24.69735
1001  46.8802
1002  191.6981
1003  274.3023
1004  333.4524
1005  301.0571
1006  314.3571
1007  242.404
1008  179.4463
1009  251.2905
1010  333.5333
1011  359.2254
1012  400.8757
1013  393.7799
1014  378.1248
1015  315.5291
1016  379.3471
1017  470.2591
1018  573.3621
1019  612.4978
1020  563.762
1021  550.5445
1022  535.0123
1023  477.7012
