# Input file       =  1194396499.114743_cleaned.dat
# Candidate        =  PSR_0332+5434
# Telescope        =  AR
# Epoch_topo       =  58068.033774476193
# Epoch_bary       =  N/A
# T_sample         =  0.002
# Data Folded      =  7340032
# Data Avg         =  0.0047546139381755
# Data StdDev      =  1.00007858220604 
# Profile Bins     =  512
# Profile Avg      =  68.2387917879027 
# Profile StdDev   =  119.742445262901 
# Reduced chi-sqr  =  1.105
# Prob(Noise)      <  0.0502   (~1.6 sigma)
# P_topo (ms)      =  714.505571946109  +/- 0.000289
# P'_topo (s/s)    =  -0                +/- 1.52e-10
# P''_topo (s/s^2) =  0                 +/- 6.72e-14
# P_bary (ms)      =  N/A
# P'_bary (s/s)    =  N/A
# P''_bary (s/s^2) =  N/A
# P_orb (s)        =  N/A
# asin(i)/c (s)    =  N/A
# eccentricity     =  N/A
# w (rad)          =  N/A
# T_peri           =  N/A
######################################################
   0  -13.63468
   1  69.35479
   2  67.75414
   3  49.59813
   4  124.2858
   5  121.008
   6  168.8816
   7  101.8816
   8  167.2997
   9  139.344
  10  -88.6384
  11  -149.2832
  12  -64.45738
  13  125.2798
  14  122.0981
  15  5.376267
  16  24.34832
  17  139.0224
  18  42.49583
  19  -77.31347
  20  -7.090482
  21  52.79921
  22  17.50368
  23  -26.17196
  24  -30.48368
  25  -86.03928
  26  41.60568
  27  108.0408
  28  36.21608
  29  -16.39714
  30  34.68038
  31  74.80424
  32  49.19632
  33  89.60909
  34  156.177
  35  171.9664
  36  164.642
  37  189.5247
  38  117.3591
  39  103.8268
  40  105.5828
  41  109.1223
  42  68.51705
  43  21.72377
  44  146.1275
  45  93.6311
  46  120.4852
  47  29.33644
  48  55.30584
  49  116.0035
  50  32.47499
  51  44.56497
  52  89.91167
  53  16.57265
  54  27.40927
  55  46.74729
  56  -110.1937
  57  -23.36539
  58  122.2463
  59  98.98204
  60  44.9486
  61  -56.04673
  62  -60.0459
  63  -10.62557
  64  70.20634
  65  -18.07385
  66  -24.80258
  67  91.2337
  68  87.76006
  69  -9.914938
  70  22.56723
  71  130.0465
  72  86.93654
  73  88.22402
  74  54.81356
  75  -2.859165
  76  7.332393
  77  56.61565
  78  -50.9298
  79  10.05175
  80  74.60532
  81  44.03795
  82  102.3319
  83  110.0981
  84  24.32599
  85  23.50478
  86  70.14915
  87  135.1925
  88  102.5934
  89  57.24832
  90  127.5566
  91  143.0817
  92  76.77481
  93  5.171098
  94  -3.737024
  95  61.87038
  96  -10.3321
  97  -47.18898
  98  16.02447
  99  70.05199
 100  25.35497
 101  36.15438
 102  159.3656
 103  179.5083
 104  80.8259
 105  28.94019
 106  113.181
 107  104.0284
 108  81.9489
 109  119.5574
 110  135.2726
 111  172.5549
 112  131.9509
 113  204.1322
 114  284.9882
 115  218.4228
 116  189.9007
 117  78.66556
 118  106.0259
 119  117.8215
 120  243.4076
 121  175.1721
 122  94.09182
 123  111.3575
 124  74.15772
 125  61.21873
 126  177.6339
 127  165.5925
 128  112.5945
 129  232.7641
 130  238.0852
 131  185.3944
 132  138.3546
 133  178.8879
 134  174.4841
 135  182.2924
 136  153.3546
 137  149.8613
 138  208.472
 139  193.4778
 140  127.6338
 141  126.5681
 142  96.66914
 143  122.5195
 144  39.78514
 145  4.278449
 146  15.84718
 147  73.16621
 148  164.6899
 149  130.151
 150  0.9693065
 151  62.93363
 152  97.63892
 153  42.26796
 154  15.44068
 155  4.913978
 156  11.85304
 157  85.93608
 158  115.2905
 159  76.63631
 160  64.71183
 161  133.601
 162  96.935
 163  52.33801
 164  30.24836
 165  35.37425
 166  -35.09602
 167  -46.10476
 168  85.76828
 169  81.55441
 170  99.12246
 171  143.7947
 172  101.0397
 173  2.71291
 174  101.7155
 175  203.2579
 176  130.3051
 177  157.412
 178  77.30544
 179  -40.78115
 180  25.38023
 181  37.56901
 182  64.4937
 183  30.19015
 184  53.70621
 185  30.43373
 186  163.2004
 187  124.9339
 188  -7.429626
 189  -82.87864
 190  -4.614428
 191  88.81718
 192  105.0547
 193  14.6665
 194  -46.3583
 195  104.0724
 196  168.9056
 197  126.5455
 198  39.80378
 199  3.316665
 200  93.81617
 201  94.92728
 202  128.117
 203  84.13714
 204  72.10109
 205  29.27052
 206  3.028246
 207  112.1338
 208  97.89898
 209  89.69461
 210  111.4998
 211  106.4072
 212  94.87833
 213  86.19998
 214  74.75643
 215  114.4861
 216  82.8068
 217  94.80563
 218  83.2523
 219  109.6157
 220  19.06526
 221  -17.50651
 222  14.97491
 223  6.590794
 224  94.88315
 225  36.47861
 226  108.5306
 227  182.438
 228  73.27145
 229  138.0583
 230  44.82499
 231  -10.41108
 232  104.6611
 233  74.57799
 234  186.6515
 235  79.73399
 236  -22.22916
 237  92.76088
 238  89.94537
 239  60.74116
 240  105.535
 241  154.4758
 242  169.1149
 243  55.11841
 244  36.74813
 245  36.86951
 246  61.78827
 247  81.15932
 248  107.4907
 249  70.80431
 250  173.6001
 251  148.1591
 252  54.90534
 253  -23.24619
 254  -55.95128
 255  39.00923
 256  91.42501
 257  74.44881
 258  2.708607
 259  28.23898
 260  106.5558
 261  78.96508
 262  112.5131
 263  136.6815
 264  87.63433
 265  31.89574
 266  122.4134
 267  139.8612
 268  103.0106
 269  208.6061
 270  161.8506
 271  75.99393
 272  -19.61131
 273  55.74413
 274  56.91546
 275  28.73414
 276  153.5129
 277  224.6852
 278  196.3466
 279  167.5635
 280  188.1355
 281  120.1568
 282  142.2262
 283  61.46389
 284  44.44316
 285  6.284698
 286  155.0036
 287  256.3155
 288  212.5006
 289  126.6945
 290  171.4818
 291  208.2907
 292  152.3303
 293  174.6655
 294  164.2215
 295  89.74901
 296  15.17506
 297  -31.67002
 298  19.37847
 299  57.74142
 300  37.60815
 301  104.1197
 302  77.37183
 303  2.678783
 304  -35.20706
 305  -17.99452
 306  11.91028
 307  36.83423
 308  99.62629
 309  14.77067
 310  41.54123
 311  70.96932
 312  165.8712
 313  197.9834
 314  51.76343
 315  40.20059
 316  13.65946
 317  119.1667
 318  79.10943
 319  65.52747
 320  189.0158
 321  116.031
 322  64.9805
 323  26.84169
 324  154.0303
 325  86.63332
 326  -11.42658
 327  127.1819
 328  146.4303
 329  255.9725
 330  121.9925
 331  36.59351
 332  60.2985
 333  108.9982
 334  97.58735
 335  16.09694
 336  69.10815
 337  91.19806
 338  96.38344
 339  206.7092
 340  150.6371
 341  78.57515
 342  51.40136
 343  94.8858
 344  11.98802
 345  69.55206
 346  148.9767
 347  214.7546
 348  212.1948
 349  300.2106
 350  347.3607
 351  349.7082
 352  533.1359
 353  542.191
 354  536.593
 355  377.6523
 356  245.8797
 357  178.4775
 358  37.29174
 359  -60.60678
 360  -75.47465
 361  81.15797
 362  151.9421
 363  227.6447
 364  242.1868
 365  116.1049
 366  52.769
 367  -3.836483
 368  69.49308
 369  98.33307
 370  82.49303
 371  49.72347
 372  10.33735
 373  -54.90056
 374  -195.4111
 375  -139.982
 376  -19.29251
 377  14.12201
 378  -54.01988
 379  44.07355
 380  10.89419
 381  17.9033
 382  21.10015
 383  97.46668
 384  108.4368
 385  123.029
 386  127.0607
 387  -12.6855
 388  -108.5945
 389  -35.78292
 390  39.23916
 391  37.44994
 392  67.30224
 393  22.37166
 394  82.78989
 395  -0.1746752
 396  -31.86753
 397  -24.21501
 398  92.9035
 399  75.51163
 400  48.26569
 401  43.43272
 402  39.73256
 403  131.0819
 404  55.61583
 405  -0.4979313
 406  -107.8901
 407  -30.04018
 408  -111.0495
 409  -129.3739
 410  -11.98464
 411  64.99526
 412  51.08358
 413  86.74706
 414  133.6284
 415  72.93367
 416  47.28403
 417  68.12675
 418  19.23007
 419  -20.86457
 420  -23.23554
 421  -80.34186
 422  15.55828
 423  6.149891
 424  -9.750756
 425  23.8185
 426  47.86591
 427  113.3084
 428  55.96435
 429  -3.261353
 430  17.30141
 431  -23.44102
 432  12.83191
 433  40.75622
 434  -77.45605
 435  105.4187
 436  127.3888
 437  34.13143
 438  27.34189
 439  161.5433
 440  97.84379
 441  -24.63873
 442  -72.18845
 443  -71.78152
 444  14.33869
 445  -61.41044
 446  -242.9641
 447  -116.5048
 448  -34.0769
 449  -26.07118
 450  -83.66952
 451  -152.2067
 452  -130.7693
 453  -115.7352
 454  -53.71607
 455  27.68975
 456  -23.24773
 457  -112.5405
 458  -129.0597
 459  -168.2552
 460  -125.9722
 461  -129.4635
 462  -47.77581
 463  -40.73452
 464  -149.3679
 465  -89.54707
 466  42.88551
 467  -18.0653
 468  -48.13054
 469  72.59848
 470  -55.61058
 471  -102.5769
 472  -39.24339
 473  19.66733
 474  69.17346
 475  91.22291
 476  149.6403
 477  49.23742
 478  96.65151
 479  55.83279
 480  17.47691
 481  177.0577
 482  56.9218
 483  80.89313
 484  65.45171
 485  81.95698
 486  64.10567
 487  140.0686
 488  109.5934
 489  104.9016
 490  126.9005
 491  117.0838
 492  35.79171
 493  104.339
 494  127.7593
 495  157.19
 496  217.8507
 497  109.8178
 498  -2.734798
 499  -10.80384
 500  45.17332
 501  33.84645
 502  -14.01613
 503  70.10768
 504  104.0272
 505  67.17327
 506  14.15845
 507  35.08199
 508  1.508842
 509  2.00532
 510  140.2385
 511  70.24098
