# Input file       =  1194051750.097979_cleaned.dat
# Candidate        =  PSR_0332+5434
# Telescope        =  AR
# Epoch_topo       =  58064.043623819205
# Epoch_bary       =  N/A
# T_sample         =  0.002
# Data Folded      =  7340032
# Data Avg         =  0.0247269487397063
# Data StdDev      =  1.00006694125866 
# Profile Bins     =  512
# Profile Avg      =  354.459039262416 
# Profile StdDev   =  119.741051456924 
# Reduced chi-sqr  =  1.288
# Prob(Noise)      <  1.12e-05   (~4.2 sigma)
# P_topo (ms)      =  714.50169438256   +/- 0.00024
# P'_topo (s/s)    =  -0                +/- 1.27e-10
# P''_topo (s/s^2) =  0                 +/- 5.6e-14
# P_bary (ms)      =  N/A
# P'_bary (s/s)    =  N/A
# P''_bary (s/s^2) =  N/A
# P_orb (s)        =  N/A
# asin(i)/c (s)    =  N/A
# eccentricity     =  N/A
# w (rad)          =  N/A
# T_peri           =  N/A
######################################################
   0  934.5812
   1  844.428
   2  851.095
   3  637.8484
   4  600.6989
   5  505.385
   6  380.2628
   7  414.5322
   8  392.7334
   9  348.6864
  10  351.1008
  11  460.3539
  12  455.4682
  13  362.949
  14  407.2153
  15  448.3121
  16  502.5087
  17  470.8759
  18  415.8725
  19  405.1261
  20  484.971
  21  469.6004
  22  369.9172
  23  300.0283
  24  384.293
  25  290.5981
  26  430.4744
  27  329.0471
  28  262.3276
  29  293.0468
  30  381.397
  31  298.8187
  32  286.886
  33  235.6733
  34  383.5832
  35  419.8011
  36  401.4456
  37  283.5509
  38  254.9774
  39  386.9198
  40  355.2032
  41  470.9325
  42  419.5508
  43  456.5449
  44  320.5361
  45  300.7082
  46  385.7061
  47  261.7605
  48  350.6707
  49  306.3763
  50  236.3607
  51  270.3718
  52  297.3768
  53  390.3137
  54  602.9947
  55  424.5562
  56  277.4362
  57  264.8871
  58  313.8989
  59  326.9558
  60  332.7964
  61  412.4346
  62  296.8767
  63  410.3024
  64  377.4031
  65  291.1497
  66  243.7008
  67  307.2769
  68  368.6142
  69  344.2358
  70  260.1898
  71  350.5377
  72  485.3065
  73  385.0211
  74  475.6859
  75  439.9569
  76  373.0881
  77  366.6459
  78  346.4651
  79  321.09
  80  170.8525
  81  294.8659
  82  528.9648
  83  401.4662
  84  331.8531
  85  198.55
  86  168.582
  87  320.6788
  88  405.1351
  89  366.5838
  90  402.8722
  91  455.2271
  92  424.3676
  93  376.425
  94  238.607
  95  266.0085
  96  221.9098
  97  373.494
  98  423.9612
  99  293.3208
 100  342.6566
 101  254.2491
 102  227.01
 103  218.5806
 104  224.5434
 105  245.7124
 106  290.2202
 107  327.9747
 108  339.2274
 109  399.3568
 110  390.4213
 111  315.5927
 112  365.5082
 113  377.8249
 114  330.2439
 115  309.262
 116  318.4373
 117  246.7272
 118  289.0074
 119  349.2925
 120  303.5042
 121  423.9628
 122  317.9513
 123  260.4042
 124  355.9595
 125  291.0511
 126  304.1254
 127  308.6884
 128  307.9527
 129  258.2259
 130  304.7589
 131  340.4315
 132  279.4198
 133  356.9409
 134  248.8815
 135  267.1288
 136  346.0524
 137  405.7468
 138  363.2844
 139  360.603
 140  416.4173
 141  374.0196
 142  321.756
 143  327.1095
 144  379.8645
 145  425.3328
 146  501.4141
 147  417.4825
 148  450.9527
 149  391.8206
 150  308.1746
 151  352.4536
 152  428.4845
 153  408.2595
 154  360.6584
 155  389.1545
 156  411.8855
 157  327.551
 158  404.1741
 159  473.4374
 160  339.6514
 161  311.7359
 162  438.5947
 163  368.9937
 164  351.1936
 165  318.7374
 166  340.6584
 167  260.9715
 168  287.7504
 169  253.4664
 170  300.9953
 171  423.8615
 172  357.1469
 173  328.8246
 174  240.1985
 175  255.8256
 176  189.2946
 177  241.9167
 178  317.1105
 179  323.584
 180  256.6483
 181  288.2342
 182  368.0683
 183  427.1913
 184  326.1367
 185  360.1698
 186  458.3298
 187  319.2676
 188  245.9277
 189  353.8353
 190  213.6805
 191  190.816
 192  438.7127
 193  410.1895
 194  266.235
 195  291.7258
 196  293.3373
 197  239.9698
 198  477.0278
 199  477.5791
 200  434.5557
 201  209.2175
 202  341.0661
 203  304.3911
 204  317.74
 205  353.8184
 206  370.9653
 207  362.893
 208  444.173
 209  480.4401
 210  498.1353
 211  464.2245
 212  531.2492
 213  529.7112
 214  478.6021
 215  334.0302
 216  416.0703
 217  334.5396
 218  303.1431
 219  280.5845
 220  416.5659
 221  470.9896
 222  404.3962
 223  350.6116
 224  415.8761
 225  377.9363
 226  332.313
 227  295.1284
 228  322.3061
 229  377.0846
 230  455.8441
 231  410.2916
 232  429.6527
 233  391.6362
 234  450.8363
 235  444.1996
 236  326.8851
 237  406.8575
 238  473.8866
 239  321.5745
 240  222.9216
 241  403.7166
 242  449.9969
 243  199.9148
 244  211.3473
 245  360.3171
 246  367.5399
 247  292.6852
 248  300.5448
 249  276.1346
 250  334.6258
 251  383.1471
 252  348.7054
 253  406.0868
 254  420.6037
 255  212.8064
 256  367.3393
 257  459.4909
 258  384.0995
 259  397.0463
 260  562.7244
 261  533.4396
 262  432.9412
 263  430.9398
 264  504.956
 265  394.4861
 266  315.9325
 267  301.9897
 268  231.2281
 269  304.6886
 270  331.0764
 271  362.7788
 272  305.0924
 273  338.3283
 274  408.1783
 275  379.4312
 276  342.3687
 277  297.244
 278  308.4616
 279  352.5384
 280  270.6794
 281  306.3954
 282  331.7861
 283  292.6909
 284  333.2737
 285  521.9198
 286  373.5402
 287  366.0975
 288  400.1162
 289  243.6135
 290  289.2275
 291  272.7486
 292  294.06
 293  319.9742
 294  296.3542
 295  386.9678
 296  234.3621
 297  367.8141
 298  498.5259
 299  374.8393
 300  361.1737
 301  389.2934
 302  307.2545
 303  263.5887
 304  317.4926
 305  374.7056
 306  420.034
 307  339.5186
 308  363.9806
 309  322.7362
 310  241.8413
 311  134.9299
 312  248.9178
 313  310.498
 314  375.4263
 315  205.2502
 316  212.3626
 317  364.1435
 318  356.0213
 319  371.8141
 320  510.5764
 321  398.8455
 322  315.7028
 323  272.4677
 324  382.0415
 325  411.5583
 326  350.4991
 327  383.133
 328  274.9617
 329  312.0392
 330  337.4823
 331  360.1331
 332  223.7414
 333  264.8835
 334  356.1949
 335  345.6671
 336  407.626
 337  423.7196
 338  333.6583
 339  295.4617
 340  317.7035
 341  321.6678
 342  430.5506
 343  373.9489
 344  331.9823
 345  423.9207
 346  371.0301
 347  233.6416
 348  273.2124
 349  443.2624
 350  445.9213
 351  208.3373
 352  257.3578
 353  295.1956
 354  326.3362
 355  338.2899
 356  280.3765
 357  319.9731
 358  345.1399
 359  454.9565
 360  375.8551
 361  424.0177
 362  302.399
 363  306.9737
 364  346.2307
 365  410.3508
 366  404.0453
 367  327.0199
 368  447.9897
 369  368.6108
 370  318.1521
 371  408.6232
 372  338.0666
 373  279.2058
 374  267.8762
 375  283.9921
 376  257.058
 377  302.9847
 378  401.0259
 379  373.7887
 380  276.7417
 381  296.1002
 382  248.8307
 383  287.3537
 384  345.7669
 385  368.8091
 386  352.6455
 387  206.4844
 388  289.6947
 389  348.5488
 390  311.2531
 391  309.6015
 392  342.7657
 393  308.9199
 394  414.2694
 395  379.9389
 396  339.3376
 397  356.8988
 398  269.8975
 399  350.2079
 400  320.1019
 401  360.2465
 402  368.3026
 403  314.9604
 404  370.6553
 405  358.7051
 406  245.9012
 407  220.3161
 408  316.9252
 409  295.4832
 410  188.57
 411  257.1159
 412  364.304
 413  462.5111
 414  281.3565
 415  327.2643
 416  283.2859
 417  303.8812
 418  339.5883
 419  414.5391
 420  382.3162
 421  436.5726
 422  561.0955
 423  408.5747
 424  283.8762
 425  280.105
 426  151.377
 427  188.2525
 428  222.4722
 429  196.347
 430  210.6794
 431  207.0608
 432  350.7195
 433  342.9626
 434  326.9204
 435  248.5237
 436  278.2093
 437  345.2943
 438  283.598
 439  354.1845
 440  418.2862
 441  413.2705
 442  502.2812
 443  477.9966
 444  398.0377
 445  319.3796
 446  384.0643
 447  337.1963
 448  375.5491
 449  468.5269
 450  438.432
 451  439.9251
 452  321.0786
 453  290.9368
 454  310.0581
 455  159.1049
 456  267.3066
 457  276.3517
 458  271.983
 459  264.254
 460  306.8188
 461  327.1779
 462  320.4283
 463  280.3749
 464  205.2584
 465  262.9508
 466  336.0073
 467  472.0937
 468  488.3195
 469  501.7215
 470  545.0247
 471  388.1325
 472  391.5211
 473  491.6307
 474  351.6695
 475  335.4709
 476  371.1281
 477  533.2093
 478  422.9019
 479  255.7569
 480  336.9501
 481  324.8427
 482  310.3484
 483  277.4383
 484  439.2225
 485  310.1953
 486  306.2518
 487  301.7719
 488  316.3729
 489  409.2977
 490  344.052
 491  365.973
 492  434.3402
 493  362.9093
 494  356.1368
 495  299.2242
 496  233.6178
 497  280.8424
 498  257.6564
 499  176.3931
 500  275.469
 501  371.4538
 502  359.3899
 503  416.723
 504  442.9475
 505  336.6455
 506  360.8279
 507  642.6982
 508  620.0586
 509  673.2646
 510  868.5388
 511  1022.634
