# Input file       =  1194396499.114743_cleaned.dat
# Candidate        =  PSR_0332+5434
# Telescope        =  AR
# Epoch_topo       =  58068.033774476193
# Epoch_bary       =  N/A
# T_sample         =  0.002
# Data Folded      =  7340032
# Data Avg         =  0.0487934302873331
# Data StdDev      =  4.29049149883424 
# Profile Bins     =  256
# Profile Avg      =  1399.49199641154 
# Profile StdDev   =  726.500704521739 
# Reduced chi-sqr  =  1.076
# Prob(Noise)      <  0.193   (~0.9 sigma)
# P_topo (ms)      =  714.505571896929  +/- 0.000563
# P'_topo (s/s)    =  -0                +/- 2.97e-10
# P''_topo (s/s^2) =  0                 +/- 1.31e-13
# P_bary (ms)      =  N/A
# P'_bary (s/s)    =  N/A
# P''_bary (s/s^2) =  N/A
# P_orb (s)        =  N/A
# asin(i)/c (s)    =  N/A
# eccentricity     =  N/A
# w (rad)          =  N/A
# T_peri           =  N/A
######################################################
   0  1996.22
   1  1849.907
   2  1559.784
   3  1515.619
   4  1679.858
   5  1167.463
   6  1406.641
   7  1965.78
   8  1146.371
   9  903.183
  10  1617.953
  11  1835.211
  12  350.6426
  13  977.0441
  14  881.5721
  15  1592.677
  16  878.7287
  17  1474.91
  18  1458.275
  19  790.694
  20  1037.978
  21  1175.668
  22  1223.787
  23  1318.082
  24  1373.907
  25  1678.637
  26  1271.084
  27  1436.738
  28  971.3105
  29  1098.512
  30  373.1886
  31  1089.593
  32  1482.965
  33  1658.32
  34  1159.519
  35  1329.028
  36  1657.728
  37  2227.067
  38  2919.459
  39  2425.402
  40  1590.761
  41  2277.619
  42  2112.301
  43  1732.855
  44  1943.417
  45  2061.318
  46  2584.54
  47  2345.813
  48  2405.177
  49  2195.031
  50  2309.936
  51  2108.599
  52  1459.993
  53  1104.976
  54  940.6285
  55  1369.617
  56  1030.655
  57  1532.54
  58  1194.743
  59  979.0767
  60  1678.611
  61  1645.133
  62  1599.186
  63  1234.451
  64  1169.672
  65  1002.668
  66  1108.423
  67  1536.128
  68  1305.228
  69  1947.442
  70  1489.184
  71  955.4838
  72  1547.351
  73  1490.993
  74  1872.56
  75  1524.355
  76  746.4084
  77  1557.017
  78  1079.774
  79  1974.657
  80  1445.107
  81  1369.782
  82  1796.74
  83  1601.859
  84  1231.94
  85  1793.969
  86  1633.111
  87  1514.452
  88  1600.046
  89  1580.033
  90  1438.037
  91  1388.112
  92  862.8468
  93  1215.44
  94  1324.91
  95  1865.216
  96  1458.153
  97  1102.594
  98  1564.583
  99  1104.588
 100  1620.036
 101  1625.967
 102  1991.975
 103  1211.591
 104  1177.655
 105  1806.315
 106  1590.624
 107  1537.9
 108  842.2719
 109  1548.443
 110  1528.712
 111  1537.102
 112  1459.702
 113  1926.002
 114  1548.02
 115  2003.294
 116  2552.847
 117  1702.197
 118  1595.533
 119  1568.107
 120  2463.274
 121  2404.239
 122  1922.059
 123  1583.54
 124  1725.271
 125  2846.448
 126  2353.753
 127  2496.778
 128  2340.365
 129  1663.337
 130  1114.162
 131  1190.254
 132  1532.792
 133  864.0751
 134  948.1857
 135  1041.035
 136  973.2823
 137  1579.353
 138  1975.057
 139  1282.211
 140  1721.488
 141  1894.806
 142  1689.437
 143  1761.637
 144  1614.995
 145  1973.47
 146  2459.812
 147  1374.992
 148  1712.46
 149  1130.03
 150  1453.871
 151  2123.396
 152  1419.79
 153  1405.829
 154  1567.926
 155  2409.874
 156  3048.853
 157  3521.713
 158  4337.713
 159  3307.371
 160  1872.076
 161  454.0356
 162  1657.639
 163  3123.452
 164  2007.013
 165  1317.183
 166  1662.338
 167  1348.123
 168  -163.0578
 169  -55.93773
 170  844.2949
 171  1123.133
 172  1105.565
 173  1790.353
 174  2162.33
 175  687.9167
 176  885.8889
 177  1525.255
 178  1336.676
 179  1068.834
 180  1006.144
 181  1478.668
 182  1447.097
 183  1891.331
 184  841.0862
 185  719.1393
 186  512.0634
 187  1267.514
 188  1639.737
 189  1432.602
 190  1022.978
 191  496.641
 192  528.6993
 193  923.5341
 194  997.6133
 195  1475.904
 196  773.5681
 197  792.5422
 198  853.1482
 199  1499.177
 200  1093.596
 201  1520.282
 202  687.6274
 203  265.3648
 204  -503.0501
 205  26.46921
 206  366.115
 207  -301.6534
 208  -2.258865
 209  842.1222
 210  -97.91752
 211  -298.6181
 212  179.5727
 213  360.8596
 214  345.4688
 215  495.0052
 216  778.6809
 217  228.6901
 218  935.2327
 219  1461.983
 220  1355.632
 221  1089.219
 222  1495.992
 223  1385.094
 224  1597.214
 225  1869.24
 226  1932.461
 227  1483.724
 228  1770.901
 229  2189.289
 230  1352.472
 231  813.1353
 232  932.1328
 233  1505.618
 234  1604.082
 235  842.7435
 236  1277.478
 237  1338.931
 238  1032.845
 239  1084.761
 240  1754.883
 241  1440.992
 242  900.8728
 243  -345.5238
 244  1405.438
 245  775.4335
 246  1119.047
 247  313.4727
 248  1183.54
 249  592.687
 250  388.3896
 251  1229.741
 252  1037.882
 253  1543.579
 254  1860.298
 255  2184.814
