# Input file       =  1194123649.104459_cleaned.dat
# Candidate        =  PSR_0332+5434
# Telescope        =  AR
# Epoch_topo       =  58064.875788246056
# Epoch_bary       =  N/A
# T_sample         =  0.002
# Data Folded      =  7340032
# Data Avg         =  0.034248075579026
# Data StdDev      =  1.00011092700039 
# Profile Bins     =  512
# Profile Avg      =  491.131767496356 
# Profile StdDev   =  119.746318003339 
# Reduced chi-sqr  =  0.930
# Prob(Noise)      <  0.869   (~0.0 sigma)
# P_topo (ms)      =  714.502170543052  +/- 0.000269
# P'_topo (s/s)    =  -0                +/- 1.42e-10
# P''_topo (s/s^2) =  0                 +/- 6.28e-14
# P_bary (ms)      =  N/A
# P'_bary (s/s)    =  N/A
# P''_bary (s/s^2) =  N/A
# P_orb (s)        =  N/A
# asin(i)/c (s)    =  N/A
# eccentricity     =  N/A
# w (rad)          =  N/A
# T_peri           =  N/A
######################################################
   0  599.8571
   1  684.5446
   2  863.746
   3  979.4661
   4  1001.246
   5  935.5853
   6  880.4598
   7  737.3658
   8  494.2002
   9  388.1928
  10  499.1272
  11  489.7284
  12  451.5732
  13  533.9896
  14  466.9281
  15  348.3724
  16  417.0485
  17  450.6465
  18  398.8891
  19  498.793
  20  590.6983
  21  530.5206
  22  406.1659
  23  455.8289
  24  433.1879
  25  403.4061
  26  476.7272
  27  512.7333
  28  468.1077
  29  504.9609
  30  433.0747
  31  409.5565
  32  399.0276
  33  368.4488
  34  353.1102
  35  484.5633
  36  484.6284
  37  481.4288
  38  408.6442
  39  494.851
  40  635.2382
  41  509.1167
  42  444.1817
  43  415.4987
  44  434.7707
  45  426.6703
  46  411.0084
  47  438.1983
  48  409.2283
  49  402.323
  50  491.5368
  51  501.457
  52  544.1159
  53  439.7941
  54  450.9688
  55  470.4367
  56  574.7244
  57  536.3497
  58  546.3769
  59  383.6654
  60  252.8526
  61  325.5516
  62  426.6938
  63  410.0252
  64  472.7493
  65  474.6508
  66  459.4226
  67  529.2957
  68  485.362
  69  494.1945
  70  432.0329
  71  482.6039
  72  480.1017
  73  504.4942
  74  447.5116
  75  474.5013
  76  494.4398
  77  501.0839
  78  576.8878
  79  542.4453
  80  542.4546
  81  595.6345
  82  527.4842
  83  457.1936
  84  405.6601
  85  453.4192
  86  555.4191
  87  401.825
  88  424.5889
  89  527.0835
  90  626.9216
  91  622.1254
  92  549.9784
  93  487.9837
  94  434.6138
  95  492.2297
  96  477.071
  97  614.809
  98  588.7437
  99  581.2064
 100  604.8843
 101  631.6926
 102  604.8928
 103  638.9492
 104  721.7554
 105  745.0103
 106  677.3627
 107  731.0732
 108  640.961
 109  612.7239
 110  520.2352
 111  504.0761
 112  603.7044
 113  559.5183
 114  485.2358
 115  424.57
 116  568.0535
 117  535.3743
 118  534.6381
 119  464.2657
 120  484.3517
 121  570.3605
 122  496.7489
 123  457.4902
 124  478.191
 125  439.2396
 126  495.3626
 127  453.5231
 128  439.8152
 129  420.4142
 130  399.762
 131  381.5847
 132  460.1412
 133  566.4608
 134  503.7262
 135  446.9919
 136  401.6756
 137  401.4643
 138  331.6786
 139  360.6432
 140  443.7247
 141  585.3787
 142  449.6972
 143  466.9935
 144  496.1488
 145  470.3777
 146  490.7262
 147  423.8442
 148  412.2247
 149  411.2566
 150  388.7816
 151  407.8929
 152  340.1713
 153  449.4795
 154  473.0238
 155  513.0161
 156  419.8867
 157  422.5643
 158  386.3982
 159  336.9891
 160  362.6245
 161  405.336
 162  501.711
 163  483.2993
 164  411.5277
 165  394.5927
 166  414.8177
 167  423.0063
 168  409.5169
 169  410.9678
 170  381.8791
 171  409.5092
 172  408.969
 173  375.0018
 174  499.9002
 175  493.6208
 176  500.4066
 177  502.7917
 178  534.0463
 179  515.8547
 180  511.2381
 181  429.8047
 182  444.8156
 183  467.842
 184  434.55
 185  537.7363
 186  438.5306
 187  378.7918
 188  450.3329
 189  468.9402
 190  461.3048
 191  340.3362
 192  381.1273
 193  557.4854
 194  525.9976
 195  529.0588
 196  530.1577
 197  486.1714
 198  482.1986
 199  524.5104
 200  545.258
 201  573.0362
 202  537.8849
 203  544.0997
 204  448.256
 205  506.7969
 206  648.7295
 207  625.1741
 208  587.6666
 209  500.5698
 210  476.7723
 211  508.6809
 212  572.092
 213  439.084
 214  454.0458
 215  565.6411
 216  563.6763
 217  471.8275
 218  458.5038
 219  501.2594
 220  486.6451
 221  483.7814
 222  525.7388
 223  517.7936
 224  498.0467
 225  492.8013
 226  513.7714
 227  435.614
 228  561.2488
 229  561.3647
 230  474.9963
 231  460.5464
 232  446.1563
 233  453.6453
 234  557.9161
 235  442.9864
 236  474.1233
 237  491.3569
 238  524.4988
 239  520.1123
 240  484.2032
 241  462.7154
 242  422.4749
 243  331.7367
 244  433.5419
 245  537.4004
 246  445.7082
 247  378.4019
 248  508.9013
 249  535.241
 250  563.8565
 251  474.2914
 252  402.3233
 253  363.8951
 254  344.0284
 255  416.7043
 256  401.1914
 257  432.4739
 258  460.007
 259  432.7821
 260  482.9218
 261  551.5547
 262  548.8608
 263  538.2982
 264  438.956
 265  484.3173
 266  576.7924
 267  501.7905
 268  538.2123
 269  620.2266
 270  591.7523
 271  436.6983
 272  443.398
 273  414.3571
 274  469.6387
 275  535.9562
 276  495.8926
 277  332.9594
 278  418.5184
 279  472.7964
 280  492.3644
 281  536.9725
 282  399.5902
 283  498.1803
 284  464.4268
 285  421.9779
 286  424.9914
 287  494.6684
 288  466.0861
 289  446.6183
 290  420.8676
 291  504.6888
 292  583.8519
 293  554.4375
 294  481.8799
 295  490.6073
 296  654.8734
 297  555.9943
 298  536.2621
 299  478.5762
 300  474.7716
 301  418.1313
 302  466.9831
 303  465.8698
 304  382.0301
 305  469.5694
 306  525.164
 307  584.5287
 308  493.8252
 309  410.2339
 310  464.3335
 311  533.1224
 312  481.9706
 313  523.3649
 314  563.3138
 315  505.8448
 316  484.4702
 317  524.4197
 318  461.7287
 319  458.9294
 320  465.1736
 321  454.5096
 322  478.9033
 323  528.1507
 324  421.4745
 325  417.9194
 326  563.5333
 327  551.1121
 328  527.5109
 329  495.1896
 330  504.232
 331  550.1196
 332  589.4017
 333  556.2851
 334  575.5668
 335  536.7969
 336  529.1116
 337  485.245
 338  500.7901
 339  437.5232
 340  443.7802
 341  483.4295
 342  486.3919
 343  485.1569
 344  582.9315
 345  546.2989
 346  510.0566
 347  433.0278
 348  490.5185
 349  499.9466
 350  568.4291
 351  565.563
 352  536.4388
 353  560.6062
 354  499.6516
 355  491.7634
 356  478.1785
 357  434.3868
 358  462.5084
 359  514.3308
 360  501.4676
 361  494.3729
 362  489.8959
 363  535.8011
 364  456.8199
 365  536.7877
 366  579.6319
 367  371.6616
 368  340.2856
 369  312.3009
 370  406.5787
 371  461.6744
 372  456.8722
 373  417.0367
 374  549.6733
 375  583.2554
 376  577.2436
 377  537.9827
 378  547.6193
 379  489.9903
 380  379.7618
 381  415.1446
 382  485.9544
 383  529.8076
 384  668.2271
 385  615.7103
 386  542.9071
 387  592.6562
 388  584.9397
 389  600.8334
 390  601.0592
 391  603.1997
 392  558.5448
 393  462.8635
 394  469.955
 395  415.9574
 396  403.3036
 397  438.0141
 398  526.6602
 399  483.8817
 400  506.032
 401  487.6702
 402  500.4987
 403  471.5948
 404  481.7664
 405  482.1917
 406  519.7429
 407  413.1068
 408  475.5451
 409  524.0945
 410  626.1872
 411  528.0263
 412  513.6714
 413  449.2529
 414  529.1392
 415  482.4534
 416  475.1128
 417  548.9708
 418  620.0116
 419  461.3729
 420  413.3371
 421  379.8658
 422  367.02
 423  375.4341
 424  487.0517
 425  528.1478
 426  549.3854
 427  583.2741
 428  522.108
 429  410.0582
 430  440.243
 431  442.8204
 432  482.4672
 433  483.6362
 434  425.5235
 435  442.4619
 436  580.34
 437  602.9194
 438  524.3445
 439  529.4301
 440  496.431
 441  492.0071
 442  434.6194
 443  391.3125
 444  526.9627
 445  641.8821
 446  544.9523
 447  529.0964
 448  582.7655
 449  530.1238
 450  494.783
 451  587.4928
 452  508.4208
 453  461.7002
 454  486.4941
 455  537.6492
 456  493.8206
 457  360.4203
 458  306.3463
 459  391.0757
 460  468.4715
 461  565.8837
 462  531.7581
 463  378.3614
 464  396.1614
 465  411.5607
 466  534.4721
 467  532.6567
 468  497.6706
 469  492.1825
 470  432.933
 471  423.4876
 472  551.5326
 473  487.3325
 474  426.2361
 475  491.1683
 476  476.9287
 477  461.9146
 478  572.7358
 479  462.6538
 480  409.4803
 481  448.1194
 482  542.2508
 483  578.5981
 484  569.1508
 485  569.7494
 486  511.5477
 487  389.7415
 488  501.3639
 489  486.4634
 490  452.1953
 491  522.2828
 492  523.5039
 493  504.8578
 494  503.1089
 495  414.0036
 496  368.8965
 497  379.1061
 498  505.4576
 499  590.8747
 500  467.7077
 501  437.6711
 502  468.536
 503  488.1685
 504  385.0936
 505  411.2401
 506  379.5342
 507  439.8671
 508  480.9071
 509  528.2319
 510  460.2474
 511  508.045
