# Input file       =  1194194576.102522_cleaned.dat
# Candidate        =  PSR_0332+5434
# Telescope        =  AR
# Epoch_topo       =  58065.696702575486
# Epoch_bary       =  N/A
# T_sample         =  0.002
# Data Folded      =  7143424
# Data Avg         =  0.168896358502909
# Data StdDev      =  3.95991217431854 
# Profile Bins     =  512
# Profile Avg      =  2356.59561702177 
# Profile StdDev   =  467.739220703018 
# Reduced chi-sqr  =  0.587
# Prob(Noise)      <  1   (~0.0 sigma)
# P_topo (ms)      =  714.502944612657  +/- 7.03e-05
# P'_topo (s/s)    =  -0                +/- 3.81e-11
# P''_topo (s/s^2) =  0                 +/- 1.73e-14
# P_bary (ms)      =  N/A
# P'_bary (s/s)    =  N/A
# P''_bary (s/s^2) =  N/A
# P_orb (s)        =  N/A
# asin(i)/c (s)    =  N/A
# eccentricity     =  N/A
# w (rad)          =  N/A
# T_peri           =  N/A
######################################################
   0  2800.703
   1  2630.046
   2  2599.269
   3  2572.659
   4  2228.588
   5  2527.177
   6  2420.924
   7  2500.55
   8  2385.886
   9  2787.102
  10  2634.434
  11  2333.667
  12  2187.699
  13  2597.391
  14  2649.678
  15  2246.157
  16  2532.448
  17  2711.062
  18  2768.003
  19  2598.994
  20  2229.201
  21  2505.374
  22  2422.625
  23  2512.513
  24  2494.41
  25  2386.166
  26  2309.69
  27  2162.046
  28  2290.723
  29  2256.105
  30  2310.913
  31  2230.574
  32  2275.035
  33  2308.264
  34  2392.181
  35  2418.762
  36  2201.183
  37  2129.183
  38  1810.714
  39  2089.021
  40  2519.368
  41  2644.52
  42  2534.469
  43  2289.182
  44  2402.959
  45  2109.988
  46  2180.64
  47  2050.497
  48  2047.354
  49  2136.586
  50  2507.05
  51  2644.837
  52  2407.734
  53  1971.625
  54  1844.242
  55  1900.2
  56  2078.505
  57  2210.777
  58  2362.421
  59  2509.558
  60  2831.189
  61  2278.9
  62  2525.239
  63  2542.169
  64  2171.425
  65  2359.463
  66  2361.996
  67  2438.386
  68  2318.146
  69  2518.354
  70  2179.835
  71  1934.004
  72  2349.356
  73  2320.172
  74  2614.773
  75  2634.101
  76  2681.913
  77  2144.995
  78  1913.343
  79  2453.723
  80  2243.441
  81  2657.704
  82  2696.211
  83  2749.807
  84  2775.15
  85  2570.732
  86  2495.148
  87  2354.67
  88  2500.111
  89  2185.994
  90  2329.818
  91  2358.965
  92  2458.765
  93  2761.24
  94  2642.188
  95  2535.742
  96  2158.389
  97  2133.284
  98  2208.856
  99  2390.778
 100  2295.813
 101  2198.859
 102  2449.589
 103  2295.608
 104  2405.837
 105  1844.898
 106  1936.158
 107  1936.432
 108  2360.076
 109  2658.535
 110  2128.618
 111  2320.293
 112  2261.422
 113  2134.796
 114  2283.729
 115  2425.105
 116  2521.669
 117  2534.157
 118  2613.407
 119  2270.476
 120  2225.522
 121  2028.487
 122  2313.418
 123  2286.781
 124  2444.766
 125  2482.523
 126  2674.908
 127  2247.634
 128  2126.231
 129  2287.811
 130  2152.657
 131  2180.949
 132  2119.689
 133  2049.966
 134  2277.517
 135  1847.207
 136  2221.597
 137  2131.988
 138  2175.745
 139  2414.58
 140  2162.729
 141  2530.308
 142  2514.591
 143  2456.521
 144  2249.11
 145  1906.944
 146  2108.487
 147  2281.62
 148  2387.385
 149  2350.817
 150  2394.86
 151  2540.916
 152  2324.531
 153  2051.387
 154  2053.606
 155  2537.13
 156  2433.715
 157  2430.805
 158  2140.761
 159  2513.706
 160  2524.381
 161  2324.166
 162  2357.177
 163  2222.327
 164  2290.852
 165  2430.414
 166  2627.345
 167  2430.867
 168  2561.928
 169  2656.671
 170  2140.615
 171  1988.213
 172  1897.539
 173  2289.351
 174  1950.057
 175  2357.661
 176  2478.316
 177  2282.223
 178  2005.093
 179  1759.531
 180  2141.356
 181  1892.646
 182  2241.956
 183  1793.694
 184  1945.709
 185  2213.427
 186  2084.574
 187  2578.063
 188  2139.708
 189  2228.354
 190  1985.586
 191  2202.676
 192  2321.197
 193  2342.264
 194  2369.542
 195  2158.717
 196  2271.542
 197  2206.545
 198  2411.822
 199  2511.291
 200  2647.86
 201  3021.751
 202  3037.114
 203  3223.223
 204  3248.266
 205  3431.733
 206  3084.686
 207  2715.628
 208  2665.233
 209  2708.446
 210  2847.097
 211  2658.615
 212  2389.604
 213  2136.63
 214  2090.139
 215  2193.454
 216  2056.647
 217  2440.836
 218  1995.42
 219  2302.186
 220  2647.668
 221  2511.901
 222  2450.363
 223  2098.414
 224  2365.217
 225  2560.658
 226  2430.606
 227  2299.702
 228  2206.486
 229  2358.938
 230  2520.411
 231  2577.391
 232  2620.441
 233  2766.045
 234  2259.129
 235  2204.395
 236  2092.087
 237  2119.242
 238  1896.126
 239  2112.467
 240  2469.711
 241  2330.558
 242  2478.472
 243  1987.055
 244  2056.434
 245  2102.555
 246  2231.103
 247  2516.93
 248  2292.917
 249  2603.651
 250  2345.74
 251  2177.882
 252  2032.115
 253  1647.494
 254  1913.984
 255  1917
 256  2268.365
 257  2415.439
 258  2270.426
 259  2310.864
 260  1930.755
 261  1851.567
 262  1892.535
 263  2436.908
 264  2272.883
 265  2513.724
 266  2068.995
 267  1959.266
 268  2052.636
 269  2102.134
 270  2155.249
 271  2100.911
 272  2110.925
 273  1927.064
 274  2477.509
 275  2799.598
 276  2259.229
 277  2125.914
 278  1881.994
 279  1789.731
 280  1972.048
 281  2085.101
 282  2000.683
 283  2534.639
 284  2911.111
 285  2249.854
 286  2267.887
 287  2208.697
 288  2049.889
 289  2378.361
 290  2512.438
 291  2882.715
 292  2411.492
 293  2128.553
 294  2066.394
 295  2387.271
 296  2481.183
 297  2693.339
 298  2573.017
 299  2413.088
 300  2470.907
 301  2360.71
 302  2178.542
 303  1743.258
 304  2041.714
 305  2439.973
 306  2538.209
 307  2590.915
 308  2708.178
 309  2385.972
 310  2295.01
 311  2308.178
 312  1931.536
 313  2266.199
 314  2813.165
 315  2838.776
 316  2738.533
 317  2199.37
 318  2201.002
 319  2313.314
 320  2256.359
 321  2173.66
 322  1903.572
 323  2488.149
 324  2256.718
 325  2077.883
 326  2070.657
 327  1956.164
 328  1973.462
 329  2189.15
 330  2350.321
 331  2302.715
 332  1878.135
 333  2250.548
 334  1993.742
 335  2154.927
 336  1989.789
 337  2289.656
 338  2341.309
 339  2441.909
 340  2762.496
 341  2779.51
 342  2572.823
 343  2500.772
 344  2261.153
 345  2124.575
 346  2372.223
 347  2491.436
 348  2830.501
 349  2633.649
 350  2540.65
 351  2306.249
 352  2174.662
 353  2346.845
 354  2173.093
 355  2226.862
 356  2270.503
 357  2364.571
 358  2840.715
 359  2357.701
 360  2325.814
 361  2084.265
 362  2843.217
 363  2581.499
 364  2329.559
 365  2495.907
 366  2686.992
 367  2766.671
 368  2554.777
 369  2256.507
 370  2368.68
 371  2410.974
 372  2194.025
 373  2479.585
 374  2548.555
 375  2489.523
 376  2435.738
 377  2465.231
 378  2371.639
 379  2500.913
 380  3029.932
 381  2593.499
 382  2505.594
 383  2429.858
 384  2233.945
 385  2168.034
 386  2245.889
 387  2544.586
 388  2357.662
 389  2245.774
 390  2422.909
 391  2490.495
 392  2602.229
 393  2481.159
 394  2548.753
 395  2686.438
 396  2642.083
 397  2714.956
 398  2333.22
 399  2478.065
 400  2095.776
 401  1709.633
 402  2044.597
 403  2130.027
 404  2830.858
 405  2436.794
 406  2532.517
 407  2546.539
 408  2787.439
 409  2355.76
 410  1998.702
 411  2179.648
 412  2680.857
 413  2607.409
 414  2756.95
 415  2628.447
 416  2171.145
 417  2521.583
 418  2492.147
 419  2082.798
 420  2198.344
 421  2086.485
 422  2623.117
 423  2764.055
 424  2931.057
 425  2707.751
 426  2718.835
 427  2840.38
 428  2396.347
 429  2345.339
 430  2175.361
 431  2612.053
 432  2378.121
 433  2123.3
 434  2315.102
 435  2154.111
 436  2257.383
 437  2176.267
 438  2704.923
 439  2470.705
 440  2228.639
 441  2314.211
 442  2172.801
 443  2328.184
 444  2206.27
 445  2607.899
 446  2729.9
 447  2916.026
 448  2916.505
 449  2604.595
 450  2438.249
 451  2513.683
 452  2590.229
 453  2338.223
 454  2480.417
 455  2526.746
 456  2301.946
 457  2230.588
 458  2266.555
 459  2359.068
 460  2203.088
 461  2346.86
 462  2263.105
 463  2555.01
 464  2638.049
 465  2433.763
 466  2649.829
 467  2230.599
 468  2471.811
 469  2645.304
 470  2415.079
 471  2241.546
 472  2177.139
 473  2446.483
 474  2396.304
 475  2120.424
 476  2390.271
 477  2388.911
 478  2348.688
 479  2344.77
 480  2536.309
 481  2770.855
 482  2470.99
 483  2101.062
 484  1908.459
 485  2110.099
 486  2242.029
 487  2168.499
 488  2272.41
 489  2543.663
 490  2664.339
 491  2370.703
 492  2178.845
 493  1823.55
 494  1973.411
 495  2257.711
 496  2594.455
 497  2553.274
 498  2666.675
 499  2086.177
 500  2141.113
 501  2317.71
 502  2322.06
 503  2493.09
 504  2348.709
 505  2776.956
 506  2700.386
 507  2367.432
 508  2366.894
 509  2299.898
 510  2363.427
 511  2453.791
