# Input file       =  1194310941.104431_cleaned.dat
# Candidate        =  PSR_0332+5434
# Telescope        =  AR
# Epoch_topo       =  58067.043519727209
# Epoch_bary       =  N/A
# T_sample         =  0.002
# Data Folded      =  7340032
# Data Avg         =  0.0184000241431128
# Data StdDev      =  1.00019356122785 
# Profile Bins     =  512
# Profile Avg      =  263.715305939377 
# Profile StdDev   =  119.756212050302 
# Reduced chi-sqr  =  0.917
# Prob(Noise)      <  0.911   (~0.0 sigma)
# P_topo (ms)      =  714.504615392871  +/- 0.000127
# P'_topo (s/s)    =  -0                +/- 6.71e-11
# P''_topo (s/s^2) =  0                 +/- 2.96e-14
# P_bary (ms)      =  N/A
# P'_bary (s/s)    =  N/A
# P''_bary (s/s^2) =  N/A
# P_orb (s)        =  N/A
# asin(i)/c (s)    =  N/A
# eccentricity     =  N/A
# w (rad)          =  N/A
# T_peri           =  N/A
######################################################
   0  217.2587
   1  138.0556
   2  77.1819
   3  39.67891
   4  94.40301
   5  194.4204
   6  317.2949
   7  282.3788
   8  275.6886
   9  220.6507
  10  180.322
  11  133.8278
  12  171.3613
  13  193.9301
  14  227.6585
  15  292.6971
  16  342.9951
  17  286.8909
  18  270.1127
  19  324.1666
  20  249.0274
  21  241.9422
  22  306.0383
  23  230.5241
  24  175.5684
  25  191.4029
  26  252.4446
  27  166.4198
  28  180.5749
  29  162.2787
  30  75.387
  31  167.3677
  32  214.7958
  33  261.5678
  34  225.1248
  35  194.5527
  36  240.9898
  37  273.8775
  38  295.1271
  39  197.9856
  40  278.0038
  41  273.6452
  42  242.0312
  43  237.8934
  44  259.5308
  45  274.2622
  46  242.921
  47  180.2902
  48  271.9331
  49  329.1115
  50  284.5176
  51  198.5372
  52  171.6262
  53  232.187
  54  215.7575
  55  265.1957
  56  209.6035
  57  231.6577
  58  215.7396
  59  313.3089
  60  223.3134
  61  171.4439
  62  285.7279
  63  354.0608
  64  431.1502
  65  378.1028
  66  518.6885
  67  768.2923
  68  762.0818
  69  638.4561
  70  539.5308
  71  523.7139
  72  346.6892
  73  203.3511
  74  160.1539
  75  246.1081
  76  320.3666
  77  283.8228
  78  240.6112
  79  122.4938
  80  179.3991
  81  159.2304
  82  276.5162
  83  387.533
  84  284.6558
  85  195.7511
  86  144.6882
  87  228.0378
  88  168.2602
  89  152.8347
  90  264.7665
  91  283.8523
  92  342.847
  93  187.5503
  94  292.4607
  95  259.8202
  96  174.7427
  97  203.9604
  98  141.4578
  99  200.3943
 100  265.7613
 101  242.5768
 102  246.7205
 103  312.6968
 104  390.7533
 105  364.6232
 106  252.4474
 107  212.5866
 108  175.982
 109  220.9524
 110  268.5064
 111  266.6209
 112  245.7792
 113  224.8222
 114  342.2238
 115  309.0097
 116  217.9211
 117  286.8345
 118  395.062
 119  346.8198
 120  275.3698
 121  166.7387
 122  208.4647
 123  194.3377
 124  239.2222
 125  296.2355
 126  426.8824
 127  469.648
 128  386.6571
 129  277.2512
 130  144.0955
 131  187.4639
 132  197.6668
 133  195.3573
 134  136.3885
 135  238.9006
 136  365.7264
 137  272.1556
 138  251.38
 139  361.2634
 140  271.7978
 141  167.4062
 142  281.8387
 143  313.0251
 144  305.9948
 145  158.1262
 146  190.591
 147  173.6003
 148  206.6492
 149  379.9061
 150  336.1867
 151  293.7139
 152  288.725
 153  245.0927
 154  200.1725
 155  257.1899
 156  241.8652
 157  64.45214
 158  3.840937
 159  194.5443
 160  183.6809
 161  244.5423
 162  209.4847
 163  139.9635
 164  207.6812
 165  318.0113
 166  267.2434
 167  320.2551
 168  322.7239
 169  319.9429
 170  373.0795
 171  197.0059
 172  89.3185
 173  185.9566
 174  298.7457
 175  388.1567
 176  288.5695
 177  364.7717
 178  341.274
 179  347.5192
 180  300.5784
 181  211.8857
 182  277.3818
 183  233.4064
 184  255.0713
 185  377.5083
 186  336.3711
 187  287.8714
 188  334.4121
 189  416.0911
 190  398.4572
 191  215.9869
 192  234.0792
 193  333.6831
 194  350.8528
 195  345.5274
 196  249.4949
 197  308.6594
 198  282.9438
 199  194.0175
 200  267.2164
 201  150.7296
 202  153.4918
 203  401.0498
 204  516.0734
 205  348.8274
 206  342.5451
 207  400.2036
 208  400.0849
 209  311.9934
 210  206.4616
 211  228.2734
 212  319.5969
 213  279.7331
 214  240.2841
 215  202.0184
 216  245.7257
 217  357.0721
 218  368.4923
 219  286.188
 220  186.1732
 221  290.1518
 222  247.1808
 223  180.047
 224  207.4107
 225  212.7758
 226  321.1286
 227  218.3458
 228  278.7878
 229  280.1865
 230  314.0657
 231  231.3178
 232  282.4095
 233  267.6502
 234  268.5209
 235  310.5576
 236  412.0122
 237  400.1209
 238  151.1721
 239  255.0453
 240  354.9995
 241  270.2261
 242  178.9466
 243  163.6411
 244  139.8204
 245  303.7027
 246  336.9582
 247  300.4257
 248  330.7999
 249  270.1884
 250  295.0414
 251  384.255
 252  328.3128
 253  104.3536
 254  244.0398
 255  265.795
 256  244.2466
 257  180.3829
 258  282.5392
 259  252.8861
 260  241.2346
 261  283.7946
 262  252.8463
 263  167.6282
 264  268.3726
 265  269.2954
 266  250.0549
 267  214.7753
 268  262.8886
 269  280.4456
 270  351.3761
 271  204.5843
 272  186.3056
 273  289.9323
 274  259.888
 275  216.2736
 276  257.4914
 277  256.6956
 278  290.6372
 279  308.0922
 280  295.0042
 281  299.4738
 282  318.843
 283  315.0827
 284  339.1027
 285  265.728
 286  299.3647
 287  235.2263
 288  300.2251
 289  379.3337
 290  356.7181
 291  347.4991
 292  297.2864
 293  311.8084
 294  272.3733
 295  308.8344
 296  256.6815
 297  169.5638
 298  171.0516
 299  209.5101
 300  324.0103
 301  361.0661
 302  235.5043
 303  366.4664
 304  352.002
 305  304.4532
 306  251.386
 307  200.9593
 308  93.65752
 309  130.6939
 310  171.9799
 311  206.4977
 312  275.7949
 313  215.4148
 314  343.6119
 315  322.7876
 316  289.0713
 317  354.5099
 318  294.6263
 319  186.9101
 320  286.3314
 321  287.4189
 322  191.8674
 323  235.1159
 324  319.9886
 325  167.3828
 326  104.668
 327  181.2045
 328  283.9468
 329  304.2588
 330  212.9875
 331  226.9199
 332  235.8251
 333  274.3058
 334  325.9693
 335  312.284
 336  172.9653
 337  148.6208
 338  331.7305
 339  286.8174
 340  260.2769
 341  294.9692
 342  301.7287
 343  257.0501
 344  218.1317
 345  171.8515
 346  250.9317
 347  226.833
 348  225.4953
 349  153.3881
 350  177.0914
 351  255.5784
 352  214.9525
 353  240.3915
 354  195.9855
 355  292.6594
 356  328.5613
 357  225.6584
 358  203.9022
 359  308.0884
 360  317.3228
 361  323.6645
 362  315.4534
 363  338.3303
 364  323.1372
 365  207.5888
 366  274.9774
 367  232.91
 368  224.94
 369  179.7701
 370  251.7847
 371  289.4508
 372  214.1285
 373  215.5566
 374  377.9668
 375  340.249
 376  284.4064
 377  298.7278
 378  322.2599
 379  353.6622
 380  281.3268
 381  267.7458
 382  284.5087
 383  221.4297
 384  274.5972
 385  182.1463
 386  137.6129
 387  153.473
 388  182.8569
 389  182.9214
 390  137.7648
 391  88.41948
 392  140.543
 393  282.0727
 394  377.0613
 395  345.114
 396  307.5938
 397  361.2372
 398  433.9674
 399  414.8256
 400  313.3651
 401  127.2007
 402  231.225
 403  318.8134
 404  387.7676
 405  327.4597
 406  213.9643
 407  209.7746
 408  257.8315
 409  260.315
 410  117.3206
 411  69.36037
 412  226.0503
 413  278.072
 414  271.4431
 415  267.8752
 416  205.7167
 417  274.3485
 418  234.7018
 419  161.4452
 420  179.627
 421  200.9823
 422  208.0656
 423  248.5825
 424  245.1412
 425  173.5135
 426  304.4367
 427  399.4211
 428  204.3374
 429  251.941
 430  351.9962
 431  334.4764
 432  191.575
 433  253.4805
 434  265.8221
 435  144.166
 436  282.232
 437  308.9678
 438  341.75
 439  277.4156
 440  267.2115
 441  260.9179
 442  362.1094
 443  302.9916
 444  222.1411
 445  283.4209
 446  284.4649
 447  319.9592
 448  319.3382
 449  160.4959
 450  229.9552
 451  189.6219
 452  206.5676
 453  269.5981
 454  348.1124
 455  268.823
 456  297.4781
 457  311.7948
 458  271.5613
 459  253.8499
 460  182.9109
 461  305.7932
 462  308.6322
 463  366.6165
 464  260.0931
 465  258.7557
 466  237.0316
 467  293.8657
 468  349.6753
 469  394.1877
 470  246.6496
 471  268.6356
 472  292.368
 473  346.8232
 474  211.8457
 475  287.7492
 476  344.7148
 477  263.7286
 478  256.3303
 479  258.7891
 480  374.6876
 481  426.7033
 482  300.5277
 483  270.86
 484  230.5087
 485  157.1207
 486  182.0667
 487  270.5492
 488  222.1246
 489  222.7302
 490  245.6494
 491  261.6009
 492  124.9493
 493  216.4283
 494  209.7471
 495  211.0384
 496  299.5634
 497  358.5719
 498  288.2138
 499  285.6658
 500  364.8789
 501  247.6046
 502  251.1518
 503  209.6764
 504  268.4227
 505  351.4844
 506  300.0462
 507  335.5454
 508  233.1731
 509  277.3131
 510  217.9041
 511  199.6186
