# Input file       =  1194381597.099506-PSRB0329-2ms-sampling-dd.dat
# Candidate        =  PSR_0332+5434
# Telescope        =  AR
# Epoch_topo       =  58067.861297447984
# Epoch_bary       =  N/A
# T_sample         =  0.002
# Data Folded      =  7340032
# Data Avg         =  -4.03580153070222e-10
# Data StdDev      =  4.99730956139968 
# Profile Bins     =  512
# Profile Avg      =  4.33904906839873 
# Profile StdDev   =  598.343047501029 
# Reduced chi-sqr  =  0.412
# Prob(Noise)      <  1   (~0.0 sigma)
# P_topo (ms)      =  714.505068470414  +/- 0.000714
# P'_topo (s/s)    =  -0                +/- 3.77e-10
# P''_topo (s/s^2) =  0                 +/- 1.66e-13
# P_bary (ms)      =  N/A
# P'_bary (s/s)    =  N/A
# P''_bary (s/s^2) =  N/A
# P_orb (s)        =  N/A
# asin(i)/c (s)    =  N/A
# eccentricity     =  N/A
# w (rad)          =  N/A
# T_peri           =  N/A
######################################################
   0  -125.1957
   1  -93.45155
   2  -61.37477
   3  -81.86947
   4  76.797
   5  0.3878641
   6  -31.89807
   7  -175.5741
   8  -534.5771
   9  -890.6637
  10  -565.6781
  11  -379.6815
  12  -230.4814
  13  -152.1772
  14  -248.7153
  15  -578.8754
  16  -361.5492
  17  -403.1965
  18  -574.7642
  19  -513.6072
  20  -303.5043
  21  -190.3732
  22  -138.1738
  23  -284.6541
  24  -257.4787
  25  -65.90662
  26  35.7682
  27  -240.6876
  28  -413.8041
  29  -268.723
  30  -371.356
  31  -295.8378
  32  -110.827
  33  167.4403
  34  574.1094
  35  21.66847
  36  77.52744
  37  53.56217
  38  -143.5329
  39  -306.6938
  40  -280.5018
  41  2.46034
  42  -92.39307
  43  -0.5685978
  44  -69.63764
  45  -121.9428
  46  94.10726
  47  392.1941
  48  660.7032
  49  1081.784
  50  1391.521
  51  886.5134
  52  612.0301
  53  338.8338
  54  -72.964
  55  -359.5872
  56  -610.412
  57  -658.5714
  58  -465.6422
  59  -835.1254
  60  -639.4443
  61  -406.535
  62  -364.6409
  63  -310.7086
  64  -200.4381
  65  -91.92093
  66  -182.7644
  67  49.57312
  68  55.99219
  69  -14.19716
  70  55.71854
  71  113.3191
  72  -142.1314
  73  -47.29372
  74  59.79576
  75  -62.1405
  76  287.4519
  77  153.1302
  78  105.1483
  79  -25.30555
  80  -4.720982
  81  114.7352
  82  -28.43112
  83  212.816
  84  270.7168
  85  177.632
  86  120.2754
  87  91.74107
  88  189.9262
  89  27.71929
  90  88.0478
  91  194.9738
  92  -137.5159
  93  -345.5601
  94  -186.818
  95  -53.11621
  96  -305.9874
  97  -166.1572
  98  -26.96158
  99  -339.4153
 100  -326.2966
 101  -89.82982
 102  -418.7854
 103  -633.5322
 104  -466.9261
 105  -319.7583
 106  -186.7486
 107  -126.3125
 108  -449.7935
 109  -427.2945
 110  -322.9988
 111  -396.2466
 112  -403.4483
 113  -166.6474
 114  -82.49663
 115  -37.91322
 116  -45.22899
 117  48.65524
 118  -249.5897
 119  48.63383
 120  38.73101
 121  -303.3854
 122  -216.1457
 123  8.320145
 124  -85.73221
 125  -149.0841
 126  99.65047
 127  55.45275
 128  114.6888
 129  -83.02876
 130  -328.6307
 131  -444.8071
 132  -218.2844
 133  55.70311
 134  -61.45296
 135  -174.9478
 136  -122.7155
 137  -150.264
 138  -139.0602
 139  -139.1806
 140  -214.6116
 141  -493.9421
 142  -436.3593
 143  -327.8813
 144  -224.006
 145  -155.6138
 146  -94.48249
 147  253.8901
 148  213.5694
 149  -306.9663
 150  -248.1502
 151  186.9953
 152  146.8566
 153  75.19086
 154  271.7513
 155  660.4756
 156  237.3266
 157  140.5283
 158  213.0094
 159  143.9541
 160  174.6194
 161  448.724
 162  264.4923
 163  383.2622
 164  313.0811
 165  332.8103
 166  650.502
 167  535.8627
 168  606.7913
 169  577.8785
 170  564.0845
 171  385.7205
 172  303.8314
 173  420.8604
 174  598.5482
 175  702.5009
 176  370.6399
 177  274.5338
 178  33.45988
 179  -37.56305
 180  145.6643
 181  321.483
 182  549.6382
 183  222.607
 184  102.2474
 185  40.46667
 186  -346.3947
 187  226.9279
 188  139.3817
 189  64.42315
 190  35.1297
 191  22.7955
 192  239.759
 193  401.5035
 194  447.4853
 195  626.1931
 196  322.4094
 197  477.6422
 198  592.6871
 199  378.4019
 200  206.0941
 201  211.8201
 202  42.82354
 203  208.9935
 204  185.9363
 205  119.6192
 206  -135.5748
 207  -188.9428
 208  -160.875
 209  -183.6032
 210  -216.0734
 211  -74.61259
 212  -291.7079
 213  -59.8989
 214  -388.1173
 215  -494.9668
 216  -207.1023
 217  -499.4879
 218  -582.0462
 219  -493.5844
 220  -142.2447
 221  -295.4504
 222  -212.5563
 223  -283.8378
 224  -166.4526
 225  10.8352
 226  30.58562
 227  1.891165
 228  -61.02442
 229  349.4886
 230  432.4655
 231  20.64488
 232  -41.36222
 233  223.2325
 234  270.74
 235  323.0041
 236  -41.59258
 237  -173.2487
 238  63.20141
 239  171.5538
 240  329.5508
 241  250.3825
 242  219.2733
 243  -112.9584
 244  -278.8913
 245  166.7194
 246  246.8692
 247  382.4552
 248  322.1993
 249  451.1955
 250  461.089
 251  231.9793
 252  284.821
 253  213.5291
 254  270.0504
 255  191.9596
 256  47.54482
 257  245.0865
 258  293.2217
 259  331.704
 260  85.12403
 261  -19.14689
 262  232.78
 263  211.6837
 264  42.07662
 265  305.9911
 266  589.7753
 267  353.0901
 268  258.3341
 269  270.193
 270  141.6088
 271  229.4626
 272  234.505
 273  538.3444
 274  318.4655
 275  104.1573
 276  214.9407
 277  487.8532
 278  444.532
 279  756.9496
 280  402.6036
 281  247.9049
 282  209.2396
 283  192.4424
 284  95.16475
 285  224.7806
 286  206.1857
 287  243.4689
 288  237.2309
 289  76.5689
 290  29.00414
 291  -28.93289
 292  23.30066
 293  -127.5338
 294  -2.895385
 295  215.5696
 296  171.9437
 297  7.327018
 298  -322.4467
 299  -210.933
 300  -294.0295
 301  -205.0244
 302  -350.1031
 303  -258.499
 304  -256.1106
 305  -295.9338
 306  -429.2722
 307  -551.8668
 308  -662.8502
 309  -326.4178
 310  -54.92768
 311  -70.11449
 312  -212.5848
 313  -283.7006
 314  -223.5798
 315  -172.0069
 316  -16.73614
 317  29.36816
 318  104.367
 319  206.8904
 320  278.5079
 321  -46.50405
 322  -273.0122
 323  -330.0227
 324  103.3099
 325  -119.9398
 326  62.92511
 327  -231.0213
 328  -186.8074
 329  -278.6699
 330  -182.6122
 331  15.81583
 332  51.33577
 333  -202.2771
 334  -277.6767
 335  -116.6741
 336  171.3901
 337  94.19936
 338  -145.3108
 339  -142.1422
 340  -65.23227
 341  -12.47553
 342  -132.5266
 343  147.7388
 344  99.70996
 345  -88.40546
 346  -76.45197
 347  53.58018
 348  126.4637
 349  -4.804324
 350  -11.99585
 351  -177.6408
 352  -158.1073
 353  -225.0293
 354  -360.448
 355  -173.3956
 356  -198.2779
 357  -124.007
 358  -10.88732
 359  -49.97989
 360  182.3362
 361  209.2274
 362  -81.82085
 363  -68.19228
 364  -87.58698
 365  160.3313
 366  216.1736
 367  -22.35869
 368  -93.46718
 369  -119.2229
 370  -84.17513
 371  -4.749707
 372  -130.6664
 373  -117.6584
 374  80.76938
 375  43.58603
 376  -200.0068
 377  -121.2376
 378  110.9528
 379  162.902
 380  151.3856
 381  341.0338
 382  324.3404
 383  295.8922
 384  386.2163
 385  404.383
 386  190.6758
 387  64.7395
 388  50.14182
 389  171.4859
 390  424.9445
 391  349.8285
 392  53.79972
 393  142.2831
 394  395.2286
 395  204.5162
 396  30.64777
 397  86.96394
 398  174.237
 399  21.55877
 400  203.6152
 401  9.493937
 402  -55.9546
 403  50.92408
 404  -209.4408
 405  52.8602
 406  131.9093
 407  -80.53789
 408  119.8392
 409  -41.92559
 410  364.8315
 411  30.47899
 412  -115.0492
 413  101.8748
 414  -181.8381
 415  -287.4939
 416  -298.9983
 417  12.91092
 418  -151.557
 419  -182.7211
 420  171.5408
 421  223.3617
 422  172.5421
 423  11.62516
 424  384.8484
 425  229.0542
 426  185.2016
 427  -82.65994
 428  -231.5345
 429  -358.7373
 430  -176.298
 431  168.3824
 432  50.11225
 433  64.22767
 434  61.0668
 435  -134.6568
 436  -43.0811
 437  -149.8206
 438  -22.72375
 439  101.2727
 440  167.4853
 441  -77.91875
 442  -57.7728
 443  -28.18712
 444  151.2758
 445  170.2309
 446  -96.7744
 447  -142.2729
 448  -204.0077
 449  -143.0298
 450  144.4957
 451  251.8876
 452  194.4569
 453  274.1672
 454  96.67298
 455  90.99113
 456  -199.157
 457  -63.39318
 458  15.01621
 459  318.8431
 460  285.8032
 461  242.104
 462  237.9278
 463  166.0809
 464  438.6246
 465  332.2434
 466  150.8811
 467  -31.14215
 468  128.6661
 469  -46.86954
 470  -370.7292
 471  -407.1841
 472  -184.5638
 473  3.793146
 474  46.45304
 475  -68.2608
 476  211.6689
 477  -22.36608
 478  3.770877
 479  -253.7102
 480  -215.0247
 481  90.00623
 482  -37.92276
 483  7.371375
 484  -69.34063
 485  -185.2143
 486  -261.7729
 487  -40.33515
 488  298.6181
 489  -341.3167
 490  -416.8481
 491  -249.412
 492  -223.6715
 493  -193.5202
 494  -255.9467
 495  -163.0648
 496  -444.5292
 497  -462.2899
 498  -224.7886
 499  -327.1221
 500  -12.09817
 501  218.2304
 502  -79.78334
 503  55.46534
 504  -68.35389
 505  -4.87346
 506  -256.4719
 507  -346.1348
 508  -98.83062
 509  324.8776
 510  440.6826
 511  -5.727401
