# Input file       =  1194741724.105465_cleaned.dat
# Candidate        =  PSR_0332+5434
# Telescope        =  AR
# Epoch_topo       =  58072.029434091026
# Epoch_bary       =  N/A
# T_sample         =  0.002
# Data Folded      =  7340032
# Data Avg         =  0.00867911442151937
# Data StdDev      =  1.00012086735846 
# Profile Bins     =  512
# Profile Avg      =  124.485050131382 
# Profile StdDev   =  119.747508192593 
# Reduced chi-sqr  =  0.981
# Prob(Noise)      <  0.612   (~0.0 sigma)
# P_topo (ms)      =  714.509574674299  +/- 0.000285
# P'_topo (s/s)    =  -0                +/- 1.5e-10
# P''_topo (s/s^2) =  0                 +/- 6.64e-14
# P_bary (ms)      =  N/A
# P'_bary (s/s)    =  N/A
# P''_bary (s/s^2) =  N/A
# P_orb (s)        =  N/A
# asin(i)/c (s)    =  N/A
# eccentricity     =  N/A
# w (rad)          =  N/A
# T_peri           =  N/A
######################################################
   0  192.1
   1  130.8734
   2  61.13267
   3  73.32629
   4  108.3538
   5  171.42
   6  87.64608
   7  130.7679
   8  96.78465
   9  62.42773
  10  59.17954
  11  54.79865
  12  1.754561
  13  189.4849
  14  157.1482
  15  101.7162
  16  112.6208
  17  76.84279
  18  74.18105
  19  84.11395
  20  135.5339
  21  58.6465
  22  0.509119
  23  23.08108
  24  6.865921
  25  -17.36681
  26  116.6575
  27  165.4298
  28  59.04895
  29  77.71152
  30  -31.6967
  31  17.0137
  32  165.5129
  33  68.48119
  34  220.2351
  35  191.9475
  36  213.4193
  37  156.8426
  38  146.5768
  39  276.5627
  40  267.5778
  41  120.4398
  42  125.8319
  43  238.5407
  44  95.83542
  45  71.16852
  46  179.5026
  47  229.0198
  48  188.2439
  49  90.36378
  50  6.00416
  51  61.78487
  52  102.6076
  53  88.50314
  54  89.45663
  55  158.1387
  56  186.1717
  57  274.5117
  58  319.1085
  59  174.5676
  60  204.3572
  61  157.7626
  62  224.0427
  63  240.0793
  64  130.2256
  65  152.3498
  66  83.95515
  67  88.26728
  68  129.795
  69  147.3651
  70  138.3202
  71  28.73618
  72  17.75628
  73  143.3329
  74  247.0807
  75  90.76884
  76  164.9692
  77  26.09215
  78  63.96564
  79  105.2723
  80  92.03129
  81  199.0457
  82  228.7709
  83  129.93
  84  131.9572
  85  30.10505
  86  52.883
  87  225.9163
  88  328.8343
  89  207.7342
  90  168.6766
  91  193.0468
  92  153.3222
  93  227.347
  94  209.2191
  95  217.8205
  96  162.6855
  97  234.4031
  98  214.5505
  99  121.8784
 100  128.7536
 101  101.5699
 102  146.9436
 103  165.0895
 104  38.51988
 105  190.3533
 106  300.2386
 107  280.561
 108  139.4824
 109  82.5993
 110  144.3066
 111  207.3155
 112  265.1
 113  202.8973
 114  180.0823
 115  133.7781
 116  161.517
 117  229.7234
 118  108.3125
 119  103.9224
 120  241.7439
 121  197.3249
 122  169.9211
 123  289.4353
 124  212.424
 125  281.7553
 126  326.9788
 127  167.2175
 128  135.5896
 129  68.97096
 130  81.91239
 131  126.9307
 132  147.671
 133  252.3683
 134  173.0591
 135  111.5316
 136  140.333
 137  192.229
 138  131.3711
 139  86.59132
 140  144.0202
 141  67.27292
 142  55.35953
 143  110.9056
 144  165.9549
 145  154.2968
 146  38.74939
 147  42.46061
 148  183.0409
 149  212.9392
 150  179.397
 151  214.5134
 152  130.837
 153  72.90595
 154  36.50047
 155  142.8664
 156  214.6187
 157  75.39075
 158  103.0938
 159  187.966
 160  197.4029
 161  160.7414
 162  154.0215
 163  297.7598
 164  267.4169
 165  172.19
 166  103.3269
 167  69.95076
 168  -45.26749
 169  68.79927
 170  144.3772
 171  195.2993
 172  128.7828
 173  -23.85929
 174  165.7424
 175  134.6292
 176  216.7569
 177  79.66175
 178  75.53494
 179  123.0867
 180  176.9726
 181  201.6778
 182  225.7907
 183  111.8937
 184  125.2918
 185  163.2396
 186  144.0772
 187  79.62736
 188  141.3916
 189  213.2111
 190  157.6221
 191  136.7834
 192  100.8127
 193  75.63371
 194  120.0018
 195  119.4096
 196  179.4717
 197  174.7576
 198  194.3855
 199  161.102
 200  165.7601
 201  114.916
 202  224.706
 203  119.3006
 204  98.43909
 205  90.21065
 206  177.7699
 207  193.3104
 208  212.9207
 209  95.88383
 210  104.7328
 211  218.2036
 212  102.94
 213  145.1948
 214  158.478
 215  164.5374
 216  293.8232
 217  250.0939
 218  148.0587
 219  175.595
 220  232.632
 221  226.1789
 222  135.9991
 223  49.89767
 224  213.1451
 225  184.4569
 226  73.52887
 227  118.3953
 228  95.90483
 229  29.54235
 230  123.9543
 231  182.5611
 232  154.346
 233  61.25824
 234  127.2731
 235  208.5276
 236  147.201
 237  82.60225
 238  162.6178
 239  110.3331
 240  240.8703
 241  239.8073
 242  58.77206
 243  83.42068
 244  38.57323
 245  13.09882
 246  85.20358
 247  243.8669
 248  182.5915
 249  71.96884
 250  58.55891
 251  140.4
 252  154.3628
 253  145.2785
 254  157.3232
 255  154.4265
 256  188.7545
 257  76.26018
 258  181.7318
 259  132.4548
 260  107.5391
 261  154.315
 262  178.1475
 263  141.2695
 264  150.1939
 265  174.1469
 266  195.3817
 267  120.4089
 268  104.602
 269  240.8934
 270  120.05
 271  111.0589
 272  171.2875
 273  159.1741
 274  149.4893
 275  121.8134
 276  105.2108
 277  225.8193
 278  184.661
 279  145.1527
 280  70.7776
 281  -15.67882
 282  6.568461
 283  129.1601
 284  175.952
 285  54.88057
 286  55.86532
 287  125.2943
 288  26.76634
 289  7.715106
 290  90.16327
 291  88.75067
 292  146.392
 293  76.57722
 294  74.77457
 295  164.8756
 296  132.8991
 297  72.18137
 298  -38.59245
 299  121.207
 300  89.98948
 301  83.26376
 302  83.68559
 303  129.9538
 304  188.1499
 305  79.22999
 306  216.2608
 307  158.7899
 308  62.43212
 309  94.87662
 310  189.4709
 311  142.1999
 312  52.61468
 313  77.87432
 314  104.2182
 315  161.9124
 316  287.0786
 317  140.097
 318  -7.703499
 319  75.13187
 320  168.8801
 321  165.2447
 322  103.6697
 323  88.72994
 324  -71.28391
 325  31.66985
 326  47.26157
 327  -46.37619
 328  -87.19196
 329  4.403507
 330  53.61983
 331  48.93242
 332  13.60861
 333  106.2531
 334  66.90768
 335  79.36489
 336  137.2843
 337  90.35711
 338  12.43011
 339  15.03807
 340  -3.881219
 341  17.00246
 342  110.1959
 343  97.30605
 344  39.35776
 345  -24.5651
 346  44.00552
 347  81.11649
 348  67.41611
 349  125.3806
 350  114.417
 351  23.95257
 352  42.11271
 353  61.5377
 354  11.38807
 355  -149.8441
 356  -56.90723
 357  27.43379
 358  72.90578
 359  143.8804
 360  134.8187
 361  139.3966
 362  126.8311
 363  137.3449
 364  110.1647
 365  36.86486
 366  34.34934
 367  -7.726898
 368  93.70271
 369  137.994
 370  119.2856
 371  133.4211
 372  12.53153
 373  -22.99168
 374  113.0812
 375  127.2038
 376  160.0309
 377  277.1245
 378  373.7345
 379  606.7218
 380  659.0202
 381  604.7044
 382  449.1408
 383  301.3958
 384  321.9466
 385  188.8849
 386  192.6455
 387  189.467
 388  213.4299
 389  169.1958
 390  107.3238
 391  121.0749
 392  128.6253
 393  211.61
 394  237.3229
 395  188.1628
 396  184.8554
 397  242.2047
 398  261.6367
 399  256.3598
 400  98.05611
 401  33.03111
 402  15.77921
 403  76.09045
 404  261.4144
 405  152.2045
 406  100.6641
 407  157.9738
 408  90.64835
 409  29.2284
 410  74.58064
 411  75.06205
 412  57.86002
 413  144.1637
 414  128.8354
 415  116.7782
 416  115.0306
 417  138.0399
 418  142.3796
 419  2.698492
 420  -19.0723
 421  118.3345
 422  162.6036
 423  102.8234
 424  64.52576
 425  106.1906
 426  41.33038
 427  48.78049
 428  135.5951
 429  225.8892
 430  80.61681
 431  82.83758
 432  171.7335
 433  24.01756
 434  154.5446
 435  199.8104
 436  119.6207
 437  156.6155
 438  91.38117
 439  67.4216
 440  196.4431
 441  116.2959
 442  132.0917
 443  177.0858
 444  183.9047
 445  70.68617
 446  130.7098
 447  122.8555
 448  158.2414
 449  62.89299
 450  -13.58981
 451  84.62905
 452  166.2693
 453  67.24123
 454  127.0438
 455  76.28213
 456  175.8697
 457  186.1424
 458  193.9585
 459  134.6116
 460  87.27554
 461  -7.478081
 462  5.531191
 463  -12.62284
 464  121.7375
 465  91.04891
 466  -13.72012
 467  23.12758
 468  57.20272
 469  36.76942
 470  86.28236
 471  140.153
 472  90.62235
 473  78.82954
 474  105.2762
 475  59.5469
 476  47.96632
 477  52.18156
 478  102.7231
 479  9.341564
 480  66.13614
 481  69.97933
 482  151.9266
 483  103.0973
 484  78.06329
 485  109.2456
 486  73.24233
 487  -2.16498
 488  91.96844
 489  19.41564
 490  -17.98585
 491  22.22944
 492  104.127
 493  25.38389
 494  132.3772
 495  119.8467
 496  118.2804
 497  89.51033
 498  89.60507
 499  59.81791
 500  18.04455
 501  -25.5178
 502  53.24841
 503  111.7964
 504  -53.44461
 505  -62.31113
 506  -19.80204
 507  137.3511
 508  75.47504
 509  -15.9163
 510  80.25431
 511  141.2192
