# Input file       =  1194625430.102127-PSRB0329-2ms-sampling-dd.dat
# Candidate        =  PSR_0332+5434
# Telescope        =  AR
# Epoch_topo       =  58070.683438682026
# Epoch_bary       =  N/A
# T_sample         =  0.002
# Data Folded      =  7208960
# Data Avg         =  -4.29829285521651e-10
# Data StdDev      =  6.40526931141949 
# Profile Bins     =  512
# Profile Avg      =  0.186910090523385
# Profile StdDev   =  760.043977228633 
# Reduced chi-sqr  =  0.502
# Prob(Noise)      <  1   (~0.0 sigma)
# P_topo (ms)      =  714.507861083148  +/- 3.29e-05
# P'_topo (s/s)    =  -0                +/- 1.77e-11
# P''_topo (s/s^2) =  0                 +/- 7.95e-15
# P_bary (ms)      =  N/A
# P'_bary (s/s)    =  N/A
# P''_bary (s/s^2) =  N/A
# P_orb (s)        =  N/A
# asin(i)/c (s)    =  N/A
# eccentricity     =  N/A
# w (rad)          =  N/A
# T_peri           =  N/A
######################################################
   0  -253.7894
   1  -240.9325
   2  80.39013
   3  -290.2357
   4  -156.049
   5  -549.3141
   6  -388.1049
   7  -596.4636
   8  -331.7091
   9  -100.2524
  10  46.05448
  11  -146.0962
  12  -427.0574
  13  126.8506
  14  -39.61472
  15  -141.1115
  16  -291.3358
  17  -507.9186
  18  -28.8734
  19  -91.72338
  20  -52.44659
  21  -216.3457
  22  -194.9352
  23  -486.7405
  24  -1196.694
  25  -462.4903
  26  -395.7665
  27  237.5486
  28  -115.4205
  29  481.3246
  30  403.7105
  31  -375.4692
  32  -222.1187
  33  -502.4339
  34  -30.56479
  35  -178.6248
  36  135.1496
  37  248.3821
  38  496.3795
  39  628.4627
  40  -156.656
  41  165.7954
  42  -129.8998
  43  317.9568
  44  398.5745
  45  720.9465
  46  977.1024
  47  483.3754
  48  736.457
  49  367.6113
  50  640.3738
  51  9.647026
  52  305.4623
  53  728.222
  54  57.49249
  55  531.0502
  56  464.7498
  57  762.4236
  58  255.2159
  59  -149.6964
  60  130.5081
  61  110.8967
  62  560.9092
  63  413.3281
  64  694.2617
  65  274.1736
  66  639.497
  67  613.8106
  68  -52.30713
  69  416.9243
  70  39.56051
  71  468.6142
  72  -46.71926
  73  300.2643
  74  377.2158
  75  437.5468
  76  336.0931
  77  213.7681
  78  400.8393
  79  -438.7345
  80  567.0504
  81  200.4236
  82  361.5228
  83  16.98644
  84  -260.2472
  85  30.66587
  86  -137.5178
  87  326.9684
  88  -32.05786
  89  -558.1544
  90  -902.5118
  91  -411.9292
  92  285.8055
  93  -166.429
  94  -51.06331
  95  -76.98199
  96  -141.0843
  97  -185.5466
  98  86.50188
  99  236.3173
 100  -246.4753
 101  -517.401
 102  -785.2535
 103  -553.432
 104  -527.8045
 105  -103.8325
 106  -350.9267
 107  -334.9442
 108  10.39872
 109  -49.25042
 110  127.3434
 111  194.338
 112  770.8644
 113  878.9088
 114  693.2428
 115  371.4588
 116  -241.3723
 117  156.7644
 118  -263.4011
 119  -14.46131
 120  398.9453
 121  49.50965
 122  77.13541
 123  -131.46
 124  416.1906
 125  189.271
 126  0.3059278
 127  -93.69089
 128  381.1319
 129  530.5707
 130  174.5549
 131  225.0911
 132  -221.0642
 133  -144.1308
 134  -320.5283
 135  -37.76598
 136  77.30303
 137  -96.94979
 138  20.37621
 139  -660.6633
 140  -592.0953
 141  -567.2533
 142  -263.0152
 143  -270.9418
 144  -273.7986
 145  -11.71273
 146  -573.0942
 147  -314.8917
 148  -457.8176
 149  206.7041
 150  142.7815
 151  -329.3077
 152  135.6372
 153  -420.3597
 154  13.20807
 155  -567.1122
 156  85.8792
 157  369.3249
 158  358.9609
 159  692.5428
 160  543.1362
 161  171.5955
 162  260.6851
 163  849.4888
 164  620.9594
 165  178.0477
 166  182.9089
 167  211.6589
 168  257.5682
 169  -119.4096
 170  155.384
 171  264.0162
 172  -25.24632
 173  -264.1342
 174  -303.911
 175  587.119
 176  428.8181
 177  1065.219
 178  737.2225
 179  339.9637
 180  86.63885
 181  44.32613
 182  911.8509
 183  285.3145
 184  235.788
 185  187.1837
 186  264.4518
 187  64.46243
 188  -59.19753
 189  69.94685
 190  25.41392
 191  186.0297
 192  296.8198
 193  386.3223
 194  175.7187
 195  521.6216
 196  589.1691
 197  134.7989
 198  182.6284
 199  325.7712
 200  269.211
 201  -115.5967
 202  -146.8615
 203  -155.7611
 204  39.8363
 205  83.1757
 206  38.33997
 207  229.1666
 208  368.2637
 209  -118.471
 210  -181.9169
 211  -179.7982
 212  -42.01484
 213  -137.1817
 214  333.3243
 215  60.44596
 216  149.6462
 217  415.9969
 218  285.2322
 219  266.6284
 220  -184.8051
 221  424.3818
 222  388.8719
 223  995.7642
 224  691.6935
 225  740.5506
 226  437.2705
 227  237.8855
 228  413.0003
 229  -515.0345
 230  -39.41936
 231  82.0929
 232  588.9518
 233  560.3889
 234  296.6855
 235  4.451876
 236  -501.3625
 237  -653.2546
 238  -536.3911
 239  189.6726
 240  173.8866
 241  11.96019
 242  139.4633
 243  -388.6123
 244  28.62347
 245  -643.0145
 246  -160.3985
 247  -319.9225
 248  -327.0841
 249  -150.3955
 250  -484.7093
 251  -320.0971
 252  -228.5866
 253  -199.1632
 254  -339.4273
 255  -432.5739
 256  196.4532
 257  151.9381
 258  125.137
 259  342.7679
 260  506.2764
 261  252.5155
 262  750.4598
 263  779.6393
 264  1070.926
 265  1139.368
 266  879.9725
 267  754.45
 268  343.1839
 269  -85.06931
 270  -344.1606
 271  -427.7621
 272  -359.3519
 273  -141.8338
 274  224.5559
 275  -343.0396
 276  130.7976
 277  438.5828
 278  139.0938
 279  372.9762
 280  -220.8044
 281  -55.13697
 282  -623.7127
 283  -452.3392
 284  -3.253604
 285  123.2851
 286  127.363
 287  -65.4965
 288  -350.3765
 289  -1100.324
 290  -391.1028
 291  -181.8092
 292  432.9851
 293  294.0969
 294  247.5501
 295  396.5361
 296  -502.8756
 297  351.7268
 298  46.4925
 299  408.6434
 300  -188.8464
 301  -276.6493
 302  -299.5796
 303  -315.0858
 304  -109.761
 305  -427.5548
 306  130.3183
 307  45.88892
 308  1.588704
 309  -59.24479
 310  -297.2791
 311  110.1798
 312  -668.7333
 313  -106.3154
 314  -152.7292
 315  -454.8927
 316  -495.1707
 317  -714.6568
 318  -716.6539
 319  -883.8149
 320  -336.4229
 321  -335.8729
 322  -194.6167
 323  -330.9376
 324  -298.1205
 325  -611.261
 326  -743.9057
 327  -116.4719
 328  -314.2806
 329  -132.956
 330  -144.1453
 331  -63.15347
 332  67.42865
 333  -1004.955
 334  -559.5379
 335  -220.4123
 336  365.2437
 337  -240.6202
 338  79.5762
 339  -331.4584
 340  -636.6372
 341  -467.0934
 342  -237.8723
 343  498.8079
 344  126.3182
 345  -216.344
 346  -395.6584
 347  -1009.138
 348  -1051.347
 349  -1073.337
 350  -432.6647
 351  -375.8956
 352  -567.5479
 353  -553.4819
 354  -637.4533
 355  -340.2372
 356  -761.9656
 357  -302.3125
 358  -258.7968
 359  338.7556
 360  181.7682
 361  263.6733
 362  -278.8011
 363  -821.0044
 364  260.4126
 365  27.45275
 366  -276.4311
 367  -281.9215
 368  4.008455
 369  83.65841
 370  -250.4688
 371  176.2473
 372  269.9237
 373  -18.61539
 374  -7.574903
 375  323.2386
 376  412.1334
 377  290.4366
 378  523.6373
 379  153.7868
 380  310.1582
 381  36.35457
 382  37.93459
 383  -320.5764
 384  -473.2607
 385  -118.4494
 386  -597.7131
 387  -624.1118
 388  -187.8428
 389  577.881
 390  219.451
 391  636.187
 392  593.6452
 393  238.2237
 394  270.5925
 395  -149.8558
 396  714.5298
 397  366.5309
 398  88.64046
 399  52.6132
 400  60.88013
 401  62.92516
 402  -250.7838
 403  268.6062
 404  -314.6206
 405  356.8536
 406  499.3775
 407  517.9759
 408  295.0595
 409  -15.55186
 410  643.5948
 411  380.3158
 412  366.5555
 413  -142.7768
 414  -123.2373
 415  -554.1908
 416  -849.0834
 417  -584.4657
 418  -506.3293
 419  28.01986
 420  55.61041
 421  142.7072
 422  -276.9676
 423  -534.869
 424  148.6551
 425  -5.342646
 426  350.4119
 427  -23.18045
 428  -120.2411
 429  -40.75145
 430  -258.4684
 431  15.51008
 432  -178.176
 433  308.162
 434  -112.8584
 435  -12.26001
 436  -168.2126
 437  -284.6705
 438  -167.4449
 439  -123.7554
 440  18.80134
 441  -134.7466
 442  172.0737
 443  -161.8177
 444  488.1325
 445  690.8586
 446  216.5469
 447  380.014
 448  -176.2624
 449  173.8428
 450  236.4497
 451  831.9591
 452  195.8703
 453  -104.1628
 454  -129.1061
 455  346.7886
 456  294.4745
 457  90.04616
 458  225.897
 459  193.1449
 460  147.2775
 461  85.80681
 462  -370.2516
 463  68.22279
 464  106.2244
 465  -123.7787
 466  -399.4334
 467  -146.3181
 468  65.43364
 469  -357.5961
 470  -202.2141
 471  -46.43683
 472  212.0054
 473  -387.6063
 474  -92.00495
 475  -40.9181
 476  -317.3159
 477  26.44918
 478  82.73467
 479  597.1423
 480  -594.6541
 481  -490.5894
 482  -483.2762
 483  -364.8871
 484  -82.19486
 485  127.518
 486  344.4527
 487  -130.7941
 488  -243.2293
 489  -569.6509
 490  -597.9873
 491  -178.3243
 492  53.99313
 493  425.6741
 494  -96.96391
 495  -144.8638
 496  129.8256
 497  -89.27035
 498  215.2349
 499  -221.079
 500  -96.80152
 501  -390.0022
 502  -721.0912
 503  -808.1949
 504  -690.5532
 505  -12.47074
 506  -163.5468
 507  302.3685
 508  40.48091
 509  186.9804
 510  -507.9342
 511  -398.4116
