# Input file       =  1194396499.114743-PSRB0329-2ms-sampling-dd.dat
# Candidate        =  PSR_0332+5434
# Telescope        =  AR
# Epoch_topo       =  58068.033774476193
# Epoch_bary       =  N/A
# T_sample         =  0.002
# Data Folded      =  7340032
# Data Avg         =  5.67360225625535e-10
# Data StdDev      =  6.45246994757498 
# Profile Bins     =  512
# Profile Avg      =  0.262154198137304
# Profile StdDev   =  772.573818952985 
# Reduced chi-sqr  =  0.576
# Prob(Noise)      <  1   (~0.0 sigma)
# P_topo (ms)      =  714.505571946109  +/- 0.000923
# P'_topo (s/s)    =  -0                +/- 4.87e-10
# P''_topo (s/s^2) =  0                 +/- 2.15e-13
# P_bary (ms)      =  N/A
# P'_bary (s/s)    =  N/A
# P''_bary (s/s^2) =  N/A
# P_orb (s)        =  N/A
# asin(i)/c (s)    =  N/A
# eccentricity     =  N/A
# w (rad)          =  N/A
# T_peri           =  N/A
######################################################
   0  -119.382
   1  -192.2723
   2  -334.9614
   3  -338.273
   4  -87.98748
   5  6.777028
   6  293.0199
   7  2.062094
   8  68.27542
   9  157.4881
  10  -440.821
  11  -992.4886
  12  -727.6343
  13  -224.4427
  14  -111.9158
  15  -399.2254
  16  -223.5522
  17  2.394052
  18  -374.0563
  19  -477.0965
  20  -151.7757
  21  -125.9674
  22  -220.0029
  23  -341.8221
  24  -257.9725
  25  -536.421
  26  -186.3903
  27  -87.93525
  28  -35.58321
  29  -168.7145
  30  -80.33501
  31  97.73967
  32  -80.53938
  33  -57.31303
  34  202.7724
  35  363.6241
  36  174.834
  37  -80.12469
  38  -207.0904
  39  -48.17891
  40  132.409
  41  103.8943
  42  37.20285
  43  -158.8093
  44  263.1565
  45  -189.7566
  46  -153.81
  47  -278.0711
  48  -31.35685
  49  102.0425
  50  145.0438
  51  380.2437
  52  561.7049
  53  99.70795
  54  -223.0929
  55  -94.14546
  56  -362.2435
  57  244.0413
  58  727.3646
  59  490.5435
  60  -204.2027
  61  -584.7379
  62  -699.9059
  63  -535.1366
  64  -221.3009
  65  -246.2858
  66  -327.6084
  67  -6.283786
  68  -68.72122
  69  -253.9689
  70  -256.163
  71  69.90506
  72  -10.47025
  73  158.3835
  74  104.0005
  75  232.5569
  76  112.5469
  77  135.8238
  78  -265.2902
  79  -269.1627
  80  -113.6139
  81  -198.2828
  82  169.2588
  83  76.59953
  84  -22.28884
  85  116.6615
  86  70.40939
  87  149.9055
  88  18.56058
  89  -73.55934
  90  -23.14264
  91  307.1294
  92  193.0701
  93  1.400286
  94  24.71452
  95  130.7296
  96  -225.6383
  97  -486.8377
  98  -293.552
  99  -3.647604
 100  -149.2606
 101  3.61199
 102  360.7663
 103  426.7176
 104  48.64878
 105  41.05967
 106  309.3262
 107  404.8802
 108  277.4359
 109  213.9779
 110  471.9635
 111  761.2004
 112  673.9541
 113  951.7325
 114  1178.826
 115  841.2709
 116  613.2946
 117  359.1476
 118  362.9129
 119  301.8049
 120  527.2979
 121  502.4587
 122  505.8475
 123  429.6171
 124  282.1448
 125  359.4894
 126  584.2811
 127  482.0695
 128  56.63261
 129  656.3224
 130  1078.229
 131  823.379
 132  673.5386
 133  749.0994
 134  373.1436
 135  346.572
 136  361.8509
 137  550.3568
 138  618.6144
 139  451.9824
 140  197.6548
 141  117.5308
 142  56.81633
 143  207.5716
 144  115.5992
 145  90.24046
 146  -290.0954
 147  -104.971
 148  -29.67941
 149  -161.1508
 150  -578.4224
 151  -135.3881
 152  121.98
 153  -294.9346
 154  -428.7851
 155  -103.5477
 156  123.8265
 157  88.30555
 158  184.0141
 159  320.6245
 160  76.07468
 161  -160.4952
 162  -78.16089
 163  236.7842
 164  85.57373
 165  -32.00211
 166  -288.5396
 167  -380.5446
 168  -37.96795
 169  -130.1208
 170  194.5167
 171  414.997
 172  255.501
 173  365.3542
 174  940.6543
 175  1134.875
 176  705.2877
 177  838.7136
 178  501.0237
 179  407.8615
 180  507.8233
 181  627.7122
 182  486.076
 183  262.5822
 184  428.076
 185  268.5865
 186  657.1157
 187  408.8039
 188  -115.3931
 189  -50.47902
 190  103.1226
 191  299.1389
 192  167.4687
 193  97.42453
 194  -241.3884
 195  156.5756
 196  496.7351
 197  407.8158
 198  -164.0001
 199  -422.9373
 200  -167.3638
 201  -354.0508
 202  -313.1257
 203  -51.60388
 204  301.7286
 205  19.10451
 206  -260.0719
 207  -172.5319
 208  -180.069
 209  -305.8839
 210  -364.3907
 211  -118.9534
 212  -23.34785
 213  337.3952
 214  59.40617
 215  -19.15387
 216  -222.6265
 217  -131.1189
 218  12.32905
 219  169.6017
 220  -42.44107
 221  -116.5162
 222  -198.9171
 223  -82.6246
 224  229.8259
 225  -52.03482
 226  228.8037
 227  352.9079
 228  29.15528
 229  291.2476
 230  143.1622
 231  -93.5681
 232  128.9923
 233  -52.95078
 234  56.8513
 235  -192.8058
 236  -240.0453
 237  196.8118
 238  385.0516
 239  344.8042
 240  257.6267
 241  184.0054
 242  310.7083
 243  -270.4599
 244  87.7534
 245  67.97811
 246  331.1931
 247  402.6836
 248  241.4909
 249  -389.4972
 250  153.62
 251  126.4738
 252  -264.6091
 253  -429.9247
 254  -474.5466
 255  189.833
 256  47.02987
 257  62.25462
 258  187.6373
 259  112.8737
 260  275.8914
 261  -6.04635
 262  621.1536
 263  591.2037
 264  7.56942
 265  -14.35664
 266  417.7309
 267  339.2307
 268  190.1118
 269  717.3091
 270  662.675
 271  461.7159
 272  20.01335
 273  170.3183
 274  -249.3646
 275  -465.4901
 276  283.5953
 277  581.6224
 278  544.0178
 279  502.6353
 280  535.6877
 281  -56.01913
 282  -100.3701
 283  -349.0538
 284  -34.1082
 285  124.9898
 286  530.0662
 287  913.9764
 288  642.0569
 289  295.9657
 290  188.4498
 291  506.9516
 292  591.5226
 293  642.011
 294  628.7511
 295  180.4116
 296  -82.67834
 297  -123.8694
 298  -305.8238
 299  -4.63551
 300  111.9752
 301  494.1985
 302  345.2126
 303  316.4394
 304  130.0328
 305  -217.0826
 306  -143.2855
 307  -169.7732
 308  -70.32357
 309  -175.1855
 310  -118.9577
 311  213.7449
 312  66.57764
 313  15.88599
 314  -401.0306
 315  -417.4857
 316  -455.4145
 317  58.9673
 318  287.9236
 319  123.7366
 320  549.3843
 321  32.99448
 322  -118.9857
 323  -357.6735
 324  271.2361
 325  314.6774
 326  -134.4474
 327  354.6615
 328  101.6857
 329  596.4767
 330  138.3208
 331  -407.8776
 332  -119.7246
 333  -4.726702
 334  -145.6498
 335  -446.51
 336  -271.8418
 337  -260.0089
 338  46.1623
 339  507.3929
 340  295.2481
 341  148.783
 342  -270.9841
 343  -248.1512
 344  -364.7712
 345  -201.7056
 346  21.72414
 347  449.4703
 348  425.7703
 349  577.2523
 350  544.5222
 351  801.7719
 352  1638.304
 353  1658.925
 354  1613.32
 355  1093.565
 356  332.5824
 357  17.48533
 358  -376.4983
 359  -338.8106
 360  -478.2587
 361  41.46948
 362  410.339
 363  756.1374
 364  334.073
 365  -19.24819
 366  -76.17885
 367  -127.6273
 368  -84.5316
 369  -185.0585
 370  -167.3795
 371  -213.9146
 372  -556.4225
 373  -830.5359
 374  -1151.911
 375  -1133.247
 376  -783.9287
 377  -701.4592
 378  -941.6342
 379  -525.5444
 380  -574.5952
 381  -559.7612
 382  -330.5914
 383  -152.2636
 384  11.20856
 385  342.9158
 386  204.3541
 387  -507.1271
 388  -767.2591
 389  -447.9906
 390  -385.4378
 391  -157.2668
 392  13.88273
 393  -94.37206
 394  194.1868
 395  27.93826
 396  -211.7234
 397  -591.8752
 398  -57.00841
 399  -26.54141
 400  141.1239
 401  184.6979
 402  318.527
 403  589.4221
 404  207.5364
 405  403.1219
 406  -103.9427
 407  -221.5245
 408  -724.3079
 409  -981.034
 410  -591.9653
 411  -249.5495
 412  0.4049471
 413  18.62932
 414  49.04488
 415  -53.40696
 416  -315.4274
 417  -410.6348
 418  -615.2413
 419  -658.2863
 420  -499.3612
 421  -654.6895
 422  -259.2074
 423  -443.6499
 424  -866.702
 425  -782.5282
 426  -878.1765
 427  -198.2016
 428  -101.6883
 429  -170.7449
 430  -494.2551
 431  -692.2323
 432  -102.9614
 433  -76.33773
 434  -388.3632
 435  53.35676
 436  64.58884
 437  -267.9613
 438  -496.86
 439  -109.1238
 440  -298.5425
 441  -503.2753
 442  -465.6029
 443  -824.7317
 444  -799.5236
 445  -1201.139
 446  -1731.802
 447  -1105.551
 448  -625.2227
 449  -446.8629
 450  -710.2302
 451  -1179.223
 452  -1217.969
 453  -953.7115
 454  -589.3499
 455  -342.3622
 456  -450.3125
 457  -632.4502
 458  -925.5688
 459  -1163.715
 460  -842.6983
 461  -659.7394
 462  -538.2031
 463  -499.5992
 464  -722.9982
 465  -298.3564
 466  25.39462
 467  -147.4104
 468  -211.4808
 469  193.0244
 470  -77.487
 471  -278.3202
 472  95.55344
 473  230.2648
 474  282.6599
 475  -22.58827
 476  46.04419
 477  -68.65234
 478  -106.9219
 479  49.47142
 480  -111.2322
 481  439.0771
 482  91.09932
 483  -58.69473
 484  -7.449454
 485  12.61109
 486  203.3475
 487  669.7271
 488  633.6248
 489  359.0812
 490  -7.47856
 491  -207.0296
 492  -507.5931
 493  -250.0089
 494  281.1133
 495  472.4409
 496  417.9903
 497  209.6888
 498  -331.3641
 499  -271.2689
 500  -277.0912
 501  -189.0031
 502  -186.1201
 503  127.7948
 504  541.1199
 505  301.2903
 506  254.2335
 507  -355.76
 508  -578.8403
 509  -384.7304
 510  91.43093
 511  122.8063
