# Input file       =  1194914014.106114_cleaned.dat
# Candidate        =  PSR_0332+5434
# Telescope        =  AR
# Epoch_topo       =  58074.023531320760
# Epoch_bary       =  N/A
# T_sample         =  0.002
# Data Folded      =  7340032
# Data Avg         =  0.176436455478585
# Data StdDev      =  4.84278518083954 
# Profile Bins     =  512
# Profile Avg      =  2529.32375192927 
# Profile StdDev   =  579.841374222325 
# Reduced chi-sqr  =  0.894
# Prob(Noise)      <  0.959   (~0.0 sigma)
# P_topo (ms)      =  714.511597148011  +/- 0.0011
# P'_topo (s/s)    =  -0                +/- 5.8e-10
# P''_topo (s/s^2) =  0                 +/- 2.56e-13
# P_bary (ms)      =  N/A
# P'_bary (s/s)    =  N/A
# P''_bary (s/s^2) =  N/A
# P_orb (s)        =  N/A
# asin(i)/c (s)    =  N/A
# eccentricity     =  N/A
# w (rad)          =  N/A
# T_peri           =  N/A
######################################################
   0  2743.128
   1  2723.655
   2  2527.532
   3  2089.007
   4  2520.622
   5  3085.246
   6  3398.396
   7  3713.44
   8  3336.396
   9  2527.916
  10  2787.983
  11  2709.575
  12  2728.669
  13  2832.062
  14  2709.988
  15  2487.903
  16  2906.73
  17  3015.789
  18  2847.534
  19  2432.772
  20  2727.764
  21  2433.249
  22  2307.954
  23  2485.277
  24  1880.69
  25  2079.761
  26  2498.808
  27  2859.071
  28  2744.306
  29  2487.203
  30  2446.655
  31  2184.796
  32  2375.642
  33  2577.892
  34  2294.002
  35  2169.554
  36  2311.073
  37  2718.097
  38  2798.571
  39  2307.77
  40  2407.045
  41  2692.698
  42  2257.555
  43  2375.07
  44  2712.615
  45  2690.765
  46  2657.275
  47  2693.365
  48  2859.488
  49  2578.204
  50  2891.98
  51  3124.688
  52  2663.472
  53  2458.399
  54  2330.426
  55  2358.651
  56  2383.281
  57  2459.624
  58  2968.012
  59  3039.901
  60  3216.31
  61  2799.281
  62  2658.339
  63  2723.289
  64  2728.583
  65  2552.31
  66  2414.434
  67  2890.509
  68  2917.632
  69  2954.072
  70  2745.995
  71  2363.003
  72  2280.525
  73  2561.946
  74  3258.441
  75  3133.791
  76  3340.63
  77  3133.274
  78  2357.122
  79  2392.225
  80  2871.157
  81  3078.776
  82  2901.705
  83  2791.257
  84  2432.043
  85  2373.443
  86  2576.685
  87  2876.921
  88  2822.884
  89  2686.45
  90  3113.669
  91  3130.341
  92  2613.291
  93  2441.401
  94  3020.404
  95  2921.047
  96  2556.596
  97  2976.48
  98  2867.17
  99  2518.09
 100  2499.132
 101  2558.4
 102  2748.281
 103  2845.117
 104  2578.877
 105  2670.464
 106  2454.174
 107  2487.826
 108  2243.583
 109  2537.857
 110  2612.753
 111  2606.384
 112  2630.793
 113  2610.804
 114  2649.696
 115  2599.476
 116  3330.773
 117  3383.423
 118  2972.692
 119  2747.743
 120  2485.309
 121  2641.372
 122  2631.203
 123  3026.068
 124  2709.857
 125  2471.738
 126  2505.387
 127  2422.83
 128  2381.12
 129  2370.302
 130  2576.299
 131  2896.599
 132  2562.184
 133  2273.71
 134  2152.47
 135  2406.381
 136  2316.948
 137  2447.15
 138  2428.053
 139  2209.139
 140  2192.26
 141  1985.169
 142  1975.167
 143  2101.012
 144  2152.315
 145  2427.244
 146  2434.58
 147  2217.097
 148  2416.235
 149  2673.888
 150  2248.8
 151  2047.422
 152  2365.381
 153  2688.108
 154  2746.862
 155  2208.27
 156  2243.064
 157  2072.642
 158  2015.786
 159  1753.952
 160  1689.052
 161  1993.236
 162  2345.556
 163  2173.903
 164  2096.772
 165  2194.709
 166  1923.309
 167  1803.038
 168  1700.43
 169  1954.479
 170  2022.283
 171  1789.391
 172  2232.985
 173  1994.479
 174  2074.699
 175  1869.486
 176  1839.866
 177  2281.763
 178  2169.696
 179  1917.126
 180  2088.082
 181  1792.282
 182  2050.846
 183  2241.948
 184  2228.243
 185  2575.141
 186  2391.597
 187  2443.925
 188  2243.748
 189  2301.112
 190  2315.605
 191  2115.605
 192  2083.788
 193  2553.904
 194  2375.495
 195  2078.66
 196  1991.64
 197  2342.228
 198  2167.646
 199  2009.736
 200  2125.032
 201  2143.208
 202  2198.794
 203  2238.052
 204  2135.92
 205  2524.984
 206  2701.825
 207  2224.437
 208  2321.125
 209  1950.043
 210  1848.54
 211  2353.769
 212  2425.651
 213  1923.931
 214  1668.89
 215  1801.513
 216  1895.697
 217  1740.703
 218  1980.058
 219  2042.603
 220  2206.148
 221  2311.951
 222  2002.228
 223  2120.045
 224  2194.174
 225  1960.86
 226  1682.201
 227  1705.411
 228  1920.851
 229  1684.765
 230  2135.604
 231  1742.946
 232  1822.466
 233  2259.452
 234  2171.353
 235  1935.311
 236  2406.074
 237  2737.429
 238  2108.578
 239  1696.465
 240  2141.391
 241  1869.592
 242  1527.312
 243  1647.065
 244  2495.427
 245  2532.243
 246  2405.086
 247  2563.736
 248  2261.139
 249  1844.207
 250  1972.155
 251  2330.606
 252  2635.795
 253  2615.239
 254  2255.925
 255  2298.92
 256  2171.035
 257  2393.601
 258  2603.351
 259  2438.661
 260  2506.191
 261  2596.755
 262  2484.686
 263  2316.031
 264  2333.875
 265  2553.587
 266  2362.621
 267  2730.711
 268  2743.551
 269  2675.526
 270  2972.438
 271  2673.728
 272  2762.852
 273  2623.007
 274  2619.969
 275  2513.231
 276  2883.978
 277  2820.179
 278  2528.502
 279  2992.369
 280  3344.701
 281  2722.722
 282  2445.271
 283  2774.4
 284  2902.63
 285  3083.603
 286  2708.765
 287  2564.04
 288  2595.413
 289  2820.824
 290  2345.829
 291  2829.675
 292  2850.26
 293  2556.92
 294  2451.708
 295  2574.384
 296  2664.939
 297  2871.268
 298  3057.951
 299  3079.45
 300  2820.72
 301  2857.267
 302  2748.337
 303  2785.34
 304  2740.36
 305  2899.43
 306  2638.738
 307  2850.125
 308  2785.485
 309  2976.003
 310  2911.03
 311  2543.5
 312  2776.195
 313  3149.636
 314  3047.799
 315  2377.124
 316  2405.484
 317  2636.195
 318  2714.931
 319  3048.231
 320  3294.071
 321  2788.375
 322  2810.186
 323  3108.386
 324  2859.241
 325  3382.414
 326  4123.016
 327  4538.379
 328  4486.607
 329  4297.7
 330  3751.623
 331  3071.501
 332  2371.168
 333  2372.097
 334  3102.631
 335  3327.026
 336  2951.188
 337  2956.438
 338  3270.824
 339  3515.492
 340  3372.247
 341  2843.676
 342  2985.577
 343  3001.718
 344  2940.057
 345  2732.383
 346  2874.09
 347  2954.415
 348  2672.516
 349  2892.879
 350  2786.097
 351  2203.887
 352  2591.99
 353  2885.969
 354  2833.675
 355  2727.101
 356  2635.935
 357  2447.953
 358  2587.632
 359  3013.121
 360  2793.402
 361  2646.296
 362  2511.036
 363  2482.781
 364  2692.933
 365  2454.768
 366  2707.498
 367  2449.363
 368  2581.396
 369  2455.572
 370  2328.56
 371  2329.924
 372  2061.669
 373  2286.692
 374  2204.353
 375  1909.154
 376  2239.454
 377  2386.067
 378  2437.025
 379  2973.688
 380  2983.39
 381  2552.011
 382  2606.876
 383  3031.636
 384  2957.382
 385  2544.616
 386  2563.795
 387  2875.782
 388  2771.24
 389  2342.251
 390  2340.744
 391  2838.823
 392  3129.879
 393  2985.075
 394  2665.234
 395  2876.116
 396  3071.83
 397  2765.37
 398  2625.08
 399  2460.66
 400  2496.332
 401  2535.866
 402  2360.062
 403  2327.519
 404  2894.137
 405  2824.128
 406  2410.134
 407  2616.641
 408  2754.879
 409  3060.583
 410  2553.022
 411  2318.922
 412  2657.891
 413  2564.948
 414  2959.048
 415  2755.783
 416  2706.536
 417  2586.9
 418  2652.178
 419  2481.274
 420  2707.885
 421  2703.408
 422  2311.771
 423  2186.923
 424  2362.735
 425  2364.701
 426  2366.32
 427  2446.074
 428  2596.785
 429  2336.943
 430  2575.163
 431  2509.928
 432  2437.448
 433  2354.157
 434  2365.998
 435  2157.538
 436  2140.873
 437  2212.008
 438  2403.951
 439  2408.102
 440  2587.397
 441  2783.085
 442  2512.531
 443  2336.823
 444  2142.555
 445  2503.544
 446  2174.817
 447  1805.943
 448  1819.658
 449  1801.135
 450  2044.101
 451  2467.038
 452  2420.24
 453  2359.927
 454  2322.07
 455  2255.719
 456  2040.542
 457  2151.56
 458  2442.909
 459  2571.182
 460  2454.553
 461  2686.43
 462  2841.074
 463  2653.773
 464  2619.701
 465  2335.04
 466  2289.392
 467  2397.416
 468  2397.719
 469  2314.193
 470  2484.033
 471  2331.359
 472  2376.287
 473  2207.864
 474  2288.868
 475  2885.571
 476  2921.731
 477  2968.712
 478  2878.693
 479  2900.16
 480  2473.416
 481  2559.013
 482  2503.056
 483  2783.222
 484  2824.31
 485  2431.109
 486  2436.837
 487  2202.882
 488  2666.595
 489  2820.471
 490  2648.296
 491  2571.077
 492  2578.59
 493  2177.746
 494  2171.212
 495  2305.156
 496  2131.935
 497  2591.192
 498  2971.578
 499  2481.576
 500  2278.993
 501  2195.098
 502  2055.158
 503  1968.911
 504  2231.326
 505  2580.504
 506  2361.716
 507  2025.29
 508  2229.041
 509  2414.296
 510  2671.017
 511  2937.925
