# Input file       =  1194654907.104029_cleaned.dat
# Candidate        =  PSR_0332+5434
# Telescope        =  AR
# Epoch_topo       =  58071.024607685518
# Epoch_bary       =  N/A
# T_sample         =  0.002
# Data Folded      =  7340032
# Data Avg         =  -0.190551401429861
# Data StdDev      =  4.93775522455209 
# Profile Bins     =  512
# Profile Avg      =  -2731.92946308096
# Profile StdDev   =  591.212425920863 
# Reduced chi-sqr  =  0.606
# Prob(Noise)      <  1   (~0.0 sigma)
# P_topo (ms)      =  714.508545790186  +/- 0.000859
# P'_topo (s/s)    =  -0                +/- 4.53e-10
# P''_topo (s/s^2) =  0                 +/- 2e-13
# P_bary (ms)      =  N/A
# P'_bary (s/s)    =  N/A
# P''_bary (s/s^2) =  N/A
# P_orb (s)        =  N/A
# asin(i)/c (s)    =  N/A
# eccentricity     =  N/A
# w (rad)          =  N/A
# T_peri           =  N/A
######################################################
   0  -2708.366
   1  -2523.247
   2  -2652.59
   3  -2557.075
   4  -2423.478
   5  -2677.601
   6  -2623.63
   7  -2582.736
   8  -2776.825
   9  -2445.33
  10  -2849.311
  11  -2590.521
  12  -2655.294
  13  -2834.487
  14  -3198.518
  15  -2660.221
  16  -2812.752
  17  -2812.259
  18  -2873.741
  19  -2683.448
  20  -2245.809
  21  -2644.946
  22  -2630.478
  23  -2746.372
  24  -2837.009
  25  -2575.192
  26  -2640.838
  27  -2604.366
  28  -2353.647
  29  -2546.529
  30  -2414.877
  31  -2245.384
  32  -2344.182
  33  -2538.782
  34  -2360.755
  35  -2432.637
  36  -2294.446
  37  -2134.717
  38  -2259.916
  39  -2781.507
  40  -3363.559
  41  -3138.9
  42  -3123.139
  43  -2543.7
  44  -2234.223
  45  -2107.454
  46  -2026.927
  47  -2836.615
  48  -2994.469
  49  -3084.339
  50  -2248.963
  51  -2106.385
  52  -2210.824
  53  -2329.362
  54  -2644.25
  55  -2748.788
  56  -2603.075
  57  -2781.254
  58  -3016.482
  59  -2846.635
  60  -2500.563
  61  -2318.143
  62  -2837.473
  63  -2789.849
  64  -2498.172
  65  -2784.962
  66  -2539.469
  67  -2689.185
  68  -2361.18
  69  -2205.097
  70  -2108.822
  71  -2488.559
  72  -2653.348
  73  -2296.493
  74  -2442.538
  75  -2550.245
  76  -2674.606
  77  -2893.236
  78  -2628.057
  79  -2673.416
  80  -2606.941
  81  -3005.795
  82  -3147.347
  83  -2664.041
  84  -2653.513
  85  -2863.109
  86  -2941.572
  87  -2625.782
  88  -2842.291
  89  -2756.322
  90  -2812.031
  91  -2791.51
  92  -2770.33
  93  -2705.842
  94  -2543.758
  95  -2278.094
  96  -2058.214
  97  -2379.262
  98  -2954.953
  99  -2591.234
 100  -2537.416
 101  -2812.505
 102  -2808.745
 103  -2718.761
 104  -2695.408
 105  -2745.079
 106  -2954.539
 107  -3096.573
 108  -2773.838
 109  -2942.961
 110  -3251.557
 111  -2971.799
 112  -2646.86
 113  -2512.992
 114  -2831.834
 115  -3057.325
 116  -3111.784
 117  -3068.902
 118  -3109.031
 119  -2755.914
 120  -3046.956
 121  -3320.011
 122  -3406.553
 123  -3333.155
 124  -3200.588
 125  -3145.208
 126  -3127.415
 127  -3227.733
 128  -3246.682
 129  -3480.697
 130  -3154.392
 131  -3249.486
 132  -3594.18
 133  -3601.193
 134  -3323.644
 135  -2778.357
 136  -2978.352
 137  -3153.399
 138  -2878.344
 139  -2730.57
 140  -2685.203
 141  -3138.224
 142  -2905.672
 143  -2582.357
 144  -2513.257
 145  -2415.497
 146  -2605.583
 147  -2891.599
 148  -2414.668
 149  -2170.477
 150  -2347.763
 151  -2231.563
 152  -2496.954
 153  -2495.811
 154  -2655.292
 155  -2858.312
 156  -2604.506
 157  -2730.043
 158  -2565.476
 159  -2440.189
 160  -2365.87
 161  -2213.595
 162  -2129.511
 163  -2436.002
 164  -2665.902
 165  -3036.207
 166  -2949.659
 167  -2879.934
 168  -3067.102
 169  -3177.255
 170  -2979.274
 171  -2516.853
 172  -2118.529
 173  -2712.24
 174  -2988.623
 175  -3154.042
 176  -2747.608
 177  -2864.334
 178  -2715.229
 179  -2462.296
 180  -2635.607
 181  -2477.073
 182  -2496.665
 183  -2859.005
 184  -2506.122
 185  -2772.543
 186  -2372.986
 187  -2263.161
 188  -2748.036
 189  -2631.752
 190  -2870.699
 191  -3070.382
 192  -3102.915
 193  -2767.086
 194  -3045.796
 195  -2828.331
 196  -2687.854
 197  -3150.494
 198  -3318.767
 199  -3408.591
 200  -3034.768
 201  -3047.128
 202  -2810.616
 203  -3047.598
 204  -3123.211
 205  -2963.551
 206  -2681.439
 207  -2894.322
 208  -3453.476
 209  -3258.751
 210  -2647.157
 211  -2988.081
 212  -3344.781
 213  -3223.235
 214  -2959.19
 215  -2636.819
 216  -2670.264
 217  -3005.473
 218  -3249.018
 219  -2954.258
 220  -2347.784
 221  -2396.994
 222  -2689.594
 223  -2897.391
 224  -2674.507
 225  -2731.117
 226  -2575.747
 227  -2695.59
 228  -2762.969
 229  -2827.99
 230  -2961.286
 231  -2840.549
 232  -2832.838
 233  -3537.518
 234  -3574.289
 235  -3359.432
 236  -3064.7
 237  -3011.522
 238  -3046.801
 239  -3233.433
 240  -3234.361
 241  -3290.413
 242  -3143.558
 243  -3099.937
 244  -2797.773
 245  -2823.389
 246  -2842.724
 247  -3124.937
 248  -3003.806
 249  -3024.886
 250  -3112.165
 251  -3503.99
 252  -2901.84
 253  -2701.013
 254  -2864.17
 255  -2651.099
 256  -2554.361
 257  -2756.376
 258  -2787.248
 259  -2864.87
 260  -2879.451
 261  -2433.008
 262  -2482.983
 263  -3195.687
 264  -3115.125
 265  -3069.707
 266  -2801.839
 267  -2556.349
 268  -2371.881
 269  -2427.795
 270  -2199.739
 271  -2347.386
 272  -2448.165
 273  -2359.683
 274  -2819.219
 275  -2809.299
 276  -2942.483
 277  -2945.631
 278  -3027.081
 279  -2269.824
 280  -2409.206
 281  -2621.689
 282  -2176.414
 283  -1900.552
 284  -1983.869
 285  -2084.524
 286  -1714.901
 287  -1985.955
 288  -2355.901
 289  -2892.854
 290  -3557.848
 291  -3357.651
 292  -3344.918
 293  -3066.377
 294  -2773.685
 295  -3184.945
 296  -2858.565
 297  -2335.186
 298  -2670.845
 299  -2861.829
 300  -2685.542
 301  -2713.973
 302  -2590.495
 303  -2420.032
 304  -2867.608
 305  -2964.908
 306  -3145.755
 307  -2984.434
 308  -3248.422
 309  -3011.531
 310  -2405.684
 311  -2316.75
 312  -2572.712
 313  -2757.885
 314  -3120.929
 315  -3021.913
 316  -2678.84
 317  -2774.57
 318  -2784.956
 319  -2674.788
 320  -2382.794
 321  -2693.714
 322  -3236.926
 323  -3009.248
 324  -2979.224
 325  -2961.17
 326  -2471.822
 327  -2340.148
 328  -2412.296
 329  -2417.433
 330  -2673.791
 331  -2856.774
 332  -2750.589
 333  -2713.247
 334  -3244.006
 335  -3009.629
 336  -2581.253
 337  -2517.116
 338  -2858.417
 339  -2975.802
 340  -2829.033
 341  -2897.39
 342  -2794.264
 343  -2911.975
 344  -2395.065
 345  -2574.93
 346  -2544.27
 347  -2611.472
 348  -2987.332
 349  -2429.308
 350  -2448.838
 351  -2352.831
 352  -2712.305
 353  -2982.908
 354  -2682.225
 355  -2642.516
 356  -3053.69
 357  -2792.785
 358  -2789.951
 359  -2854.715
 360  -2866.693
 361  -2556.037
 362  -2108.053
 363  -2220.419
 364  -2273.818
 365  -2440.363
 366  -2529.876
 367  -2543.279
 368  -2690.977
 369  -2389.658
 370  -2323.34
 371  -2240.878
 372  -2736.741
 373  -2751.172
 374  -2440.49
 375  -2187.972
 376  -2289.517
 377  -2496.412
 378  -2402.898
 379  -2390.354
 380  -2559.512
 381  -2106.928
 382  -2426.609
 383  -2414.931
 384  -1933.483
 385  -1957.958
 386  -2377.411
 387  -2704.437
 388  -2803.301
 389  -2976.502
 390  -2513.719
 391  -2126.434
 392  -1847.883
 393  -1884.149
 394  -2136.707
 395  -2473.344
 396  -2438.332
 397  -2323.169
 398  -2211.49
 399  -2174.682
 400  -2164.913
 401  -2087.44
 402  -2296.774
 403  -2381.41
 404  -2591.862
 405  -2200.799
 406  -2119.683
 407  -2385.02
 408  -3054.445
 409  -2951.858
 410  -2685.916
 411  -2896.244
 412  -2672.986
 413  -2549.203
 414  -2720.253
 415  -2804.382
 416  -2374.941
 417  -2895.607
 418  -3114.205
 419  -3062.774
 420  -3030.25
 421  -3141.878
 422  -2812.933
 423  -2872.843
 424  -3178.398
 425  -2709.376
 426  -2331.477
 427  -2320.923
 428  -2317.608
 429  -2682.998
 430  -2878.448
 431  -2912.699
 432  -3087.226
 433  -3135.479
 434  -2895.664
 435  -2702.543
 436  -2827.089
 437  -2679.559
 438  -2739.431
 439  -2779.082
 440  -2552.028
 441  -2640.944
 442  -2513.138
 443  -2440.057
 444  -3120.315
 445  -2853.85
 446  -2368.364
 447  -2136.683
 448  -2513.442
 449  -2730.714
 450  -2643.576
 451  -2883.655
 452  -2786.323
 453  -2726.76
 454  -2463.753
 455  -2409.329
 456  -2876.161
 457  -2942.311
 458  -3001.214
 459  -3197.916
 460  -3206.602
 461  -2840.147
 462  -2909.95
 463  -3053.032
 464  -3252.654
 465  -3319.293
 466  -3418.432
 467  -3292.563
 468  -3184.482
 469  -2933.646
 470  -2888.3
 471  -3117.438
 472  -3203.584
 473  -3502.573
 474  -2999.581
 475  -2779.773
 476  -2954.926
 477  -3153.104
 478  -3165.553
 479  -2758.852
 480  -2620.083
 481  -2508.232
 482  -2811.553
 483  -2747.113
 484  -2670.883
 485  -2669.831
 486  -2932.522
 487  -2647.519
 488  -2303.907
 489  -2339
 490  -2711.091
 491  -3033.756
 492  -2748.037
 493  -2672.769
 494  -2578.552
 495  -2500.086
 496  -2276.111
 497  -2790.582
 498  -2950.229
 499  -2646.485
 500  -2477.567
 501  -2757.938
 502  -2643.339
 503  -2990.685
 504  -3126.655
 505  -2899.581
 506  -2879.235
 507  -2522.844
 508  -2673.102
 509  -2821.169
 510  -2915.918
 511  -3125.23
