# Input file       =  1194712115.107617_cleaned.dat
# Candidate        =  PSR_0332+5434
# Telescope        =  AR
# Epoch_topo       =  58071.686737356678
# Epoch_bary       =  N/A
# T_sample         =  0.002
# Data Folded      =  7208960
# Data Avg         =  0.0122274928370965
# Data StdDev      =  0.999871177736074
# Profile Bins     =  512
# Profile Avg      =  172.114042073635 
# Profile StdDev   =  118.643889849869 
# Reduced chi-sqr  =  1.232
# Prob(Noise)      <  0.000261   (~3.5 sigma)
# P_topo (ms)      =  714.508863068757  +/- 0.000315
# P'_topo (s/s)    =  -0                +/- 1.69e-10
# P''_topo (s/s^2) =  0                 +/- 7.6e-14
# P_bary (ms)      =  N/A
# P'_bary (s/s)    =  N/A
# P''_bary (s/s^2) =  N/A
# P_orb (s)        =  N/A
# asin(i)/c (s)    =  N/A
# eccentricity     =  N/A
# w (rad)          =  N/A
# T_peri           =  N/A
######################################################
   0  261.9378
   1  173.2045
   2  141.4569
   3  210.6281
   4  285.0148
   5  396.0468
   6  273.8196
   7  118.8751
   8  54.39106
   9  103.8409
  10  176.0049
  11  66.02026
  12  216.8786
  13  188.6567
  14  63.65707
  15  83.32935
  16  137.0269
  17  239.226
  18  217.1154
  19  69.52559
  20  117.2601
  21  250.4218
  22  228.7576
  23  121.2312
  24  271.4552
  25  179.1765
  26  175.7148
  27  94.50911
  28  161.17
  29  169.6668
  30  79.58892
  31  111.9418
  32  144.9348
  33  186.9767
  34  221.5763
  35  309.0525
  36  88.33263
  37  58.2197
  38  170.6344
  39  204.9773
  40  225.5541
  41  197.3275
  42  243.6552
  43  121.2815
  44  49.37535
  45  230.399
  46  140.9959
  47  153.357
  48  51.34273
  49  192.779
  50  209.5106
  51  61.93916
  52  113.565
  53  172.3062
  54  181.7248
  55  193.9626
  56  192.6068
  57  225.3423
  58  150.371
  59  208.0918
  60  131.5383
  61  52.56994
  62  92.95663
  63  127.2388
  64  233.446
  65  282.638
  66  107.161
  67  213.1396
  68  139.8674
  69  214.5009
  70  251.606
  71  216.0406
  72  268.9794
  73  255.6474
  74  229.0664
  75  347.084
  76  235.0627
  77  176.9104
  78  214.2318
  79  207.1854
  80  194.1902
  81  106.7774
  82  264.9755
  83  116.2989
  84  83.13961
  85  193.102
  86  166.3541
  87  176.7481
  88  114.9861
  89  173.7204
  90  100.2196
  91  46.49911
  92  111.6436
  93  89.60752
  94  56.56535
  95  190.1635
  96  128.0353
  97  43.62832
  98  35.59676
  99  168.3263
 100  195.9477
 101  192.9992
 102  129.3902
 103  216.6823
 104  213.5417
 105  200.0578
 106  194.9163
 107  153.9963
 108  184.5379
 109  221.6192
 110  101.3273
 111  22.44577
 112  215.8862
 113  280.3472
 114  203.2944
 115  60.75491
 116  141.4214
 117  296.7162
 118  181.9695
 119  219.6093
 120  153.6462
 121  126.0574
 122  66.49998
 123  154.6936
 124  291.1192
 125  250.8238
 126  173.3461
 127  107.7311
 128  161.4485
 129  286.4189
 130  215.0593
 131  134.4061
 132  207.4198
 133  282.9675
 134  250.6021
 135  260.0049
 136  81.20175
 137  76.76109
 138  127.1348
 139  146.0907
 140  183.6998
 141  196.0857
 142  199.5991
 143  177.2142
 144  120.599
 145  186.4849
 146  184.0082
 147  170.5475
 148  212.2552
 149  280.5399
 150  269.522
 151  182.6762
 152  99.6073
 153  201.0667
 154  133.209
 155  138.7712
 156  338.0364
 157  270.5567
 158  232.928
 159  235.3616
 160  180.6825
 161  151.0304
 162  216.9524
 163  172.9895
 164  137.4724
 165  -1.459595
 166  -6.277661
 167  180.0655
 168  166.1828
 169  159.9168
 170  72.46777
 171  76.90011
 172  130.2853
 173  223.4108
 174  244.8423
 175  290.8237
 176  240.8165
 177  196.6102
 178  206.5728
 179  131.4822
 180  137.7259
 181  180.9901
 182  195.9039
 183  248.6369
 184  205.0324
 185  205.6856
 186  296.7059
 187  222.0349
 188  148.7872
 189  283.6555
 190  357.6853
 191  465.8729
 192  547.911
 193  669.7921
 194  683.871
 195  755.6496
 196  699.9306
 197  383.2384
 198  172.3339
 199  282.2961
 200  332.3454
 201  138.314
 202  134.2459
 203  164.4007
 204  265.6825
 205  330.9516
 206  252.3948
 207  260.7769
 208  284.7586
 209  236.2503
 210  342.0908
 211  232.7258
 212  229.9823
 213  225.808
 214  205.4034
 215  220.8071
 216  234.0672
 217  125.7178
 218  125.608
 219  191.8635
 220  334.3408
 221  307.3573
 222  347.7913
 223  343.1757
 224  274.1477
 225  196.5338
 226  156.5286
 227  239.2784
 228  222.5603
 229  166.0723
 230  272.9655
 231  261.2255
 232  231.6178
 233  197.2816
 234  239.2529
 235  194.1212
 236  169.777
 237  164.9977
 238  125.2256
 239  143.3805
 240  202.613
 241  198.1589
 242  160.8677
 243  148.6029
 244  60.47131
 245  54.73452
 246  239.9623
 247  201.717
 248  242.5629
 249  252.4905
 250  160.519
 251  126.5702
 252  188.6168
 253  161.8217
 254  88.18187
 255  115.4529
 256  121.5481
 257  58.1334
 258  157.5198
 259  167.5106
 260  271.5176
 261  238.2707
 262  197.8269
 263  256.2076
 264  196.2699
 265  81.4726
 266  154.2045
 267  86.16332
 268  66.12359
 269  214.507
 270  123.648
 271  161.2408
 272  132.7134
 273  155.3639
 274  69.28684
 275  -5.018678
 276  17.04393
 277  44.20758
 278  85.93866
 279  68.81168
 280  74.81045
 281  135.1174
 282  223.187
 283  166.7866
 284  256.6758
 285  269.4582
 286  232.9512
 287  79.87019
 288  2.002862
 289  110.4827
 290  42.91123
 291  -7.576366
 292  -81.21349
 293  66.17203
 294  153.5699
 295  58.45957
 296  -15.40205
 297  -49.09439
 298  106.3085
 299  234.0062
 300  136.7856
 301  158.4295
 302  222.6563
 303  237.8726
 304  315.2265
 305  181.7242
 306  227.4571
 307  64.68795
 308  153.5087
 309  165.2417
 310  151.1966
 311  259.1935
 312  160.1899
 313  100.211
 314  83.76102
 315  127.1129
 316  100.8026
 317  124.8272
 318  88.62991
 319  234.888
 320  244.8197
 321  155.1198
 322  232.6334
 323  244.0761
 324  140.6268
 325  81.9245
 326  82.73479
 327  142.4339
 328  171.8392
 329  135.2178
 330  187.9304
 331  224.0282
 332  271.422
 333  236.9245
 334  214.2751
 335  182.1388
 336  77.19928
 337  137.8139
 338  229.5435
 339  78.31826
 340  2.408156
 341  80.4815
 342  9.404083
 343  63.68884
 344  82.75062
 345  83.96404
 346  47.95232
 347  73.41868
 348  57.33652
 349  84.02685
 350  195.0938
 351  87.25258
 352  200.5005
 353  220.5067
 354  101.2959
 355  33.03618
 356  198.947
 357  372.3608
 358  108.6692
 359  92.6336
 360  23.74709
 361  69.5752
 362  -10.22409
 363  93.73342
 364  116.2916
 365  159.7712
 366  283.6362
 367  179.2769
 368  209.4115
 369  178.1131
 370  132.9365
 371  74.62059
 372  276.5999
 373  284.2635
 374  139.3254
 375  211.4357
 376  288.4539
 377  278.5463
 378  316.1089
 379  306.3887
 380  119.4361
 381  82.10296
 382  110.7785
 383  194.4284
 384  231.4922
 385  74.23055
 386  76.49704
 387  171.2057
 388  163.3234
 389  115.6365
 390  66.71503
 391  142.7107
 392  90.9839
 393  61.08152
 394  143.5231
 395  151.2884
 396  154.7108
 397  183.1618
 398  144.4396
 399  75.69272
 400  244.0037
 401  300.4727
 402  207.5865
 403  -20.69347
 404  14.75644
 405  132.5992
 406  113.7561
 407  14.4478
 408  -35.19127
 409  55.21509
 410  161.9064
 411  134.7274
 412  84.49259
 413  83.58807
 414  134.8153
 415  100.6479
 416  154.0962
 417  153.8684
 418  111.2322
 419  67.3669
 420  102.782
 421  124.3101
 422  143.6094
 423  148.5232
 424  177.2997
 425  149.0331
 426  200.0309
 427  169.3266
 428  129.1041
 429  159.2498
 430  207.465
 431  148.3498
 432  132.3081
 433  171.0933
 434  258.1945
 435  158.7051
 436  197.7912
 437  336.4763
 438  297.5232
 439  98.98522
 440  207.6012
 441  378.1494
 442  325.3427
 443  309.2296
 444  265.482
 445  180.2408
 446  203.77
 447  153.8379
 448  156.5852
 449  193.0061
 450  54.4423
 451  38.0204
 452  136.1687
 453  243.0779
 454  206.067
 455  88.97097
 456  -14.27965
 457  79.67066
 458  146.8882
 459  219.2844
 460  208.5883
 461  273.7384
 462  175.5842
 463  54.99651
 464  36.79153
 465  201.8497
 466  207.7252
 467  167.7224
 468  164.2233
 469  140.7567
 470  52.73831
 471  65.53979
 472  119.3689
 473  215.5158
 474  123.2031
 475  199.2138
 476  68.34934
 477  120.4426
 478  116.1228
 479  33.41841
 480  50.49322
 481  98.8155
 482  188.3463
 483  189.1615
 484  118.8425
 485  62.89973
 486  69.10847
 487  120.4809
 488  93.15889
 489  91.38599
 490  215.0289
 491  280.3222
 492  107.5729
 493  112.3051
 494  48.5031
 495  202.3971
 496  273.4149
 497  243.7074
 498  302.7182
 499  246.4782
 500  233.9174
 501  196.4981
 502  345.1484
 503  270.0717
 504  282.7929
 505  255.4332
 506  103.3837
 507  151.9616
 508  250.3039
 509  207.6039
 510  206.1505
 511  226.5599
