# Input file       =  1194194576.102522_cleaned.dat
# Candidate        =  PSR_0332+5434
# Telescope        =  AR
# Epoch_topo       =  58065.696702575486
# Epoch_bary       =  N/A
# T_sample         =  0.002
# Data Folded      =  7143424
# Data Avg         =  0.0282808690525338
# Data StdDev      =  1.00000429391405 
# Profile Bins     =  512
# Profile Avg      =  394.63270806524  
# Profile StdDev   =  118.119091672917 
# Reduced chi-sqr  =  1.152
# Prob(Noise)      <  0.00961   (~2.3 sigma)
# P_topo (ms)      =  714.502943434295  +/- 0.000141
# P'_topo (s/s)    =  -0                +/- 7.67e-11
# P''_topo (s/s^2) =  0                 +/- 3.48e-14
# P_bary (ms)      =  N/A
# P'_bary (s/s)    =  N/A
# P''_bary (s/s^2) =  N/A
# P_orb (s)        =  N/A
# asin(i)/c (s)    =  N/A
# eccentricity     =  N/A
# w (rad)          =  N/A
# T_peri           =  N/A
######################################################
   0  858.6645
   1  837.1378
   2  674.2582
   3  511.1541
   4  495.3887
   5  496.8771
   6  605.6775
   7  464.9042
   8  359.7819
   9  303.5004
  10  348.9453
  11  292.9254
  12  406.4249
  13  410.9841
  14  384.4235
  15  572.1237
  16  518.5757
  17  450.0373
  18  282.9843
  19  318.9875
  20  491.4484
  21  476.4661
  22  358.4847
  23  360.566
  24  436.5179
  25  454.5247
  26  461.518
  27  454.7228
  28  521.6593
  29  419.4366
  30  338.0467
  31  362.9601
  32  380.7467
  33  282.6656
  34  301.8192
  35  390.0703
  36  394.856
  37  408.7081
  38  330.4739
  39  287.8152
  40  308.4916
  41  369.1755
  42  406.7803
  43  363.9879
  44  369.2888
  45  421.357
  46  372.5359
  47  287.1905
  48  300.7177
  49  239.4728
  50  266.7753
  51  245.4181
  52  306.6598
  53  338.4149
  54  325.3496
  55  309.4127
  56  277.5421
  57  261.7128
  58  387.2814
  59  356.9012
  60  401.6153
  61  295.3117
  62  151.9608
  63  297.4167
  64  345.9147
  65  378.1102
  66  361.1216
  67  325.2526
  68  300.6659
  69  318.6831
  70  517.1935
  71  448.31
  72  344.1447
  73  341.425
  74  190.22
  75  240.6636
  76  341.3967
  77  315.8448
  78  404.4867
  79  563.4869
  80  496.6414
  81  356.5484
  82  387.4775
  83  278.3639
  84  323.8976
  85  469.164
  86  575.6848
  87  502.2026
  88  339.71
  89  267.731
  90  362.0933
  91  380.0609
  92  477.4477
  93  488.0121
  94  452.5041
  95  498.9745
  96  489.7002
  97  428.0966
  98  356.1325
  99  312.551
 100  467.3717
 101  511.6786
 102  468.5005
 103  524.9464
 104  401.9752
 105  394.1833
 106  432.1029
 107  352.9967
 108  348.1528
 109  491.3469
 110  558.7816
 111  493.1894
 112  405.8965
 113  402.8234
 114  428.6423
 115  435.8441
 116  362.4362
 117  198.3637
 118  335.7268
 119  336.4657
 120  255.9761
 121  232.6039
 122  283.82
 123  190.8735
 124  317.1901
 125  330.5777
 126  351.1986
 127  124.6287
 128  239.0939
 129  272.8564
 130  297.4908
 131  394.0099
 132  354.5575
 133  372.8363
 134  359.4705
 135  494.4059
 136  474.0849
 137  436.1213
 138  442.5669
 139  380.0218
 140  353.2658
 141  404.1221
 142  408.7509
 143  474.7327
 144  444.2363
 145  385.1212
 146  404.1496
 147  349.6547
 148  392.5265
 149  394.675
 150  332.4581
 151  380.7281
 152  343.9233
 153  548.405
 154  447.719
 155  364.8772
 156  268.4431
 157  433.4837
 158  480.5557
 159  383.3541
 160  412.259
 161  527.8757
 162  518.2701
 163  491.0379
 164  440.9407
 165  361.6813
 166  456.3956
 167  323.0596
 168  399.169
 169  480.5381
 170  448.2019
 171  368.7719
 172  339.0644
 173  332.7085
 174  369.0451
 175  540.0306
 176  507.2516
 177  376.8733
 178  391.541
 179  353.7399
 180  306.7386
 181  299.8605
 182  442.3006
 183  406.0834
 184  332.7144
 185  328.1852
 186  356.8457
 187  438.0639
 188  439.4427
 189  449.0392
 190  473.2504
 191  586.2365
 192  466.8971
 193  330.664
 194  364.3127
 195  451.866
 196  291.4368
 197  354.6951
 198  345.749
 199  530.9108
 200  479.9952
 201  477.7817
 202  392.7323
 203  520.8529
 204  425.168
 205  256.986
 206  317.1278
 207  496.4357
 208  501.2857
 209  483.6261
 210  473.5114
 211  309.2163
 212  325.9451
 213  491.0272
 214  359.0713
 215  357.6742
 216  302.1737
 217  390.9767
 218  494.2259
 219  518.5722
 220  451.2644
 221  508.6886
 222  572.1683
 223  429.0011
 224  311.8372
 225  263.1043
 226  405.2258
 227  389.7416
 228  282.2439
 229  284.8691
 230  341.9765
 231  311.9202
 232  228.1344
 233  458.2014
 234  416.4973
 235  351.1729
 236  370.4582
 237  354.8309
 238  421.2919
 239  288.0155
 240  326.6257
 241  439.5558
 242  521.0658
 243  582.3229
 244  496.2016
 245  406.3134
 246  454.1602
 247  456.369
 248  396.2653
 249  399.3715
 250  539.8558
 251  367.0913
 252  337.5331
 253  358.917
 254  365.2948
 255  318.7553
 256  358.0725
 257  393.1287
 258  433.4473
 259  434.3454
 260  421.8485
 261  456.6271
 262  371.4054
 263  436.2446
 264  542.597
 265  454.2298
 266  343.468
 267  317.0363
 268  384.956
 269  382.7372
 270  304.0531
 271  343.7284
 272  380.8175
 273  347.9868
 274  337.7209
 275  398.9498
 276  536.645
 277  471.7331
 278  336.6852
 279  316.4215
 280  296.7451
 281  335.0392
 282  268.5385
 283  268.5507
 284  381.559
 285  491.7194
 286  374.495
 287  325.592
 288  272.927
 289  253.6906
 290  338.8094
 291  452.5127
 292  426.6574
 293  472.5404
 294  333.6408
 295  310.4634
 296  356.0952
 297  459.2075
 298  500.8507
 299  399.2872
 300  491.6546
 301  481.4928
 302  397.8223
 303  384.3958
 304  417.4963
 305  370.4235
 306  366.5282
 307  509.268
 308  500.9049
 309  489.7889
 310  502.8836
 311  412.9507
 312  533.2551
 313  496.7384
 314  448.9177
 315  387.93
 316  551.4319
 317  447.1387
 318  352.9355
 319  270.1004
 320  448.9245
 321  565.9696
 322  404.391
 323  389.9686
 324  481.6955
 325  459.0113
 326  431.024
 327  326.7073
 328  368.2317
 329  357.4497
 330  441.5265
 331  374.8739
 332  457.3945
 333  415.1907
 334  375.2536
 335  382.396
 336  407.736
 337  347.9355
 338  348.2532
 339  310.881
 340  337.9018
 341  390.5513
 342  362.5501
 343  371.7226
 344  316.4955
 345  276.0358
 346  322.2394
 347  400.2618
 348  463.1008
 349  432.1191
 350  352.6936
 351  434.4552
 352  339.8549
 353  337.8367
 354  370.203
 355  311.4569
 356  317.9849
 357  368.982
 358  434.481
 359  408.3853
 360  279.2395
 361  236.1309
 362  217.7878
 363  322.5796
 364  350.4395
 365  394.5802
 366  430.6518
 367  541.415
 368  407.1378
 369  413.0236
 370  531.016
 371  379.696
 372  355.0165
 373  436.6897
 374  383.2413
 375  352.1487
 376  419.7034
 377  416.6786
 378  352.5631
 379  348.5666
 380  376.0526
 381  501.871
 382  472.5112
 383  490.4476
 384  352.6671
 385  309.3119
 386  467.3492
 387  436.3751
 388  424.1097
 389  510.303
 390  477.7207
 391  486.7654
 392  403.0768
 393  421.5847
 394  456.0764
 395  522.5171
 396  426.8279
 397  419.8503
 398  504.9783
 399  365.1007
 400  449.8659
 401  418.6082
 402  450.7748
 403  387.2624
 404  349.33
 405  374.6721
 406  421.173
 407  424.3927
 408  350.0732
 409  386.2495
 410  408.8847
 411  423.0661
 412  295.0208
 413  251.0694
 414  227.9269
 415  353.6915
 416  448.34
 417  282.9385
 418  351.0018
 419  401.9782
 420  367.3528
 421  344.1872
 422  353.2596
 423  383.2477
 424  391.1647
 425  475.7107
 426  384.2481
 427  401.0126
 428  393.4424
 429  419.8275
 430  436.8441
 431  417.7162
 432  427.2462
 433  456.3989
 434  375.306
 435  353.4474
 436  409.11
 437  364.0537
 438  347.9747
 439  391.8465
 440  306.5163
 441  323.1157
 442  208.6576
 443  285.4815
 444  427.6117
 445  384.3603
 446  383.9684
 447  365.3301
 448  476.7212
 449  487.3464
 450  488.4942
 451  445.5063
 452  276.7206
 453  248.2551
 454  291.3809
 455  327.4687
 456  340.6656
 457  273.9997
 458  357.0576
 459  425.3371
 460  313.8738
 461  313.6063
 462  429.8625
 463  451.6191
 464  389.0371
 465  344.0229
 466  385.688
 467  494.7625
 468  457.0849
 469  470.7806
 470  402.7885
 471  379.3998
 472  465.2154
 473  447.4657
 474  403.2761
 475  414.6489
 476  492.95
 477  454.4211
 478  369.7966
 479  307.58
 480  360.2461
 481  253.6297
 482  304.0676
 483  423.7308
 484  422.9724
 485  331.4489
 486  155.3175
 487  263.4146
 488  236.5281
 489  271.6036
 490  143.0987
 491  161.7846
 492  351.0693
 493  383.9436
 494  516.9269
 495  437.3022
 496  465.9331
 497  355.432
 498  267.7429
 499  352.3163
 500  450.3871
 501  471.9828
 502  411.4122
 503  338.0044
 504  372.7708
 505  355.7133
 506  448.7408
 507  477.1666
 508  662.5332
 509  728.4337
 510  771.6875
 511  853.8087
