# Input file       =  1194138544.111448_cleaned.dat
# Candidate        =  PSR_0332+5434
# Telescope        =  AR
# Epoch_topo       =  58065.048184160281
# Epoch_bary       =  N/A
# T_sample         =  0.002
# Data Folded      =  7340032
# Data Avg         =  0.0297080274079631
# Data StdDev      =  1.00019605844788 
# Profile Bins     =  512
# Profile Avg      =  425.924533010104 
# Profile StdDev   =  119.756511050038 
# Reduced chi-sqr  =  1.117
# Prob(Noise)      <  0.0337   (~1.8 sigma)
# P_topo (ms)      =  714.502675081553  +/- 0.000231
# P'_topo (s/s)    =  -0                +/- 1.22e-10
# P''_topo (s/s^2) =  0                 +/- 5.39e-14
# P_bary (ms)      =  N/A
# P'_bary (s/s)    =  N/A
# P''_bary (s/s^2) =  N/A
# P_orb (s)        =  N/A
# asin(i)/c (s)    =  N/A
# eccentricity     =  N/A
# w (rad)          =  N/A
# T_peri           =  N/A
######################################################
   0  867.2534
   1  919.9872
   2  697.2125
   3  568.9598
   4  503.1729
   5  458.5964
   6  449.2504
   7  489.9716
   8  421.5805
   9  525.7885
  10  502.7715
  11  465.2945
  12  429.4718
  13  403.082
  14  429.4597
  15  440.8654
  16  541.368
  17  551.2096
  18  478.5146
  19  490.611
  20  402.7496
  21  416.9963
  22  367.3549
  23  348.7669
  24  367.1563
  25  506.2026
  26  580.0359
  27  435.548
  28  453.0161
  29  428.9505
  30  419.1629
  31  591.6746
  32  373.8993
  33  379.158
  34  358.2109
  35  365.4366
  36  468.6815
  37  567.3147
  38  477.6577
  39  318.2081
  40  334.6159
  41  458.6073
  42  576.6221
  43  483.7458
  44  492.2137
  45  486.6878
  46  537.3782
  47  470.4386
  48  440.0591
  49  327.9104
  50  301.7231
  51  364.3778
  52  479.1216
  53  568.3592
  54  444.4526
  55  413.1432
  56  388.15
  57  329.2658
  58  379.027
  59  431.969
  60  399.2198
  61  379.8837
  62  411.5895
  63  476.2443
  64  419.8385
  65  418.4535
  66  336.5449
  67  376.9718
  68  401.3477
  69  520.903
  70  522.5033
  71  381.3815
  72  349.5018
  73  263.3463
  74  273.3098
  75  410.6394
  76  353.5487
  77  290.9074
  78  360.0767
  79  394.8807
  80  386.2933
  81  333.1687
  82  307.3589
  83  246.7163
  84  365.5361
  85  502.7023
  86  521.2915
  87  555.9124
  88  373.3773
  89  393.177
  90  282.8578
  91  328.9279
  92  415.7151
  93  390.6337
  94  382.7191
  95  402.7166
  96  411.6662
  97  373.0961
  98  291.5659
  99  245.5431
 100  302.184
 101  269.2592
 102  341.6431
 103  369.3462
 104  384.5644
 105  335.412
 106  448.3359
 107  351.4443
 108  333.5658
 109  263.0885
 110  306.3582
 111  186.5366
 112  356.0372
 113  531.2556
 114  532.4036
 115  372.7603
 116  334.3835
 117  311.803
 118  322.9021
 119  374.6349
 120  490.9182
 121  514.1734
 122  537.826
 123  489.8524
 124  458.6375
 125  387.9061
 126  316.8551
 127  318.6049
 128  286.3864
 129  286.9618
 130  340.6178
 131  360.546
 132  352.0321
 133  454.1577
 134  518.7665
 135  558.2552
 136  436.3145
 137  348.6389
 138  414.8414
 139  481.8382
 140  469.1494
 141  517.7505
 142  598.9783
 143  564.3539
 144  517.1833
 145  443.7279
 146  512.7483
 147  459.0173
 148  417.9747
 149  431.3076
 150  397.9889
 151  467.9355
 152  455.9713
 153  494.4748
 154  407.7894
 155  373.7582
 156  453.8217
 157  477.8038
 158  491.9763
 159  509.2357
 160  368.7967
 161  373.1196
 162  355.8645
 163  542.46
 164  506.5782
 165  501.236
 166  494.3548
 167  439.6584
 168  491.9492
 169  484.2234
 170  450.0578
 171  482.2467
 172  436.3113
 173  360.3561
 174  484.0941
 175  524.4651
 176  398.8702
 177  449.0839
 178  358.0154
 179  378.4883
 180  336.059
 181  328.5089
 182  392.2709
 183  333.2271
 184  431.1516
 185  505.6134
 186  464.5128
 187  462.1604
 188  507.1984
 189  488.3134
 190  472.8177
 191  555.0383
 192  520.173
 193  520.5451
 194  443.652
 195  435.4974
 196  519.0641
 197  348.0103
 198  367.5702
 199  459.9004
 200  441.8957
 201  457.7875
 202  429.4761
 203  553.968
 204  435.7777
 205  394.5548
 206  454.1026
 207  432.279
 208  414.2728
 209  358.837
 210  377.4733
 211  437.3182
 212  479.0314
 213  392.8799
 214  437.8131
 215  426.8716
 216  421.0097
 217  274.0583
 218  324.8132
 219  391.7831
 220  343.7185
 221  316.7672
 222  374.2232
 223  389.0859
 224  419.1971
 225  482.2955
 226  468.7093
 227  503.4737
 228  541.4028
 229  532.2944
 230  398.9761
 231  433.9807
 232  558.4298
 233  461.3886
 234  505.661
 235  594.8746
 236  542.8373
 237  389.2761
 238  494.9737
 239  583.0784
 240  493.5455
 241  464.7273
 242  503.9895
 243  515.4741
 244  490.9623
 245  554.5453
 246  477.0698
 247  311.6273
 248  451.6405
 249  434.2686
 250  508.4678
 251  480.4634
 252  482.9643
 253  413.3989
 254  538.489
 255  389.0575
 256  351.7864
 257  437.186
 258  395.0735
 259  339.0465
 260  319.0716
 261  408.2784
 262  502.0288
 263  499.092
 264  438.6219
 265  479.9521
 266  389.4308
 267  387.369
 268  558.6942
 269  481.7336
 270  437.9637
 271  409.4456
 272  477.1445
 273  417.2191
 274  400.9198
 275  482.9572
 276  470.9909
 277  421.1168
 278  410.4968
 279  340.5571
 280  238.4219
 281  291.3471
 282  384.32
 283  455.594
 284  447.837
 285  431.2449
 286  405.7975
 287  469.4049
 288  514.962
 289  455.1449
 290  422.4574
 291  325.5583
 292  398.8761
 293  517.9749
 294  527.2049
 295  543.6135
 296  619.966
 297  573.2462
 298  369.2248
 299  421.9338
 300  497.8415
 301  425.9342
 302  382.6857
 303  491.7791
 304  475.5052
 305  464.7961
 306  327.0337
 307  339.7586
 308  516.9309
 309  375.6719
 310  306.023
 311  350.588
 312  422.5084
 313  475.4591
 314  465.3407
 315  416.7131
 316  390.2547
 317  397.8801
 318  478.3364
 319  431.0391
 320  411.0963
 321  501.4401
 322  490.9061
 323  450.9057
 324  474.9349
 325  471.3726
 326  380.2222
 327  322.2506
 328  451.345
 329  478.2578
 330  394.6033
 331  467.6232
 332  516.8506
 333  477.4954
 334  384.5548
 335  396.0866
 336  411.208
 337  379.0084
 338  391.3228
 339  568.3843
 340  437.4876
 341  283.2999
 342  267.5591
 343  491.86
 344  495.5619
 345  466.6617
 346  528.2773
 347  429.7588
 348  343.2167
 349  442.0614
 350  431.6382
 351  290.7732
 352  442.1021
 353  501.3576
 354  455.8059
 355  380.2245
 356  421.6369
 357  402.728
 358  532.9285
 359  493.4468
 360  309.7105
 361  444.1741
 362  363.7198
 363  404.4377
 364  346.3499
 365  403.4595
 366  436.3607
 367  470.7688
 368  523.5475
 369  450.9768
 370  430.8272
 371  421.9169
 372  468.5789
 373  449.2137
 374  393.9107
 375  480.7776
 376  490.4612
 377  437.5335
 378  391.9875
 379  337.3554
 380  386.6454
 381  384.341
 382  383.2697
 383  411.2509
 384  398.0674
 385  359.3843
 386  322.2387
 387  356.5135
 388  405.1221
 389  412.1079
 390  412.4296
 391  462.5475
 392  365.4165
 393  416.1023
 394  361.8044
 395  337.2506
 396  343.7096
 397  427.3122
 398  498.1548
 399  512.0146
 400  541.3193
 401  412.9115
 402  380.1811
 403  500.103
 404  537.3155
 405  436.7095
 406  375.2912
 407  413.156
 408  384.1258
 409  416.9123
 410  412.8651
 411  493.7249
 412  402.312
 413  384.7503
 414  450.9807
 415  432.927
 416  372.4221
 417  443.5294
 418  518.8381
 419  393.2494
 420  330.2924
 421  315.8812
 422  307.0224
 423  317.4262
 424  288.8274
 425  437.4404
 426  402.2441
 427  328.243
 428  267.5614
 429  291.7902
 430  312.9436
 431  362.83
 432  427.6623
 433  302.6949
 434  278.7831
 435  295.9174
 436  279.9975
 437  323.4685
 438  363.7729
 439  488.1402
 440  396.5146
 441  451.963
 442  464.5745
 443  495.4448
 444  499.0769
 445  338.564
 446  365.1623
 447  389.817
 448  402.756
 449  388.6672
 450  378.3772
 451  406.7973
 452  455.1212
 453  369.2918
 454  355.7543
 455  362.8309
 456  422.2187
 457  381.7692
 458  342.5826
 459  344.5089
 460  284.0236
 461  322.8958
 462  379.3246
 463  482.4993
 464  524.7963
 465  563.1712
 466  342.7081
 467  342.5346
 468  369.0801
 469  368.7939
 470  298.3759
 471  289.3557
 472  318.1346
 473  364.9308
 474  318.853
 475  329.0495
 476  331.6247
 477  204.9076
 478  182.4418
 479  253.2104
 480  378.6819
 481  333.9778
 482  328.1185
 483  338.6902
 484  317.1786
 485  338.7953
 486  346.6562
 487  370.6563
 488  401.8711
 489  437.0695
 490  449.3696
 491  439.5799
 492  469.9502
 493  454.996
 494  392.883
 495  517.2704
 496  531.7809
 497  477.701
 498  396.4214
 499  460.2489
 500  439.6732
 501  409.2119
 502  410.0774
 503  481.4622
 504  602.0322
 505  582.0024
 506  443.3024
 507  555.9694
 508  665.2063
 509  740.0552
 510  954.6783
 511  1007.949
