# Input file       =  1194741724.105465_cleaned.dat
# Candidate        =  PSR_0332+5434
# Telescope        =  AR
# Epoch_topo       =  58072.029434091026
# Epoch_bary       =  N/A
# T_sample         =  0.002
# Data Folded      =  7340032
# Data Avg         =  0.00867911442151937
# Data StdDev      =  1.00012086735846 
# Profile Bins     =  512
# Profile Avg      =  124.485084900689 
# Profile StdDev   =  119.747508192593 
# Reduced chi-sqr  =  0.983
# Prob(Noise)      <  0.6   (~0.0 sigma)
# P_topo (ms)      =  714.50957370712   +/- 0.000287
# P'_topo (s/s)    =  -0                +/- 1.51e-10
# P''_topo (s/s^2) =  0                 +/- 6.68e-14
# P_bary (ms)      =  N/A
# P'_bary (s/s)    =  N/A
# P''_bary (s/s^2) =  N/A
# P_orb (s)        =  N/A
# asin(i)/c (s)    =  N/A
# eccentricity     =  N/A
# w (rad)          =  N/A
# T_peri           =  N/A
######################################################
   0  612.7066
   1  472.8781
   2  300.3258
   3  327.3347
   4  202.4065
   5  187.5743
   6  190.0763
   7  211.5204
   8  177.2769
   9  105.2184
  10  121.9047
  11  124.7014
  12  208.3033
  13  240.3669
  14  192.0241
  15  178.8788
  16  243.1858
  17  251.3337
  18  271.6023
  19  106.2253
  20  35.00155
  21  21.34206
  22  60.02107
  23  253.731
  24  165.5475
  25  98.63254
  26  150.2947
  27  110.9197
  28  23.7894
  29  75.33872
  30  72.65983
  31  50.74394
  32  138.9475
  33  136.1158
  34  114.8418
  35  112.9821
  36  143.535
  37  141.0393
  38  21.82985
  39  -34.19732
  40  113.9178
  41  166.6491
  42  105.2366
  43  63.73122
  44  104.2121
  45  50.99588
  46  39.12081
  47  123.1587
  48  226.1458
  49  97.72543
  50  69.22123
  51  177.5065
  52  29.21032
  53  138.636
  54  207.5666
  55  121.1036
  56  155.1022
  57  104.1222
  58  54.41366
  59  191.9705
  60  124.1539
  61  130.7616
  62  169.4709
  63  196.1274
  64  72.00497
  65  121.7602
  66  126.5773
  67  150.1437
  68  80.8244
  69  -11.68608
  70  70.2187
  71  166.8823
  72  73.18956
  73  123.1455
  74  76.35795
  75  168.923
  76  183.5933
  77  200.0332
  78  135.917
  79  102.005
  80  -6.754243
  81  11.89387
  82  -23.57695
  83  114.1222
  84  97.44138
  85  -8.572933
  86  20.97528
  87  58.86794
  88  31.80978
  89  82.47652
  90  130.3643
  91  107.9802
  92  68.8064
  93  109.339
  94  61.58726
  95  53.44693
  96  43.41256
  97  98.70505
  98  23.35157
  99  54.542
 100  72.08815
 101  138.6138
 102  119.6045
 103  70.34773
 104  113.7515
 105  76.98057
 106  2.672883
 107  82.9236
 108  31.46252
 109  -18.21111
 110  11.27644
 111  110.7579
 112  20.25641
 113  122.601
 114  125.3052
 115  118.1556
 116  92.96071
 117  87.45635
 118  61.78067
 119  23.91746
 120  -23.89254
 121  37.95948
 122  121.3227
 123  -40.85412
 124  -61.74072
 125  -31.54612
 126  124.3812
 127  92.85465
 128  -20.95098
 129  74.29738
 130  130.534
 131  195.6345
 132  136.3358
 133  68.36548
 134  69.58534
 135  100.7452
 136  168.5913
 137  98.75773
 138  122.4347
 139  109.7198
 140  57.24964
 141  57.77622
 142  59.99512
 143  -0.1054911
 144  173.3444
 145  171.3868
 146  89.83
 147  120.7245
 148  80.0231
 149  77.55293
 150  79.09338
 151  136.6007
 152  71.14949
 153  -7.500544
 154  25.00056
 155  10.62635
 156  -18.20762
 157  95.67307
 158  173.1011
 159  65.75037
 160  83.13013
 161  -17.98733
 162  -10.04817
 163  172.7794
 164  62.15624
 165  210.8282
 166  195.039
 167  214.429
 168  168.6476
 169  138.6982
 170  263.4141
 171  274.9008
 172  132.8042
 173  115.8334
 174  240.8203
 175  115.0241
 176  59.0297
 177  171.8198
 178  231.3477
 179  191.6653
 180  100.6898
 181  4.620767
 182  53.8078
 183  102.2661
 184  91.59672
 185  86.23601
 186  149.1206
 187  188.649
 188  262.1755
 189  327.8361
 190  178.1709
 191  199.9019
 192  162.4806
 193  215.7623
 194  247.0896
 195  138.3326
 196  146.1218
 197  95.31328
 198  84.94948
 199  125.1526
 200  145.3696
 201  148.6802
 202  33.34095
 203  13.18301
 204  121.02
 205  256.428
 206  94.73227
 207  159.7126
 208  53.55434
 209  44.46487
 210  106.7722
 211  85.50577
 212  189.6398
 213  236.2658
 214  138.8962
 215  127.0092
 216  48.81206
 217  30.30789
 218  215.9022
 219  329.1706
 220  222.0082
 221  164.0787
 222  195.3483
 223  155.4201
 224  208.5441
 225  222.3306
 226  209.4427
 227  171.1573
 228  223.6847
 229  228.2025
 230  123.1981
 231  132.0272
 232  104.3179
 233  134.0001
 234  178.1956
 235  38.22853
 236  172.6028
 237  293.4256
 238  293.1652
 239  152.6547
 240  77.62489
 241  138.0478
 242  202.5255
 243  263.7216
 244  205.9698
 245  187.4452
 246  136.5117
 247  156.6068
 248  225.0615
 249  126.5359
 250  89.008
 251  234.8662
 252  211.1001
 253  164.1756
 254  281.3038
 255  222.5855
 256  258.3274
 257  344.0037
 258  176.7129
 259  133.9475
 260  82.51373
 261  69.98064
 262  129.1673
 263  140.1656
 264  243.6735
 265  190.735
 266  106.9634
 267  138.5083
 268  189.7582
 269  137.4241
 270  89.61273
 271  139.0429
 272  82.89575
 273  47.1827
 274  102.8368
 275  162.1826
 276  158.0967
 277  56.85578
 278  24.47157
 279  174.0161
 280  216.0961
 281  179.9651
 282  220.6884
 283  136.0357
 284  75.57534
 285  31.92559
 286  127.2997
 287  218.7753
 288  92.88306
 289  85.26148
 290  187.6895
 291  200.1525
 292  166.2184
 293  147.6614
 294  286.4825
 295  279.8942
 296  179.0101
 297  103.069
 298  83.96937
 299  -50.35598
 300  64.66052
 301  132.9049
 302  194.131
 303  143.8046
 304  -24.41217
 305  149.1514
 306  143.3538
 307  213.1028
 308  96.23319
 309  64.20723
 310  118.2682
 311  175.4761
 312  194.7127
 313  234.0806
 314  113.3676
 315  128.3749
 316  156.9007
 317  156.8389
 318  79.31467
 319  129.9101
 320  212.307
 321  162.5002
 322  139.7965
 323  99.69118
 324  76.1759
 325  116.3368
 326  117.8623
 327  178.5265
 328  169.762
 329  199.3956
 330  162.694
 331  170.6547
 332  107.3896
 333  220.0963
 334  133.5539
 335  97.42582
 336  92.86644
 337  168.039
 338  194.2231
 339  208.3634
 340  109.2612
 341  88.53929
 342  221.9474
 343  110.2832
 344  138.0132
 345  165.4045
 346  163.2032
 347  275.4602
 348  264.535
 349  149.8411
 350  172.4755
 351  227.6144
 352  229.0333
 353  149.334
 354  44.62731
 355  204.8966
 356  196.1539
 357  78.8755
 358  108.9994
 359  102.6753
 360  25.76009
 361  120.463
 362  173.3161
 363  170.3273
 364  58.1707
 365  121.3297
 366  199.6015
 367  171.4582
 368  66.94332
 369  168.6099
 370  106.6911
 371  226.5202
 372  253.0352
 373  67.57969
 374  80.44349
 375  46.98483
 376  9.639689
 377  69.20319
 378  243.4456
 379  192.459
 380  80.41666
 381  51.54659
 382  128.6238
 383  160.8653
 384  140.4087
 385  159.9009
 386  152.4249
 387  190.7838
 388  87.42638
 389  165.8399
 390  148.2257
 391  96.37968
 392  148.9932
 393  178.8117
 394  149.797
 395  146.007
 396  169.9574
 397  201.9495
 398  126.7994
 399  95.74201
 400  241.2602
 401  131.7802
 402  101.8253
 403  163.5263
 404  172.261
 405  141.9191
 406  133.7293
 407  91.43264
 408  222.7548
 409  192.2765
 410  148.4728
 411  76.1133
 412  -9.793985
 413  -5.21381
 414  122.9431
 415  179.1361
 416  64.88393
 417  48.20543
 418  128.891
 419  38.39257
 420  0.1348144
 421  86.50544
 422  92.34612
 423  136.6904
 424  86.27695
 425  69.59796
 426  158.003
 427  136.7341
 428  82.32127
 429  -33.52183
 430  105.5906
 431  100.9148
 432  70.77863
 433  94.29752
 434  114.4171
 435  202.0416
 436  72.12051
 437  207.0517
 438  168.873
 439  68.078
 440  86.37951
 441  183.1103
 442  156.1974
 443  53.5579
 444  74.39365
 445  101.5725
 446  151.6754
 447  286.6465
 448  160.0151
 449  -2.197268
 450  64.32124
 451  159.7885
 452  171.6919
 453  104.0814
 454  97.36671
 455  -58.71704
 456  14.74812
 457  56.26466
 458  -40.58724
 459  -88.32091
 460  -8.421184
 461  55.08479
 462  53.8398
 463  7.261441
 464  101.7609
 465  74.60962
 466  75.78455
 467  127.2105
 468  106.5393
 469  8.140925
 470  18.35583
 471  -4.991501
 472  12.85772
 473  102.3445
 474  105.2913
 475  41.18125
 476  -21.73573
 477  32.54115
 478  87.43856
 479  67.48494
 480  119.5703
 481  121.0474
 482  24.42347
 483  38.601
 484  61.40487
 485  25.56039
 486  -139.8496
 487  -74.54921
 488  25.85781
 489  63.78882
 490  146.8604
 491  132.3205
 492  143.9149
 493  122.0687
 494  138.8421
 495  114.3953
 496  44.31543
 497  32.00486
 498  -8.767344
 499  78.55925
 500  142.6797
 501  121.6413
 502  131.4633
 503  29.34836
 504  -31.17962
 505  102.2227
 506  128.1427
 507  148.5933
 508  275.6391
 509  354.3453
 510  588.2012
 511  658.6893
