# Input file       =  1194108959.124819_cleaned.dat
# Candidate        =  PSR_0332+5434
# Telescope        =  AR
# Epoch_topo       =  58064.705765333551
# Epoch_bary       =  N/A
# T_sample         =  0.002
# Data Folded      =  7208960
# Data Avg         =  0.119372194985309
# Data StdDev      =  3.5055439606936  
# Profile Bins     =  256
# Profile Avg      =  3361.10947116627 
# Profile StdDev   =  588.263283779981 
# Reduced chi-sqr  =  0.886
# Prob(Noise)      <  0.904   (~0.0 sigma)
# P_topo (ms)      =  714.501981871286  +/- 8.87e-05
# P'_topo (s/s)    =  -0                +/- 4.77e-11
# P''_topo (s/s^2) =  0                 +/- 2.14e-14
# P_bary (ms)      =  N/A
# P'_bary (s/s)    =  N/A
# P''_bary (s/s^2) =  N/A
# P_orb (s)        =  N/A
# asin(i)/c (s)    =  N/A
# eccentricity     =  N/A
# w (rad)          =  N/A
# T_peri           =  N/A
######################################################
   0  3716.093
   1  3365.741
   2  2882.067
   3  3090.816
   4  3349.683
   5  3265.719
   6  3064.838
   7  3328.187
   8  3079.643
   9  3216.522
  10  3442.253
  11  3130.576
  12  3769.858
  13  2882.097
  14  2389.014
  15  2371.747
  16  3849.963
  17  2648.132
  18  3085.388
  19  3072.266
  20  3871.071
  21  3604.695
  22  3307.238
  23  2948.026
  24  3284.656
  25  4350.403
  26  2844.562
  27  3046.144
  28  3559.857
  29  3628.539
  30  3289.4
  31  2668.975
  32  2913.136
  33  3422.777
  34  3289.519
  35  2948.283
  36  3145.375
  37  3346.188
  38  3109.083
  39  2957.163
  40  3200.448
  41  2881.558
  42  2518.406
  43  2927.994
  44  3844.435
  45  3494.742
  46  3645.434
  47  3399.48
  48  3617.805
  49  2951.257
  50  3202.786
  51  3376.983
  52  3051.418
  53  2942.849
  54  3187.662
  55  3521.736
  56  3358.362
  57  2545.368
  58  3371.663
  59  3907.239
  60  3580.691
  61  3160.115
  62  4373.207
  63  3277.462
  64  3803.38
  65  3844.924
  66  4024.563
  67  3290.71
  68  3350.503
  69  3199.515
  70  4283.562
  71  3802.041
  72  2299.891
  73  2990.489
  74  3824.121
  75  4067.081
  76  3339.592
  77  3369.676
  78  3936.819
  79  3595.007
  80  4059.358
  81  3855.421
  82  3631.423
  83  2594.69
  84  2711.927
  85  2643.419
  86  3212.661
  87  3502.494
  88  3026.33
  89  3073.637
  90  2820.281
  91  4218.882
  92  3451.65
  93  3148.642
  94  3308.59
  95  3160.088
  96  3101.821
  97  3015.749
  98  3487.518
  99  3913.404
 100  3568.081
 101  3005.022
 102  3702.973
 103  3524.503
 104  3636.128
 105  3526.096
 106  2681.618
 107  3568.829
 108  3048.51
 109  3225.954
 110  2926.094
 111  3334.247
 112  3668.36
 113  2765.811
 114  3090.7
 115  3591.73
 116  3187.087
 117  2351.816
 118  3482.134
 119  3452.001
 120  3199.621
 121  3468.248
 122  3618.911
 123  3595.017
 124  2895.795
 125  3466.035
 126  3274.204
 127  2694.301
 128  3471.405
 129  2972.059
 130  2876.927
 131  2712.406
 132  3467.157
 133  3485.751
 134  2964.132
 135  2796.995
 136  3528.913
 137  3541.205
 138  3329.065
 139  2941.335
 140  3782.569
 141  3807.032
 142  2739.406
 143  3197.291
 144  3665.625
 145  3583.403
 146  2779.475
 147  2881.578
 148  3329.979
 149  3629.085
 150  3468.434
 151  3939.392
 152  3601.03
 153  4180.53
 154  3565.42
 155  3526.014
 156  4436.084
 157  5170.568
 158  6019.172
 159  5394.235
 160  4123.15
 161  3656.207
 162  3189.236
 163  3240.883
 164  3313.505
 165  3955.1
 166  3567.875
 167  3482.406
 168  3269.054
 169  2938.492
 170  3236.653
 171  2947.626
 172  2653.744
 173  3609.312
 174  3323.535
 175  2713.568
 176  3198.829
 177  4008.052
 178  3399.31
 179  3239.451
 180  2989.995
 181  3350.927
 182  4343.032
 183  3041.147
 184  3387.261
 185  4095.169
 186  4074.069
 187  3243.942
 188  3236.138
 189  3053.65
 190  3184.706
 191  3553.702
 192  2869.431
 193  2982.826
 194  3562.144
 195  3185.112
 196  3360.865
 197  3682.732
 198  3014.188
 199  3845.384
 200  3116.31
 201  3587.16
 202  3479.573
 203  3154.132
 204  3702.171
 205  3854.811
 206  2882.558
 207  3057.572
 208  3382.673
 209  3426.344
 210  3478.651
 211  3117.745
 212  3563.634
 213  2986.153
 214  4320.896
 215  4041.104
 216  2687.042
 217  2668.506
 218  2847.686
 219  3183.609
 220  2854.521
 221  2420.672
 222  3111.09
 223  3516.924
 224  2985.677
 225  3109.998
 226  3367.16
 227  2925.671
 228  3135.071
 229  3283.973
 230  3593.695
 231  3951.527
 232  3436.217
 233  2988.649
 234  3352.013
 235  4161.188
 236  3600.615
 237  3315.799
 238  3065.371
 239  3209.442
 240  3658.461
 241  3562.669
 242  2600.162
 243  3058.426
 244  3421.67
 245  3835.49
 246  3170.467
 247  3604.73
 248  3666.238
 249  3160.187
 250  3455.998
 251  4173.249
 252  4013.947
 253  3827.388
 254  3490.892
 255  3529.894
