# Input file       =  1194482637.105718-PSRB0329-2ms-sampling-dd.dat
# Candidate        =  PSR_0332+5434
# Telescope        =  AR
# Epoch_topo       =  58069.030741964329
# Epoch_bary       =  N/A
# T_sample         =  0.002
# Data Folded      =  7340032
# Data Avg         =  7.72510204858711e-10
# Data StdDev      =  5.71109222656087 
# Profile Bins     =  512
# Profile Avg      =  -0.0922550605465521
# Profile StdDev   =  683.806413313879 
# Reduced chi-sqr  =  0.523
# Prob(Noise)      <  1   (~0.0 sigma)
# P_topo (ms)      =  714.506556696245  +/- 0.000253
# P'_topo (s/s)    =  -0                +/- 1.33e-10
# P''_topo (s/s^2) =  0                 +/- 5.89e-14
# P_bary (ms)      =  N/A
# P'_bary (s/s)    =  N/A
# P''_bary (s/s^2) =  N/A
# P_orb (s)        =  N/A
# asin(i)/c (s)    =  N/A
# eccentricity     =  N/A
# w (rad)          =  N/A
# T_peri           =  N/A
######################################################
   0  -26.85494
   1  -132.414
   2  -215.9917
   3  -91.01415
   4  34.22471
   5  -354.1995
   6  -669.4105
   7  -540.3163
   8  -443.2568
   9  -370.0295
  10  -282.3714
  11  -254.7466
  12  41.1335
  13  -72.35493
  14  -286.0981
  15  -175.91
  16  -142.5068
  17  -218.2106
  18  -257.6046
  19  97.88322
  20  182.8163
  21  101.8199
  22  155.986
  23  262.2997
  24  563.1816
  25  428.6144
  26  356.7238
  27  178.0714
  28  40.60349
  29  -98.71555
  30  84.23567
  31  419.8277
  32  426.063
  33  567.2012
  34  284.1531
  35  349.1601
  36  218.6457
  37  73.89545
  38  -68.97068
  39  -180.7735
  40  -440.3494
  41  -339.191
  42  -151.2564
  43  95.31965
  44  -184.9941
  45  -255.395
  46  235.4998
  47  524.7576
  48  290.8541
  49  -148.1023
  50  7.291918
  51  -130.9863
  52  423.1132
  53  529.7808
  54  54.08375
  55  -404.7263
  56  -253.9494
  57  -137.8541
  58  195.7159
  59  302.4702
  60  190.2901
  61  670.8577
  62  399.1251
  63  -43.54125
  64  -239.5872
  65  -74.43742
  66  -58.04399
  67  114.5445
  68  -325.7605
  69  45.88237
  70  141.386
  71  -238.1217
  72  -473.1729
  73  -711.6357
  74  -637.2505
  75  -609.1021
  76  -526.3517
  77  34.72731
  78  368.0414
  79  91.2165
  80  -161.9357
  81  -667.3448
  82  -823.0088
  83  -711.0581
  84  -60.21008
  85  117.1009
  86  50.69279
  87  489.1322
  88  183.7623
  89  243.4317
  90  0.06688767
  91  -169.9037
  92  286.3164
  93  455.6038
  94  74.78118
  95  398.7543
  96  275.2596
  97  -328.9771
  98  112.8729
  99  151.1354
 100  -325.7956
 101  -620.5632
 102  -751.5576
 103  -379.1628
 104  -222.1585
 105  -530.8145
 106  -522.1105
 107  -276.6892
 108  -153.3901
 109  0.06516416
 110  -351.7529
 111  -162.8199
 112  -583.2629
 113  -226.1799
 114  -466.7084
 115  -191.7411
 116  -212.3421
 117  -372.6808
 118  -273.1886
 119  64.64032
 120  618.8516
 121  15.44515
 122  -179.0322
 123  122.571
 124  451.5378
 125  466.6776
 126  417.3492
 127  517.4083
 128  952.3824
 129  558.1288
 130  244.6143
 131  299.9005
 132  163.0228
 133  403.9706
 134  620.8943
 135  632.0618
 136  609.0475
 137  219.9297
 138  53.18623
 139  -51.21246
 140  -186.0356
 141  -163.1973
 142  -163.5831
 143  178.5041
 144  -29.79277
 145  -146.1096
 146  187.8785
 147  -104.1333
 148  78.22801
 149  181.6229
 150  -9.911376
 151  -10.92359
 152  -201.0542
 153  292.2716
 154  -106.988
 155  79.70856
 156  104.7851
 157  347.2437
 158  5.324678
 159  304.6656
 160  633.1147
 161  438.2408
 162  793.6365
 163  567.4025
 164  353.5087
 165  120.3937
 166  -10.24821
 167  491.4776
 168  510.0505
 169  532.5701
 170  220.1033
 171  -261.9349
 172  -593.9319
 173  -612.4697
 174  -190.8758
 175  -101.6395
 176  81.02627
 177  687.9873
 178  798.6071
 179  214.0786
 180  -66.40634
 181  97.64936
 182  64.75161
 183  192.6042
 184  195.5202
 185  83.49183
 186  423.6527
 187  560.9789
 188  355.4322
 189  101.2097
 190  -114.3728
 191  293.5208
 192  520.6488
 193  691.2377
 194  650.5782
 195  519.1364
 196  120.7522
 197  -262.0569
 198  -43.91052
 199  249.0866
 200  301.8043
 201  24.06469
 202  -104.3542
 203  -400.2557
 204  -660.5026
 205  -27.12068
 206  27.6777
 207  -277.8585
 208  -6.117589
 209  -245.4749
 210  -352.6968
 211  -157.6619
 212  140.8386
 213  -86.83063
 214  -173.5766
 215  -89.37646
 216  -70.40665
 217  132.4629
 218  618.2015
 219  682.4924
 220  275.956
 221  -79.96443
 222  246.5929
 223  304.6736
 224  870.4832
 225  608.9024
 226  252.5164
 227  156.0097
 228  -282.1815
 229  -482.6288
 230  -242.7056
 231  26.60122
 232  -21.96909
 233  63.26869
 234  425.7989
 235  344.8992
 236  -377.2785
 237  -396.2527
 238  -191.0808
 239  -131.6693
 240  119.118
 241  311.1906
 242  375.3885
 243  -2.394889
 244  327.9819
 245  242.2472
 246  147.5061
 247  -164.146
 248  -192.8506
 249  198.8391
 250  42.7892
 251  -134.6122
 252  -76.93085
 253  192.0932
 254  -67.3279
 255  -329.6543
 256  128.1079
 257  120.9903
 258  337.8506
 259  160.5742
 260  -69.43946
 261  -53.76795
 262  -464.0434
 263  -361.1335
 264  -439.4669
 265  -129.0729
 266  242.3155
 267  -120.2835
 268  -156.8589
 269  -210.1519
 270  -55.12258
 271  -131.4293
 272  -415.0119
 273  46.08922
 274  -117.6709
 275  -222.5224
 276  67.20918
 277  -273.4076
 278  -439.3676
 279  -515.1376
 280  -486.7704
 281  -68.41788
 282  -89.69342
 283  207.1597
 284  174.0033
 285  74.78635
 286  208.6214
 287  -19.43526
 288  -238.7941
 289  115.3775
 290  149.25
 291  520.8831
 292  335.853
 293  61.92353
 294  -111.9694
 295  -617.1331
 296  -518.2018
 297  -364.0385
 298  -96.84961
 299  -157.3902
 300  -402.8443
 301  -147.0701
 302  -246.5848
 303  -385.3181
 304  -689.0696
 305  -184.9472
 306  -235.242
 307  -115.0144
 308  -82.51624
 309  -493.9094
 310  -427.9896
 311  -291.6633
 312  -242.5521
 313  16.13019
 314  138.5854
 315  120.8274
 316  305.0675
 317  562.8907
 318  1126.62
 319  607.8103
 320  245.2824
 321  90.75462
 322  1.192366
 323  199.906
 324  103.1171
 325  292.7032
 326  157.8342
 327  148.4374
 328  75.3491
 329  34.48729
 330  24.82342
 331  194.8272
 332  396.9587
 333  -244.3698
 334  -29.99268
 335  -13.75009
 336  -269.1785
 337  -121.34
 338  -170.2749
 339  -27.63368
 340  -19.34766
 341  136.8459
 342  -134.1802
 343  -28.11155
 344  60.59224
 345  403.0146
 346  -232.8445
 347  -320.9128
 348  -215.0635
 349  350.2912
 350  949.935
 351  1193.664
 352  1702.542
 353  1837.716
 354  979.1411
 355  688.3247
 356  35.25025
 357  -278.2761
 358  -404.3127
 359  -205.4493
 360  -238.1346
 361  -266.8136
 362  -62.05323
 363  -250.0787
 364  46.91814
 365  -103.1092
 366  -412.1534
 367  -630.2959
 368  -746.2631
 369  -56.85877
 370  -329.524
 371  -43.09078
 372  -72.2578
 373  -315.5413
 374  -470.5753
 375  -617.7328
 376  -272.4029
 377  -611.7576
 378  -477.6174
 379  -601.8621
 380  -852.8926
 381  -560.8729
 382  -7.331595
 383  308.7494
 384  214.0121
 385  169.0738
 386  -135.7232
 387  -269.9286
 388  -351.9776
 389  -72.99055
 390  -226.8928
 391  -115.0353
 392  -250.9093
 393  -197.3359
 394  -54.59555
 395  -112.1288
 396  25.81739
 397  -167.2225
 398  -504.1323
 399  -426.6711
 400  -92.36211
 401  61.93365
 402  -146.8579
 403  -278.6611
 404  -381.7743
 405  -635.0663
 406  -278.356
 407  -503.7645
 408  -313.5032
 409  -462.026
 410  -191.6674
 411  -100.6088
 412  236.3475
 413  214.3495
 414  -124.7489
 415  -82.80453
 416  -11.30956
 417  112.9262
 418  469.8507
 419  172.1328
 420  60.50034
 421  -77.79292
 422  -216.6516
 423  -334.0359
 424  -336.7907
 425  193.8307
 426  23.16451
 427  -57.23222
 428  73.47771
 429  -477.846
 430  -860.7264
 431  -705.0273
 432  -694.3592
 433  -617.3748
 434  -350.33
 435  -12.70794
 436  -61.02987
 437  87.68674
 438  288.8444
 439  200.5858
 440  -251.0784
 441  -198.8199
 442  -222.3085
 443  -150.8885
 444  -294.5392
 445  177.0383
 446  483.053
 447  544.325
 448  269.1571
 449  -129.9054
 450  -46.39061
 451  -234.1088
 452  -475.2446
 453  -127.2142
 454  63.51797
 455  316.3747
 456  391.8276
 457  97.34972
 458  -138.713
 459  -681.4116
 460  -55.70856
 461  -242.8135
 462  -300.2853
 463  74.58769
 464  -132.6694
 465  -347.648
 466  -379.6508
 467  -84.08263
 468  -218.0256
 469  174.0518
 470  136.0958
 471  -311.5596
 472  -399.1556
 473  -411.5665
 474  36.64841
 475  -126.9998
 476  43.09382
 477  194.9381
 478  301.701
 479  313.1476
 480  280.1341
 481  434.0199
 482  535.582
 483  336.8088
 484  272.1634
 485  517.506
 486  253.3629
 487  153.8657
 488  151.7694
 489  -271.1864
 490  -395.888
 491  -618.1294
 492  -120.0177
 493  264.4106
 494  268.0302
 495  123.4734
 496  104.7954
 497  78.30368
 498  -173.3674
 499  -19.06688
 500  124.2362
 501  -81.72793
 502  334.7702
 503  633.0569
 504  270.3019
 505  -197.7607
 506  -7.405947
 507  107.9876
 508  476.2513
 509  858.0876
 510  816.5239
 511  197.6013
