# Input file       =  1194812911.096002_cleaned.dat
# Candidate        =  PSR_0332+5434
# Telescope        =  AR
# Epoch_topo       =  58072.853357592619
# Epoch_bary       =  N/A
# T_sample         =  0.002
# Data Folded      =  7340032
# Data Avg         =  0.023040863162271
# Data StdDev      =  0.999889949873888
# Profile Bins     =  512
# Profile Avg      =  330.325753322872 
# Profile StdDev   =  119.719859741013 
# Reduced chi-sqr  =  0.931
# Prob(Noise)      <  0.865   (~0.0 sigma)
# P_topo (ms)      =  714.510067192094  +/- 0.000334
# P'_topo (s/s)    =  -0                +/- 1.76e-10
# P''_topo (s/s^2) =  0                 +/- 7.77e-14
# P_bary (ms)      =  N/A
# P'_bary (s/s)    =  N/A
# P''_bary (s/s^2) =  N/A
# P_orb (s)        =  N/A
# asin(i)/c (s)    =  N/A
# eccentricity     =  N/A
# w (rad)          =  N/A
# T_peri           =  N/A
######################################################
   0  300.4553
   1  321.8838
   2  343.8354
   3  354.295
   4  236.7715
   5  310.064
   6  324.9063
   7  360.1014
   8  406.7681
   9  293.9597
  10  407.1057
  11  384.3178
  12  345.1765
  13  258.0604
  14  286.2158
  15  299.2696
  16  269.1451
  17  339.9195
  18  397.239
  19  395.1864
  20  232.4562
  21  284.8015
  22  328.0246
  23  265.4087
  24  348.1442
  25  321.3145
  26  327.9815
  27  374.8926
  28  441.7343
  29  430.8475
  30  396.4415
  31  385.7221
  32  355.7817
  33  375.2703
  34  330.0472
  35  389.859
  36  342.9489
  37  312.8181
  38  379.8232
  39  399.5664
  40  384.2514
  41  343.9034
  42  274.0305
  43  294.7106
  44  314.0246
  45  360.9163
  46  291.6663
  47  309.9019
  48  294.8136
  49  274.7873
  50  347.2734
  51  260.6274
  52  372.8927
  53  371.2063
  54  355.2237
  55  337.2814
  56  476.3696
  57  370.577
  58  193.6954
  59  310.0679
  60  363.7445
  61  279.0135
  62  323.3784
  63  313.5916
  64  410.9664
  65  311.872
  66  289.3539
  67  349.3987
  68  406.0732
  69  327.2919
  70  410.0471
  71  413.0568
  72  327.8858
  73  420.6844
  74  457.6275
  75  481.1093
  76  354.95
  77  299.7199
  78  322.7579
  79  297.0878
  80  270.1285
  81  393.4566
  82  414.3144
  83  353.3292
  84  376.5605
  85  348.125
  86  269.8148
  87  215.868
  88  239.7035
  89  295.4307
  90  277.6056
  91  258.4105
  92  260.9691
  93  365.352
  94  436.4153
  95  274.3485
  96  359.7762
  97  334.7465
  98  352.5062
  99  456.1625
 100  414.2142
 101  482.8803
 102  337.9886
 103  344.0847
 104  325.526
 105  301.0902
 106  256.4648
 107  345.5776
 108  400.9409
 109  397.2755
 110  393.3307
 111  374.9995
 112  235.2487
 113  270.4671
 114  362.8144
 115  379.5999
 116  428.3059
 117  508.7691
 118  572.5127
 119  642.0487
 120  804.4951
 121  797.5444
 122  730.7401
 123  733.24
 124  558.1844
 125  358.7709
 126  316.3661
 127  353.7652
 128  284.1021
 129  262.0646
 130  313.4197
 131  394.5201
 132  333.9689
 133  344.7477
 134  447.3126
 135  500.4731
 136  374.2415
 137  393.5923
 138  435.9269
 139  499.0797
 140  423.131
 141  279.2574
 142  308.8464
 143  247.5246
 144  307.9163
 145  347.8137
 146  295.6803
 147  361.7433
 148  331.7569
 149  413.709
 150  484.6395
 151  389.8093
 152  289.2829
 153  351.9061
 154  413.0888
 155  277.8685
 156  278.6155
 157  288.7994
 158  281.77
 159  352.3617
 160  224.4251
 161  207.7274
 162  347.093
 163  345.8562
 164  236.8038
 165  300.941
 166  301.8553
 167  259.7884
 168  232.8413
 169  115.2861
 170  100.6862
 171  217.3604
 172  287.3504
 173  265.6333
 174  213.0467
 175  334.6941
 176  347.3418
 177  349.7989
 178  367.3651
 179  285.7447
 180  295.4451
 181  323.0915
 182  235.6267
 183  318.5246
 184  431.6551
 185  282.5041
 186  278.8706
 187  151.0237
 188  181.5661
 189  240.4875
 190  288.5613
 191  245.0621
 192  145.2678
 193  269.6578
 194  368.4091
 195  317.448
 196  273.7306
 197  273.1943
 198  346.3142
 199  289.794
 200  293.5286
 201  276.6725
 202  305.4463
 203  334.2307
 204  373.7969
 205  291.3289
 206  283.2811
 207  365.3287
 208  280.2672
 209  192.3957
 210  315.8322
 211  390.5533
 212  327.8568
 213  241.9168
 214  285.9256
 215  347.4483
 216  313.5996
 217  274.6606
 218  253.4321
 219  391.7891
 220  456.7879
 221  320.8459
 222  291.4612
 223  502.8366
 224  473.1855
 225  363.6873
 226  262.6003
 227  361.4481
 228  354.0127
 229  364.1152
 230  405.5247
 231  431.8726
 232  354.0177
 233  302.3887
 234  313.0684
 235  305.3058
 236  328.8258
 237  283.9204
 238  220.9747
 239  207.8486
 240  385.4872
 241  376.0486
 242  148.2598
 243  181.4874
 244  381.6418
 245  400.9788
 246  359.6591
 247  193.9999
 248  310.8133
 249  278.3974
 250  204.004
 251  338.4424
 252  363.2023
 253  303.627
 254  278.603
 255  128.5883
 256  228.3118
 257  326.0722
 258  326.1166
 259  367.3693
 260  310.6069
 261  379.869
 262  353.7954
 263  239.0676
 264  176.5642
 265  276.1125
 266  255.7097
 267  235.5089
 268  273.6585
 269  345.7309
 270  405.2465
 271  390.2452
 272  345.038
 273  266.4263
 274  170.6639
 275  370.6349
 276  335.1822
 277  296.045
 278  267.5519
 279  284.7715
 280  250.9643
 281  363.7193
 282  369.3151
 283  271.088
 284  209.2591
 285  232.7961
 286  286.0078
 287  287.9144
 288  356.8942
 289  518.7406
 290  499.5119
 291  485.7599
 292  362.9022
 293  301.1567
 294  333.7244
 295  320.2111
 296  393.8013
 297  340.7702
 298  320.4421
 299  314.3474
 300  257.9542
 301  341.3576
 302  350.6756
 303  332.0746
 304  263.2063
 305  275.2204
 306  261.7438
 307  277.5225
 308  274.8545
 309  224.0761
 310  327.809
 311  323.5988
 312  268.6227
 313  320.7937
 314  292.7034
 315  379.0445
 316  195.3029
 317  235.5942
 318  336.7637
 319  246.0889
 320  192.6474
 321  337.0447
 322  411.3656
 323  342.5364
 324  266.1152
 325  301.3546
 326  260.6114
 327  384.1283
 328  357.5428
 329  386.2625
 330  302.1525
 331  202.2603
 332  219.4405
 333  371.074
 334  269.5025
 335  222.8756
 336  231.4362
 337  196.2274
 338  347.5431
 339  420.4295
 340  388.6861
 341  357.3582
 342  353.6748
 343  240.3862
 344  179.1178
 345  278.7427
 346  347.4847
 347  256.4721
 348  271.1722
 349  297.6035
 350  300.8466
 351  235.3128
 352  299.5102
 353  355.9177
 354  350.448
 355  375.3703
 356  455.1012
 357  437.4792
 358  328.3042
 359  295.5009
 360  274.58
 361  299.6069
 362  279.6773
 363  445.7822
 364  344.7713
 365  282.0028
 366  226.9583
 367  399.0293
 368  485.948
 369  400.1071
 370  283.9821
 371  287.3445
 372  207.9436
 373  205.8433
 374  268.9058
 375  372.8271
 376  374.9761
 377  430.0996
 378  313.958
 379  203.2903
 380  248.0937
 381  312.414
 382  359.0326
 383  218.345
 384  274.651
 385  332.7318
 386  312.7229
 387  317.3911
 388  275.7106
 389  350.6861
 390  384.6163
 391  397.5962
 392  402.4906
 393  316.7964
 394  338.4333
 395  433.6981
 396  431.9437
 397  383.9532
 398  308.3641
 399  168.7991
 400  296.2758
 401  369.5464
 402  415.1394
 403  332.1584
 404  503.1372
 405  414.7577
 406  284.5348
 407  320.1937
 408  338.3559
 409  338.6884
 410  323.0472
 411  330.2152
 412  261.7751
 413  267.9422
 414  295.7301
 415  259.9587
 416  267.403
 417  293.9002
 418  414.8227
 419  355.8477
 420  365.2529
 421  132.0584
 422  166.7192
 423  293.4915
 424  369.499
 425  360.1536
 426  357.1408
 427  204.4147
 428  246.9611
 429  252.8427
 430  357.624
 431  447.6376
 432  376.9793
 433  404.7195
 434  244.9847
 435  270.54
 436  366.5659
 437  403.0381
 438  362.6768
 439  379.154
 440  418.8459
 441  325.0759
 442  279.6725
 443  273.472
 444  382.6341
 445  333.9846
 446  296.7275
 447  320.3048
 448  343.7378
 449  296.4064
 450  319.5417
 451  272.9225
 452  290.2587
 453  337.2341
 454  339.0618
 455  335.8331
 456  389.4141
 457  409.7968
 458  407.242
 459  408.1251
 460  346.8685
 461  342.9677
 462  402.0357
 463  325.3901
 464  335.514
 465  323.1445
 466  350.0595
 467  340.6684
 468  329.4942
 469  225.477
 470  230.2417
 471  429.1574
 472  292.242
 473  204.3059
 474  222.2817
 475  284.3165
 476  277.7393
 477  345.2855
 478  341.835
 479  166.6691
 480  186.2593
 481  289.3004
 482  339.1828
 483  296.5695
 484  390.9204
 485  269.9922
 486  347.6092
 487  365.318
 488  307.2555
 489  359.0353
 490  317.4123
 491  384.3569
 492  346.4696
 493  285.9903
 494  475.2919
 495  436.6846
 496  397.7224
 497  466.4758
 498  409.6258
 499  345.1213
 500  388.7755
 501  413.1226
 502  311.6225
 503  272.5633
 504  439.3201
 505  472.0214
 506  432.626
 507  430.37
 508  516.3229
 509  401.5995
 510  366.7262
 511  288.7139
