# Input file       =  1194985250.121086-PSRB0329-2ms-sampling-dd.dat
# Candidate        =  PSR_0332+5434
# Telescope        =  AR
# Epoch_topo       =  58074.848022234793
# Epoch_bary       =  N/A
# T_sample         =  0.002
# Data Folded      =  7340032
# Data Avg         =  1.65011348676479e-10
# Data StdDev      =  9.05292601294522 
# Profile Bins     =  512
# Profile Avg      =  -0.194576625503762
# Profile StdDev   =  1083.93431962414 
# Reduced chi-sqr  =  0.385
# Prob(Noise)      <  1   (~0.0 sigma)
# P_topo (ms)      =  714.512098947562  +/- 0.00269
# P'_topo (s/s)    =  -0                +/- 1.42e-09
# P''_topo (s/s^2) =  0                 +/- 6.26e-13
# P_bary (ms)      =  N/A
# P'_bary (s/s)    =  N/A
# P''_bary (s/s^2) =  N/A
# P_orb (s)        =  N/A
# asin(i)/c (s)    =  N/A
# eccentricity     =  N/A
# w (rad)          =  N/A
# T_peri           =  N/A
######################################################
   0  -621.3753
   1  -970.3002
   2  -868.3854
   3  -339.5311
   4  -260.0519
   5  184.4466
   6  257.3054
   7  -52.58548
   8  709.135
   9  352.7043
  10  -264.8251
  11  -559.3257
  12  -278.7494
  13  243.0113
  14  116.1813
  15  -299.7142
  16  -658.5598
  17  -170.3587
  18  212.8512
  19  -24.26591
  20  -923.9904
  21  -813.8028
  22  62.523
  23  350.5187
  24  456.8949
  25  -176.3542
  26  -301.657
  27  -263.6109
  28  -916.3316
  29  -755.6503
  30  -894.0097
  31  -1191.03
  32  -543.2177
  33  -226.7119
  34  -33.86922
  35  -592.0712
  36  -400.0546
  37  -188.1181
  38  21.09156
  39  -60.65938
  40  152.2228
  41  -260.3917
  42  -492.725
  43  -457.2961
  44  -615.9308
  45  -702.2892
  46  -567.6561
  47  40.256
  48  37.77073
  49  -240.9851
  50  -298.3184
  51  -66.81443
  52  -331.379
  53  -57.25513
  54  326.2295
  55  -84.43536
  56  -282.326
  57  53.09694
  58  -340.5345
  59  -159.1616
  60  -231.3021
  61  -156.5425
  62  -271.7809
  63  -786.9332
  64  -579.6409
  65  -995.119
  66  -348.6593
  67  -145.5408
  68  2.547712
  69  295.4562
  70  522.1492
  71  498.7492
  72  218.9049
  73  -386.317
  74  45.37843
  75  316.8249
  76  116.6367
  77  -275.789
  78  -435.6399
  79  158.1132
  80  95.19107
  81  -443.9463
  82  -220.7484
  83  -276.1568
  84  -478.814
  85  -532.1321
  86  475.9968
  87  641.2199
  88  -686.0424
  89  -119.5469
  90  292.9782
  91  -431.1653
  92  -328.2149
  93  144.4071
  94  -33.04923
  95  25.06516
  96  -633.2957
  97  -689.337
  98  -209.5367
  99  -433.0581
 100  -226.4578
 101  -249.7399
 102  -378.469
 103  -331.5302
 104  444.0063
 105  502.4649
 106  -326.8435
 107  -1.402658
 108  476.6064
 109  922.5638
 110  337.9525
 111  -461.9125
 112  446.3407
 113  476.6827
 114  171.5398
 115  327.104
 116  -121.9156
 117  -74.49812
 118  446.3319
 119  -278.2343
 120  -659.8969
 121  -1115.471
 122  -576.3701
 123  -483.9349
 124  -196.4891
 125  -2.08451
 126  -421.2334
 127  -475.808
 128  -781.3075
 129  -781.7697
 130  -236.3741
 131  17.2349
 132  305.2926
 133  -458.6679
 134  -72.45703
 135  600.8705
 136  -575.5024
 137  -802.0989
 138  -837.2573
 139  -16.70531
 140  -374.3609
 141  -483.135
 142  703.1625
 143  47.99738
 144  -337.3485
 145  -231.4803
 146  -723.0034
 147  -883.6337
 148  -624.6016
 149  130.0175
 150  -59.28873
 151  -276.2046
 152  -23.00262
 153  -373.6699
 154  -484.2109
 155  -1189.974
 156  -32.09495
 157  697.8372
 158  251.2944
 159  -685.8588
 160  -428.8694
 161  524.9728
 162  182.1798
 163  -463.8028
 164  -1039.924
 165  -823.6066
 166  -711.8411
 167  -5.746439
 168  237.9279
 169  416.3953
 170  261.8327
 171  607.4671
 172  -39.32199
 173  -232.2545
 174  -627.747
 175  -347.4857
 176  -14.85227
 177  -248.4422
 178  16.98953
 179  -135.3712
 180  1024.371
 181  841.3494
 182  274.8922
 183  110.9843
 184  16.38857
 185  -195.7644
 186  -112.0051
 187  -7.161782
 188  244.0074
 189  106.0664
 190  -375.6061
 191  -308.2352
 192  -116.3971
 193  -110.1954
 194  -139.4956
 195  157.8995
 196  530.2032
 197  185.5332
 198  411.4623
 199  361.2514
 200  322.8689
 201  613.4741
 202  418.4047
 203  606.7951
 204  1015.932
 205  604.4774
 206  283.5762
 207  -20.69106
 208  460.1046
 209  283.3844
 210  1092.444
 211  956.2585
 212  921.6732
 213  974.5356
 214  899.4294
 215  467.3307
 216  345.103
 217  503.307
 218  378.9749
 219  429.8933
 220  547.169
 221  813.1342
 222  1100.559
 223  760.1543
 224  920.0156
 225  735.3287
 226  485.6516
 227  794.3994
 228  557.8519
 229  988.2923
 230  1195.643
 231  321.6333
 232  -302.1029
 233  512.2996
 234  932.6307
 235  814.6848
 236  238.1073
 237  60.03054
 238  241.1944
 239  676.7938
 240  21.94946
 241  -796.6362
 242  -292.3569
 243  329.471
 244  -36.06591
 245  -164.4598
 246  9.965717
 247  -22.69839
 248  -376.9388
 249  -238.6876
 250  423.739
 251  -88.9789
 252  -161.0388
 253  -454.1071
 254  -18.97643
 255  375.1509
 256  164.4296
 257  455.7304
 258  136.9971
 259  169.6817
 260  356.9518
 261  520.085
 262  -71.26156
 263  601.3245
 264  1183.764
 265  163.3395
 266  0.1772684
 267  18.82377
 268  23.56919
 269  -457.2281
 270  -276.342
 271  -620.3087
 272  486.8653
 273  389.3879
 274  510.7212
 275  878.3539
 276  853.6252
 277  583.2504
 278  76.59596
 279  530.0174
 280  300.2924
 281  -172.3564
 282  -558.3552
 283  -517.7801
 284  -799.6812
 285  -200.0864
 286  110.4918
 287  370.1276
 288  -327.3896
 289  -775.2517
 290  -195.4677
 291  -691.2313
 292  -546.5289
 293  -495.4329
 294  -94.57674
 295  503.4185
 296  -254.2812
 297  208.3676
 298  797.0445
 299  213.838
 300  241.7709
 301  -59.04491
 302  13.5822
 303  531.7789
 304  342.4238
 305  831.728
 306  347.2355
 307  224.9192
 308  -806.3326
 309  -647.0678
 310  -752.1161
 311  -655.7689
 312  -665.9445
 313  -457.8005
 314  79.37866
 315  363.2849
 316  -0.3574204
 317  188.618
 318  11.51735
 319  35.20656
 320  -96.70176
 321  -41.34138
 322  94.23328
 323  444.0886
 324  675.247
 325  -187.8825
 326  -1098.572
 327  -829.3486
 328  -18.74632
 329  -119.6735
 330  -783.3326
 331  -874.1863
 332  -772.3691
 333  169.1847
 334  -263.2371
 335  -282.646
 336  13.31686
 337  -297.7078
 338  -16.46481
 339  -35.91856
 340  535.1564
 341  626.6627
 342  235.1758
 343  732.8448
 344  434.1702
 345  34.01368
 346  311.9377
 347  784.1483
 348  919.8898
 349  296.1573
 350  348.002
 351  856.8033
 352  724.5968
 353  440.7794
 354  436.3208
 355  833.965
 356  506.8996
 357  103.1489
 358  -97.14223
 359  -286.5528
 360  -748.8964
 361  -324.1484
 362  539.5248
 363  724.9292
 364  301.3768
 365  232.5528
 366  326.6827
 367  -428.8202
 368  120.0725
 369  517.867
 370  761.9779
 371  139.3084
 372  644.9873
 373  238.4911
 374  -32.13567
 375  386.7651
 376  -224.995
 377  -538.2487
 378  -425.075
 379  64.82122
 380  -217.5314
 381  124.2044
 382  1.988282
 383  -229.5233
 384  259.8589
 385  30.75717
 386  -188.7311
 387  -395.1248
 388  661.3754
 389  723.8076
 390  468.9515
 391  651.2961
 392  309.0702
 393  538.6334
 394  120.613
 395  683.7407
 396  -185.6302
 397  7.874173
 398  288.1128
 399  249.2383
 400  333.0541
 401  41.65215
 402  473.545
 403  119.1444
 404  -125.1418
 405  130.6742
 406  239.6009
 407  164.1336
 408  150.0408
 409  251.2017
 410  685.8898
 411  770.8024
 412  1040.77
 413  918.6417
 414  654.1722
 415  829.3086
 416  1129.729
 417  419.2484
 418  -48.07912
 419  68.44592
 420  -307.5737
 421  -164.2504
 422  225.8501
 423  73.88693
 424  -73.58749
 425  144.4422
 426  -169.1999
 427  131.6451
 428  72.64247
 429  381.7296
 430  751.423
 431  558.6977
 432  139.2375
 433  47.25801
 434  156.8073
 435  541.7615
 436  791.2366
 437  -377.7765
 438  -201.301
 439  -71.48752
 440  -204.5596
 441  -32.88923
 442  -370.9338
 443  -347.476
 444  -90.18334
 445  221.6607
 446  456.1702
 447  766.4904
 448  466.8541
 449  341.8207
 450  92.18092
 451  701.1718
 452  428.2468
 453  -527.4065
 454  -904.6848
 455  -493.261
 456  -345.0329
 457  -319.7371
 458  -453.4263
 459  -352.0596
 460  -344.1212
 461  91.68585
 462  421.3086
 463  -572.2176
 464  -566.7411
 465  -380.96
 466  715.0779
 467  584.186
 468  509.5786
 469  337.9425
 470  -183.786
 471  -346.6809
 472  -303.239
 473  96.12406
 474  -370.8733
 475  -968.8566
 476  -201.6834
 477  608.9921
 478  465.9057
 479  -754.8826
 480  -860.778
 481  -49.22049
 482  -407.1117
 483  -516.0195
 484  -85.13362
 485  -504.7992
 486  -699.7481
 487  -188.0222
 488  -687.9689
 489  -245.557
 490  -418.4558
 491  -1490.972
 492  -1042.934
 493  -362.0463
 494  412.4242
 495  132.8476
 496  -487.3809
 497  -116.7383
 498  210.655
 499  -708.218
 500  -1077.837
 501  -230.4719
 502  -546.9892
 503  -607.1895
 504  -187.2648
 505  92.95754
 506  -586.4777
 507  -782.9169
 508  -308.4165
 509  -325.5651
 510  -127.197
 511  -178.7301
