# Input file       =  1194553880.107303-PSRB0329-2ms-sampling-dd.dat
# Candidate        =  PSR_0332+5434
# Telescope        =  AR
# Epoch_topo       =  58069.855313741929
# Epoch_bary       =  N/A
# T_sample         =  0.002
# Data Folded      =  7340032
# Data Avg         =  -7.77082045089487e-10
# Data StdDev      =  7.22118850865644 
# Profile Bins     =  512
# Profile Avg      =  2.6528556511999  
# Profile StdDev   =  864.614826390447 
# Reduced chi-sqr  =  0.515
# Prob(Noise)      <  1   (~0.0 sigma)
# P_topo (ms)      =  714.507043424575  +/- 0.00153
# P'_topo (s/s)    =  -0                +/- 8.05e-10
# P''_topo (s/s^2) =  0                 +/- 3.55e-13
# P_bary (ms)      =  N/A
# P'_bary (s/s)    =  N/A
# P''_bary (s/s^2) =  N/A
# P_orb (s)        =  N/A
# asin(i)/c (s)    =  N/A
# eccentricity     =  N/A
# w (rad)          =  N/A
# T_peri           =  N/A
######################################################
   0  -749.6733
   1  -859.1051
   2  -696.0841
   3  -610.154
   4  -715.9343
   5  -447.8026
   6  -412.1247
   7  -517.0515
   8  -707.6405
   9  -668.994
  10  -442.2715
  11  -771.3614
  12  -195.3547
  13  -338.7524
  14  -614.275
  15  -726.8586
  16  -352.5103
  17  282.7064
  18  494.4363
  19  682.6039
  20  632.4541
  21  602.1602
  22  -18.81159
  23  -382.5016
  24  -340.04
  25  82.42493
  26  81.37803
  27  243.5121
  28  489.2227
  29  267.5326
  30  302.5617
  31  352.035
  32  126.079
  33  -153.5991
  34  -215.9188
  35  -414.3413
  36  -357.2863
  37  -453.1624
  38  -388.3544
  39  -368.865
  40  106.1483
  41  -244.985
  42  -229.1502
  43  -493.5207
  44  -463.9394
  45  89.71988
  46  32.0075
  47  10.16401
  48  -381.6078
  49  -222.4714
  50  577.8747
  51  290.2949
  52  359.1534
  53  846.2955
  54  289.4581
  55  -368.3513
  56  -165.6561
  57  -452.9072
  58  -246.1731
  59  145.1223
  60  327.8421
  61  663.9775
  62  564.7712
  63  424.8237
  64  -422.1915
  65  -668.9218
  66  -257.1437
  67  -114.2912
  68  783.063
  69  957.4111
  70  529.4995
  71  -89.8922
  72  -443.5894
  73  -189.9946
  74  711.671
  75  860.5295
  76  761.005
  77  713.1299
  78  43.0739
  79  197.0231
  80  640.6185
  81  1507.874
  82  911.9624
  83  579.5795
  84  484.841
  85  61.40032
  86  124.5322
  87  -73.55489
  88  239.4855
  89  -23.48117
  90  255.9257
  91  168.7662
  92  383.9763
  93  443.2846
  94  116.2835
  95  97.68826
  96  272.8321
  97  263.7454
  98  129.6449
  99  328.9226
 100  142.6798
 101  -440.7408
 102  -500.0494
 103  -280.0752
 104  481.7166
 105  778.3467
 106  967.8911
 107  583.2375
 108  181.247
 109  121.4476
 110  181.4367
 111  334.0334
 112  350.4142
 113  404.8718
 114  910.3485
 115  275.3014
 116  265.2929
 117  592.3346
 118  -12.52499
 119  73.61414
 120  257.9481
 121  66.77031
 122  -193.6784
 123  -161.4315
 124  83.92878
 125  41.25871
 126  -201.4656
 127  406.0751
 128  -245.7427
 129  -626.8389
 130  -443.5105
 131  -556.6556
 132  -975.3582
 133  -1065.374
 134  -568.0523
 135  -240.2824
 136  -369.9563
 137  -501.0722
 138  -170.0879
 139  -283.5245
 140  -135.8857
 141  262.9443
 142  -167.9755
 143  -320.1706
 144  -211.5983
 145  -196.6436
 146  -5.325518
 147  38.39953
 148  214.5343
 149  264.9475
 150  297.0348
 151  129.8363
 152  49.19468
 153  320.1932
 154  418.9416
 155  443.8948
 156  771.6554
 157  532.9686
 158  194.0599
 159  226.457
 160  -78.69926
 161  333.4175
 162  69.59013
 163  205.9838
 164  408.965
 165  -87.79762
 166  -197.0571
 167  156.9684
 168  -140.6307
 169  182.8977
 170  2.26976
 171  -214.4617
 172  -344.4736
 173  -323.6359
 174  21.5761
 175  224.9921
 176  241.6423
 177  419.5802
 178  491.3543
 179  316.1161
 180  -148.6384
 181  40.91682
 182  68.6422
 183  381.2238
 184  190.388
 185  632.1561
 186  883.7488
 187  654.5793
 188  1005.521
 189  1135.329
 190  1116.306
 191  1226.953
 192  1036.919
 193  869.3341
 194  148.84
 195  -204.9836
 196  -308.1981
 197  410.4874
 198  316.4151
 199  92.38702
 200  244.6213
 201  272.4056
 202  405.4266
 203  263.1564
 204  242.6476
 205  -117.1002
 206  241.9794
 207  146.5147
 208  23.9324
 209  53.30666
 210  361.7878
 211  107.3436
 212  -172.5597
 213  197.0951
 214  264.6063
 215  308.8061
 216  391.9751
 217  208.7082
 218  -347.0245
 219  -68.45457
 220  -127.151
 221  73.0435
 222  -240.3355
 223  -369.9986
 224  -637.2743
 225  -390.845
 226  -193.9005
 227  -195.9466
 228  427.8656
 229  245.4071
 230  -131.0885
 231  -2.006966
 232  150.9438
 233  414.9063
 234  305.9321
 235  368.4423
 236  67.17636
 237  -446.1666
 238  -335.4855
 239  486.9666
 240  469.7173
 241  245.5863
 242  535.6467
 243  209.7837
 244  127.7688
 245  -141.9081
 246  -146.0823
 247  -77.72381
 248  -157.0648
 249  305.1826
 250  -414.7497
 251  -296.5145
 252  -416.0229
 253  -298.0208
 254  -483.9926
 255  120.3561
 256  86.87415
 257  -121.5323
 258  -475.5172
 259  -174.628
 260  713.2111
 261  965.1137
 262  653.2898
 263  372.6994
 264  418.2832
 265  -85.92741
 266  -64.556
 267  833.6959
 268  158.1756
 269  -292.5074
 270  -573.9014
 271  -477.6211
 272  -360.9109
 273  -528.7299
 274  -161.7809
 275  -202.028
 276  -94.2874
 277  -380.1306
 278  -1038.281
 279  -1007.478
 280  -780.9311
 281  -999.6586
 282  -1504.802
 283  -732.9333
 284  111.1484
 285  124.2018
 286  -747.3843
 287  -1074.468
 288  -403.5092
 289  24.82558
 290  -140.8288
 291  -296.5896
 292  -63.59219
 293  -49.35902
 294  -336.9381
 295  301.7134
 296  -17.09352
 297  -492.8709
 298  -268.9288
 299  -135.8391
 300  -227.7785
 301  109.4133
 302  422.408
 303  50.153
 304  -424.1728
 305  -325.8095
 306  -364.7109
 307  -102.0612
 308  -117.0825
 309  -529.5796
 310  -324.1988
 311  -267.7507
 312  82.33062
 313  525.1903
 314  243.6303
 315  -202.9334
 316  -264.2141
 317  -190.3386
 318  -413.0226
 319  -759.6923
 320  -68.87909
 321  627.1877
 322  299.2441
 323  -219.4984
 324  -454.499
 325  -567.8728
 326  -542.8625
 327  -500.1842
 328  -407.9255
 329  -81.91024
 330  -427.2365
 331  -342.3023
 332  -502.893
 333  -474.6523
 334  -486.1556
 335  -724.5562
 336  -720.0656
 337  -300.9801
 338  -347.9009
 339  -401.7564
 340  -422.0161
 341  -473.3157
 342  -107.0661
 343  415.846
 344  367.7274
 345  -359.3711
 346  -404.04
 347  -181.0742
 348  -114.0294
 349  -353.1547
 350  -349.604
 351  -274.1705
 352  -75.27642
 353  172.0451
 354  -163.3408
 355  -574.0164
 356  -821.5468
 357  -832.2794
 358  -120.3584
 359  205.0739
 360  315.0771
 361  829.9652
 362  218.1842
 363  222.1182
 364  365.6857
 365  -79.34104
 366  -410.3444
 367  -168.2039
 368  54.88851
 369  470.4395
 370  360.623
 371  401.6222
 372  -328.8636
 373  -673.3848
 374  -242.5753
 375  2.248177
 376  175.2217
 377  543.4309
 378  659.9417
 379  139.0963
 380  -362.1296
 381  -513.4802
 382  -509.829
 383  -495.8973
 384  -190.495
 385  325.247
 386  416.6124
 387  123.6522
 388  135.3011
 389  362.0218
 390  -19.85884
 391  -253.6929
 392  46.92189
 393  204.6846
 394  382.7459
 395  133.0857
 396  538.6979
 397  321.4933
 398  594.992
 399  978.3835
 400  511.9904
 401  623.8014
 402  739.5075
 403  1119.869
 404  1151.67
 405  1335.36
 406  1099.918
 407  -207.7682
 408  166.4532
 409  127.1285
 410  388.2631
 411  423.1625
 412  505.7434
 413  367.8077
 414  279.6603
 415  -69.70901
 416  -11.10084
 417  475.4066
 418  -32.78035
 419  126.4876
 420  190.9917
 421  488.8925
 422  269.0321
 423  94.43575
 424  321.6655
 425  172.0343
 426  -605.2568
 427  -406.5946
 428  -288.5559
 429  -195.931
 430  -173.4075
 431  118.2191
 432  582.4284
 433  -37.14242
 434  -308.9022
 435  -250.1982
 436  -158.8572
 437  -158.1075
 438  36.9666
 439  127.0437
 440  90.96293
 441  107.7165
 442  259.1755
 443  -236.7714
 444  -201.9263
 445  38.51719
 446  -70.09663
 447  -445.8655
 448  -412.8205
 449  221.8389
 450  63.0997
 451  -322.3893
 452  -267.4672
 453  84.09428
 454  484.4783
 455  244.3506
 456  -198.4024
 457  -173.141
 458  -618.0205
 459  198.4718
 460  296.9959
 461  115.4979
 462  -142.7382
 463  229.6386
 464  203.4599
 465  -134.7522
 466  443.2463
 467  640.3359
 468  118.0913
 469  341.8144
 470  87.91543
 471  229.8872
 472  374.7241
 473  215.3076
 474  235.094
 475  411.4332
 476  252.2568
 477  -287.7978
 478  -348.2612
 479  -450.5105
 480  -651.2326
 481  -622.7362
 482  -283.8389
 483  -141.8846
 484  -565.3945
 485  -302.1096
 486  123.7919
 487  -377.892
 488  -478.6593
 489  -175.9885
 490  216.4271
 491  201.9034
 492  800.6505
 493  426.6327
 494  174.4181
 495  -250.0257
 496  100.118
 497  -449.2016
 498  299.4741
 499  438.1601
 500  -111.4983
 501  74.52984
 502  -396.5225
 503  -501.7954
 504  -463.1343
 505  -1107.818
 506  -967.299
 507  -1283.652
 508  -1051.604
 509  -1339.881
 510  -1086.629
 511  -641.8625
