# Input file       =  1194797738.111993_cleaned.dat
# Candidate        =  PSR_0332+5434
# Telescope        =  AR
# Epoch_topo       =  58072.677744351771
# Epoch_bary       =  N/A
# T_sample         =  0.002
# Data Folded      =  7471104
# Data Avg         =  0.0196557641958586
# Data StdDev      =  1.0000961073154  
# Profile Bins     =  512
# Profile Avg      =  286.700967730367 
# Profile StdDev   =  120.808960473441 
# Reduced chi-sqr  =  1.175
# Prob(Noise)      <  0.00382   (~2.7 sigma)
# P_topo (ms)      =  714.509871206274  +/- 0.000394
# P'_topo (s/s)    =  -0                +/- 2.04e-10
# P''_topo (s/s^2) =  0                 +/- 8.85e-14
# P_bary (ms)      =  N/A
# P'_bary (s/s)    =  N/A
# P''_bary (s/s^2) =  N/A
# P_orb (s)        =  N/A
# asin(i)/c (s)    =  N/A
# eccentricity     =  N/A
# w (rad)          =  N/A
# T_peri           =  N/A
######################################################
   0  388.4213
   1  360.0037
   2  346.6772
   3  366.0987
   4  323.3654
   5  246.0307
   6  247.1603
   7  294.4127
   8  347.7115
   9  341.7106
  10  388.3332
  11  300.1895
  12  263.0402
  13  266.3201
  14  403.4057
  15  293.3057
  16  280.1026
  17  286.3997
  18  264.3646
  19  327.5369
  20  343.2832
  21  418.6513
  22  382.0555
  23  317.6981
  24  405.0358
  25  370.1613
  26  211.0747
  27  127.7805
  28  231.0731
  29  365.1038
  30  212.2413
  31  315.035
  32  247.5666
  33  267.6184
  34  246.5416
  35  226.3602
  36  389.7121
  37  413.3718
  38  416.8498
  39  466.0864
  40  459.0033
  41  469.5246
  42  383.8969
  43  272.525
  44  420.2619
  45  357.0029
  46  171.4891
  47  147.4871
  48  227.5558
  49  303.9689
  50  330.2516
  51  251.4414
  52  236.692
  53  339.9359
  54  281.0588
  55  337.9482
  56  221.4272
  57  182.7096
  58  187.0697
  59  171.4752
  60  284.1887
  61  337.3585
  62  246.3642
  63  161.9193
  64  92.41658
  65  224.5287
  66  299.0721
  67  301.2556
  68  319.1292
  69  282.6819
  70  277.5099
  71  374.6797
  72  304.7479
  73  239.0072
  74  328.6652
  75  345.5159
  76  300.7343
  77  404.5102
  78  389.4886
  79  329.9831
  80  292.2248
  81  342.3042
  82  270.7221
  83  209.6032
  84  357.0625
  85  381.413
  86  441.698
  87  318.7956
  88  166.187
  89  296.7561
  90  434.517
  91  201.5557
  92  231.7907
  93  302.715
  94  292.7685
  95  164.3396
  96  254.3904
  97  412.1601
  98  255.7285
  99  141.6986
 100  271.3327
 101  326.5292
 102  191.8905
 103  158.2467
 104  245.8403
 105  396.0382
 106  310.7983
 107  331.4207
 108  242.0636
 109  190.7849
 110  222.3904
 111  306.1248
 112  212.9234
 113  280.0618
 114  332.9667
 115  328.907
 116  355.3153
 117  351.7542
 118  327.0901
 119  293.9485
 120  312.2167
 121  364.7031
 122  274.7695
 123  293.0325
 124  328.6573
 125  294.8423
 126  332.2065
 127  358.6529
 128  285.9044
 129  267.3403
 130  210.8584
 131  160.4323
 132  263.0925
 133  242.244
 134  328.0323
 135  298.8727
 136  270.9774
 137  214.7148
 138  188.0026
 139  241.9095
 140  243.2344
 141  434.7665
 142  401.094
 143  214.6808
 144  159.6371
 145  223.1533
 146  250.6781
 147  202.8743
 148  296.1017
 149  397.7181
 150  400.016
 151  329.6739
 152  304.2119
 153  266.4759
 154  243.5717
 155  320.1083
 156  205.2924
 157  148.8067
 158  265.4052
 159  258.4998
 160  273.3947
 161  260.0101
 162  183.9095
 163  257.9673
 164  262.6195
 165  409.6545
 166  314.2247
 167  294.0208
 168  270.572
 169  200.0754
 170  348.2155
 171  369.3522
 172  415.5841
 173  261.2767
 174  291.9607
 175  279.7072
 176  287.6963
 177  408.1197
 178  294.8316
 179  89.51687
 180  156.3429
 181  422.5842
 182  458.6092
 183  308.9705
 184  274.036
 185  318.0666
 186  413.5539
 187  321.7613
 188  163.5328
 189  239.6508
 190  316.5595
 191  213.9536
 192  174.6873
 193  278.6822
 194  374.8406
 195  337.8791
 196  260.3802
 197  290.2469
 198  449.273
 199  387.0181
 200  305.414
 201  373.4148
 202  210.8682
 203  163.6256
 204  173.1791
 205  417.6335
 206  358.3311
 207  317.9195
 208  275.9856
 209  219.053
 210  343.5448
 211  461.7059
 212  322.7294
 213  115.0586
 214  98.59176
 215  280.3739
 216  291.4394
 217  213.7917
 218  149.7557
 219  226.4271
 220  217.8627
 221  290.8641
 222  257.9621
 223  366.9733
 224  215.6759
 225  150.4188
 226  166.9152
 227  357.6415
 228  215.869
 229  216.1015
 230  124.9669
 231  265.9344
 232  184.3956
 233  218.024
 234  318.7136
 235  330.8597
 236  196.235
 237  159.3371
 238  291.3794
 239  336.4754
 240  297.455
 241  358.8305
 242  182.568
 243  70.52431
 244  206.3048
 245  239.4612
 246  265.921
 247  245.6121
 248  274.8783
 249  308.6879
 250  190.014
 251  307.6458
 252  274.7809
 253  325.4395
 254  289.3703
 255  221.4966
 256  120.2585
 257  164.3855
 258  318.1848
 259  425.6302
 260  383.5088
 261  367.5383
 262  339.5051
 263  305.181
 264  278.9204
 265  374.1782
 266  305.0544
 267  393.9554
 268  389.0363
 269  252.0794
 270  178.3258
 271  149.5426
 272  115.2339
 273  219.5332
 274  218.1963
 275  197.6817
 276  157.6067
 277  166.4093
 278  188.3407
 279  317.5726
 280  305.607
 281  250.0608
 282  155.8606
 283  233.933
 284  191.0833
 285  242.672
 286  214.3001
 287  102.6355
 288  239.0085
 289  333.1659
 290  271.4755
 291  279.1006
 292  222.9933
 293  247.5027
 294  226.301
 295  164.6548
 296  178.3401
 297  226.5998
 298  256.8797
 299  258.0786
 300  292.4808
 301  321.7652
 302  220.2733
 303  214.5066
 304  296.2186
 305  330.0109
 306  256.8663
 307  221.305
 308  169.6148
 309  89.08395
 310  205.6192
 311  201.7231
 312  278.522
 313  233.9084
 314  288.5274
 315  302.4002
 316  173.5366
 317  117.1498
 318  182.1261
 319  275.2279
 320  246.5119
 321  227.5846
 322  419.3526
 323  406.5959
 324  326.0361
 325  258.4525
 326  305.5236
 327  321.4387
 328  210.4111
 329  327.2593
 330  389.1885
 331  132.0515
 332  109.6354
 333  254.5968
 334  301.6729
 335  331.5854
 336  313.4065
 337  396.0133
 338  372.4565
 339  250.2331
 340  268.2224
 341  310.1348
 342  275.2324
 343  221.9226
 344  351.855
 345  384.5494
 346  302.1257
 347  155.2782
 348  276.2919
 349  268.3962
 350  280.6072
 351  404.2707
 352  359.4735
 353  190.8194
 354  108.8737
 355  193.9603
 356  188.1186
 357  152.3423
 358  329.8665
 359  311.1017
 360  142.5973
 361  226.429
 362  401.8915
 363  363.875
 364  190.4044
 365  332.66
 366  343.1793
 367  187.3392
 368  147.0627
 369  236.1195
 370  117.4479
 371  166.5797
 372  313.7132
 373  265.0857
 374  287.6113
 375  257.0619
 376  289.0583
 377  285.757
 378  462.0866
 379  521.7489
 380  498.1092
 381  555.0189
 382  675.593
 383  842.9829
 384  853.966
 385  759.9625
 386  554.9916
 387  409.931
 388  274.5753
 389  161.443
 390  117.7859
 391  237.6979
 392  352.1678
 393  381.3206
 394  325.3163
 395  362.6212
 396  407.3178
 397  314.1053
 398  266.1844
 399  341.0296
 400  223.0212
 401  319.0714
 402  367.8377
 403  273.5531
 404  308.5867
 405  144.7343
 406  204.1985
 407  269.6137
 408  333.334
 409  294.0788
 410  242.8456
 411  196.6721
 412  206.9138
 413  308.6852
 414  204.9852
 415  264.3611
 416  267.9387
 417  271.6537
 418  210.5213
 419  184.5793
 420  303.2518
 421  245.1609
 422  245.0083
 423  237.6175
 424  258.8129
 425  181.4911
 426  248.6929
 427  214.1744
 428  170.9374
 429  224.2664
 430  192.3895
 431  188.1922
 432  261.3442
 433  206.6572
 434  259.3906
 435  273.5953
 436  416.2496
 437  259.4417
 438  80.44659
 439  225.1327
 440  299.9609
 441  343.2025
 442  203.9355
 443  268.843
 444  520.0428
 445  372.8438
 446  95.22592
 447  127.719
 448  346.5914
 449  196.8012
 450  204.9518
 451  204.7324
 452  431.3957
 453  349.2246
 454  302.663
 455  352.2075
 456  290.1683
 457  336.5069
 458  419.6303
 459  339.1309
 460  347.4886
 461  339.7726
 462  448.9886
 463  437.6235
 464  403.2029
 465  206.7394
 466  276.3622
 467  272.2996
 468  268.8122
 469  356.0355
 470  291.3804
 471  357.0992
 472  300.1377
 473  333.4745
 474  337.6111
 475  299.2235
 476  302.2416
 477  162.9915
 478  265.1685
 479  361.839
 480  295.3402
 481  319.3919
 482  350.8702
 483  311.878
 484  289.604
 485  375.8621
 486  305.9849
 487  285.4481
 488  259.3232
 489  246.714
 490  186.7215
 491  388.8136
 492  456.1572
 493  344.4545
 494  356.7069
 495  307.419
 496  282.4864
 497  316.0561
 498  322.7545
 499  357.3307
 500  329.5723
 501  272.3366
 502  378.4015
 503  429.6059
 504  417.8807
 505  442.1354
 506  374.8364
 507  331.4934
 508  285.6609
 509  234.8509
 510  349.7878
 511  320.5857
