# Input file       =  1194812911.096002_cleaned.dat
# Candidate        =  PSR_0332+5434
# Telescope        =  AR
# Epoch_topo       =  58072.853357592619
# Epoch_bary       =  N/A
# T_sample         =  0.002
# Data Folded      =  7340032
# Data Avg         =  0.023040863162271
# Data StdDev      =  0.999889949873888
# Profile Bins     =  512
# Profile Avg      =  330.325746427703 
# Profile StdDev   =  119.719859741013 
# Reduced chi-sqr  =  0.930
# Prob(Noise)      <  0.871   (~0.0 sigma)
# P_topo (ms)      =  714.510066104304  +/- 0.000335
# P'_topo (s/s)    =  -0                +/- 1.77e-10
# P''_topo (s/s^2) =  0                 +/- 7.8e-14
# P_bary (ms)      =  N/A
# P'_bary (s/s)    =  N/A
# P''_bary (s/s^2) =  N/A
# P_orb (s)        =  N/A
# asin(i)/c (s)    =  N/A
# eccentricity     =  N/A
# w (rad)          =  N/A
# T_peri           =  N/A
######################################################
   0  723.3212
   1  748.9398
   2  608.4528
   3  399.8611
   4  302.7426
   5  357.5896
   6  312.2469
   7  256.6307
   8  295.912
   9  377.5482
  10  356.1125
  11  334.119
  12  419.6914
  13  508.3125
  14  392.9441
  15  379.3193
  16  423.7456
  17  488.2422
  18  468.8255
  19  285.6068
  20  305.4077
  21  260.6016
  22  278.7447
  23  361.2823
  24  301.6975
  25  347.7908
  26  338.2129
  27  385.2851
  28  481.1781
  29  417.3304
  30  303.6624
  31  323.6435
  32  428.6801
  33  307.6954
  34  256.5771
  35  296.532
  36  261.563
  37  365.6884
  38  258.399
  39  186.139
  40  306.8152
  41  376.5538
  42  254.8675
  43  274.1107
  44  318.7593
  45  261.5406
  46  245.3788
  47  141.3593
  48  82.12041
  49  198.6917
  50  272.6907
  51  286.2492
  52  204.1393
  53  306.8197
  54  353.8884
  55  347.7989
  56  370.9781
  57  306.1873
  58  276.6431
  59  333.3875
  60  258.4931
  61  268.2185
  62  430.796
  63  328.9944
  64  261.7419
  65  194.5125
  66  148.8076
  67  234.4318
  68  277.7753
  69  279.7464
  70  144.0231
  71  233.7975
  72  361.0209
  73  327.4718
  74  278.7465
  75  270.2341
  76  332.9444
  77  308.0023
  78  288.4345
  79  278.9368
  80  304.6721
  81  315.68
  82  377.1685
  83  313.5722
  84  277.0287
  85  345.051
  86  321.0194
  87  188.3895
  88  277.3672
  89  391.457
  90  340.6921
  91  262.1801
  92  273.0719
  93  332.756
  94  337.9403
  95  265.0265
  96  267.8965
  97  335.6798
  98  483.9606
  99  333.0745
 100  282.8947
 101  458.8656
 102  499.9552
 103  387.0517
 104  267.999
 105  336.2814
 106  374.6678
 107  345.0052
 108  396.7356
 109  427.0784
 110  391.3422
 111  294.867
 112  318.1001
 113  294.2675
 114  346.2223
 115  290.9168
 116  232.9966
 117  188.0593
 118  337.3531
 119  413.6852
 120  211.7247
 121  125.4403
 122  363.8681
 123  396.1308
 124  396.9596
 125  208.5732
 126  267.0609
 127  295.9246
 128  219.0559
 129  296.8018
 130  381.1656
 131  300.7895
 132  305.7301
 133  160.1975
 134  177.7512
 135  322.5837
 136  314.8759
 137  369.7693
 138  317.1027
 139  357.7133
 140  375.4021
 141  271.2272
 142  158.3357
 143  265.3317
 144  270.5755
 145  240.1671
 146  266.4931
 147  317.3017
 148  395.558
 149  397.6822
 150  359.3067
 151  295.7456
 152  157.0826
 153  338.0934
 154  354.3289
 155  306.9081
 156  260.9131
 157  289.5237
 158  254.1925
 159  335.2913
 160  382.6936
 161  294.3266
 162  216.692
 163  226.5822
 164  264.8151
 165  299.0937
 166  314.8537
 167  498.226
 168  508.4196
 169  501.0948
 170  386.3609
 171  308.7373
 172  326.2289
 173  313.4684
 174  383.3766
 175  356.1035
 176  323.2371
 177  326.2532
 178  254.5758
 179  326.8688
 180  356.371
 181  340.854
 182  269.3033
 183  272.0808
 184  256.5666
 185  269.7854
 186  286.5731
 187  241.0598
 188  295.3925
 189  348.3857
 190  255.449
 191  316.0251
 192  284.2635
 193  381.649
 194  234.2047
 195  206.1155
 196  328.6253
 197  281.9105
 198  176.6248
 199  309.5165
 200  405.3877
 201  365.4473
 202  265.3414
 203  307.5826
 204  253.2489
 205  371.184
 206  353.717
 207  387.2189
 208  328.1103
 209  216.9205
 210  202.9678
 211  344.4666
 212  308.6969
 213  210.2388
 214  238.9081
 215  195.8644
 216  299.8551
 217  428.8479
 218  400.7541
 219  360.6043
 220  349.6722
 221  271.4595
 222  187.513
 223  252.8217
 224  346.7784
 225  271.4953
 226  264.787
 227  292.6766
 228  305.4356
 229  235.2024
 230  280.4441
 231  355.9665
 232  340.4369
 233  374.6801
 234  427.1944
 235  471.4166
 236  337.2552
 237  298.7634
 238  269.1337
 239  312.8682
 240  276.1
 241  419.2436
 242  373.2791
 243  287.5084
 244  232.6583
 245  345.3366
 246  488.9341
 247  422.1273
 248  312.5865
 249  282.0066
 250  239.2679
 251  184.9617
 252  256.3605
 253  354.299
 254  372.0031
 255  413.6828
 256  364.2734
 257  201.6911
 258  245.9269
 259  279.8217
 260  375.1184
 261  245.371
 262  251.5057
 263  315.3184
 264  326.4664
 265  309.7571
 266  297.9812
 267  308.9546
 268  394.8883
 269  380.6005
 270  425.5089
 271  326.8697
 272  319.967
 273  418.3296
 274  438.8966
 275  398.4829
 276  334.5388
 277  182.9982
 278  254.2443
 279  366.0449
 280  413.505
 281  340.1886
 282  459.7825
 283  469.1987
 284  282.1237
 285  320.8204
 286  326.0132
 287  348.5002
 288  324.8492
 289  327.1362
 290  294.3058
 291  246.2953
 292  295.0063
 293  259.862
 294  261.3796
 295  282.3661
 296  407.4448
 297  369.8239
 298  365.6787
 299  194.9182
 300  127.3649
 301  275.3881
 302  353.9109
 303  363.8899
 304  367.3524
 305  234.5833
 306  223.5163
 307  256.9731
 308  324.6288
 309  450.4532
 310  381.4613
 311  409.2101
 312  269.3227
 313  247.6392
 314  356.0677
 315  406.0103
 316  373.4272
 317  368.4954
 318  413.2945
 319  353.7969
 320  281.4847
 321  269.3181
 322  359.6006
 323  350.0398
 324  307.0569
 325  307.0154
 326  350.3366
 327  304.3546
 328  311.2937
 329  294.7757
 330  258.363
 331  348.5397
 332  334.4752
 333  329.1792
 334  379.9823
 335  404.425
 336  415.0318
 337  409.8517
 338  360.869
 339  332.3004
 340  393.1892
 341  353.2267
 342  320.0287
 343  335.4825
 344  335.2487
 345  349.6034
 346  327.9388
 347  257.0872
 348  205.3439
 349  397.6584
 350  348.4131
 351  194.4308
 352  228.5201
 353  262.7711
 354  277.934
 355  321.472
 356  370.3065
 357  196.9098
 358  175.198
 359  255.6523
 360  349.3047
 361  282.2309
 362  395.2918
 363  293.5316
 364  318.7989
 365  369.0162
 366  314.9816
 367  345.5051
 368  325.5787
 369  362.6289
 370  378.0837
 371  277.9986
 372  430.1033
 373  474.7462
 374  373.1809
 375  471.4637
 376  427.8849
 377  349.5181
 378  372.2969
 379  425.2267
 380  343.454
 381  256.4836
 382  389.7813
 383  482.5695
 384  442.962
 385  415.1857
 386  521.4725
 387  422.9231
 388  381.4931
 389  302.2877
 390  289.0801
 391  317.9246
 392  332.4518
 393  365.077
 394  262.3016
 395  284.198
 396  325.3888
 397  341.6705
 398  420.6565
 399  303.9839
 400  385.6337
 401  385.1678
 402  372.1453
 403  263.0595
 404  276.7895
 405  298.5962
 406  268.0258
 407  324.8443
 408  382.8919
 409  426.5411
 410  256.2603
 411  258.1805
 412  331.7117
 413  274.6506
 414  322.0235
 415  339.1012
 416  311.8782
 417  362.1543
 418  429.7404
 419  438.8267
 420  412.3352
 421  389.1804
 422  361.8326
 423  367.1181
 424  330.05
 425  374.8983
 426  373.2045
 427  295.5144
 428  372.2117
 429  394.6569
 430  401.3855
 431  353.5904
 432  291.7397
 433  267.5384
 434  309.8476
 435  353.9224
 436  325.7053
 437  294.2568
 438  305.5013
 439  260.701
 440  344.6581
 441  275.9069
 442  338.3984
 443  386.3031
 444  348.5292
 445  336.3644
 446  443.72
 447  422.8016
 448  217.9875
 449  272.5777
 450  379.5484
 451  280.3092
 452  317.6024
 453  295.6542
 454  407.1229
 455  331.0396
 456  299.1711
 457  321.13
 458  411.1319
 459  347.7538
 460  368.4271
 461  444.4518
 462  330.7357
 463  393.426
 464  444.8054
 465  486.2426
 466  397.3751
 467  301.7935
 468  302.7906
 469  324.949
 470  253.3003
 471  373.3963
 472  415.3066
 473  361.8465
 474  365.4797
 475  365.3773
 476  290.3586
 477  233.7839
 478  219.2504
 479  286.7068
 480  278.0328
 481  259.6776
 482  264.2726
 483  323.3557
 484  457.0958
 485  296.8108
 486  324.3723
 487  361.8762
 488  318.7881
 489  461.956
 490  408.1643
 491  480.8502
 492  384.7672
 493  327.1763
 494  331.6181
 495  309.0808
 496  254.7969
 497  327.0937
 498  383.7204
 499  411.3159
 500  376.3483
 501  411.343
 502  249.1699
 503  254.6264
 504  333.4984
 505  393.5443
 506  409.1107
 507  494.0868
 508  550.4174
 509  620.1838
 510  768.742
 511  823.424
