# Input file       =  1194108959.124819_cleaned.dat
# Candidate        =  PSR_0332+5434
# Telescope        =  AR
# Epoch_topo       =  58064.705765333551
# Epoch_bary       =  N/A
# T_sample         =  0.002
# Data Folded      =  7208960
# Data Avg         =  0.0229972712048937
# Data StdDev      =  0.999924500957399
# Profile Bins     =  512
# Profile Avg      =  323.725969905567 
# Profile StdDev   =  118.650217139362 
# Reduced chi-sqr  =  1.306
# Prob(Noise)      <  3.54e-06   (~4.5 sigma)
# P_topo (ms)      =  714.501980570018  +/- 0.000141
# P'_topo (s/s)    =  -0                +/- 7.59e-11
# P''_topo (s/s^2) =  0                 +/- 3.41e-14
# P_bary (ms)      =  N/A
# P'_bary (s/s)    =  N/A
# P''_bary (s/s^2) =  N/A
# P_orb (s)        =  N/A
# asin(i)/c (s)    =  N/A
# eccentricity     =  N/A
# w (rad)          =  N/A
# T_peri           =  N/A
######################################################
   0  984.5981
   1  881.6926
   2  695.3337
   3  511.3659
   4  458.7746
   5  365.5623
   6  294.611
   7  395.6125
   8  256.1707
   9  245.389
  10  291.2576
  11  265.856
  12  277.939
  13  372.3635
  14  526.2139
  15  350.7996
  16  373.8751
  17  396.6538
  18  326.5862
  19  458.3395
  20  322.4033
  21  244.2908
  22  168.7759
  23  244.9014
  24  256.6568
  25  239.1273
  26  278.4907
  27  276.8972
  28  223.0868
  29  296.5143
  30  398.3075
  31  298.8181
  32  356.6676
  33  179.1938
  34  291.6736
  35  345.497
  36  343.5342
  37  442.9209
  38  426.4168
  39  349.4125
  40  379.6456
  41  338.2329
  42  382.4346
  43  352.5538
  44  344.5071
  45  294.5306
  46  398.3708
  47  423.0136
  48  452.9548
  49  426.4099
  50  287.7699
  51  447.4839
  52  335.8449
  53  379.9246
  54  478.1111
  55  375.9926
  56  442.5491
  57  329.1117
  58  322.4132
  59  293.6389
  60  308.2068
  61  353.4913
  62  305.4837
  63  204.2359
  64  260.8435
  65  351.0756
  66  360.1885
  67  296.0749
  68  283.4139
  69  231.6618
  70  270.7794
  71  429.2997
  72  331.4845
  73  373.5496
  74  206.8816
  75  179.8647
  76  358.4908
  77  452.2824
  78  439.5362
  79  246.719
  80  250.0606
  81  390.4101
  82  431.7314
  83  381.194
  84  204.3821
  85  337.1829
  86  429.2808
  87  379.0242
  88  382.8213
  89  333.0131
  90  263.2417
  91  210.9854
  92  396.376
  93  401.5009
  94  389.9611
  95  321.4326
  96  206.6686
  97  270.187
  98  281.3105
  99  431.3242
 100  408.3671
 101  385.794
 102  310.5326
 103  327.7047
 104  362.0539
 105  293.6111
 106  286.7856
 107  425.7897
 108  417.1145
 109  266.9152
 110  269.2845
 111  403.6953
 112  594.9816
 113  545.3275
 114  405.1564
 115  385.8364
 116  236.1963
 117  346.1681
 118  240.8776
 119  95.11029
 120  204.6582
 121  248.0878
 122  190.4025
 123  225.1375
 124  252.5762
 125  153.4966
 126  216.327
 127  302.7309
 128  309.1843
 129  289.7178
 130  354.9808
 131  379.804
 132  272.5705
 133  208.1433
 134  324.7277
 135  353.063
 136  340.7846
 137  153.2831
 138  176.065
 139  341.4868
 140  329.7469
 141  214.3247
 142  327.3005
 143  327.869
 144  412.4856
 145  368.2289
 146  398.8054
 147  373.579
 148  331.5267
 149  248.0508
 150  271.7316
 151  319.9603
 152  372.9167
 153  417.1421
 154  432.2686
 155  372.4203
 156  229.9751
 157  342.9951
 158  276.9574
 159  326.5887
 160  251.5709
 161  356.6742
 162  333.9465
 163  375.525
 164  342.7595
 165  406.3506
 166  368.8483
 167  262.2203
 168  165.6819
 169  330.4751
 170  332.2255
 171  315.2037
 172  309.8641
 173  416.6883
 174  385.3013
 175  285.3156
 176  276.5545
 177  287.7988
 178  439.2923
 179  388.3817
 180  362.2788
 181  382.2451
 182  320.7516
 183  291.8741
 184  308.2665
 185  346.4622
 186  386.8981
 187  366.4668
 188  352.1847
 189  335.0584
 190  419.0365
 191  347.2151
 192  272.805
 193  367.2217
 194  365.973
 195  347.169
 196  370.7479
 197  246.2687
 198  325.2835
 199  376.7471
 200  280.1914
 201  256.4977
 202  203.7555
 203  290.8239
 204  263.0784
 205  185.2769
 206  318.1158
 207  261.5324
 208  317.4847
 209  302.2487
 210  348.7697
 211  227.9422
 212  246.4479
 213  243.2668
 214  345.6468
 215  358.5195
 216  406.6156
 217  353.7469
 218  273.868
 219  397.8654
 220  386.0563
 221  276.0923
 222  194.7908
 223  172.7677
 224  177.5483
 225  133.4954
 226  206.9221
 227  325.8916
 228  415.8461
 229  182.1521
 230  176.6558
 231  186.5385
 232  338.932
 233  247.9688
 234  290.2081
 235  423.5054
 236  426.9335
 237  427.138
 238  308.8846
 239  381.0116
 240  307.5128
 241  274.5199
 242  218.2322
 243  256.7758
 244  338.8113
 245  409.1723
 246  500.3184
 247  354.7053
 248  256.7123
 249  327.5094
 250  280.7024
 251  317.1265
 252  354.3121
 253  407.8287
 254  297.7285
 255  265.2106
 256  259.8423
 257  199.5339
 258  167.5893
 259  148.293
 260  202.3898
 261  330.7475
 262  282.8955
 263  321.8398
 264  336.2347
 265  420.5567
 266  286.5703
 267  292.8131
 268  348.8667
 269  221.6504
 270  252.5298
 271  250.8943
 272  244.417
 273  196.9547
 274  157.9751
 275  242.714
 276  288.6687
 277  266.5678
 278  198.2407
 279  233.9583
 280  231.9503
 281  200.2342
 282  263.3758
 283  439.0194
 284  485.6668
 285  416.8818
 286  208.6517
 287  186.8605
 288  357.6479
 289  408.5065
 290  368.5163
 291  414.2306
 292  403.34
 293  202.7054
 294  252.6371
 295  285.435
 296  276.6275
 297  309.2451
 298  426.5105
 299  388.1502
 300  294.9412
 301  235.0265
 302  220.9524
 303  319.6289
 304  235.7388
 305  229.3557
 306  334.8442
 307  456.9542
 308  276.9842
 309  268.3108
 310  215.7018
 311  338.297
 312  318.9674
 313  364.058
 314  496.8994
 315  366.3864
 316  389.9116
 317  245.356
 318  274.0883
 319  410.0363
 320  481.032
 321  370.7985
 322  252.1345
 323  267.8043
 324  342.7177
 325  470.9836
 326  304.6056
 327  287.7241
 328  422.4503
 329  406.0024
 330  292.9244
 331  285.2697
 332  282.1419
 333  206.0505
 334  313.8971
 335  318.3314
 336  469.5273
 337  470.1606
 338  391.646
 339  221.6697
 340  111.5726
 341  96.9841
 342  224.7135
 343  254.1131
 344  323.7876
 345  427.3329
 346  381.8748
 347  310.8327
 348  276.5909
 349  231.8932
 350  306.7182
 351  395.9574
 352  384.7782
 353  384.9446
 354  314.0202
 355  414.6194
 356  458.6073
 357  365.0824
 358  496.0223
 359  465.0357
 360  311.8624
 361  209.7255
 362  171.4443
 363  212.5632
 364  271.1575
 365  291.8926
 366  206.0676
 367  194.8009
 368  282.0924
 369  353.2641
 370  263.872
 371  311.6898
 372  243.9149
 373  199.9373
 374  265.8031
 375  278.1739
 376  212.0179
 377  326.2596
 378  436.6431
 379  388.4947
 380  396.9018
 381  371.7706
 382  303.1986
 383  325.251
 384  345.7816
 385  291.6668
 386  239.8798
 387  275.6679
 388  228.0647
 389  219.8188
 390  207.6781
 391  358.0166
 392  451.2818
 393  391.5791
 394  404.5616
 395  437.434
 396  397.9738
 397  283.5903
 398  306.7504
 399  416.8145
 400  472.6621
 401  330.9053
 402  327.0531
 403  359.9263
 404  430.1368
 405  446.9452
 406  397.6431
 407  277.5518
 408  162.837
 409  258.5525
 410  356.5219
 411  238.2813
 412  280.0048
 413  380.0455
 414  303.9757
 415  293.6209
 416  315.4
 417  262.0409
 418  240.0173
 419  268.7738
 420  402.0268
 421  321.7296
 422  187.4995
 423  165.9764
 424  212.612
 425  295.6779
 426  299.6729
 427  273.8243
 428  309.5892
 429  240.8204
 430  121.9377
 431  281.3681
 432  377.8885
 433  291.6579
 434  307.7414
 435  310.7462
 436  290.1671
 437  301.6394
 438  333.1635
 439  343.5338
 440  335.6154
 441  521.018
 442  288.1653
 443  211.7643
 444  190.5016
 445  335.5973
 446  397.7429
 447  375.7916
 448  417.6035
 449  117.7418
 450  296.7509
 451  233.5371
 452  358.9592
 453  242.0548
 454  278.4596
 455  273.0389
 456  293.8419
 457  276.6276
 458  193.4118
 459  257.8408
 460  303.3658
 461  354.7786
 462  389.493
 463  353.3222
 464  262.9118
 465  242.4286
 466  215.0786
 467  282.3507
 468  320.5431
 469  354.2323
 470  349.8815
 471  345.0553
 472  413.977
 473  297.4367
 474  271.9317
 475  348.8587
 476  435.0378
 477  499.3698
 478  362.9725
 479  284.9115
 480  211.4758
 481  267.1092
 482  318.6306
 483  294.4142
 484  254.1497
 485  374.9029
 486  324.1956
 487  251.8958
 488  221.6626
 489  211.3743
 490  202.9004
 491  279.9446
 492  319.6473
 493  412.8347
 494  407.9903
 495  330.1894
 496  336.4893
 497  452.9702
 498  500.9529
 499  445.2588
 500  259.31
 501  433.2433
 502  420.7782
 503  488.1864
 504  316.7372
 505  265.3271
 506  344.7783
 507  473.7138
 508  545.9304
 509  573.8323
 510  728.2367
 511  899.4031
