# Input file       =  1194467733.106676-PSRB0329-2ms-sampling-dd.dat
# Candidate        =  PSR_0332+5434
# Telescope        =  AR
# Epoch_topo       =  58068.858241975417
# Epoch_bary       =  N/A
# T_sample         =  0.002
# Data Folded      =  7340032
# Data Avg         =  -1.4384327614378e-10
# Data StdDev      =  4.47561534657671 
# Profile Bins     =  512
# Profile Avg      =  2.0404204874153  
# Profile StdDev   =  535.879015100081 
# Reduced chi-sqr  =  0.483
# Prob(Noise)      <  1   (~0.0 sigma)
# P_topo (ms)      =  714.506052512511  +/- 0.00141
# P'_topo (s/s)    =  -0                +/- 7.46e-10
# P''_topo (s/s^2) =  0                 +/- 3.3e-13
# P_bary (ms)      =  N/A
# P'_bary (s/s)    =  N/A
# P''_bary (s/s^2) =  N/A
# P_orb (s)        =  N/A
# asin(i)/c (s)    =  N/A
# eccentricity     =  N/A
# w (rad)          =  N/A
# T_peri           =  N/A
######################################################
   0  -248.004
   1  -85.28554
   2  -206.0611
   3  -182.7194
   4  -24.03377
   5  17.47251
   6  -328.5
   7  -282.7996
   8  -234.9761
   9  -201.824
  10  -410.3314
  11  -182.7391
  12  371.662
  13  334.7635
  14  145.1483
  15  30.88384
  16  394.6755
  17  -21.78549
  18  -147.3813
  19  160.8158
  20  20.57192
  21  33.80451
  22  83.94109
  23  144.7887
  24  340.9234
  25  378.2667
  26  289.048
  27  51.33127
  28  59.37534
  29  -49.54671
  30  -93.27334
  31  -236.0323
  32  -324.0005
  33  -240.1898
  34  85.97266
  35  65.03638
  36  -243.0653
  37  -328.6701
  38  182.839
  39  -31.72573
  40  -147.0399
  41  -499.2846
  42  -461.1209
  43  -153.5602
  44  -57.76466
  45  -166.4413
  46  -152.3912
  47  42.18452
  48  92.27056
  49  269.4773
  50  166.4226
  51  -64.19661
  52  -78.53909
  53  -61.11616
  54  -124.2551
  55  -79.0488
  56  -153.875
  57  -422.6826
  58  -96.2432
  59  126.574
  60  -25.3395
  61  -309.466
  62  -196.787
  63  177.3593
  64  -184.4789
  65  -375.4454
  66  -383.952
  67  -255.9321
  68  -200.4043
  69  23.30932
  70  195.9719
  71  -125.0559
  72  -101.8368
  73  78.35326
  74  131.6409
  75  -136.7131
  76  -354.5857
  77  -370.6551
  78  -374.25
  79  -318.4267
  80  54.94518
  81  120.8885
  82  -4.596452
  83  -263.1531
  84  -195.9976
  85  -353.3658
  86  -424.6797
  87  -394.395
  88  -225.9555
  89  -69.42047
  90  -401.4285
  91  -301.4798
  92  -293.3819
  93  -111.8974
  94  205.5954
  95  75.39471
  96  -192.2244
  97  -159.7348
  98  -218.346
  99  -226.9479
 100  -121.2915
 101  -94.04855
 102  -170.2757
 103  -276.8984
 104  -235.2186
 105  -260.4957
 106  -128.3138
 107  -31.85634
 108  -218.7781
 109  -210.2698
 110  -216.2227
 111  -185.4865
 112  71.66473
 113  -46.65399
 114  -75.19949
 115  138.726
 116  -159.5087
 117  170.7316
 118  78.41238
 119  288.1229
 120  152.2409
 121  149.3047
 122  -344.0429
 123  -401.5562
 124  6.625795
 125  45.29719
 126  -339.5717
 127  -185.9489
 128  -128.8344
 129  -262.8412
 130  -225.6311
 131  -132.6253
 132  -6.918712
 133  108.6422
 134  205.7167
 135  159.6293
 136  -99.28697
 137  -0.1561885
 138  -237.0276
 139  -73.09472
 140  66.08879
 141  142.0344
 142  23.13204
 143  -388.0412
 144  -451.7967
 145  -412.7258
 146  -251.6049
 147  -246.5573
 148  -105.364
 149  60.27629
 150  -54.61038
 151  -282.9028
 152  -111.8649
 153  -97.08003
 154  -503.0386
 155  -383.0777
 156  143.4165
 157  184.7323
 158  102.3837
 159  -148.788
 160  -41.09246
 161  -261.7651
 162  -148.6765
 163  103.1267
 164  -313.7737
 165  -255.2576
 166  -136.1677
 167  80.07652
 168  -40.67106
 169  -85.65522
 170  99.25639
 171  131.4337
 172  -63.32205
 173  -364.2307
 174  -171.9143
 175  -273.7125
 176  -489.9973
 177  -478.0392
 178  -458.5786
 179  -395.2278
 180  -93.37831
 181  51.9987
 182  -112.8454
 183  -100.877
 184  -244.8466
 185  -158.0132
 186  128.4313
 187  -232.1521
 188  -251.5942
 189  -227.9584
 190  -353.6177
 191  -220.0596
 192  -197.5886
 193  -352.9921
 194  -354.3793
 195  -91.39526
 196  76.60706
 197  -195.1046
 198  50.23243
 199  486.5261
 200  133.623
 201  -90.24587
 202  43.34097
 203  -82.14375
 204  -60.56294
 205  -142.029
 206  230.1868
 207  369.4646
 208  66.71152
 209  78.60971
 210  345.3929
 211  32.20432
 212  -107.7608
 213  -103.5598
 214  329.5437
 215  129.3826
 216  43.87379
 217  -23.14375
 218  146.8307
 219  -28.87568
 220  -319.7915
 221  -201.2657
 222  -183.5692
 223  52.42389
 224  96.01448
 225  237.3957
 226  215.8677
 227  -144.4359
 228  56.85074
 229  29.89541
 230  -89.12547
 231  -213.2692
 232  -110.5811
 233  -19.11873
 234  -30.60209
 235  91.55131
 236  -124.1246
 237  -193.6717
 238  -257.0181
 239  -134.0287
 240  83.48297
 241  416.5078
 242  340.9065
 243  350.2927
 244  271.5446
 245  105.9718
 246  151.121
 247  -236.0702
 248  -162.109
 249  -123.7234
 250  -14.87607
 251  -155.7684
 252  0.9065701
 253  -175.7083
 254  -85.45128
 255  6.722328
 256  197.2872
 257  100.4249
 258  221.1281
 259  -21.1518
 260  224.9474
 261  198.0152
 262  57.1039
 263  -242.9385
 264  -214.4545
 265  -71.61266
 266  16.63772
 267  193.7297
 268  -324.2376
 269  7.222971
 270  -20.92039
 271  -651.6298
 272  -754.533
 273  -562.8083
 274  -3.548724
 275  118.9536
 276  -0.5399606
 277  118.0804
 278  -17.74341
 279  -103.1132
 280  -11.53419
 281  -104.9812
 282  188.7622
 283  226.1506
 284  -19.43747
 285  -289.0079
 286  85.56171
 287  153.8922
 288  9.773261
 289  -8.26217
 290  -1.059967
 291  174.3442
 292  -121.491
 293  -42.40309
 294  165.335
 295  261.0294
 296  122.0956
 297  -252.2442
 298  102.123
 299  174.4408
 300  -182.3535
 301  -68.34975
 302  59.34781
 303  437.796
 304  230.3502
 305  -62.29524
 306  -185.3159
 307  99.89728
 308  402.5733
 309  -58.08063
 310  -255.3203
 311  68.23199
 312  -86.83411
 313  88.48451
 314  512.6959
 315  628.3876
 316  385.626
 317  294.7825
 318  461.3978
 319  416.1299
 320  430.5104
 321  401.5215
 322  418.5071
 323  299.5291
 324  235.3754
 325  403.2908
 326  260.7255
 327  -113.3297
 328  -317.7832
 329  -66.08881
 330  -225.3462
 331  111.8076
 332  189.3582
 333  384.7936
 334  198.1295
 335  7.917455
 336  -343.8204
 337  -184.8726
 338  81.79839
 339  -8.344776
 340  -155.7623
 341  -2.166917
 342  94.88594
 343  91.32489
 344  268.5299
 345  151.7603
 346  -69.65359
 347  29.93049
 348  236.1938
 349  113.1838
 350  83.99014
 351  37.62967
 352  -295.1323
 353  -159.0438
 354  -315.0289
 355  8.221127
 356  282.6291
 357  -70.66662
 358  51.00484
 359  197.5376
 360  277.6794
 361  49.06458
 362  51.69696
 363  306.4496
 364  139.7205
 365  102.7335
 366  -88.49961
 367  -116.381
 368  109.8054
 369  -201.7417
 370  -249.0751
 371  -106.4289
 372  -167.4894
 373  -74.37761
 374  -157.7962
 375  -163.0504
 376  -195.2864
 377  -397.3083
 378  35.96994
 379  15.9816
 380  186.4548
 381  169.1514
 382  -79.99361
 383  -81.73104
 384  -110.6721
 385  -16.729
 386  92.46555
 387  188.8776
 388  74.77317
 389  53.11391
 390  173.5479
 391  -177.6873
 392  164.7252
 393  95.77925
 394  -393.3213
 395  -104.4992
 396  41.33231
 397  -357.4693
 398  -313.6186
 399  167.6055
 400  -12.30316
 401  -296.2587
 402  -37.58233
 403  38.60395
 404  -79.56525
 405  -145.5598
 406  -79.72176
 407  -4.403087
 408  -116.5013
 409  48.18756
 410  -7.782734
 411  87.7226
 412  263.7085
 413  349.9732
 414  317.4494
 415  179.1737
 416  247.7858
 417  306.93
 418  97.68797
 419  -12.75013
 420  -142.9706
 421  84.69806
 422  250.5592
 423  386.9068
 424  331.7557
 425  89.94481
 426  -52.2936
 427  170.4953
 428  381.3945
 429  841.7313
 430  915.7851
 431  1335.61
 432  1306.764
 433  1494.709
 434  1548.596
 435  1242.315
 436  888.0432
 437  602.7165
 438  562.7045
 439  245.5424
 440  -360.4862
 441  -215.6436
 442  276.5219
 443  315.3609
 444  366.3328
 445  414.3781
 446  403.8532
 447  511.4117
 448  305.9123
 449  332.0838
 450  351.967
 451  323.2995
 452  108.3026
 453  518.656
 454  365.5289
 455  -60.51904
 456  42.29729
 457  310.067
 458  121.6584
 459  -2.669794
 460  -90.89418
 461  -263.1605
 462  -139.6762
 463  -38.62336
 464  541.5037
 465  169.8224
 466  -49.68358
 467  439.2556
 468  257.0284
 469  -117.0744
 470  16.5572
 471  238.7821
 472  315.7719
 473  187.3103
 474  71.68107
 475  178.1117
 476  212.4035
 477  -77.81586
 478  -149.2955
 479  -131.8324
 480  -281.4561
 481  -232.512
 482  -187.1233
 483  276.7334
 484  267.2861
 485  101.976
 486  -140.0053
 487  -292.8248
 488  -151.7165
 489  32.7856
 490  212.9494
 491  -19.78868
 492  -150.5022
 493  -89.18361
 494  -93.09917
 495  -85.91126
 496  -61.17967
 497  -247.6353
 498  -442.3205
 499  -231.8247
 500  46.33298
 501  -77.27141
 502  -231.2995
 503  -90.29841
 504  16.38986
 505  -84.12018
 506  49.08425
 507  -52.38182
 508  -49.26611
 509  196.6155
 510  -8.31305
 511  -94.40433
