# Input file       =  1194366952.109390-PSRB0329-2ms-sampling-dd.dat
# Candidate        =  PSR_0332+5434
# Telescope        =  AR
# Epoch_topo       =  58067.691795247571
# Epoch_bary       =  N/A
# T_sample         =  0.002
# Data Folded      =  7208960
# Data Avg         =  4.38573546358895e-09
# Data StdDev      =  308.883432780581 
# Profile Bins     =  512
# Profile Avg      =  0.0950886386344878
# Profile StdDev   =  36651.8535500202 
# Reduced chi-sqr  =  1.196
# Prob(Noise)      <  0.00148   (~3.0 sigma)
# P_topo (ms)      =  714.504890438801  +/- 0.0011
# P'_topo (s/s)    =  -0                +/- 5.89e-10
# P''_topo (s/s^2) =  0                 +/- 2.65e-13
# P_bary (ms)      =  N/A
# P'_bary (s/s)    =  N/A
# P''_bary (s/s^2) =  N/A
# P_orb (s)        =  N/A
# asin(i)/c (s)    =  N/A
# eccentricity     =  N/A
# w (rad)          =  N/A
# T_peri           =  N/A
######################################################
   0  -2617.898
   1  -2800.1
   2  -3206.382
   3  -2521.476
   4  -2978.015
   5  -3361.812
   6  -3428.045
   7  -3667.932
   8  -3714.285
   9  -4051.109
  10  -3838.808
  11  -3303.989
  12  -3323.27
  13  -3332.091
  14  -3035.353
  15  -2364.365
  16  -2174.292
  17  -3020.041
  18  -3053.705
  19  -3276.742
  20  -3613.516
  21  -3735.958
  22  -3609.034
  23  -3474.828
  24  -3424.011
  25  -3471.033
  26  -3312.047
  27  -2988.69
  28  -3241.43
  29  -3903.726
  30  -4152.584
  31  -3973.544
  32  -3757.785
  33  -3535.002
  34  -3887.083
  35  -3899.379
  36  -3824.922
  37  -3378.758
  38  -2957.776
  39  -3097.904
  40  -3535.585
  41  -3293.21
  42  -3238.288
  43  -2821.575
  44  -2892.599
  45  -2447.112
  46  -3170.683
  47  -3029.347
  48  -2985.873
  49  -1948.477
  50  -2293.54
  51  -2685.413
  52  -2252.68
  53  -2570.418
  54  -3098.171
  55  -2652.34
  56  -2921.238
  57  -2695.028
  58  -2750.213
  59  -2584.134
  60  -2249.714
  61  -2330.088
  62  -2328.838
  63  -2181.885
  64  -1392.626
  65  -1180.965
  66  -1721.16
  67  -2444.488
  68  -2616.748
  69  -2525.412
  70  -2733.624
  71  -2642.406
  72  -2384.631
  73  -2197.609
  74  -2449.603
  75  -2776.741
  76  -2503.479
  77  -2527.853
  78  -2500.632
  79  -2221.285
  80  -2317.595
  81  -2067.354
  82  -2152.162
  83  -2419.028
  84  -2687.719
  85  -2602.102
  86  -2344.315
  87  -2515.545
  88  -2612.624
  89  -2387.282
  90  -2077.697
  91  -2360.12
  92  -2082.468
  93  -2436.948
  94  -2302.662
  95  -2068.243
  96  -1815.657
  97  -1939.808
  98  -1665.307
  99  -1577.035
 100  -1474.698
 101  -1254.191
 102  -2068.865
 103  -2386.617
 104  -2501.245
 105  -2417.083
 106  -2683.448
 107  -2414.344
 108  -2079.381
 109  -2287.383
 110  -2271.126
 111  -1896.966
 112  -1816.851
 113  -2220.965
 114  -2244.83
 115  -2120.306
 116  -2018.818
 117  -2411.571
 118  -3007.453
 119  -2680.962
 120  -3451.615
 121  -3433.181
 122  -3221.364
 123  -3096.014
 124  -2824.582
 125  -2951.324
 126  -2657.007
 127  -3393.923
 128  -3722.259
 129  -3180.862
 130  -2496.059
 131  -2495.667
 132  -2752.591
 133  -2782
 134  -2943.172
 135  -2990.624
 136  -2996.342
 137  -2429.784
 138  -2570.161
 139  -2866.442
 140  -2894.11
 141  -2827.847
 142  -2876.312
 143  -2817.533
 144  -2996.019
 145  -3065.253
 146  -2743.118
 147  -3144.715
 148  -2577.281
 149  -3087.274
 150  -3247.314
 151  -2987.889
 152  -2835.065
 153  -3060.578
 154  -3422.226
 155  -2706.677
 156  -2275.708
 157  -2674.329
 158  -3390.528
 159  -3444.843
 160  -3341.363
 161  -2864.332
 162  -2511.347
 163  -1627.281
 164  -1641.603
 165  -2380.181
 166  -2523.445
 167  -2104.569
 168  -2611.318
 169  -2810.929
 170  -2374.418
 171  -2618.466
 172  -2636.381
 173  -2738.89
 174  -3347.296
 175  -3229.441
 176  -3230.498
 177  -2981.375
 178  -3028.552
 179  -3266.86
 180  -2968.237
 181  -2829.255
 182  -2860.931
 183  -3031.528
 184  -3351.112
 185  -3077.531
 186  -3234.698
 187  -2994.185
 188  -2509.643
 189  -2294.881
 190  -2718.225
 191  -2874.825
 192  -2931.555
 193  -1906.686
 194  -1974.126
 195  -2428.776
 196  -2550.516
 197  -2681.098
 198  -3185.98
 199  -3258.482
 200  -3401.491
 201  -3628.421
 202  -3097.298
 203  -2770.149
 204  -2720.424
 205  -2512.898
 206  -3056.015
 207  -911.0247
 208  344.2065
 209  1810.114
 210  3988.571
 211  1572.188
 212  -1497.211
 213  -2929.709
 214  2054.086
 215  5582.354
 216  3950.182
 217  2248.68
 218  -76.87262
 219  -4073.57
 220  -3544.957
 221  -3138.926
 222  -3282.304
 223  -3343.939
 224  -3295.805
 225  -3520.38
 226  -3570.032
 227  -3729.178
 228  -3622.929
 229  -3337.516
 230  -3137.838
 231  -3546.683
 232  -3399.544
 233  -3583.619
 234  -3348.512
 235  -3101.481
 236  -3164.538
 237  -2960.014
 238  -2998.608
 239  -3010.241
 240  -3554.722
 241  -3635.708
 242  -3382.735
 243  -2926.625
 244  -3382.897
 245  -3163.116
 246  -2903.824
 247  -3100.623
 248  -3343.486
 249  -3334.161
 250  -2796.137
 251  -2496.326
 252  -3285.73
 253  -3395.621
 254  -3521.471
 255  -3145.943
 256  -3599.177
 257  -3414.847
 258  -3225.09
 259  -2844.545
 260  -3091.967
 261  -3513.002
 262  -3122.907
 263  -2398.188
 264  -2697.843
 265  -2670.991
 266  -2326.407
 267  -2832.787
 268  -3646.114
 269  -3679.474
 270  -3218.461
 271  -3049.656
 272  -3288.794
 273  -2969.942
 274  -2206.773
 275  -1992.832
 276  -2080.422
 277  -2740.735
 278  -2727.972
 279  -2084.239
 280  -1651.232
 281  -1645.369
 282  -2484.556
 283  -3097.857
 284  -3117.758
 285  -3305.801
 286  -3123.531
 287  -3050.25
 288  -2646.865
 289  -2399.822
 290  -3017.856
 291  -3042.212
 292  -3220.497
 293  -3133.528
 294  -2833.293
 295  -2223.378
 296  -1923.371
 297  -2234.346
 298  -2263.334
 299  -2535.933
 300  -1747.678
 301  -1824.258
 302  -2362.542
 303  -2341.287
 304  -2258.644
 305  -2879.132
 306  -2518.762
 307  -2213.349
 308  -2838.486
 309  -2343.646
 310  -3058.929
 311  -3639.366
 312  -1965.86
 313  -2502.098
 314  -3857.745
 315  -1849.112
 316  -4348.333
 317  -3825.718
 318  -795.7952
 319  -4982.135
 320  -2900.155
 321  350.2149
 322  -6640.836
 323  -2219.27
 324  480.2272
 325  -8516.273
 326  -382.3517
 327  -225.2818
 328  -10999.17
 329  4063.456
 330  -1391.98
 331  -15584.17
 332  12139.06
 333  37635.92
 334  87973.35
 335  402465.1
 336  399275.4
 337  306609.7
 338  -22341.03
 339  11409.05
 340  20796.7
 341  21019.31
 342  39475.93
 343  37969.52
 344  33980.4
 345  22661.66
 346  431.652
 347  -10242.72
 348  4742.31
 349  -5408.612
 350  -5599.657
 351  1110.095
 352  -6515.754
 353  -3726.11
 354  -4.306141
 355  -5800.642
 356  -3120.973
 357  -1701.844
 358  -5003.827
 359  -2620.746
 360  -2005.58
 361  -3850.086
 362  -2111.317
 363  -2781.788
 364  -4266.633
 365  -2674.704
 366  -3432.845
 367  -3471.973
 368  -2953.302
 369  -3440.455
 370  -3489.917
 371  -3280.196
 372  -3526.338
 373  -3453.061
 374  -3571.137
 375  -3876.737
 376  -3931.744
 377  -3686.441
 378  -3219.669
 379  -2880.385
 380  -2760.227
 381  -3254.015
 382  -3474.313
 383  -3442.108
 384  -3919.236
 385  -4129.179
 386  -3444.054
 387  -3095.33
 388  -3323.624
 389  -2854.436
 390  -2969.12
 391  -3379.402
 392  -3406.796
 393  -3353.55
 394  -3024.302
 395  -2650.95
 396  -2940.023
 397  -2994.3
 398  -3103.354
 399  -2956.918
 400  -2627.028
 401  -3313.313
 402  -2933.46
 403  -2818.085
 404  -2568.563
 405  -2206.085
 406  -1906.425
 407  -1919.23
 408  -2210.112
 409  -2606.042
 410  -3253.161
 411  -3067.022
 412  -3363.553
 413  -3543.444
 414  -3502.105
 415  -3440.777
 416  -3497.398
 417  -3628.872
 418  -3679.537
 419  -3575.305
 420  -3489.501
 421  -3279.174
 422  -3153.18
 423  -3177.804
 424  -2803.37
 425  -3211.56
 426  -3300.838
 427  -3014.159
 428  -2968.576
 429  -3195.822
 430  -3159.214
 431  -3427.671
 432  -3177.789
 433  -3311.578
 434  -2924.998
 435  -3046.182
 436  -3270.324
 437  -2660.003
 438  -3116.072
 439  -3267.446
 440  -3014.833
 441  -2638.074
 442  -3062.386
 443  -3203.434
 444  -3256.435
 445  -3172.529
 446  -2757.286
 447  -3327.345
 448  -3273.247
 449  -3642.283
 450  -3908.796
 451  -3578.753
 452  -3222.762
 453  -2680.277
 454  -3408.542
 455  -4220.019
 456  -3957.231
 457  -3305.945
 458  -2865.756
 459  -3538.925
 460  -3467.42
 461  -3311.671
 462  -2943
 463  -3477.722
 464  -3569.476
 465  -2009.772
 466  -1945.933
 467  -2029.899
 468  -2007.158
 469  -2664.067
 470  -3517.341
 471  -2099.704
 472  -1391.784
 473  -310.9119
 474  -639.682
 475  -1868.299
 476  -2273.911
 477  -3520.733
 478  -3261.887
 479  -3333.147
 480  -2718.906
 481  -2619.974
 482  -2911.94
 483  -2839.335
 484  -3622.613
 485  -4053.897
 486  -3858.431
 487  -3857.961
 488  -3492.283
 489  -3501.177
 490  -3303.588
 491  -3477.612
 492  -3447.673
 493  -2840.677
 494  -2530.865
 495  -2662.941
 496  -2994.121
 497  -2856.944
 498  -2860.692
 499  -3192.628
 500  -3428.76
 501  -3236.604
 502  -2818.282
 503  -2822.508
 504  -2923.974
 505  -3351.395
 506  -2952.616
 507  -2839.047
 508  -2948.573
 509  -2640.896
 510  -2476.029
 511  -2547.686
