# Input file       =  1194381597.099506_cleaned.dat
# Candidate        =  PSR_0332+5434
# Telescope        =  AR
# Epoch_topo       =  58067.861297447984
# Epoch_bary       =  N/A
# T_sample         =  0.002
# Data Folded      =  7340032
# Data Avg         =  0.0262771642431053
# Data StdDev      =  1.0001436198535  
# Profile Bins     =  512
# Profile Avg      =  376.922870992969 
# Profile StdDev   =  119.75023241791  
# Reduced chi-sqr  =  0.917
# Prob(Noise)      <  0.911   (~0.0 sigma)
# P_topo (ms)      =  714.505067322728  +/- 0.000227
# P'_topo (s/s)    =  -0                +/- 1.2e-10
# P''_topo (s/s^2) =  0                 +/- 5.3e-14
# P_bary (ms)      =  N/A
# P'_bary (s/s)    =  N/A
# P''_bary (s/s^2) =  N/A
# P_orb (s)        =  N/A
# asin(i)/c (s)    =  N/A
# eccentricity     =  N/A
# w (rad)          =  N/A
# T_peri           =  N/A
######################################################
   0  827.8314
   1  703.1733
   2  617.0059
   3  470.4792
   4  324.3163
   5  245.2507
   6  203.6179
   7  309.8501
   8  208.9456
   9  217.6854
  10  316.2476
  11  335.7368
  12  356.2795
  13  359.0315
  14  382.4002
  15  383.8551
  16  427.3748
  17  419.5176
  18  293.6693
  19  323.9881
  20  420.9023
  21  332.7594
  22  312.0073
  23  340.8571
  24  285.2271
  25  372.7266
  26  368.3587
  27  379.2556
  28  359.8915
  29  331.7414
  30  346.5428
  31  276.0581
  32  312.8736
  33  422.6157
  34  406.5575
  35  387.2947
  36  367.9046
  37  447.8886
  38  375.5817
  39  381.2194
  40  443.1747
  41  392.9905
  42  263.4202
  43  320.5563
  44  398.434
  45  363.7498
  46  282.7813
  47  378.1592
  48  303.6771
  49  253.6941
  50  432.3875
  51  340.9977
  52  205.8475
  53  209.5554
  54  267.4207
  55  248.3772
  56  332.0943
  57  272.3683
  58  296.237
  59  297.4091
  60  216.1198
  61  172.3194
  62  221.6989
  63  327.4584
  64  372.5205
  65  340.9175
  66  447.8946
  67  320.0729
  68  363.4489
  69  381.4888
  70  280.8914
  71  267.4711
  72  417.6977
  73  395.3192
  74  278.9288
  75  385.7928
  76  321.5335
  77  387.1765
  78  381.8619
  79  247.7245
  80  222.9698
  81  227.0854
  82  357.2728
  83  377.3467
  84  311.3068
  85  370.6855
  86  347.8012
  87  283.9676
  88  307.8076
  89  324.8911
  90  241.2747
  91  251.0877
  92  315.084
  93  334.9877
  94  387.4155
  95  367.5526
  96  428.2029
  97  472.0542
  98  322.0814
  99  299.1444
 100  453.8236
 101  449.8422
 102  401.4043
 103  428.352
 104  570.4411
 105  440.3593
 106  302.9841
 107  334.1552
 108  301.8717
 109  277.0652
 110  348.3224
 111  286.5911
 112  421.8373
 113  420.3485
 114  373.093
 115  463.4055
 116  509.7472
 117  491.5585
 118  465.1659
 119  463.0023
 120  431.9594
 121  414.2771
 122  439.9453
 123  455.0539
 124  510.4243
 125  408.3681
 126  440.1139
 127  387.3275
 128  317.0289
 129  393.2449
 130  408.8023
 131  559.2537
 132  466.1284
 133  407.9953
 134  465.2538
 135  311.4656
 136  440.2109
 137  421.5304
 138  340.6117
 139  310.3901
 140  350.0804
 141  439.8108
 142  490.5566
 143  425.16
 144  493.6937
 145  438.851
 146  473.8543
 147  569.017
 148  514.0151
 149  482.3595
 150  468.0028
 151  482.1665
 152  471.5565
 153  431.1018
 154  376.7745
 155  303.0284
 156  309.1277
 157  328.4654
 158  325.7815
 159  361.5451
 160  369.5786
 161  280.6927
 162  332.8292
 163  337.4915
 164  255.4383
 165  443.7863
 166  277.392
 167  273.8943
 168  244.2012
 169  400.5044
 170  321.8994
 171  381.5638
 172  392.2751
 173  349.9006
 174  387.1318
 175  314.8122
 176  296.4228
 177  307.7031
 178  477.753
 179  541.9313
 180  374.0547
 181  287.623
 182  343.056
 183  328.3381
 184  370.9216
 185  281.4033
 186  262.1963
 187  283.7221
 188  291.9451
 189  381.1181
 190  414.4146
 191  449.2318
 192  320.1225
 193  213.773
 194  382.6153
 195  452.0892
 196  490.9136
 197  449.2213
 198  502.1415
 199  497.6306
 200  422.2428
 201  440.3894
 202  456.6336
 203  476.2285
 204  473.2313
 205  398.3587
 206  417.4669
 207  474.9565
 208  450.7869
 209  430.1547
 210  428.9331
 211  492.8483
 212  430.3657
 213  328.8689
 214  415.7844
 215  519.755
 216  462.685
 217  396.2532
 218  447.4268
 219  337.2487
 220  370.9492
 221  294.1431
 222  440.0843
 223  441.283
 224  339.2226
 225  346.334
 226  446.1652
 227  430.4395
 228  527.1086
 229  445.136
 230  375.9336
 231  376.8403
 232  378.4528
 233  332.0681
 234  386.253
 235  456.5611
 236  412.4085
 237  410.5682
 238  341.9494
 239  330.5521
 240  318.6428
 241  373.1551
 242  353.7424
 243  356.511
 244  479.3493
 245  446.9053
 246  429.9073
 247  304.2558
 248  349.9716
 249  384.082
 250  430.4032
 251  332.6646
 252  376.3032
 253  311.9666
 254  313.6684
 255  280.576
 256  313.3949
 257  202.7623
 258  287.0676
 259  437.1552
 260  423.3979
 261  385.5614
 262  363.0374
 263  360.466
 264  397.9675
 265  399.0922
 266  373.5757
 267  346.9201
 268  389.7639
 269  498.3289
 270  452.2765
 271  366.7209
 272  272.5754
 273  419.2351
 274  365.8273
 275  428.0295
 276  409.2706
 277  441.1899
 278  443.9825
 279  408.113
 280  450.1124
 281  438.5051
 282  329.9393
 283  331.9713
 284  381.0874
 285  481.4176
 286  432.4338
 287  310.4418
 288  329.7421
 289  372.4075
 290  365.4092
 291  258.2271
 292  380.3232
 293  362.9845
 294  280.8645
 295  285.6258
 296  332.817
 297  432.8511
 298  363.0779
 299  419.5047
 300  396.0695
 301  405.6379
 302  428.0078
 303  332.1518
 304  311.0948
 305  339.5648
 306  335.69
 307  352.8616
 308  327.2284
 309  413.5278
 310  413.9211
 311  366.4692
 312  364.5466
 313  330.9846
 314  385.1322
 315  437.4434
 316  389.4865
 317  376.5858
 318  374.771
 319  320.5928
 320  395.339
 321  387.8961
 322  342.2832
 323  404.4219
 324  433.0807
 325  299.6226
 326  337.6674
 327  413.6366
 328  453.5433
 329  405.9662
 330  480.7495
 331  416.8785
 332  363.591
 333  384.2479
 334  445.2554
 335  421.9925
 336  380.2243
 337  295.0653
 338  281.2368
 339  391.25
 340  394.5415
 341  312.5899
 342  388.6736
 343  478.6038
 344  450.9782
 345  383.9746
 346  398.5266
 347  472.0987
 348  377.0599
 349  457.4911
 350  388.5999
 351  313.4718
 352  369.5422
 353  350.7059
 354  325.2526
 355  379.8944
 356  326.9932
 357  412.939
 358  383.7146
 359  513.2258
 360  425.225
 361  279.3686
 362  430.7408
 363  384.1982
 364  303.403
 365  270.4061
 366  355.9742
 367  294.0118
 368  184.0242
 369  369.0373
 370  456.2505
 371  501.144
 372  445.8695
 373  453.244
 374  448.4249
 375  360.4791
 376  300.5609
 377  288.5722
 378  262.8487
 379  307.7745
 380  417.4547
 381  438.1062
 382  391.4587
 383  442.3692
 384  316.8691
 385  329.3224
 386  324.7979
 387  341.2282
 388  361.122
 389  442.5111
 390  415.3173
 391  334.3566
 392  266.6782
 393  341.6407
 394  363.983
 395  330.0991
 396  234.0322
 397  248.0135
 398  248.524
 399  321.0031
 400  405.5671
 401  366.4556
 402  439.1966
 403  373.4595
 404  405.9207
 405  318.7654
 406  298.1464
 407  289.4029
 408  426.5323
 409  478.2596
 410  443.7993
 411  422.3813
 412  320.089
 413  404.8665
 414  403.3747
 415  385.4902
 416  363.2779
 417  414.0629
 418  434.9007
 419  293.0027
 420  160.2724
 421  240.8524
 422  383.8608
 423  401.7238
 424  365.3666
 425  429.9099
 426  462.7505
 427  417.2435
 428  303.2338
 429  206.8963
 430  350.6573
 431  292.9947
 432  327.4799
 433  342.6245
 434  354.9478
 435  321.5562
 436  364.6411
 437  479.0486
 438  321.7221
 439  232.8577
 440  319.5393
 441  376.2623
 442  394.6185
 443  296.0399
 444  357.1895
 445  327.9732
 446  312.4506
 447  388.6921
 448  283.9305
 449  313.7763
 450  428.525
 451  315.2711
 452  369.1907
 453  387.2317
 454  383.5328
 455  363.9401
 456  262.593
 457  312.2629
 458  406.8944
 459  509.7772
 460  393.3243
 461  307.6566
 462  386.7062
 463  395.9051
 464  383.9878
 465  464.6315
 466  419.3072
 467  420.5281
 468  405.8962
 469  347.4614
 470  229.3121
 471  277.0597
 472  400.8578
 473  434.9848
 474  394.6944
 475  398.6829
 476  293.4419
 477  295.3545
 478  350.2393
 479  269.1363
 480  279.1969
 481  393.4049
 482  389.4575
 483  395.8184
 484  368.2429
 485  421.8854
 486  423.8648
 487  446.0832
 488  376.3331
 489  342.7809
 490  440.5301
 491  371.1307
 492  382.5248
 493  414.2713
 494  403.5399
 495  578.6031
 496  473.267
 497  460.7401
 498  550.9859
 499  471.2773
 500  402.1082
 501  336.3575
 502  447.4479
 503  441.5919
 504  406.2515
 505  390.9095
 506  342.4016
 507  371.9245
 508  532.8631
 509  609.3405
 510  751.4671
 511  978.1415
