# Input file       =  1194194576.102522_cleaned.dat
# Candidate        =  PSR_0332+5434
# Telescope        =  AR
# Epoch_topo       =  58065.696702575486
# Epoch_bary       =  N/A
# T_sample         =  0.002
# Data Folded      =  7143424
# Data Avg         =  0.168896358502909
# Data StdDev      =  3.95991217431854 
# Profile Bins     =  256
# Profile Avg      =  4713.19123437868 
# Profile StdDev   =  661.483149572031 
# Reduced chi-sqr  =  0.644
# Prob(Noise)      <  1   (~0.0 sigma)
# P_topo (ms)      =  714.502944451785  +/- 7.59e-05
# P'_topo (s/s)    =  -0                +/- 4.11e-11
# P''_topo (s/s^2) =  0                 +/- 1.87e-14
# P_bary (ms)      =  N/A
# P'_bary (s/s)    =  N/A
# P''_bary (s/s^2) =  N/A
# P_orb (s)        =  N/A
# asin(i)/c (s)    =  N/A
# eccentricity     =  N/A
# w (rad)          =  N/A
# T_peri           =  N/A
######################################################
   0  3701.096
   1  4336.65
   2  5215.727
   3  5150.953
   4  4937.167
   5  4283.971
   6  5338.961
   7  5322.741
   8  4788.764
   9  4455.097
  10  4290.133
  11  5524.786
  12  5563.022
  13  5512.709
  14  4662.251
  15  4904.387
  16  4424.925
  17  4499.381
  18  4480.767
  19  5073.863
  20  4542.782
  21  4565.546
  22  4890.847
  23  5725.746
  24  5393.677
  25  4938.467
  26  4873.609
  27  4995.257
  28  4518.341
  29  4664.302
  30  4570.031
  31  4915.564
  32  5035.279
  33  4784.458
  34  5180.805
  35  4573.007
  36  4701.504
  37  4486.017
  38  4790.653
  39  4679.641
  40  5378.715
  41  4409.151
  42  4098.197
  43  4380.202
  44  4920.107
  45  4961.928
  46  3915.179
  47  4385.469
  48  5154.42
  49  4589.6
  50  4535.211
  51  4818.288
  52  5286.01
  53  4911.212
  54  4670.517
  55  4915.531
  56  5382.39
  57  5085.726
  58  4823.293
  59  4912.667
  60  5260.234
  61  4841.057
  62  4914.218
  63  4781.02
  64  5321.578
  65  5278.701
  66  4783.314
  67  4973.353
  68  4829.927
  69  4428.627
  70  4542.834
  71  4542.463
  72  4629.883
  73  4808.093
  74  4229.917
  75  4035.448
  76  5198.114
  77  4812.613
  78  4399.799
  79  4196.129
  80  4215.489
  81  5244.81
  82  4243.818
  83  3803.481
  84  4329.685
  85  4962.489
  86  4997.248
  87  5054.078
  88  4533.068
  89  4841.331
  90  4842.869
  91  4087.073
  92  4744.162
  93  5258.676
  94  4619.641
  95  4486.147
  96  5011.455
  97  5458.146
  98  5282.946
  99  4832.488
 100  4631.875
 101  4699.562
 102  5292.438
 103  5083.448
 104  4281.692
 105  4648.863
 106  4471.947
 107  4801.962
 108  4107.26
 109  3920.923
 110  5051.91
 111  4484.259
 112  4387.685
 113  4785.383
 114  5055.957
 115  4775.054
 116  4218.127
 117  4664.838
 118  5006.667
 119  4767.219
 120  4461.127
 121  4367.632
 122  4210.114
 123  4010.745
 124  4335.81
 125  4583.686
 126  4811.771
 127  4986.058
 128  4061.224
 129  4450.061
 130  4725.695
 131  4958.038
 132  4281.958
 133  4700.758
 134  4807.136
 135  4741.922
 136  4792.898
 137  4561.497
 138  4856.417
 139  4987.817
 140  5169.157
 141  3997.075
 142  4230.573
 143  4464.515
 144  4646.035
 145  3714.152
 146  4082.162
 147  3947.115
 148  4214.903
 149  4704.966
 150  4365.412
 151  4212.076
 152  4708.533
 153  4475.34
 154  4458.771
 155  5018.483
 156  5804.141
 157  6308.714
 158  6678.874
 159  5632.025
 160  5414.285
 161  5378
 162  4462.198
 163  4269.887
 164  4585.402
 165  4396.822
 166  5156.38
 167  4415.788
 168  4998.881
 169  4640.954
 170  4638.654
 171  5100.457
 172  5393.732
 173  4416.82
 174  4161.373
 175  4111.836
 176  4803.292
 177  4334.012
 178  4193.031
 179  4839.059
 180  4922.011
 181  4439.736
 182  3606.718
 183  3876.369
 184  4742.914
 185  4515.239
 186  3667.383
 187  4521.629
 188  4773.238
 189  3953.463
 190  4213.474
 191  4231.383
 192  4039.199
 193  5374.293
 194  4270.752
 195  3635.3
 196  4108.426
 197  4775.053
 198  4921.118
 199  4437.564
 200  4506.152
 201  5461.093
 202  4434.415
 203  4525.325
 204  5242.714
 205  4908.744
 206  4794.291
 207  3823.078
 208  4670.828
 209  5175.393
 210  4952.389
 211  4559.278
 212  4356.503
 213  5675.552
 214  4769.901
 215  4528.112
 216  4344.539
 217  4551.366
 218  4265.257
 219  3982.38
 220  4207.363
 221  4577.045
 222  4203.777
 223  4130.776
 224  4349.388
 225  4852.801
 226  5535.54
 227  5042.578
 228  4355.338
 229  4941.439
 230  5389.434
 231  4770.283
 232  4571.517
 233  4430.232
 234  4727.847
 235  5129.112
 236  4410.692
 237  5391.401
 238  4867.67
 239  5467.022
 240  4709.201
 241  4769.037
 242  4774.223
 243  5006.125
 244  4889.495
 245  4988.669
 246  5488.991
 247  4952.276
 248  4402.425
 249  4839.456
 250  4568.755
 251  4962.282
 252  5029.532
 253  5282.999
 254  5342.411
 255  4810.82
