# Input file       =  1194138544.111448_cleaned.dat
# Candidate        =  PSR_0332+5434
# Telescope        =  AR
# Epoch_topo       =  58065.048184160281
# Epoch_bary       =  N/A
# T_sample         =  0.002
# Data Folded      =  7340032
# Data Avg         =  0.160111991748896
# Data StdDev      =  4.54147336106311 
# Profile Bins     =  512
# Profile Avg      =  2295.43021257917 
# Profile StdDev   =  543.764395144284 
# Reduced chi-sqr  =  0.750
# Prob(Noise)      <  1   (~0.0 sigma)
# P_topo (ms)      =  714.502676401207  +/- 0.000842
# P'_topo (s/s)    =  -0                +/- 4.44e-10
# P''_topo (s/s^2) =  0                 +/- 1.96e-13
# P_bary (ms)      =  N/A
# P'_bary (s/s)    =  N/A
# P''_bary (s/s^2) =  N/A
# P_orb (s)        =  N/A
# asin(i)/c (s)    =  N/A
# eccentricity     =  N/A
# w (rad)          =  N/A
# T_peri           =  N/A
######################################################
   0  2708.705
   1  2276.002
   2  2223.481
   3  2480.86
   4  2084.04
   5  2120.041
   6  2363.979
   7  2720.696
   8  2249.436
   9  2215.314
  10  2241.469
  11  2361.37
  12  2656.711
  13  2060.386
  14  2123.343
  15  2314.29
  16  2106.284
  17  2035.103
  18  2001.711
  19  2229.908
  20  2115.804
  21  2453.456
  22  2456.02
  23  2407.059
  24  2223.646
  25  2286.431
  26  2386.552
  27  2170.983
  28  2138.335
  29  2533.084
  30  2426.54
  31  2247.942
  32  2019.075
  33  1921.244
  34  2043.147
  35  2206.878
  36  2439.744
  37  2306.237
  38  2079.844
  39  1980.888
  40  1813.667
  41  2117.586
  42  2308.998
  43  2407.711
  44  2451.309
  45  2359.9
  46  2128.444
  47  2272.276
  48  2225.706
  49  2075.436
  50  2418.099
  51  2669.734
  52  2674.969
  53  2678.871
  54  2688.96
  55  2328.916
  56  2570.619
  57  2899.315
  58  2554.048
  59  2313.067
  60  2243.778
  61  2168.147
  62  2214.544
  63  2302.87
  64  2484.299
  65  2485.431
  66  2117.302
  67  2380.643
  68  2318.251
  69  1972.347
  70  2148.093
  71  2377.884
  72  2566.814
  73  2182.072
  74  1958.887
  75  1703.211
  76  2054.04
  77  1931.611
  78  2241.211
  79  2392.315
  80  2039.864
  81  1628.49
  82  1546.726
  83  1664.845
  84  1907.846
  85  2236.876
  86  2009.394
  87  1853.359
  88  1928.864
  89  1761.969
  90  1703.892
  91  1696.143
  92  2151.682
  93  2317.76
  94  2231.518
  95  2654.52
  96  2385.242
  97  2557.867
  98  2248.288
  99  1971.729
 100  1973.028
 101  2220.023
 102  2225.752
 103  2276.169
 104  2115.184
 105  2316.765
 106  2252.926
 107  2136.129
 108  2258.873
 109  2320.558
 110  2267.376
 111  1924.647
 112  1990.375
 113  1850.777
 114  1734.266
 115  1965.549
 116  2242.853
 117  2419.535
 118  2588.333
 119  2329.573
 120  1788.093
 121  1904.718
 122  1989.645
 123  1865.217
 124  1756.247
 125  1664.048
 126  1906.409
 127  1966.568
 128  1803.395
 129  1830.572
 130  1679.81
 131  1288.244
 132  1374.766
 133  1583.325
 134  1874.036
 135  1777.622
 136  2009.206
 137  1730.328
 138  1843.287
 139  1837.289
 140  2083.123
 141  2157.094
 142  2206.505
 143  2250.729
 144  2334.015
 145  2309.547
 146  2429.333
 147  2102.366
 148  2190.167
 149  2561.141
 150  2701.194
 151  2262.542
 152  2320.044
 153  2305.826
 154  2198.866
 155  2140.614
 156  2293.242
 157  2713.424
 158  2911
 159  2656.152
 160  2433.717
 161  2839.744
 162  3068.654
 163  3474.316
 164  4000.041
 165  3796.291
 166  3810.609
 167  3818.158
 168  2826.848
 169  2742.184
 170  2683.372
 171  2641.565
 172  2531.726
 173  2494.908
 174  2554.444
 175  2919.847
 176  2584.155
 177  2711.487
 178  2345.532
 179  2373.004
 180  2457.711
 181  2677.1
 182  3057.513
 183  2801.886
 184  2787.962
 185  2792.428
 186  2448.503
 187  2241.953
 188  2276.137
 189  2259.213
 190  2451.273
 191  2727.927
 192  2562.507
 193  2085.069
 194  2411.109
 195  2325.364
 196  2703.015
 197  2652.51
 198  2108.723
 199  2306.024
 200  2046.622
 201  2114.159
 202  2526.571
 203  2718.626
 204  2210.012
 205  2016.647
 206  2164.015
 207  2639.591
 208  2766.024
 209  2613.306
 210  2536.145
 211  2542.777
 212  2537.318
 213  2434.722
 214  2295.337
 215  1937.175
 216  2082.274
 217  2184.641
 218  2700.149
 219  2539.406
 220  2170.372
 221  2261.231
 222  2073.496
 223  2099.404
 224  2358.687
 225  2442.403
 226  2294.399
 227  2233.841
 228  2510.625
 229  2463.667
 230  2420.77
 231  2229.483
 232  2043.868
 233  2064.221
 234  2211.129
 235  2589.352
 236  2315.363
 237  2270.399
 238  2019.061
 239  1470.052
 240  1771.28
 241  2020.274
 242  1948.43
 243  1701.869
 244  2179.321
 245  2232.979
 246  1927.395
 247  1721.984
 248  1336.822
 249  1608.741
 250  2276.789
 251  2534.834
 252  2727.788
 253  2442.036
 254  2076.121
 255  2138.172
 256  1832.921
 257  2197.556
 258  2146.794
 259  2270.278
 260  2056.602
 261  2110.948
 262  1940.881
 263  1982.849
 264  1514.133
 265  1786.121
 266  1737.41
 267  1627.581
 268  1845.455
 269  1917.37
 270  1801.965
 271  1793.577
 272  2004.51
 273  1690.779
 274  1547.133
 275  1509.473
 276  1579.741
 277  1577.278
 278  2260.579
 279  2531.966
 280  2267.407
 281  2021.548
 282  1859.698
 283  1807.999
 284  1997.592
 285  2193.692
 286  2320.756
 287  2431.561
 288  2560.661
 289  2442.356
 290  2217.317
 291  1994.112
 292  1891.776
 293  1791.159
 294  1863.302
 295  1972.696
 296  2032.291
 297  1857.142
 298  2030.223
 299  2400.868
 300  2661.788
 301  2461.852
 302  2118.635
 303  2208.371
 304  2376.38
 305  2527.784
 306  2551.422
 307  2761.685
 308  2744.201
 309  2593.03
 310  2498.348
 311  2304.383
 312  2592.318
 313  2391.048
 314  2271.703
 315  2270.813
 316  2079.857
 317  2327.02
 318  2242.783
 319  2169.22
 320  1983.32
 321  2005.615
 322  2369.309
 323  2259.556
 324  2502.566
 325  2228.576
 326  2040.015
 327  2026.284
 328  2283.226
 329  2528.24
 330  2316.066
 331  2406.583
 332  2241.836
 333  2066.017
 334  2485.463
 335  2368.992
 336  2511.986
 337  2406.424
 338  2221.747
 339  2098.914
 340  2582.473
 341  2465.275
 342  2449.147
 343  2373.098
 344  2087.712
 345  2095.63
 346  1920.449
 347  2085.935
 348  2146.432
 349  2094.391
 350  2459.256
 351  2553.395
 352  2219.633
 353  2452.931
 354  2659.682
 355  2571.625
 356  2557.023
 357  2733.181
 358  2691.354
 359  2814.611
 360  2533.047
 361  2717.454
 362  2658.643
 363  2385.784
 364  2629.11
 365  2461.996
 366  2535.433
 367  2413.615
 368  2488.49
 369  2650.479
 370  2348.406
 371  2372.027
 372  2409.53
 373  2350.211
 374  2289.939
 375  2266.347
 376  2183.763
 377  2580.885
 378  2456.842
 379  2294.165
 380  2248.261
 381  2386.138
 382  2232.58
 383  1808.667
 384  2109.608
 385  2084.994
 386  1949.508
 387  1930.514
 388  2146.358
 389  2302.457
 390  2464.847
 391  2476.871
 392  2320.378
 393  2367.669
 394  2501.134
 395  2383.478
 396  2221.04
 397  2605.114
 398  2806.589
 399  2579.642
 400  2803.139
 401  2655.177
 402  2385.095
 403  2415.432
 404  2829.948
 405  2858.083
 406  2561.729
 407  2784.662
 408  2603.651
 409  2603.541
 410  2708.336
 411  2769.942
 412  2293.078
 413  2109.105
 414  2568.917
 415  2519.318
 416  2783.697
 417  2553.589
 418  2645.196
 419  2458.217
 420  2715.035
 421  2164.203
 422  2319.581
 423  2502.62
 424  2380.52
 425  2096.781
 426  1989.177
 427  2297.769
 428  2768.966
 429  2585.486
 430  2501.045
 431  2418.007
 432  2089.033
 433  2637.716
 434  2932.482
 435  2591.863
 436  2356.405
 437  2374.755
 438  2375.165
 439  2328.1
 440  2463.589
 441  2686.614
 442  2358.926
 443  2301.068
 444  1991.223
 445  1793.494
 446  1490.879
 447  1915.365
 448  2254.365
 449  2523.583
 450  2342.192
 451  2234.466
 452  2177.964
 453  2520.838
 454  2358.237
 455  2412.084
 456  2177.727
 457  2056.506
 458  2329.088
 459  2529.896
 460  2653.695
 461  2762.172
 462  3102.107
 463  2558.957
 464  2076.757
 465  2394.879
 466  2361.957
 467  2282.561
 468  2387.058
 469  2532.63
 470  2440.668
 471  2084.484
 472  1799.119
 473  2064.029
 474  2301.418
 475  1811.849
 476  1953.01
 477  1990.405
 478  2282.303
 479  2259.084
 480  2184.904
 481  2047.897
 482  2021.063
 483  2268.424
 484  2485.465
 485  2310.777
 486  2495.897
 487  2608.536
 488  2562.942
 489  2655.234
 490  2493.42
 491  2465.938
 492  2186.833
 493  2189.189
 494  2385.626
 495  2166.957
 496  2299.239
 497  2657.256
 498  2882.141
 499  2672.423
 500  2359.517
 501  2370.069
 502  2297.145
 503  2297.055
 504  2712.936
 505  2966.429
 506  2279.955
 507  2114.032
 508  2124.883
 509  2776.822
 510  2427.035
 511  2756.309
