# Input file       =  1194366952.10939_cleaned.dat
# Candidate        =  PSR_0332+5434
# Telescope        =  AR
# Epoch_topo       =  58067.691795247571
# Epoch_bary       =  N/A
# T_sample         =  0.002
# Data Folded      =  7208960
# Data Avg         =  0.0206300213825032
# Data StdDev      =  1.00016537229182 
# Profile Bins     =  512
# Profile Avg      =  290.443694310395 
# Profile StdDev   =  118.678798733377 
# Reduced chi-sqr  =  1.052
# Prob(Noise)      <  0.203   (~0.8 sigma)
# P_topo (ms)      =  714.504889249424  +/- 0.00023
# P'_topo (s/s)    =  -0                +/- 1.23e-10
# P''_topo (s/s^2) =  0                 +/- 5.55e-14
# P_bary (ms)      =  N/A
# P'_bary (s/s)    =  N/A
# P''_bary (s/s^2) =  N/A
# P_orb (s)        =  N/A
# asin(i)/c (s)    =  N/A
# eccentricity     =  N/A
# w (rad)          =  N/A
# T_peri           =  N/A
######################################################
   0  864.9705
   1  691.3827
   2  577.4052
   3  350.7693
   4  239.8574
   5  223.1982
   6  245.3455
   7  273.3374
   8  276.5245
   9  312.2623
  10  303.1486
  11  351.1347
  12  360.5584
  13  325.7649
  14  326.3307
  15  296.1954
  16  308.1116
  17  352.8459
  18  355.9778
  19  196.1469
  20  389.3332
  21  306.5092
  22  174.8138
  23  216.9336
  24  175.782
  25  279.3285
  26  226.4305
  27  359.7986
  28  374.2816
  29  156.5163
  30  214.5544
  31  250.2581
  32  179.9012
  33  324.7328
  34  396.7136
  35  332.3516
  36  274.7507
  37  230.7681
  38  233.7807
  39  253.4986
  40  278.2831
  41  208.0123
  42  237.8401
  43  153.0381
  44  234.7532
  45  400.1936
  46  452.6685
  47  292.4384
  48  111.9317
  49  71.41557
  50  262.6256
  51  447.3463
  52  256.8057
  53  145.8221
  54  179.1934
  55  294.3515
  56  290.7764
  57  203.4778
  58  304.8761
  59  333.3633
  60  346.5077
  61  273.7373
  62  167.7403
  63  165.2547
  64  205.6022
  65  216.412
  66  286.2098
  67  202.7374
  68  184.8369
  69  292.4991
  70  202.2355
  71  184.1416
  72  214.7334
  73  361.8525
  74  381.0931
  75  333.3573
  76  406.9655
  77  365.0033
  78  196.1781
  79  161.4481
  80  214.8816
  81  264.1539
  82  250.2005
  83  258.1866
  84  231.5081
  85  260.2085
  86  286.9639
  87  388.9641
  88  331.2244
  89  293.0905
  90  233.1218
  91  317.479
  92  240.3125
  93  179.6834
  94  187.4368
  95  307.9398
  96  368.524
  97  346.881
  98  282.4076
  99  372.6949
 100  344.5787
 101  194.1024
 102  260.6892
 103  355.3208
 104  343.7555
 105  470.9853
 106  362.8409
 107  263.9406
 108  334.3905
 109  364.2947
 110  214.5225
 111  168.0571
 112  210.7376
 113  258.1254
 114  222.3368
 115  134.1521
 116  225.8489
 117  308.1288
 118  265.2289
 119  263.6529
 120  372.4169
 121  525.8569
 122  361.709
 123  268.8458
 124  224.304
 125  175.1531
 126  114.8515
 127  253.8455
 128  319.678
 129  342.8211
 130  223.1582
 131  262.0903
 132  338.6429
 133  390.9373
 134  261.9757
 135  219.7897
 136  301.6615
 137  261.8485
 138  274.8685
 139  211.5876
 140  204.203
 141  146.1985
 142  188.3626
 143  305.3109
 144  408.7506
 145  332.6184
 146  388.0874
 147  355.5593
 148  272.7582
 149  267.5826
 150  388.3406
 151  308.7875
 152  253.1226
 153  243.6699
 154  245.0296
 155  200.6113
 156  101.3382
 157  355.251
 158  309.3864
 159  199.6032
 160  241.2945
 161  226.7302
 162  195.4061
 163  311.7023
 164  328.2265
 165  384.0548
 166  432.1247
 167  330.8676
 168  282.2788
 169  408.6584
 170  451.6852
 171  299.055
 172  201.2427
 173  205.0571
 174  379.1878
 175  243.7723
 176  329.1805
 177  351.162
 178  359.3893
 179  304.2487
 180  292.6787
 181  404.1157
 182  233.2021
 183  240.7066
 184  208.492
 185  291.1262
 186  375.5602
 187  360.7467
 188  397.7151
 189  286.9569
 190  265.7948
 191  311.9507
 192  309.9447
 193  318.5137
 194  235.3128
 195  274.1885
 196  273.614
 197  330.3615
 198  272.6837
 199  284.7014
 200  345.8077
 201  373.195
 202  298.4142
 203  391.6424
 204  311.0697
 205  327.2301
 206  390.4328
 207  338.037
 208  233.455
 209  285.8351
 210  315.1712
 211  215.2269
 212  205.3743
 213  359.6074
 214  342.1711
 215  255.6255
 216  258.3039
 217  416.5573
 218  377.1861
 219  280.1903
 220  364.2732
 221  404.7883
 222  299.3915
 223  236.2466
 224  455.5435
 225  293.7399
 226  220.1478
 227  299.8918
 228  270.4631
 229  295.6284
 230  371.0771
 231  375.014
 232  332.2109
 233  161.8313
 234  205.2401
 235  336.7224
 236  249.5728
 237  182.2638
 238  225.6167
 239  330.2068
 240  303.4577
 241  215.9616
 242  344.5007
 243  317.3818
 244  344.6654
 245  360.2333
 246  292.4475
 247  331.2023
 248  386.5562
 249  381.4096
 250  307.8382
 251  426.0631
 252  292.2679
 253  343.8575
 254  339.4285
 255  276.5975
 256  230.4649
 257  371.0782
 258  291.6558
 259  239.2937
 260  315.1255
 261  443.687
 262  396.4933
 263  247.0817
 264  220.1843
 265  190.8857
 266  331.8144
 267  316.1179
 268  450.6957
 269  501.2062
 270  398.1967
 271  328.4373
 272  449.6005
 273  279.3868
 274  244.5381
 275  261.9804
 276  282.1733
 277  366.3146
 278  398.5431
 279  356.6997
 280  365.6563
 281  355.7561
 282  433.1463
 283  316.1001
 284  274.0264
 285  294.5329
 286  302.5507
 287  334.141
 288  298.6085
 289  239.7942
 290  277.1334
 291  182.5925
 292  180.1376
 293  234.543
 294  334.2501
 295  369.5169
 296  309.7532
 297  210.0972
 298  266.8869
 299  237.575
 300  167.5198
 301  157.0647
 302  262.9148
 303  227.1463
 304  228.4433
 305  249.6244
 306  284.5441
 307  321.1417
 308  465.959
 309  391.6233
 310  438.9357
 311  342.0861
 312  306.8208
 313  273.6279
 314  221.3682
 315  297.9361
 316  182.4902
 317  188.7599
 318  240.803
 319  249.2158
 320  285.8893
 321  187.1609
 322  173.2218
 323  282.2887
 324  136.5086
 325  185.5994
 326  261.8278
 327  192.9913
 328  146.2674
 329  243.3383
 330  284.3722
 331  344.5303
 332  300.026
 333  222.1057
 334  164.1177
 335  242.8507
 336  146.2791
 337  152.0723
 338  115.2175
 339  259.4849
 340  368.3374
 341  280.47
 342  286.8574
 343  276.4424
 344  239.329
 345  191.1759
 346  229.7522
 347  265.5959
 348  322.9842
 349  191.045
 350  206.1478
 351  319.2214
 352  245.9578
 353  224.205
 354  231.8553
 355  297.3001
 356  336.9183
 357  195.5762
 358  208.6764
 359  226.188
 360  310.0926
 361  292.919
 362  254.6132
 363  258.0597
 364  316.5176
 365  235.5273
 366  182.1418
 367  271.1171
 368  468.1479
 369  309.626
 370  171.2195
 371  269.4373
 372  248.8675
 373  169.7081
 374  279.3575
 375  331.4175
 376  258.4635
 377  196.9917
 378  200.2407
 379  289.7869
 380  350.1064
 381  393.6752
 382  282.1444
 383  235.7368
 384  336.2425
 385  269.8603
 386  315.5523
 387  252.1998
 388  288.6033
 389  299.6883
 390  202.0846
 391  178.9577
 392  227.6018
 393  271.9819
 394  451.5709
 395  321.5036
 396  327.1697
 397  258.4857
 398  244.5375
 399  240.5564
 400  284.2533
 401  316.4648
 402  268.5265
 403  248.6979
 404  339.7938
 405  421.0609
 406  411.973
 407  290.8279
 408  196.9932
 409  265.5345
 410  314.0945
 411  350.9585
 412  424.8288
 413  359.4739
 414  298.0235
 415  349.3878
 416  309.2522
 417  218.8875
 418  284.6947
 419  203.065
 420  257.298
 421  154.3122
 422  181.9347
 423  230.7876
 424  195.4291
 425  200.9499
 426  230.473
 427  248.0518
 428  235.134
 429  188.7186
 430  232.7279
 431  175.4999
 432  193.7141
 433  266.3905
 434  310.7566
 435  223.2088
 436  213.1239
 437  238.1446
 438  306.77
 439  235.8226
 440  297.8631
 441  355.82
 442  383.2179
 443  426.2561
 444  364.2844
 445  280.9565
 446  304.2352
 447  196.0385
 448  236.1385
 449  204.7721
 450  138.3541
 451  179.8571
 452  220.1417
 453  376.3825
 454  423.6759
 455  393.2983
 456  322.0991
 457  313.8402
 458  362.4729
 459  289.9976
 460  207.4366
 461  291.9006
 462  323.24
 463  266.5442
 464  240.0096
 465  327.1844
 466  332.4012
 467  283.4862
 468  246.0951
 469  149.7893
 470  161.9074
 471  246.1811
 472  359.1786
 473  320.8113
 474  308.6304
 475  330.1712
 476  314.6285
 477  226.914
 478  314.575
 479  226.9002
 480  280.5212
 481  261.8393
 482  246.9529
 483  205.5163
 484  353.7288
 485  370.4112
 486  300.2646
 487  286.2918
 488  340.5849
 489  260.114
 490  181.8452
 491  343.3591
 492  337.9025
 493  280.0065
 494  390.691
 495  394.5211
 496  327.6071
 497  382.7502
 498  336.6648
 499  357.4506
 500  334.6008
 501  315.0899
 502  329.3149
 503  367.8052
 504  354.4497
 505  422.3069
 506  417.1049
 507  411.2095
 508  518.7401
 509  509.7762
 510  686.4954
 511  838.1609
