# Input file       =  1194209154.098369_cleaned.dat
# Candidate        =  PSR_0332+5434
# Telescope        =  AR
# Epoch_topo       =  58065.865429379272
# Epoch_bary       =  N/A
# T_sample         =  0.002
# Data Folded      =  7340032
# Data Avg         =  0.0336859936993623
# Data StdDev      =  1.00010510086771 
# Profile Bins     =  512
# Profile Avg      =  482.473376736518 
# Profile StdDev   =  119.745620422783 
# Reduced chi-sqr  =  1.187
# Prob(Noise)      <  0.00228   (~2.8 sigma)
# P_topo (ms)      =  714.503117025339  +/- 0.000471
# P'_topo (s/s)    =  -0                +/- 2.49e-10
# P''_topo (s/s^2) =  0                 +/- 1.1e-13
# P_bary (ms)      =  N/A
# P'_bary (s/s)    =  N/A
# P''_bary (s/s^2) =  N/A
# P_orb (s)        =  N/A
# asin(i)/c (s)    =  N/A
# eccentricity     =  N/A
# w (rad)          =  N/A
# T_peri           =  N/A
######################################################
   0  446.4302
   1  501.7922
   2  425.2126
   3  492.9803
   4  424.633
   5  423.4206
   6  380.2516
   7  403.6905
   8  480.7739
   9  492.0659
  10  521.5676
  11  476.5352
  12  538.6515
  13  532.6284
  14  542.7411
  15  516.5753
  16  489.1541
  17  382.231
  18  388.8825
  19  520.2902
  20  485.1205
  21  442.722
  22  520.3936
  23  522.3541
  24  569.3126
  25  500.1109
  26  563.1486
  27  622.239
  28  492.705
  29  472.8283
  30  506.4556
  31  522.5323
  32  491.4237
  33  434.4297
  34  458.6007
  35  518.587
  36  538.3706
  37  551.5407
  38  610.4779
  39  536.9464
  40  661.733
  41  554.3654
  42  528.0237
  43  428.0306
  44  458.6394
  45  540.549
  46  418.4954
  47  322.5857
  48  446.4784
  49  395.164
  50  399.5808
  51  406.9814
  52  341.7212
  53  330.9434
  54  422.2401
  55  445.9696
  56  426.1666
  57  561.9059
  58  582.6201
  59  425.9082
  60  545.1159
  61  590.0315
  62  352.0605
  63  422.7942
  64  563.0559
  65  544.6967
  66  490.0515
  67  570.5588
  68  418.2277
  69  475.8467
  70  503.1399
  71  444.4424
  72  429.5831
  73  388.7208
  74  364.7279
  75  457.3487
  76  455.348
  77  526.7833
  78  487.4434
  79  449.5488
  80  471.6728
  81  460.0847
  82  369.5964
  83  456.2299
  84  335.0616
  85  352.0323
  86  465.9485
  87  417.9904
  88  427.9952
  89  455.6868
  90  473.6347
  91  588.8701
  92  548.1746
  93  508.8789
  94  500.119
  95  418.4637
  96  383.9634
  97  434.3085
  98  448.9778
  99  485.3845
 100  494.0566
 101  538.6033
 102  566.0516
 103  436.0147
 104  613.4767
 105  671.5452
 106  528.8097
 107  492.9592
 108  487.5111
 109  540.4105
 110  678.0602
 111  649.0547
 112  494.0702
 113  560.6091
 114  503.7339
 115  627.4521
 116  511.3303
 117  507.0108
 118  427.4854
 119  421.4094
 120  542.4229
 121  522.1081
 122  469.4828
 123  494.1793
 124  486.9332
 125  536.5795
 126  639.4749
 127  588.3226
 128  574.7173
 129  547.9598
 130  570.7261
 131  550.0226
 132  528.7115
 133  556.1312
 134  501.3127
 135  551.2825
 136  519.2854
 137  508.3228
 138  511.1668
 139  587.1395
 140  510.2386
 141  621.1799
 142  537.0448
 143  549.9337
 144  466.2763
 145  410.342
 146  441.1307
 147  499.4593
 148  519.7329
 149  464.6848
 150  404.1535
 151  425.4056
 152  466.3712
 153  530.6238
 154  588.5355
 155  507.5095
 156  475.5622
 157  517.2771
 158  512.0972
 159  500.2953
 160  538.0581
 161  613.0886
 162  603.5862
 163  522.223
 164  584.6819
 165  506.1976
 166  480.1435
 167  439.3985
 168  437.0494
 169  395.2594
 170  508.5366
 171  558.6987
 172  548.9402
 173  515.246
 174  515.631
 175  493.1403
 176  511.82
 177  536.877
 178  503.3477
 179  534.4879
 180  550.9155
 181  563.452
 182  639.8621
 183  559.0565
 184  519.9119
 185  437.1648
 186  567.3847
 187  707.9133
 188  711.7693
 189  696.6739
 190  670.1548
 191  658.2657
 192  615.7283
 193  582.6027
 194  533.9069
 195  600.7339
 196  596.5151
 197  615.3663
 198  542.6395
 199  547.2264
 200  576.3913
 201  523.5406
 202  515.0699
 203  567.6022
 204  617.5432
 205  647.4822
 206  710.168
 207  535.4437
 208  604.4269
 209  835.3696
 210  1029.803
 211  1057.911
 212  907.0475
 213  920.5048
 214  674.5562
 215  576.6489
 216  513.8196
 217  491.4061
 218  609.4265
 219  418.2776
 220  295.8504
 221  464.9127
 222  630.6
 223  488.3514
 224  515.5233
 225  645.723
 226  665.2057
 227  535.6829
 228  626.4797
 229  567.9825
 230  511.9687
 231  620.4292
 232  533.7007
 233  585.3155
 234  493.6758
 235  406.957
 236  423.1163
 237  486.3992
 238  477.2491
 239  458.4676
 240  462.5725
 241  365.4057
 242  433.674
 243  475.125
 244  525.758
 245  462.2418
 246  482.4214
 247  492.4246
 248  398.2613
 249  437.3041
 250  394.4756
 251  458.6897
 252  620.3568
 253  550.7404
 254  507.2947
 255  394.0003
 256  380.4268
 257  416.5367
 258  368.3909
 259  418.5316
 260  441.5418
 261  546.7728
 262  541.0815
 263  550.1635
 264  475.8728
 265  487.1861
 266  423.6904
 267  506.1621
 268  590.7731
 269  599.9482
 270  548.4201
 271  517.8538
 272  488.8611
 273  430.192
 274  446.1963
 275  566.9393
 276  609.2498
 277  612.8398
 278  579.1148
 279  561.5974
 280  524.6373
 281  451.829
 282  499.3242
 283  382.6144
 284  496.8403
 285  506.0724
 286  530.197
 287  551.5926
 288  542.1856
 289  519.8306
 290  499.7827
 291  542.3828
 292  389.9755
 293  290.8815
 294  331.3261
 295  364.3112
 296  294.6938
 297  445.3769
 298  466.4531
 299  476.5404
 300  377.2216
 301  397.3715
 302  523.9718
 303  559.4133
 304  507.645
 305  328.3623
 306  389.2479
 307  450.8399
 308  505.5522
 309  447.5539
 310  444.0704
 311  467.1915
 312  451.3141
 313  530.9142
 314  440.9889
 315  412.7558
 316  337.0251
 317  382.7064
 318  337.3969
 319  327.1047
 320  449.5415
 321  363.2443
 322  367.5193
 323  355.8476
 324  254.8009
 325  323.4854
 326  377.4236
 327  430.4673
 328  332.8677
 329  355.7838
 330  438.6355
 331  427.9522
 332  395.1821
 333  546.2643
 334  509.959
 335  486.1407
 336  447.7338
 337  328.4986
 338  418.7822
 339  498.8914
 340  465.106
 341  410.2242
 342  376.8567
 343  375.6126
 344  452.3421
 345  416.8995
 346  340.7609
 347  412.0571
 348  350.3383
 349  347.4774
 350  468.4799
 351  472.0012
 352  385.5121
 353  384.3477
 354  341.9139
 355  333.2869
 356  293.461
 357  402.7895
 358  447.4159
 359  410.0711
 360  498.0527
 361  442.2832
 362  425.2267
 363  443.4176
 364  347.6412
 365  449.0542
 366  466.0228
 367  415.4478
 368  400.2219
 369  495.4331
 370  492.3824
 371  486.2774
 372  493.9344
 373  470.955
 374  366.4128
 375  456.1429
 376  501.0174
 377  532.1562
 378  447.8413
 379  398.3549
 380  429.5621
 381  450.4961
 382  449.7796
 383  492.7133
 384  418.6497
 385  429.5481
 386  481.6102
 387  459.7219
 388  439.1253
 389  401.3773
 390  518.0153
 391  531.0197
 392  545.0773
 393  448.3595
 394  415.372
 395  435.6908
 396  507.7356
 397  488.0317
 398  598.3817
 399  661.2485
 400  585.0907
 401  476.8925
 402  372.1748
 403  491.2009
 404  432.2741
 405  370.962
 406  380.2039
 407  386.7373
 408  415.5288
 409  494.2139
 410  583.8649
 411  510.4843
 412  443.7222
 413  520.6567
 414  500.6644
 415  576.6191
 416  456.5312
 417  397.6195
 418  443.428
 419  545.1151
 420  422.3298
 421  308.8644
 422  447.1403
 423  426.894
 424  410.9373
 425  447.6217
 426  488.8725
 427  314.4655
 428  337.8709
 429  441.5514
 430  406.1877
 431  270.3844
 432  358.1779
 433  436.223
 434  438.0948
 435  383.6228
 436  340.1631
 437  351.1628
 438  363.8707
 439  386.8649
 440  408.4534
 441  300.4601
 442  321.2796
 443  555.7941
 444  578.0632
 445  458.7329
 446  459.5361
 447  418.3186
 448  380.8702
 449  452.5078
 450  414.5151
 451  507.0027
 452  530.9661
 453  539.7012
 454  504.1279
 455  449.6419
 456  468.0484
 457  473.4143
 458  411.3793
 459  444.0622
 460  489.7522
 461  456.4593
 462  493.1081
 463  466.8218
 464  344.5465
 465  284.6752
 466  429.2961
 467  519.7423
 468  456.9132
 469  451.7677
 470  554.3515
 471  585.6296
 472  516.3904
 473  458.1871
 474  483.8494
 475  476.2596
 476  432.9678
 477  443.9085
 478  452.447
 479  410.3878
 480  410.0967
 481  578.2801
 482  478.7486
 483  342.4474
 484  444.3957
 485  404.4906
 486  332.0067
 487  386.4251
 488  500.8293
 489  560.7476
 490  518.1393
 491  476.2213
 492  428.0718
 493  391.4434
 494  360.8467
 495  392.2226
 496  491.959
 497  427.7963
 498  415.3546
 499  540.5211
 500  443.4457
 501  454.7158
 502  460.8901
 503  574.6487
 504  613.0178
 505  370.8273
 506  410.3468
 507  524.1747
 508  599.6605
 509  639.359
 510  489.9855
 511  359.2991
