# Input file       =  1194726807.10001_cleaned.dat
# Candidate        =  PSR_0332+5434
# Telescope        =  AR
# Epoch_topo       =  58071.856783564930
# Epoch_bary       =  N/A
# T_sample         =  0.002
# Data Folded      =  7340032
# Data Avg         =  0.0298496046330419
# Data StdDev      =  1.00029974825182 
# Profile Bins     =  512
# Profile Avg      =  427.948824808478 
# Profile StdDev   =  119.768926145105 
# Reduced chi-sqr  =  1.099
# Prob(Noise)      <  0.0605   (~1.6 sigma)
# P_topo (ms)      =  714.509060020277  +/- 0.000243
# P'_topo (s/s)    =  -0                +/- 1.28e-10
# P''_topo (s/s^2) =  0                 +/- 5.66e-14
# P_bary (ms)      =  N/A
# P'_bary (s/s)    =  N/A
# P''_bary (s/s^2) =  N/A
# P_orb (s)        =  N/A
# asin(i)/c (s)    =  N/A
# eccentricity     =  N/A
# w (rad)          =  N/A
# T_peri           =  N/A
######################################################
   0  518.1941
   1  548.5632
   2  533.926
   3  534.8623
   4  591.1549
   5  718.3811
   6  813.2953
   7  887.4746
   8  917.9018
   9  914.8767
  10  884.0923
  11  686.8292
  12  444.5425
  13  359.0952
  14  423.3513
  15  552.09
  16  456.613
  17  395.8687
  18  442.8687
  19  450.0488
  20  456.0956
  21  512.1046
  22  507.6482
  23  552.1008
  24  548.3495
  25  485.1801
  26  417.1482
  27  357.1343
  28  429.7683
  29  364.9879
  30  253.2729
  31  314.2109
  32  300.2369
  33  468.9271
  34  453.9293
  35  285.3201
  36  328.7271
  37  437.6644
  38  499.8142
  39  477.3237
  40  473.1973
  41  522.8051
  42  488.6678
  43  491.9878
  44  340.4154
  45  289.7893
  46  334.8436
  47  467.0883
  48  500.056
  49  495.4549
  50  314.5139
  51  330.5034
  52  417.4124
  53  384.13
  54  313.9753
  55  322.9444
  56  387.0267
  57  438.7694
  58  413.7931
  59  333.6728
  60  382.8708
  61  528.7275
  62  418.9484
  63  541.6208
  64  531.312
  65  456.7393
  66  252.4186
  67  294.054
  68  349.47
  69  370.3797
  70  351.4591
  71  437.8357
  72  451.0804
  73  377.0281
  74  426.8747
  75  566.9688
  76  466.0813
  77  275.7214
  78  335.4149
  79  376.131
  80  376.6154
  81  484.0418
  82  516.9578
  83  462.9694
  84  410.4535
  85  426.9689
  86  471.3583
  87  462.5745
  88  401.4151
  89  382.1796
  90  430.7735
  91  481.5481
  92  525.8995
  93  436.4702
  94  479.2923
  95  414.9134
  96  436.2159
  97  389.0772
  98  370.0758
  99  214.7906
 100  336.609
 101  431.7462
 102  401.0764
 103  406.3203
 104  426.6151
 105  425.5623
 106  373.9479
 107  444.555
 108  475.308
 109  466.0041
 110  348.3925
 111  337.1905
 112  406.1073
 113  452.0867
 114  452.9132
 115  410.9026
 116  346.2596
 117  397.9767
 118  529.233
 119  579.2946
 120  317.4722
 121  277.3082
 122  369.2292
 123  387.8344
 124  417.3893
 125  470.58
 126  437.0691
 127  444.1797
 128  450.7325
 129  421.5081
 130  351.4299
 131  318.743
 132  351.3363
 133  433.178
 134  446.5819
 135  431.5723
 136  433.8623
 137  340.3705
 138  394.8022
 139  348.5538
 140  314.0894
 141  450.4875
 142  439.8241
 143  475.3883
 144  426.9545
 145  351.8451
 146  290.8315
 147  404.5405
 148  454.7498
 149  426.105
 150  549.6139
 151  376.2323
 152  417.5843
 153  465.2252
 154  478.3437
 155  430.9567
 156  445.235
 157  573.6213
 158  528.9412
 159  410.4556
 160  472.2076
 161  554.5338
 162  482.3551
 163  381.2087
 164  397.2776
 165  421.3026
 166  500.403
 167  468.0703
 168  413.5739
 169  281.4271
 170  335.0703
 171  426.3746
 172  396.2016
 173  263.9449
 174  226.6503
 175  157.7462
 176  249.7874
 177  352.4378
 178  401.9506
 179  443.3718
 180  376.3249
 181  285.2238
 182  229.4254
 183  277.4259
 184  329.9977
 185  340.4393
 186  372.9709
 187  332.1562
 188  367.3721
 189  362.8954
 190  350.602
 191  368.7458
 192  414.0606
 193  446.9032
 194  477.763
 195  409.6246
 196  471.4846
 197  517.0566
 198  608.0052
 199  476.2066
 200  467.3153
 201  563.4661
 202  463.245
 203  429.032
 204  458.8053
 205  513.4114
 206  455.965
 207  425.5201
 208  485.7245
 209  597.2408
 210  475.8123
 211  485.9746
 212  606.8547
 213  506.3251
 214  489.6915
 215  393.6711
 216  419.9032
 217  412.4648
 218  227.5219
 219  278.788
 220  238.3531
 221  393.821
 222  317.3709
 223  313.8522
 224  397.0701
 225  394.0591
 226  269.8779
 227  300.0297
 228  335.0927
 229  331.485
 230  410.2242
 231  421.1331
 232  435.3041
 233  426.1684
 234  417.6438
 235  429.3186
 236  463.0659
 237  460.5784
 238  370.5327
 239  395.9913
 240  443.3234
 241  389.6867
 242  403.5926
 243  481.0121
 244  562.1197
 245  452.8219
 246  402.7368
 247  453.5362
 248  568.782
 249  434.3742
 250  276.8458
 251  410.5533
 252  339.4222
 253  328.1747
 254  378.8725
 255  418.1409
 256  398.6529
 257  331.8436
 258  259.6092
 259  336.6338
 260  364.2893
 261  455.0556
 262  531.7491
 263  616.933
 264  546.9593
 265  440.9337
 266  312.3864
 267  359.5467
 268  445.2927
 269  483.5876
 270  461.2214
 271  400.5585
 272  441.0174
 273  420.9634
 274  413.203
 275  374.546
 276  444.2706
 277  464.6194
 278  540.2271
 279  358.8038
 280  294.0248
 281  468.8692
 282  429.4105
 283  461.3297
 284  408.3913
 285  380.1205
 286  366.5461
 287  419.5839
 288  438.2008
 289  380.9455
 290  473.0205
 291  521.2652
 292  411.9785
 293  366.3728
 294  396.1362
 295  396.2921
 296  504.6271
 297  508.4537
 298  467.0867
 299  463.9088
 300  475.6365
 301  415.9918
 302  480.8411
 303  422.9846
 304  367.1881
 305  576.3999
 306  502.536
 307  412.2032
 308  391.3794
 309  356.0972
 310  396.7999
 311  423.3112
 312  506.1752
 313  429.4661
 314  504.5741
 315  534.0822
 316  506.7565
 317  492.1641
 318  464.9801
 319  303.322
 320  320.8859
 321  386.2318
 322  484.603
 323  428.8143
 324  491.5144
 325  436.4428
 326  363.0925
 327  412.6246
 328  493.7388
 329  519.3184
 330  492.302
 331  468.6819
 332  508.5605
 333  435.9091
 334  446.1559
 335  472.376
 336  517.7888
 337  496.6288
 338  452.4182
 339  269.7765
 340  375.2544
 341  332.5067
 342  310.3528
 343  430.573
 344  409.1754
 345  380.8973
 346  339.4098
 347  462.9542
 348  518.8766
 349  393.3514
 350  339.0419
 351  357.7846
 352  438.1299
 353  467.0684
 354  524.6467
 355  508.9344
 356  412.7223
 357  442.0612
 358  433.0371
 359  418.5889
 360  392.6928
 361  475.0467
 362  529.1064
 363  460.8383
 364  372.4617
 365  382.8061
 366  352.6402
 367  454.4244
 368  482.6592
 369  377.7968
 370  361.5793
 371  451.0437
 372  433.5031
 373  336.495
 374  466.1515
 375  506.6649
 376  338.2477
 377  201.2843
 378  346.8535
 379  510.5433
 380  562.1666
 381  509.2014
 382  441.3965
 383  469.4623
 384  474.4247
 385  565.4614
 386  462.5184
 387  486.0937
 388  422.8446
 389  411.355
 390  443.0926
 391  461.8751
 392  400.8555
 393  374.3883
 394  401.8763
 395  531.0757
 396  488.6603
 397  470.539
 398  406.5508
 399  341.5175
 400  368.0398
 401  421.6412
 402  402.0516
 403  365.8384
 404  434.6456
 405  442.0672
 406  400.3867
 407  377.0923
 408  371.3236
 409  406.4647
 410  413.6071
 411  442.1095
 412  434.6493
 413  443.5264
 414  368.498
 415  321.4554
 416  387.4213
 417  460.9223
 418  336.3317
 419  263.5926
 420  331.286
 421  465.1926
 422  431.3972
 423  441.9779
 424  350.0938
 425  419.4463
 426  447.0082
 427  301.1253
 428  331.8782
 429  402.2387
 430  412.7389
 431  481.9854
 432  629.1534
 433  659.4804
 434  497.5275
 435  332.3471
 436  438.7799
 437  505.8222
 438  486.0526
 439  410.2557
 440  322.2211
 441  407.5429
 442  454.571
 443  405.8046
 444  428.4502
 445  400.2036
 446  472.5101
 447  388.7887
 448  423.4305
 449  379.9637
 450  527.7842
 451  472.6364
 452  358.6708
 453  401.7884
 454  387.6001
 455  437.05
 456  547.8957
 457  511.2502
 458  507.3423
 459  416.5781
 460  425.6896
 461  446.9248
 462  397.8825
 463  427.0018
 464  339.9812
 465  487.6628
 466  558.092
 467  581.334
 468  500.792
 469  367.8654
 470  319.1057
 471  408.1563
 472  490.3319
 473  469.0401
 474  402.19
 475  209.122
 476  230.6239
 477  387.7582
 478  513.2579
 479  450.3882
 480  418.5918
 481  460.2564
 482  368.1371
 483  388.021
 484  339.1866
 485  202.4201
 486  437.5434
 487  442.9243
 488  378.1104
 489  421.1598
 490  459.5587
 491  528.0787
 492  550.7817
 493  508.1882
 494  488.3948
 495  389.2929
 496  487.9266
 497  485.9327
 498  534.1004
 499  548.2354
 500  575.4974
 501  389.4248
 502  358.3066
 503  452.3911
 504  372.8066
 505  258.601
 506  393.2779
 507  451.9164
 508  460.4354
 509  385.8538
 510  408.3157
 511  573.7289
