# Input file       =  1194625430.102127_cleaned.dat
# Candidate        =  PSR_0332+5434
# Telescope        =  AR
# Epoch_topo       =  58070.683438682026
# Epoch_bary       =  N/A
# T_sample         =  0.002
# Data Folded      =  7143424
# Data Avg         =  0.00882007964859249
# Data StdDev      =  1.00019438954162 
# Profile Bins     =  512
# Profile Avg      =  123.036200419449 
# Profile StdDev   =  118.141545499362 
# Reduced chi-sqr  =  1.111
# Prob(Noise)      <  0.0409   (~1.7 sigma)
# P_topo (ms)      =  714.507860949163  +/- 0.000172
# P'_topo (s/s)    =  -0                +/- 9.3e-11
# P''_topo (s/s^2) =  0                 +/- 4.22e-14
# P_bary (ms)      =  N/A
# P'_bary (s/s)    =  N/A
# P''_bary (s/s^2) =  N/A
# P_orb (s)        =  N/A
# asin(i)/c (s)    =  N/A
# eccentricity     =  N/A
# w (rad)          =  N/A
# T_peri           =  N/A
######################################################
   0  102.5978
   1  128.8171
   2  138.218
   3  105.2093
   4  68.4813
   5  21.37946
   6  -5.15991
   7  85.27318
   8  198.6431
   9  208.1987
  10  185.6019
  11  86.18372
  12  88.56446
  13  152.7166
  14  79.33768
  15  63.14666
  16  9.635698
  17  66.341
  18  177.4704
  19  214.1461
  20  232.7348
  21  217.3706
  22  210.6129
  23  117.7756
  24  -40.72286
  25  168.6798
  26  153.8702
  27  174.8839
  28  127.8382
  29  246.7761
  30  193.6051
  31  77.59462
  32  135.0268
  33  118.8087
  34  103.7038
  35  72.41977
  36  167.4192
  37  130.039
  38  245.0562
  39  267.9085
  40  150.2759
  41  162.576
  42  88.54183
  43  146.6434
  44  173.3823
  45  183.7396
  46  154.2353
  47  34.28638
  48  87.45174
  49  137.0338
  50  171.4438
  51  -5.638548
  52  106.5679
  53  217.4281
  54  112.8392
  55  113.7784
  56  134.5881
  57  147.0852
  58  82.46297
  59  45.47653
  60  151.8718
  61  173.4645
  62  196.4141
  63  125.4752
  64  86.22821
  65  85.98709
  66  119.7566
  67  204.0677
  68  134.4436
  69  213.944
  70  152.7865
  71  213.2017
  72  93.10863
  73  99.16718
  74  184.4806
  75  149.631
  76  135.6395
  77  96.40084
  78  60.0149
  79  -23.16045
  80  183.4588
  81  162.0797
  82  138.689
  83  70.44566
  84  102.1264
  85  149.166
  86  186.8354
  87  278.4082
  88  164.6133
  89  48.8749
  90  -21.09968
  91  116.4873
  92  243.0405
  93  169.7258
  94  130.3246
  95  102.0246
  96  69.09896
  97  75.16421
  98  181.5394
  99  191.2172
 100  162.6627
 101  37.87725
 102  -63.60698
 103  25.15499
 104  31.82471
 105  56.32977
 106  4.323981
 107  78.32727
 108  106.8797
 109  130.4188
 110  130.4306
 111  134.731
 112  180.2533
 113  226.4872
 114  208.4728
 115  116.5423
 116  12.53222
 117  108.5606
 118  108.1448
 119  91.69749
 120  161.3263
 121  81.83201
 122  111.0914
 123  95.0596
 124  173.6496
 125  150.3791
 126  86.15316
 127  112.2619
 128  200.3519
 129  131.48
 130  -9.900106
 131  51.28345
 132  104.5961
 133  160.7271
 134  116.6379
 135  118.6924
 136  102.0983
 137  95.20724
 138  168.6749
 139  58.66771
 140  75.42995
 141  67.4827
 142  42.27478
 143  14.98249
 144  13.87924
 145  122.6686
 146  50.94659
 147  6.548619
 148  111.9393
 149  248.535
 150  193.903
 151  97.21844
 152  130.8468
 153  75.28249
 154  126.8352
 155  15.38085
 156  44.89289
 157  148.2175
 158  170.1977
 159  206.3445
 160  187.0005
 161  52.63559
 162  105.2586
 163  262.2736
 164  206.046
 165  138.5309
 166  76.92519
 167  157.8856
 168  267.9734
 169  130.2811
 170  139.4967
 171  167.0715
 172  124.1455
 173  48.39824
 174  0.09590393
 175  215.2865
 176  173.3122
 177  255.7382
 178  172.2031
 179  156.9532
 180  98.78246
 181  112.6736
 182  267.0897
 183  175.6635
 184  117.6434
 185  141.7181
 186  64.20242
 187  110.6943
 188  99.67076
 189  106.5496
 190  126.9531
 191  131.3646
 192  163.1816
 193  122.3446
 194  124.571
 195  191.4083
 196  175.2928
 197  154.9556
 198  133.1286
 199  100.5845
 200  123.7813
 201  138.3922
 202  144.2275
 203  83.68986
 204  106.2935
 205  174.1393
 206  165.8777
 207  111.4034
 208  210.768
 209  139.4625
 210  87.20339
 211  60.191
 212  104.5303
 213  114.4875
 214  89.07355
 215  80.16283
 216  141.5205
 217  233.7048
 218  278.6715
 219  197.312
 220  33.67941
 221  106.1935
 222  202.6969
 223  283.9875
 224  208.6266
 225  200.1257
 226  102.564
 227  134.8328
 228  163.6214
 229  66.4789
 230  115.2381
 231  141.2166
 232  324.8907
 233  343.9753
 234  270.9858
 235  110.0355
 236  83.26547
 237  89.9695
 238  196.8578
 239  328.7899
 240  189.9534
 241  85.28796
 242  108.4091
 243  23.54461
 244  160.3006
 245  88.23734
 246  185.3377
 247  121.0263
 248  83.40858
 249  57.89693
 250  115.569
 251  96.72336
 252  206.8735
 253  189.26
 254  177.9025
 255  76.87431
 256  191.7998
 257  191.5002
 258  170.7067
 259  334.4633
 260  347.6491
 261  359.1812
 262  522.2522
 263  622.5352
 264  673.193
 265  651.1623
 266  562.0896
 267  437.2025
 268  313.7981
 269  140.1536
 270  166.633
 271  132.7149
 272  72.52347
 273  102.948
 274  211.771
 275  112.269
 276  157.078
 277  312.0789
 278  273.9694
 279  227.4013
 280  151.5541
 281  177.0948
 282  115.7544
 283  85.47547
 284  143.9365
 285  270.8892
 286  250.5729
 287  227.439
 288  191.2271
 289  45.85968
 290  82.93333
 291  121.3288
 292  289.3421
 293  231.2143
 294  239.4421
 295  210.8897
 296  -26.15465
 297  86.93656
 298  119.9401
 299  178.11
 300  148.3249
 301  144.3338
 302  76.83315
 303  115.7476
 304  213.0559
 305  103.7632
 306  114.5996
 307  120.3617
 308  250.2225
 309  204.7969
 310  140.8101
 311  178.7082
 312  82.48028
 313  159.0629
 314  148.302
 315  153.3233
 316  179.4012
 317  156.2838
 318  143.6441
 319  95.20371
 320  157.6138
 321  185.074
 322  179.0943
 323  119.0285
 324  117.1221
 325  117.179
 326  99.45091
 327  122.7544
 328  110.9726
 329  115.205
 330  108.8162
 331  82.20418
 332  170.2555
 333  58.96008
 334  84.00377
 335  86.3605
 336  52.88074
 337  23.9896
 338  108.4617
 339  108.0467
 340  57.99215
 341  44.46968
 342  101.4347
 343  180.9112
 344  166.1667
 345  75.57287
 346  95.25817
 347  -3.670526
 348  -75.95081
 349  -5.272371
 350  3.46232
 351  -59.11302
 352  4.845135
 353  139.03
 354  104.9821
 355  120.3614
 356  -30.77203
 357  49.87692
 358  124.4305
 359  169.0588
 360  188.4085
 361  154.5595
 362  57.08162
 363  -80.11246
 364  150.0067
 365  156.7394
 366  104.8669
 367  93.27129
 368  224.495
 369  188.2783
 370  137.3786
 371  146.9552
 372  79.18034
 373  -31.34182
 374  121.8128
 375  225.9662
 376  184.5586
 377  82.32016
 378  76.15753
 379  50.13375
 380  127.4536
 381  188.6347
 382  102.3482
 383  6.215348
 384  -43.51528
 385  7.145105
 386  -56.58147
 387  -71.15761
 388  72.438
 389  189.6343
 390  98.60296
 391  125.5365
 392  115.9262
 393  56.09114
 394  74.99003
 395  52.12509
 396  158.5379
 397  55.59927
 398  19.65718
 399  149.5547
 400  154.7457
 401  123.554
 402  100.9385
 403  143.7944
 404  -44.0669
 405  84.91376
 406  165.6145
 407  182.879
 408  126.3653
 409  37.19929
 410  54.90519
 411  122.5086
 412  115.98
 413  192.6411
 414  203.8558
 415  53.96873
 416  -20.85809
 417  -48.64756
 418  -76.60704
 419  -36.02599
 420  128.165
 421  142.8796
 422  144.1541
 423  26.58552
 424  49.64167
 425  -0.2363945
 426  27.75344
 427  -9.7067
 428  -26.21639
 429  138.8977
 430  114.3705
 431  71.16154
 432  71.95989
 433  120.8668
 434  41.37284
 435  75.67223
 436  140.3418
 437  59.41283
 438  116.5093
 439  95.50398
 440  59.38331
 441  3.948372
 442  64.27185
 443  42.88466
 444  157.3181
 445  243.5011
 446  189.6234
 447  116.5459
 448  -19.33228
 449  -31.99775
 450  102.1789
 451  255.8081
 452  223.1508
 453  102.2316
 454  25.75627
 455  115.5486
 456  44.65453
 457  132.7847
 458  220.731
 459  197.5897
 460  118.0494
 461  64.93433
 462  1.52476
 463  -49.60784
 464  19.47566
 465  89.14004
 466  110.2179
 467  134.4738
 468  72.3846
 469  -20.1137
 470  18.47158
 471  112.9499
 472  91.73558
 473  3.041487
 474  142.9334
 475  121.7501
 476  -8.894527
 477  3.004569
 478  115.4713
 479  195.7472
 480  81.89085
 481  115.0259
 482  76.42031
 483  104.0196
 484  45.85269
 485  78.13172
 486  140.0657
 487  119.1094
 488  62.12977
 489  69.71049
 490  28.8343
 491  63.31235
 492  1.048528
 493  80.3835
 494  51.01633
 495  68.79149
 496  108.5942
 497  129.9867
 498  131.5693
 499  -5.83726
 500  10.64161
 501  23.49569
 502  -35.93504
 503  -20.32714
 504  3.415133
 505  94.60417
 506  84.13902
 507  93.20399
 508  73.84336
 509  199.0259
 510  118.5668
 511  155.9918
