# Input file       =  1194568782.105574-PSRB0329-2ms-sampling-dd.dat
# Candidate        =  PSR_0332+5434
# Telescope        =  AR
# Epoch_topo       =  58070.027790573775
# Epoch_bary       =  N/A
# T_sample         =  0.002
# Data Folded      =  7340032
# Data Avg         =  -1.08000065368941e-09
# Data StdDev      =  6.92937944017766 
# Profile Bins     =  512
# Profile Avg      =  -0.0976108962889913
# Profile StdDev   =  829.675640579207 
# Reduced chi-sqr  =  0.513
# Prob(Noise)      <  1   (~0.0 sigma)
# P_topo (ms)      =  714.507548649143  +/- 0.000165
# P'_topo (s/s)    =  -0                +/- 8.68e-11
# P''_topo (s/s^2) =  0                 +/- 3.83e-14
# P_bary (ms)      =  N/A
# P'_bary (s/s)    =  N/A
# P''_bary (s/s^2) =  N/A
# P_orb (s)        =  N/A
# asin(i)/c (s)    =  N/A
# eccentricity     =  N/A
# w (rad)          =  N/A
# T_peri           =  N/A
######################################################
   0  124.096
   1  518.8427
   2  -183.3143
   3  121.2393
   4  -37.87855
   5  517.0992
   6  -11.00996
   7  96.68424
   8  125.2356
   9  246.5025
  10  430.237
  11  -126.8263
  12  442.7046
  13  233.3279
  14  594.365
  15  649.8117
  16  501.6547
  17  391.9393
  18  166.6763
  19  532.7319
  20  1284.769
  21  1767.316
  22  1282.925
  23  1074.252
  24  948.2369
  25  448.2426
  26  -84.90177
  27  -157.3692
  28  149.6721
  29  187.9008
  30  916.4494
  31  760.4794
  32  496.7491
  33  354.5402
  34  -62.62196
  35  621.3532
  36  386.5653
  37  490.8217
  38  241.7672
  39  221.8599
  40  185.0461
  41  -71.65755
  42  -224.551
  43  -56.91245
  44  406.7275
  45  311.9473
  46  53.17308
  47  -257.9526
  48  -176.9885
  49  36.05101
  50  65.97235
  51  -271.0215
  52  265.091
  53  28.83743
  54  -60.17124
  55  -186.2711
  56  39.32611
  57  471.147
  58  582.0634
  59  508.0858
  60  17.92575
  61  246.1657
  62  -102.5904
  63  -279.1956
  64  -210.7944
  65  23.86037
  66  231.609
  67  554.0039
  68  443.7551
  69  160.0236
  70  296.9071
  71  -221.4007
  72  115.5433
  73  78.17968
  74  -20.6398
  75  -173.74
  76  -190.0908
  77  544.9424
  78  298.0738
  79  725.4705
  80  440.2627
  81  112.0468
  82  141.103
  83  19.7119
  84  258.5561
  85  -174.5631
  86  449.8414
  87  425.1668
  88  409.9987
  89  213.412
  90  231.1158
  91  628.9293
  92  75.73564
  93  226.7908
  94  -73.60054
  95  -18.07541
  96  259.3738
  97  196.4129
  98  327.5449
  99  339.3583
 100  23.41048
 101  -64.77734
 102  226.6035
 103  575.9894
 104  800.4586
 105  549.149
 106  185.6841
 107  465.9937
 108  208.8156
 109  -374.8667
 110  -528.7318
 111  89.05829
 112  -226.2408
 113  -155.3442
 114  -287.2787
 115  -432.8356
 116  84.65045
 117  29.61393
 118  -253.8128
 119  -450.5637
 120  -268.1613
 121  -487.1662
 122  -510.2096
 123  -152.1302
 124  -291.8475
 125  -354.3207
 126  -65.07806
 127  -303.0686
 128  -256.6917
 129  -262.1327
 130  -467.1598
 131  -518.1328
 132  -708.6552
 133  250.6711
 134  6.438339
 135  -165.8557
 136  -233.4289
 137  -326.5006
 138  22.11612
 139  -356.1292
 140  -487.2758
 141  268.8468
 142  427.0362
 143  -157.3027
 144  -308.0341
 145  -869.663
 146  -610.2506
 147  -263.3342
 148  51.24679
 149  43.83226
 150  48.35402
 151  139.1384
 152  -254.4008
 153  -187.0921
 154  -277.181
 155  4.217606
 156  -79.10735
 157  121.197
 158  413.1455
 159  -252.958
 160  -159.0334
 161  -560.2553
 162  -150.058
 163  -390.4283
 164  -413.7641
 165  116.3605
 166  51.4631
 167  215.737
 168  442.9511
 169  210.144
 170  480.0456
 171  626.8361
 172  718.2546
 173  800.1288
 174  910.3015
 175  1034.802
 176  592.7083
 177  -50.48652
 178  -209.142
 179  -329.0587
 180  -7.919487
 181  37.11045
 182  386.5048
 183  1205.357
 184  1009.515
 185  687.9271
 186  135.1848
 187  91.99474
 188  122.129
 189  182.7934
 190  407.3516
 191  543.3616
 192  715.4431
 193  379.7573
 194  -104.027
 195  -36.99016
 196  -469.8532
 197  -29.24627
 198  -125.5584
 199  -925.825
 200  -565.5505
 201  -555.1767
 202  -264.3309
 203  -320.2239
 204  -167.2458
 205  -365.2416
 206  -87.12241
 207  -445.1657
 208  -784.4142
 209  -571.3085
 210  -440.0663
 211  -188.6908
 212  -79.00439
 213  64.43439
 214  -102.5792
 215  -243.7215
 216  -291.4867
 217  -309.7345
 218  -128.2287
 219  -456.8865
 220  -301.2424
 221  -479.4906
 222  -728.9928
 223  -360.9094
 224  -396.1964
 225  -130.9431
 226  -500.9918
 227  31.29906
 228  -532.2347
 229  -591.0773
 230  -474.1376
 231  -750.5412
 232  -366.3897
 233  -284.5323
 234  207.3666
 235  -260.8925
 236  215.0311
 237  139.8082
 238  220.6964
 239  784.3891
 240  498.76
 241  412.8556
 242  360.6887
 243  633.8546
 244  857.416
 245  515.3722
 246  566.5052
 247  490.1383
 248  107.5028
 249  364.4257
 250  354.5965
 251  563.3769
 252  -247.5213
 253  -262.21
 254  -90.38333
 255  109.1762
 256  125.2362
 257  205.1135
 258  342.3549
 259  -273.3536
 260  -391.3455
 261  10.0601
 262  114.6831
 263  -131.3727
 264  -207.0719
 265  72.64459
 266  -71.60987
 267  -243.2418
 268  391.5587
 269  1023.74
 270  199.3163
 271  271.7914
 272  252.0452
 273  493.3343
 274  405.5381
 275  245.7418
 276  378.1158
 277  607.4414
 278  852.1974
 279  569.8297
 280  386.1033
 281  434.1397
 282  -332.4169
 283  -418.6041
 284  -635.288
 285  -171.5941
 286  -5.258127
 287  -51.28524
 288  -159.2021
 289  -505.0163
 290  -200.3668
 291  -396.201
 292  -485.5008
 293  98.84513
 294  557.7521
 295  60.35212
 296  -196.9364
 297  -316.0162
 298  279.846
 299  305.497
 300  -42.30751
 301  234.3807
 302  72.64857
 303  240.2155
 304  577.9812
 305  422.5459
 306  711.3055
 307  662.7485
 308  1062.793
 309  766.632
 310  837.8528
 311  939.5211
 312  762.1593
 313  -31.24769
 314  -101.3313
 315  194.9858
 316  380.1858
 317  113.2218
 318  404.4847
 319  311.7645
 320  176.1427
 321  -139.8734
 322  -233.6191
 323  357.5166
 324  -5.995072
 325  198.9588
 326  -224.1078
 327  -295.2849
 328  -340.9323
 329  -669.3721
 330  -848.1564
 331  -881.2237
 332  -437.384
 333  -652.5778
 334  -652.3642
 335  -302.114
 336  -141.957
 337  -106.2224
 338  77.16725
 339  135.2036
 340  -91.20989
 341  -133.527
 342  -276.125
 343  -120.2344
 344  189.3792
 345  513.6904
 346  -33.41047
 347  -270.5416
 348  -144.8597
 349  -644.6918
 350  -191.6194
 351  161.4295
 352  671.6108
 353  568.286
 354  277.1963
 355  151.7891
 356  -418.076
 357  -168.6687
 358  -364.5649
 359  -126.458
 360  -53.52739
 361  -114.4488
 362  -519.7346
 363  -209.4597
 364  195.5381
 365  -269.531
 366  -587.179
 367  -190.8094
 368  -537.2908
 369  -26.8485
 370  -91.28938
 371  -122.2126
 372  -112.7722
 373  -444.8564
 374  -214.654
 375  37.9469
 376  23.48592
 377  -193.7337
 378  -35.19458
 379  -307.5238
 380  -386.8887
 381  -202.1676
 382  99.86993
 383  18.56587
 384  115.8414
 385  404.6272
 386  -18.20654
 387  -501.8758
 388  -795.0681
 389  -1102.722
 390  -260.6288
 391  -230.0593
 392  279.6577
 393  148.8324
 394  -160.4459
 395  -682.0999
 396  -1503.635
 397  -1082.891
 398  -614.4368
 399  -210.5275
 400  -479.3097
 401  -111.2216
 402  24.03622
 403  -452.579
 404  -682.8157
 405  -1111.882
 406  -425.0975
 407  -300.6746
 408  -82.36222
 409  -348.4135
 410  -467.2551
 411  -659.8398
 412  -922.7059
 413  -533.527
 414  -220.9995
 415  -107.0747
 416  -89.64568
 417  -254.1143
 418  -568.5075
 419  -387.2554
 420  -39.54372
 421  -31.26086
 422  -100.6746
 423  -425.5374
 424  -690.6996
 425  -771.0794
 426  -505.2164
 427  -285.1025
 428  -414.553
 429  -331.6843
 430  -421.8712
 431  -295.8313
 432  -781.6127
 433  -744.3766
 434  -315.3093
 435  -261.0578
 436  -47.35621
 437  -245.3716
 438  -416.4159
 439  -868.8
 440  -779.7297
 441  -437.2023
 442  -568.3829
 443  193.0037
 444  -44.06991
 445  -100.1929
 446  -380.0849
 447  -607.3062
 448  -763.4492
 449  -971.3658
 450  -102.807
 451  150.1355
 452  269.8365
 453  517.6478
 454  -403.4149
 455  -1027.121
 456  -546.2702
 457  -93.78587
 458  127.9489
 459  417.9727
 460  -357.3893
 461  -411.3012
 462  -351.5514
 463  -515.6028
 464  -127.6833
 465  -428.3844
 466  278.0794
 467  333.6052
 468  519.9633
 469  409.3333
 470  -199.6371
 471  -401.0941
 472  -388.1488
 473  290.8558
 474  629.2405
 475  814.6179
 476  630.6505
 477  407.7947
 478  -62.21155
 479  -192.0692
 480  271.7157
 481  281.1315
 482  179.652
 483  129.6499
 484  483.6613
 485  154.5816
 486  307.5153
 487  495.0105
 488  173.5885
 489  -181.9756
 490  57.12081
 491  535.1842
 492  749.1714
 493  357.4382
 494  160.1845
 495  70.3342
 496  -220.9771
 497  -460.3572
 498  -164.6977
 499  185.596
 500  241.3851
 501  19.43215
 502  69.93783
 503  447.7794
 504  106.9552
 505  445.2866
 506  353.0826
 507  119.3542
 508  -170.3947
 509  -688.3673
 510  -439.7018
 511  -432.558
