# Input file       =  1194051750.097979-PSRB0329-2ms-sampling-dd.dat
# Candidate        =  PSR_0332+5434
# Telescope        =  AR
# Epoch_topo       =  58064.043623819205
# Epoch_bary       =  N/A
# T_sample         =  0.002
# Data Folded      =  7340032
# Data Avg         =  -9.23748160459662e-10
# Data StdDev      =  4.97978700802111 
# Profile Bins     =  512
# Profile Avg      =  0.143167089052071
# Profile StdDev   =  596.245018979939 
# Reduced chi-sqr  =  0.729
# Prob(Noise)      <  1   (~0.0 sigma)
# P_topo (ms)      =  714.501695485003  +/- 0.000284
# P'_topo (s/s)    =  -0                +/- 1.5e-10
# P''_topo (s/s^2) =  0                 +/- 6.62e-14
# P_bary (ms)      =  N/A
# P'_bary (s/s)    =  N/A
# P''_bary (s/s^2) =  N/A
# P_orb (s)        =  N/A
# asin(i)/c (s)    =  N/A
# eccentricity     =  N/A
# w (rad)          =  N/A
# T_peri           =  N/A
######################################################
   0  298.2542
   1  -207.3249
   2  -557.7537
   3  -411.1356
   4  -330.2498
   5  -361.2296
   6  -165.1792
   7  -100.6395
   8  219.9936
   9  -126.8444
  10  -199.9379
  11  -327.1767
  12  -652.7795
  13  -494.2551
  14  -551.7498
  15  -290.2367
  16  -311.3479
  17  -254.3038
  18  14.79558
  19  -206.8239
  20  -237.3938
  21  -566.6847
  22  -527.5356
  23  -355.9303
  24  -86.60123
  25  241.5803
  26  274.307
  27  344.8598
  28  -337.0883
  29  -58.21297
  30  -261.5654
  31  -716.1242
  32  -604.1289
  33  -140.7575
  34  478.1413
  35  -220.142
  36  -389.6794
  37  -154.3085
  38  -220.399
  39  -275.8102
  40  -13.07898
  41  383.6289
  42  -45.84718
  43  -233.9379
  44  -120.7985
  45  -88.40369
  46  123.2577
  47  99.7703
  48  562.4574
  49  446.0213
  50  379.6626
  51  94.49561
  52  -219.528
  53  -193.5711
  54  63.87648
  55  89.1757
  56  -244.203
  57  -9.927789
  58  -2.69935
  59  3.059974
  60  122.8078
  61  132.0266
  62  209.4544
  63  19.87837
  64  654.0421
  65  418.7031
  66  927.9071
  67  1426.619
  68  1953.674
  69  1435.866
  70  1464.226
  71  1284.924
  72  609.6
  73  731.931
  74  721.5881
  75  314.4269
  76  169.0921
  77  -61.35546
  78  -367.3299
  79  -386.9698
  80  103.7626
  81  340.1609
  82  353.331
  83  428.4472
  84  229.1064
  85  110.3372
  86  -117.6786
  87  -27.00775
  88  -2.209072
  89  292.7256
  90  286.85
  91  19.63002
  92  28.6174
  93  -214.6181
  94  -263.1156
  95  -30.41452
  96  -334.4732
  97  -475.8403
  98  -331.5544
  99  -2.739234
 100  -31.39431
 101  -1.144274
 102  -229.3485
 103  483.7133
 104  244.7601
 105  162.1153
 106  -145.6574
 107  176.1456
 108  579.6056
 109  400.7164
 110  448.2595
 111  93.61708
 112  353.4505
 113  8.435031
 114  223.4728
 115  206.0435
 116  102.6286
 117  261.9769
 118  -363.2755
 119  -540.9819
 120  -166.7798
 121  -145.4393
 122  134.7829
 123  579.533
 124  27.4237
 125  -429.5469
 126  -332.9754
 127  -80.69872
 128  -247.0601
 129  -111.7892
 130  -47.37288
 131  -264.83
 132  -0.6986309
 133  -86.73836
 134  -363.1177
 135  -194.8177
 136  132.5616
 137  144.7913
 138  309.3349
 139  -128.1159
 140  387.3448
 141  564.7425
 142  729.4654
 143  935.5909
 144  610.0402
 145  320.8175
 146  97.94278
 147  116.8726
 148  -68.27361
 149  -354.6042
 150  154.8182
 151  334.5244
 152  -48.86573
 153  -205.8447
 154  -393.4263
 155  -526.2881
 156  34.57893
 157  53.40444
 158  -62.76921
 159  -127.6145
 160  -201.3873
 161  -338.5509
 162  -590.5997
 163  -752.7745
 164  -478.3623
 165  -406.5691
 166  72.96664
 167  -53.59256
 168  -255.3912
 169  -571.8877
 170  -835.8135
 171  -579.7656
 172  -222.119
 173  -197.4994
 174  13.24503
 175  95.67697
 176  240.2476
 177  335.8414
 178  88.61952
 179  -180.3825
 180  -339.8639
 181  88.56596
 182  150.3753
 183  -13.34184
 184  294.5175
 185  146.5144
 186  -19.7353
 187  -41.96906
 188  50.22303
 189  -105.8416
 190  50.44959
 191  -138.3988
 192  -42.82102
 193  112.9644
 194  -216.7075
 195  1.986999
 196  -194.9859
 197  -371.5696
 198  -316.3912
 199  -158.3194
 200  -31.67546
 201  -160.1417
 202  -150.666
 203  -339.9614
 204  30.35258
 205  402.034
 206  394.8859
 207  29.29953
 208  234.0782
 209  531.6985
 210  185.4843
 211  93.35535
 212  283.0415
 213  297.2672
 214  515.7449
 215  559.5185
 216  412.6025
 217  229.7377
 218  178.7041
 219  64.56596
 220  136.5761
 221  61.23227
 222  -48.689
 223  22.75779
 224  101.2271
 225  88.30397
 226  -126.3306
 227  86.4463
 228  -189.2977
 229  -622.3228
 230  -311.4376
 231  15.19244
 232  -47.97856
 233  157.498
 234  157.1088
 235  24.81929
 236  -444.7753
 237  -1.13781
 238  47.96819
 239  529.422
 240  623.5468
 241  323.2767
 242  190.8106
 243  -305.1859
 244  -64.71523
 245  -159.5509
 246  -7.074182
 247  48.87918
 248  -67.27692
 249  -353.1837
 250  -191.3193
 251  37.61175
 252  -58.00531
 253  -371.5681
 254  -121.4231
 255  -20.41779
 256  -272.9134
 257  -365.165
 258  -19.13098
 259  -449.2521
 260  -178.1573
 261  46.09099
 262  -221.1126
 263  -504.2642
 264  -158.589
 265  -148.9314
 266  34.47858
 267  935.5473
 268  611.3517
 269  370.4461
 270  -6.940121
 271  485.3602
 272  253.6884
 273  26.45983
 274  582.5229
 275  582.95
 276  702.3047
 277  745.4289
 278  746.6738
 279  751.4065
 280  671.4159
 281  869.9327
 282  689.6656
 283  539.674
 284  332.68
 285  406.0839
 286  -82.86496
 287  5.957407
 288  52.06353
 289  273.0411
 290  386.8767
 291  204.238
 292  163.032
 293  391.5023
 294  105.3478
 295  -23.23598
 296  -105.644
 297  -59.72141
 298  -12.15569
 299  310.3318
 300  593.7893
 301  639.7205
 302  487.4478
 303  626.7063
 304  645.7099
 305  332.1241
 306  694.8494
 307  734.9059
 308  578.9637
 309  429.0199
 310  836.2351
 311  354.341
 312  -247.6105
 313  192.5721
 314  411.7888
 315  264.7001
 316  15.70705
 317  106.0373
 318  319.0328
 319  142.6885
 320  188.9534
 321  75.93125
 322  462.0778
 323  165.2717
 324  -221.4253
 325  179.6207
 326  44.02172
 327  -322.3136
 328  -239.0127
 329  316.3397
 330  126.8102
 331  50.2676
 332  337.5446
 333  567.1611
 334  230.1269
 335  -43.86139
 336  -189.0586
 337  -229.0872
 338  -148.2415
 339  39.08995
 340  21.06011
 341  -99.06229
 342  171.6785
 343  258.6536
 344  -153.5694
 345  -167.4103
 346  -302.8562
 347  234.7978
 348  135.9711
 349  -164.6565
 350  542.9708
 351  186.3711
 352  57.43294
 353  94.43623
 354  452.8531
 355  190.4309
 356  132.4952
 357  318.431
 358  -107.2983
 359  377.8746
 360  -28.61901
 361  -106.7998
 362  -59.27293
 363  68.51555
 364  200.4045
 365  -385.1039
 366  185.1317
 367  306.407
 368  21.11624
 369  74.53027
 370  170.9924
 371  -36.97735
 372  -259.3209
 373  -68.7589
 374  -1.507027
 375  35.57301
 376  -128.8914
 377  -164.0877
 378  -405.3249
 379  -722.9522
 380  -896.8432
 381  -660.009
 382  -442.146
 383  -526.1281
 384  -709.4623
 385  -674.7785
 386  -465.3784
 387  -207.9312
 388  -168.3526
 389  225.4404
 390  -203.7468
 391  -216.3134
 392  -155.7274
 393  -21.98445
 394  81.18448
 395  -388.2775
 396  124.1533
 397  -316.4195
 398  -111.1755
 399  130.9414
 400  122.8968
 401  45.62713
 402  -91.13063
 403  303.2149
 404  284.1157
 405  395.2285
 406  90.28786
 407  -267.3283
 408  -104.0846
 409  -355.348
 410  -386.4836
 411  -56.61938
 412  -109.5879
 413  -53.00814
 414  175.8236
 415  -203.4073
 416  -569.7332
 417  -127.3415
 418  72.38852
 419  -40.10539
 420  -586.962
 421  -74.61316
 422  -329.1386
 423  -255.109
 424  -272.3621
 425  -385.7297
 426  -107.7607
 427  -321.6528
 428  -184.2022
 429  91.49023
 430  137.6967
 431  -8.190705
 432  68.57503
 433  409.311
 434  405.1568
 435  216.5139
 436  -70.41703
 437  344.9499
 438  161.5298
 439  165.7078
 440  317.5324
 441  361.1353
 442  134.1216
 443  -316.8171
 444  -398.6913
 445  -443.8005
 446  47.87453
 447  254.2466
 448  -92.95495
 449  -69.41856
 450  -315.6639
 451  -506.6173
 452  -555.5457
 453  -172.1016
 454  184.2317
 455  -97.75217
 456  -461.3092
 457  -305.7108
 458  -362.9295
 459  -490.0261
 460  -587.8115
 461  -441.9666
 462  -403.6469
 463  56.98008
 464  -175.598
 465  -100.1342
 466  -250.7855
 467  -442.3217
 468  -169.6203
 469  -449.2383
 470  -78.49761
 471  -182.2367
 472  -417.4786
 473  -447.0493
 474  -572.0638
 475  -679.1893
 476  -579.0403
 477  -445.5436
 478  -677.4344
 479  -341.4748
 480  74.68745
 481  116.982
 482  171.0377
 483  -99.87959
 484  99.45834
 485  -614.0217
 486  -353.7585
 487  -295.7442
 488  376.5989
 489  -49.27792
 490  345.7866
 491  764.8235
 492  -191.9914
 493  -330.1525
 494  -612.47
 495  -754.3004
 496  -608.1342
 497  -322.308
 498  -335.9095
 499  -687.7269
 500  -264.6824
 501  -176.1644
 502  -384.0085
 503  -502.8005
 504  -494.2295
 505  -265.2584
 506  -388.7437
 507  -620.6283
 508  -334.3264
 509  -331.86
 510  -486.8571
 511  132.2363
