# Input file       =  1194396499.114743_cleaned.dat
# Candidate        =  PSR_0332+5434
# Telescope        =  AR
# Epoch_topo       =  58068.033774476193
# Epoch_bary       =  N/A
# T_sample         =  0.002
# Data Folded      =  7340032
# Data Avg         =  0.0047546139381755
# Data StdDev      =  1.00007858220604 
# Profile Bins     =  512
# Profile Avg      =  68.2387788798295 
# Profile StdDev   =  119.742445262901 
# Reduced chi-sqr  =  1.106
# Prob(Noise)      <  0.0486   (~1.7 sigma)
# P_topo (ms)      =  714.505570548017  +/- 0.000288
# P'_topo (s/s)    =  -0                +/- 1.52e-10
# P''_topo (s/s^2) =  0                 +/- 6.7e-14
# P_bary (ms)      =  N/A
# P'_bary (s/s)    =  N/A
# P''_bary (s/s^2) =  N/A
# P_orb (s)        =  N/A
# asin(i)/c (s)    =  N/A
# eccentricity     =  N/A
# w (rad)          =  N/A
# T_peri           =  N/A
######################################################
   0  540.09
   1  535.5435
   2  357.013
   3  244.1634
   4  163.702
   5  31.91534
   6  -73.23757
   7  -62.54885
   8  90.20473
   9  158.8216
  10  229.2016
  11  240.1193
  12  103.9242
  13  48.3735
  14  -2.244127
  15  74.09312
  16  98.91045
  17  80.04499
  18  47.31258
  19  4.052409
  20  -68.36153
  21  -198.5918
  22  -122.0445
  23  -19.16994
  24  13.35338
  25  -55.24249
  26  53.77909
  27  2.098041
  28  20.93682
  29  26.54578
  30  99.9132
  31  107.9567
  32  124.8845
  33  123.3403
  34  -30.42966
  35  -103.8519
  36  -25.49052
  37  43.43615
  38  30.68833
  39  70.92104
  40  16.21049
  41  91.55972
  42  -15.83244
  43  -30.4715
  44  -14.80854
  45  97.73917
  46  72.65208
  47  46.70644
  48  39.09673
  49  49.55976
  50  131.6041
  51  47.84937
  52  -11.17891
  53  -106.1286
  54  -26.34995
  55  -123.9607
  56  -117.6712
  57  -3.503076
  58  63.34273
  59  56.93785
  60  88.03943
  61  135.3182
  62  67.97289
  63  45.99391
  64  63.85562
  65  13.06221
  66  -17.00604
  67  -27.38581
  68  -75.81172
  69  21.06841
  70  2.203091
  71  -8.1903
  72  27.88684
  73  49.00931
  74  115.2167
  75  49.80616
  76  -4.506785
  77  14.37449
  78  -27.06338
  79  29.48694
  80  22.69199
  81  -72.00463
  82  116.0158
  83  125.3091
  84  25.53622
  85  40.10175
  86  164.7173
  87  82.83681
  88  -26.88561
  89  -82.89106
  90  -59.64697
  91  14.18982
  92  -74.76688
  93  -245.9945
  94  -102.9633
  95  -30.92274
  96  -31.95255
  97  -87.71967
  98  -154.7366
  99  -125.9652
 100  -118.1729
 101  -45.80738
 102  36.96546
 103  -40.07848
 104  -110.398
 105  -139.3712
 106  -163.7053
 107  -121.7067
 108  -130.9484
 109  -38.6642
 110  -46.47037
 111  -157.0571
 112  -73.47395
 113  43.71631
 114  -27.16448
 115  -36.28632
 116  73.18842
 117  -75.63038
 118  -94.33118
 119  -27.86045
 120  23.01203
 121  67.20844
 122  95.65804
 123  147.8067
 124  46.7065
 125  100.5167
 126  47.58967
 127  30.22201
 128  176.2364
 129  45.03437
 130  90.41575
 131  59.1734
 132  82.8847
 133  63.0879
 134  149.2174
 135  103.9107
 136  108.7409
 137  130.5097
 138  105.0436
 139  37.99567
 140  113.6535
 141  121.4758
 142  171.4106
 143  206.6743
 144  108.7267
 145  -17.01054
 146  -2.765822
 147  44.70332
 148  25.20935
 149  -6.557741
 150  79.35593
 151  98.67173
 152  60.89851
 153  14.78714
 154  38.01975
 155  -3.916571
 156  9.155007
 157  153.336
 158  52.38014
 159  -5.970617
 160  66.54939
 161  69.84665
 162  49.56343
 163  128.3251
 164  122.0195
 165  168.8521
 166  96.59679
 167  176.6571
 168  120.7843
 169  -98.10494
 170  -148.5383
 171  -47.8119
 172  131.9257
 173  113.0314
 174  0.04413227
 175  35.51196
 176  139.4961
 177  25.18205
 178  -73.9616
 179  -2.801362
 180  58.51503
 181  8.999225
 182  -28.95599
 183  -30.34703
 184  -84.18061
 185  53.80884
 186  103.6673
 187  31.10516
 188  -13.42185
 189  38.84535
 190  74.97153
 191  45.91239
 192  97.87665
 193  163.0503
 194  169.164
 195  165.7183
 196  183.8288
 197  112.7178
 198  106.487
 199  105.5042
 200  107.1895
 201  67.39073
 202  21.16841
 203  151.6404
 204  90.77287
 205  120.7098
 206  23.95233
 207  62.54391
 208  117.1771
 209  19.85915
 210  58.63648
 211  78.05661
 212  19.12076
 213  31.28236
 214  42.61359
 215  -126.3941
 216  0.2111188
 217  124.593
 218  91.48643
 219  36.49102
 220  -60.62349
 221  -55.7462
 222  -3.239405
 223  74.02394
 224  -29.14818
 225  -20.79976
 226  103.517
 227  71.99764
 228  -7.320533
 229  31.1388
 230  135.6091
 231  80.49883
 232  87.39176
 233  46.92221
 234  -2.608345
 235  12.27522
 236  55.89943
 237  -59.7301
 238  18.54541
 239  75.28793
 240  46.34431
 241  109.7718
 242  102.114
 243  22.20991
 244  27.63123
 245  71.91764
 246  138.9533
 247  93.57772
 248  62.8905
 249  133.9935
 250  136.7027
 251  72.43311
 252  -3.293056
 253  4.411561
 254  59.98764
 255  -18.77491
 256  -42.28327
 257  19.75418
 258  72.31382
 259  17.63228
 260  47.61502
 261  168.3372
 262  173.3405
 263  70.80764
 264  32.13525
 265  118.1864
 266  99.01173
 267  88.82031
 268  114.3782
 269  141.6701
 270  166.1433
 271  138.7966
 272  210.5755
 273  290.2521
 274  215.0903
 275  179.6257
 276  68.36822
 277  111.4231
 278  128.8943
 279  248.4364
 280  163.7109
 281  90.47769
 282  110.7252
 283  70.6442
 284  67.04494
 285  185.863
 286  154.3309
 287  122.8761
 288  233.9388
 289  235.4488
 290  183.0615
 291  138.8349
 292  186.9586
 293  168.6839
 294  180.3444
 295  148.8445
 296  158.5783
 297  210.955
 298  183.866
 299  127.8215
 300  123.1221
 301  101.6715
 302  115.1963
 303  37.71309
 304  0.4640675
 305  18.27246
 306  79.88414
 307  171.5197
 308  113.2253
 309  4.506637
 310  68.80415
 311  94.51267
 312  39.57177
 313  11.1436
 314  7.403975
 315  15.84181
 316  92.09338
 317  108.4725
 318  74.34842
 319  67.4202
 320  137.4698
 321  97.157
 322  49.57505
 323  30.7707
 324  32.59504
 325  -47.98333
 326  -33.96869
 327  87.39265
 328  81.38868
 329  103.6038
 330  150.5643
 331  81.52829
 332  6.86238
 333  118.7316
 334  202.9648
 335  129.0032
 336  149.5574
 337  71.90567
 338  -45.24086
 339  33.25606
 340  35.87627
 341  67.98531
 342  27.30198
 343  52.46574
 344  38.58668
 345  167.0913
 346  117.1054
 347  -21.92025
 348  -79.79885
 349  6.080166
 350  87.32001
 351  108.4227
 352  -3.218188
 353  -33.97126
 354  114.36
 355  170.1028
 356  120.3796
 357  28.89864
 358  15.76683
 359  89.60753
 360  102.1625
 361  124.7117
 362  85.01221
 363  67.92706
 364  25.78492
 365  7.817223
 366  116.6719
 367  91.94174
 368  93.65353
 369  112.1731
 370  103.6551
 371  95.63197
 372  79.92239
 373  81.64514
 374  113.7968
 375  83.04741
 376  89.87922
 377  85.90078
 378  108.6357
 379  9.761778
 380  -7.472817
 381  5.791843
 382  16.92141
 383  88.3931
 384  40.68399
 385  119.013
 386  177.552
 387  69.79945
 388  145.057
 389  24.72978
 390  -0.3471784
 391  107.1008
 392  83.37526
 393  188.0406
 394  61.48581
 395  -17.55542
 396  99.4701
 397  82.29358
 398  64.23528
 399  112.4832
 400  163.1338
 401  160.4202
 402  43.05223
 403  39.90909
 404  38.1204
 405  65.11357
 406  82.9819
 407  104.089
 408  74.74827
 409  181.4969
 410  135.5889
 411  50.83158
 412  -29.61049
 413  -49.94298
 414  43.19718
 415  91.69337
 416  70.55674
 417  1.000221
 418  32.3585
 419  112.639
 420  75.77328
 421  120.534
 422  130.2127
 423  83.93456
 424  33.28238
 425  130.1955
 426  138.8973
 427  104.4218
 428  213.0103
 429  153.6528
 430  63.45906
 431  -17.53855
 432  61.22198
 433  49.48067
 434  34.77859
 435  167.6397
 436  223.3129
 437  192.4895
 438  163.5675
 439  194.0566
 440  117.3886
 441  139.0921
 442  51.14692
 443  46.54325
 444  9.832491
 445  167.9681
 446  259.6697
 447  205.6714
 448  126.5034
 449  173.6756
 450  206.7933
 451  151.7776
 452  178.3959
 453  161.123
 454  77.37162
 455  14.94161
 456  -42.72174
 457  32.1994
 458  56.64501
 459  40.66226
 460  107.524
 461  71.71707
 462  -2.802481
 463  -37.18144
 464  -14.82647
 465  14.68091
 466  42.31256
 467  97.31245
 468  9.637316
 469  46.65886
 470  73.26638
 471  181.113
 472  183.4219
 473  49.50909
 474  32.35913
 475  21.44116
 476  122.7948
 477  71.38917
 478  79.1703
 479  185.7713
 480  109.6492
 481  57.57286
 482  36.77502
 483  157.3281
 484  72.95804
 485  -10.19981
 486  141.3615
 487  150.6149
 488  257.7417
 489  105.2731
 490  37.7864
 491  65.05905
 492  110.3909
 493  90.22284
 494  14.08007
 495  76.91705
 496  88.08923
 497  110.5971
 498  206.1373
 499  140.8906
 500  70.71925
 501  58.22882
 502  89.16554
 503  9.984712
 504  75.41148
 505  162.1851
 506  213.3565
 507  215.7757
 508  314.0609
 509  340.3062
 510  361.8478
 511  540.9717
