# Input file       =  1194209154.098369_cleaned.dat
# Candidate        =  PSR_0332+5434
# Telescope        =  AR
# Epoch_topo       =  58065.865429379272
# Epoch_bary       =  N/A
# T_sample         =  0.002
# Data Folded      =  7340032
# Data Avg         =  0.0336859936993623
# Data StdDev      =  1.00010510086771 
# Profile Bins     =  512
# Profile Avg      =  482.473376599066 
# Profile StdDev   =  119.745620422783 
# Reduced chi-sqr  =  1.187
# Prob(Noise)      <  0.00226   (~2.8 sigma)
# P_topo (ms)      =  714.503115824875  +/- 0.000466
# P'_topo (s/s)    =  -0                +/- 2.46e-10
# P''_topo (s/s^2) =  0                 +/- 1.09e-13
# P_bary (ms)      =  N/A
# P'_bary (s/s)    =  N/A
# P''_bary (s/s^2) =  N/A
# P_orb (s)        =  N/A
# asin(i)/c (s)    =  N/A
# eccentricity     =  N/A
# w (rad)          =  N/A
# T_peri           =  N/A
######################################################
   0  1056.55
   1  907.0977
   2  919.6179
   3  673.024
   4  576.7829
   5  512.7682
   6  492.8486
   7  608.9563
   8  416.7089
   9  296.5876
  10  466.3767
  11  630.4144
  12  487.0445
  13  516.5878
  14  646.0772
  15  664.8681
  16  535.4798
  17  628.024
  18  566.8156
  19  511.7888
  20  619.6336
  21  533.6733
  22  585.9886
  23  492.8137
  24  407.1012
  25  421.8167
  26  487.6112
  27  476.1205
  28  459.4319
  29  462.3824
  30  365.5974
  31  434.0737
  32  475.5667
  33  525.4365
  34  461.8415
  35  482.8576
  36  492.208
  37  397.7299
  38  438.5408
  39  393.1703
  40  460.3226
  41  620.3776
  42  550.6933
  43  506.6234
  44  393.3502
  45  381.2348
  46  416.1037
  47  368.3677
  48  418.1523
  49  441.9277
  50  547.7104
  51  540.4833
  52  549.7425
  53  475.6812
  54  487.226
  55  423.5441
  56  507.2302
  57  590.8038
  58  600.0237
  59  548.0533
  60  517.7404
  61  487.8439
  62  430.4827
  63  446.5237
  64  568.4541
  65  609.039
  66  612.7159
  67  578.4206
  68  561.0771
  69  524.3547
  70  451.5564
  71  499.2533
  72  382.8733
  73  497.2615
  74  505.6375
  75  531.1406
  76  551.2941
  77  542.4451
  78  519.0013
  79  500.8141
  80  541.6226
  81  388.9813
  82  290.463
  83  332.8062
  84  363.2641
  85  294.6227
  86  445.7159
  87  467.2055
  88  476.169
  89  376.5444
  90  398.7845
  91  523.8245
  92  559.8695
  93  506.0951
  94  328.3507
  95  389.8901
  96  452.014
  97  505.7513
  98  446.7916
  99  443.9003
 100  467.4279
 101  451.1388
 102  531.1865
 103  439.8387
 104  413.1081
 105  337.1658
 106  382.7481
 107  336.5083
 108  328.5356
 109  449.5503
 110  362.5612
 111  367.4541
 112  355.2816
 113  254.4868
 114  324.2242
 115  377.5438
 116  430.8613
 117  332.0824
 118  356.3459
 119  438.6638
 120  427.5285
 121  395.7521
 122  546.9325
 123  509.1838
 124  486.7213
 125  446.8341
 126  328.3628
 127  419.0368
 128  499.2522
 129  465.2336
 130  410.1068
 131  376.3708
 132  376.1003
 133  452.2674
 134  416.5918
 135  340.7771
 136  411.2327
 137  350.606
 138  347.3897
 139  469.3133
 140  471.6966
 141  385.5919
 142  384.6861
 143  340.9076
 144  333.1458
 145  293.3782
 146  403.8464
 147  446.9484
 148  410.3468
 149  498.9301
 150  440.8949
 151  426.4201
 152  442.0096
 153  347.8174
 154  449.6816
 155  466.4847
 156  414.6827
 157  400.478
 158  495.1254
 159  492.9601
 160  486.2431
 161  494.153
 162  470.2161
 163  366.7898
 164  456.5961
 165  500.8924
 166  531.7477
 167  446.8546
 168  398.4332
 169  430.0004
 170  450.6023
 171  450.4736
 172  492.3992
 173  418.4041
 174  430.3714
 175  481.3909
 176  459.9741
 177  437.8805
 178  401.8559
 179  519.0651
 180  531.2479
 181  544.5287
 182  447.5221
 183  415.279
 184  436.6059
 185  507.5372
 186  488.2167
 187  599.0898
 188  661.0683
 189  585.1833
 190  475.7037
 191  372.2666
 192  491.4114
 193  431.6115
 194  371.7024
 195  379.5821
 196  387.0193
 197  415.3964
 198  495.0076
 199  584.1216
 200  510.1601
 201  443.6585
 202  520.6009
 203  500.8379
 204  576.4384
 205  455.6398
 206  398.2195
 207  443.7037
 208  545.9278
 209  420.9023
 210  309.2565
 211  447.1728
 212  426.7142
 213  410.5482
 214  448.2648
 215  488.3077
 216  314.6674
 217  338.4684
 218  441.7843
 219  404.6302
 220  270.4502
 221  358.6573
 222  436.4091
 223  438.2291
 224  383.4084
 225  340.384
 226  350.3315
 227  363.8294
 228  387.3864
 229  407.9686
 230  300.2091
 231  322.341
 232  557.049
 233  577.339
 234  457.9344
 235  460.1967
 236  417.7393
 237  381.4144
 238  452.502
 239  414.7144
 240  507.5729
 241  530.5178
 242  539.3985
 243  504.3963
 244  449.3323
 245  467.7087
 246  473.4889
 247  411.1455
 248  444.0354
 249  490.0902
 250  456.2273
 251  493.3469
 252  466.6765
 253  343.3971
 254  284.5463
 255  430.2855
 256  519.4012
 257  457.7863
 258  451.9612
 259  554.4869
 260  585.3309
 261  516.3999
 262  457.5562
 263  484.1936
 264  475.4626
 265  432.7213
 266  444.7593
 267  452.638
 268  410.5618
 269  410.4509
 270  578.1667
 271  478.103
 272  342.4183
 273  444.7649
 274  403.7417
 275  332.2686
 276  386.9396
 277  501.1631
 278  561.0805
 279  518.0128
 280  475.458
 281  427.6993
 282  391.2144
 283  360.8662
 284  392.5185
 285  492.0515
 286  428.1285
 287  416.1536
 288  540.4766
 289  443.4185
 290  454.7683
 291  460.3186
 292  575.8846
 293  612.4175
 294  370.0208
 295  410.7246
 296  524.1729
 297  601.0546
 298  638.793
 299  488.765
 300  358.9247
 301  447.0851
 302  501.644
 303  424.9327
 304  493.4414
 305  424.2905
 306  423.0478
 307  380.8512
 308  404.5089
 309  480.015
 310  492.4216
 311  520.8925
 312  476.4518
 313  539.5735
 314  532.8533
 315  542.5826
 316  516.3306
 317  488.3101
 318  381.5475
 319  389.2932
 320  522.0421
 321  483.8857
 322  443.1708
 323  520.7265
 324  522.5692
 325  568.7239
 326  499.8173
 327  564.1317
 328  621.9806
 329  491.7576
 330  472.5092
 331  506.4778
 332  523.475
 333  490.979
 334  433.6752
 335  458.8855
 336  519.0466
 337  537.8781
 338  552.8856
 339  610.3726
 340  536.8141
 341  661.8199
 342  553.3319
 343  528.338
 344  426.7784
 345  459.045
 346  541.8542
 347  417.6725
 348  322.6164
 349  446.7885
 350  394.3562
 351  400.1259
 352  407.0317
 353  340.9675
 354  331.0633
 355  423.0711
 356  445.3265
 357  426.8938
 358  562.5458
 359  582.3961
 360  425.0482
 361  546.6868
 362  589.0547
 363  350.9275
 364  423.9929
 365  563.6914
 366  544.6328
 367  490.3877
 368  570.2762
 369  417.0077
 370  476.3499
 371  502.8486
 372  444.1933
 373  430.1933
 374  387.9067
 375  365.3548
 376  457.544
 377  455.5449
 378  526.7553
 379  487.3019
 380  449.2994
 381  472.5015
 382  459.1533
 383  370.0225
 384  455.5209
 385  335.2431
 386  352.8299
 387  465.6279
 388  418.4142
 389  428.0197
 390  455.8936
 391  473.3932
 392  589.1697
 393  547.3611
 394  508.4872
 395  500.9116
 396  417.2006
 397  384.2078
 398  434.5313
 399  449.3192
 400  485.7399
 401  493.7438
 402  539.6921
 403  564.7599
 404  436.358
 405  614.8423
 406  670.3934
 407  527.8268
 408  492.6524
 409  487.9633
 410  541.9452
 411  679.4178
 412  647.0305
 413  494.5638
 414  560.0208
 415  503.9036
 416  627.4807
 417  510.7108
 418  507.3983
 419  427.1039
 420  422.1913
 421  542.7358
 422  522.0562
 423  468.6815
 424  493.6502
 425  486.8442
 426  537.6109
 427  640.2366
 428  588.3463
 429  574.5353
 430  547.8231
 431  570.2313
 432  550.0256
 433  529.0587
 434  556.3138
 435  500.9714
 436  551.9343
 437  518.6317
 438  509.325
 439  509.7767
 440  587.1567
 441  510.6423
 442  621.4921
 443  536.5853
 444  549.8953
 445  465.8705
 446  410.0138
 447  440.7024
 448  500.4351
 449  519.568
 450  464.6156
 451  403.6657
 452  426.2401
 453  466.1314
 454  530.9625
 455  588.5021
 456  507.1522
 457  475.4229
 458  517.0025
 459  512.6924
 460  500.295
 461  538.6672
 462  613.8464
 463  602.3696
 464  521.8397
 465  585.131
 466  505.8765
 467  480.5809
 468  439.4592
 469  436.7519
 470  394.7952
 471  509.2753
 472  558.0391
 473  549.0093
 474  515.0777
 475  515.3384
 476  493.2091
 477  512.5701
 478  536.302
 479  503.4761
 480  535.4349
 481  550.4675
 482  563.7565
 483  639.4319
 484  558.7637
 485  518.6756
 486  437.6277
 487  569.043
 488  707.9373
 489  711.3951
 490  697.1487
 491  670.0409
 492  658.1617
 493  615.4964
 494  582.0883
 495  534.601
 496  600.9725
 497  596.3569
 498  614.8273
 499  543.1362
 500  547.1906
 501  576.9572
 502  523.0533
 503  515.0209
 504  567.9032
 505  617.402
 506  648.2189
 507  709.7634
 508  534.3986
 509  606.4288
 510  835.7248
 511  1031.243
