# Input file       =  1194654907.104029-PSRB0329-2ms-sampling-dd.dat
# Candidate        =  PSR_0332+5434
# Telescope        =  AR
# Epoch_topo       =  58071.024607685518
# Epoch_bary       =  N/A
# T_sample         =  0.002
# Data Folded      =  7340032
# Data Avg         =  -5.58626676782127e-10
# Data StdDev      =  6.62893135491138 
# Profile Bins     =  512
# Profile Avg      =  -0.410012170798342
# Profile StdDev   =  793.702079056689 
# Reduced chi-sqr  =  0.487
# Prob(Noise)      <  1   (~0.0 sigma)
# P_topo (ms)      =  714.508545790186  +/- 0.000116
# P'_topo (s/s)    =  -0                +/- 6.13e-11
# P''_topo (s/s^2) =  0                 +/- 2.71e-14
# P_bary (ms)      =  N/A
# P'_bary (s/s)    =  N/A
# P''_bary (s/s^2) =  N/A
# P_orb (s)        =  N/A
# asin(i)/c (s)    =  N/A
# eccentricity     =  N/A
# w (rad)          =  N/A
# T_peri           =  N/A
######################################################
   0  -400.0704
   1  -116.4051
   2  -434.1613
   3  -35.85056
   4  11.38209
   5  -226.5199
   6  -261.9559
   7  -371.1995
   8  -626.0284
   9  -529.9117
  10  -795.0452
  11  -335.108
  12  -36.45797
  13  -121.2034
  14  -594.8829
  15  -368.5652
  16  -538.0562
  17  -698.5375
  18  -690.8053
  19  -246.9925
  20  270.4475
  21  -99.39548
  22  -378.5982
  23  -388.0699
  24  -589.467
  25  -211.0994
  26  -83.87153
  27  -91.73486
  28  -72.7668
  29  -225.7348
  30  369.1295
  31  484.7462
  32  193.5496
  33  -257.8211
  34  -358.2192
  35  -282.7452
  36  195.5474
  37  453.5457
  38  514.213
  39  -246.9583
  40  -1065.665
  41  -963.0168
  42  -1034.834
  43  -446.4679
  44  81.56465
  45  580.8934
  46  425.3662
  47  -372.1537
  48  -865.9475
  49  -1099.686
  50  -241.6667
  51  -1.096066
  52  409.772
  53  376.5006
  54  -146.9735
  55  -386.4072
  56  -253.1965
  57  -235.5952
  58  -648.7232
  59  -694.9
  60  -69.17032
  61  92.46126
  62  -363.6451
  63  -341.9925
  64  -276.3028
  65  -436.0075
  66  -186.2277
  67  -334.2184
  68  197.1159
  69  487.5182
  70  493.6326
  71  240.638
  72  317.3884
  73  769.5913
  74  559.2593
  75  66.56123
  76  -44.72332
  77  -106.9711
  78  171.4194
  79  321.7732
  80  462.263
  81  28.05618
  82  -310.6771
  83  -182.2328
  84  95.94421
  85  56.79209
  86  175.7849
  87  471.9821
  88  122.3412
  89  53.64347
  90  -227.3614
  91  -228.4086
  92  55.33253
  93  179.0777
  94  415.9753
  95  674.6657
  96  957.4918
  97  557.0568
  98  32.49895
  99  -70.82749
 100  -279.5339
 101  -269.3058
 102  -115.1273
 103  295.299
 104  407.5362
 105  90.04713
 106  -147.1293
 107  -533.6545
 108  -63.47116
 109  62.87316
 110  -165.5829
 111  212.8116
 112  637.2327
 113  821.015
 114  465.9802
 115  -274.4469
 116  -566.5842
 117  -429.8278
 118  -374.8339
 119  308.4429
 120  162.0491
 121  7.645738
 122  -646.6711
 123  -807.1297
 124  -892.1282
 125  -815.0739
 126  -293.5831
 127  -157.4924
 128  -90.88435
 129  -245.679
 130  -357.7668
 131  -732.4564
 132  -1095.91
 133  -1042.652
 134  -803.735
 135  -90.49904
 136  -128.4464
 137  -370.2611
 138  -154.1079
 139  83.78115
 140  -15.24842
 141  -476.4991
 142  -126.9717
 143  520.9896
 144  587.9373
 145  648.0891
 146  490.984
 147  100.7481
 148  461.4695
 149  401.8107
 150  175.8423
 151  620.284
 152  186.3324
 153  344.0671
 154  261.1523
 155  -52.89353
 156  167.9473
 157  -162.8117
 158  132.8763
 159  103.2103
 160  247.9192
 161  536.0458
 162  631.9474
 163  427.802
 164  -88.84043
 165  -370.5155
 166  -393.4428
 167  -288.1887
 168  -84.35187
 169  -293.5842
 170  -147.2521
 171  189.4997
 172  552.4556
 173  -9.782
 174  -228.0187
 175  -380.5828
 176  131.9546
 177  349.2175
 178  94.10819
 179  347.5117
 180  325.8161
 181  325.9044
 182  30.7636
 183  61.69416
 184  525.7818
 185  293.0071
 186  640.1619
 187  703.2121
 188  33.18703
 189  -92.59265
 190  -220.7056
 191  -372.9159
 192  -305.9091
 193  278.1982
 194  -170.8103
 195  186.8848
 196  131.1785
 197  -377.1198
 198  -737.9622
 199  -978.6765
 200  -65.30047
 201  -177.0635
 202  291.6746
 203  57.84097
 204  -56.47303
 205  -61.80861
 206  11.05912
 207  -273.1039
 208  -736.289
 209  -279.7515
 210  484.9123
 211  -20.31903
 212  -612.9309
 213  -384.1594
 214  -243.0764
 215  -91.79929
 216  -193.3725
 217  -49.65286
 218  -460.8547
 219  -190.2906
 220  618.2475
 221  715.5091
 222  330.1745
 223  -271.6149
 224  -11.92811
 225  34.92367
 226  231.6133
 227  256.2898
 228  280.9559
 229  520.6216
 230  39.84296
 231  -66.76199
 232  135.1615
 233  -675.5549
 234  -628.7365
 235  -559.4468
 236  -320.7752
 237  -108.0055
 238  -192.7538
 239  -155.0585
 240  -257.2964
 241  -603.7812
 242  -394.7544
 243  -307.2817
 244  180.5877
 245  110.048
 246  116.7748
 247  -223.8827
 248  -212.9825
 249  -158.828
 250  -296.5305
 251  -691.056
 252  -371.2866
 253  -153.5748
 254  -319.6978
 255  -8.16644
 256  3.491118
 257  -181.6728
 258  -116.6989
 259  41.77741
 260  -70.42661
 261  209.9706
 262  226.2353
 263  -458.6032
 264  -399.6391
 265  -135.6299
 266  382.1729
 267  382.0552
 268  402.6849
 269  365.3102
 270  327.6689
 271  304.0876
 272  477.6268
 273  736.5699
 274  326.2133
 275  -58.25074
 276  122.1821
 277  196.6243
 278  160.1892
 279  943.5527
 280  971.4071
 281  684.9874
 282  776.2589
 283  1171.809
 284  1008.08
 285  837.9567
 286  1294.052
 287  1093.98
 288  684.2902
 289  17.00923
 290  -570.8943
 291  -426.9662
 292  -403.3755
 293  -191.5576
 294  109.7227
 295  -171.4949
 296  209.4347
 297  550.8918
 298  224.2508
 299  61.47187
 300  197.2438
 301  203.427
 302  301.7373
 303  603.912
 304  196.4072
 305  18.9431
 306  -150.3047
 307  3.947796
 308  -219.8499
 309  -95.81631
 310  610.2757
 311  765.8506
 312  526.4623
 313  368.4076
 314  -59.36928
 315  -225.6453
 316  140.1222
 317  218.4171
 318  11.09595
 319  1.240389
 320  521.3896
 321  491.5197
 322  -36.6894
 323  -14.23905
 324  -22.64544
 325  -8.588276
 326  258.2286
 327  680.0505
 328  787.5927
 329  926.4454
 330  360.9349
 331  310.2531
 332  356.4533
 333  122.8678
 334  -353.006
 335  -66.60404
 336  152.6917
 337  46.29185
 338  -82.54794
 339  -179.9369
 340  -116.4831
 341  -458.8536
 342  -319.4308
 343  -516.6156
 344  83.72279
 345  52.57965
 346  255.1496
 347  123.1685
 348  -326.1986
 349  -20.66218
 350  -131.6982
 351  98.92942
 352  -36.76491
 353  -22.46934
 354  270.1184
 355  116.3966
 356  -465.7251
 357  -442.5848
 358  -687.5284
 359  -712.2217
 360  -429.9565
 361  163.9147
 362  691.2983
 363  498.8775
 364  415.1614
 365  152.5339
 366  38.47058
 367  -207.3195
 368  -117.1017
 369  482.2246
 370  625.9751
 371  390.3828
 372  -43.23078
 373  -100.281
 374  232.0514
 375  540.2949
 376  431.3573
 377  191.0305
 378  209.0726
 379  202.0729
 380  -39.47686
 381  136.3781
 382  -243.2217
 383  -354.0662
 384  67.25915
 385  445.1422
 386  -106.6326
 387  -76.09586
 388  -142.4961
 389  -647.945
 390  -216.5946
 391  175.9423
 392  687.2657
 393  938.799
 394  869.3086
 395  454.46
 396  567.9482
 397  493.2461
 398  551.761
 399  453.9113
 400  406.8817
 401  418.9251
 402  173.8736
 403  177.3716
 404  19.07354
 405  450.3987
 406  713.4612
 407  624.6286
 408  -112.4205
 409  -128.6236
 410  302.5449
 411  87.88571
 412  286.6979
 413  386.5518
 414  124.0055
 415  -232.0916
 416  182.5889
 417  -393.4764
 418  -611.6262
 419  -434.8963
 420  -228.9599
 421  -347.8126
 422  38.69133
 423  -251.3226
 424  -671.1119
 425  -334.4127
 426  273.7456
 427  459.436
 428  642.7546
 429  494.3362
 430  280.313
 431  -124.323
 432  -656.1992
 433  -914.537
 434  -318.6891
 435  241.0797
 436  57.30638
 437  180.7923
 438  -39.27367
 439  -130.0738
 440  77.20486
 441  -86.60845
 442  88.64995
 443  351.7156
 444  -194.3148
 445  151.9945
 446  393.3336
 447  535.6223
 448  414.709
 449  212.9959
 450  58.50626
 451  -225.4409
 452  14.55358
 453  -25.0184
 454  240.5686
 455  303.964
 456  -67.48891
 457  -181.1815
 458  -286.5984
 459  -389.59
 460  -384.9388
 461  28.43155
 462  -440.3504
 463  -313.7693
 464  -496.7714
 465  -577.618
 466  -687.78
 467  -493.1583
 468  -287.3138
 469  -410.2476
 470  -164.8192
 471  -334.9006
 472  -529.9506
 473  -857.2767
 474  -219.4715
 475  -60.24308
 476  -126.2523
 477  -500.245
 478  -396.1709
 479  -56.53765
 480  -270.4638
 481  53.915
 482  -219.3629
 483  -6.842715
 484  -52.64404
 485  -70.1041
 486  -406.5666
 487  -220.8072
 488  104.1855
 489  256.88
 490  226.3256
 491  -391.6499
 492  12.6699
 493  181.8834
 494  290.5138
 495  452.7776
 496  473.1696
 497  16.86798
 498  -87.85115
 499  51.11439
 500  165.3867
 501  66.64976
 502  222.0697
 503  -315.6061
 504  -487.0843
 505  -322.1549
 506  -300.8703
 507  -32.51831
 508  25.00328
 509  -132.1305
 510  -168.125
 511  -493.4484
