# Input file       =  1194036851.116523_cleaned.dat
# Candidate        =  PSR_0332+5434
# Telescope        =  AR
# Epoch_topo       =  58063.871181904200
# Epoch_bary       =  N/A
# T_sample         =  0.002
# Data Folded      =  7340032
# Data Avg         =  0.0686258280683044
# Data StdDev      =  2.83224088152433 
# Profile Bins     =  256
# Profile Avg      =  1967.5768971494  
# Profile StdDev   =  479.577921634799 
# Reduced chi-sqr  =  1.193
# Prob(Noise)      <  0.0187   (~2.1 sigma)
# P_topo (ms)      =  714.501198348006  +/- 0.000233
# P'_topo (s/s)    =  -0                +/- 1.23e-10
# P''_topo (s/s^2) =  0                 +/- 5.43e-14
# P_bary (ms)      =  N/A
# P'_bary (s/s)    =  N/A
# P''_bary (s/s^2) =  N/A
# P_orb (s)        =  N/A
# asin(i)/c (s)    =  N/A
# eccentricity     =  N/A
# w (rad)          =  N/A
# T_peri           =  N/A
######################################################
   0  1382.644
   1  1669.496
   2  1988.013
   3  1958.679
   4  1299.003
   5  1856.69
   6  1393.006
   7  2102.498
   8  2019.363
   9  1833.899
  10  1794.485
  11  2264.429
  12  1575.926
  13  1422.751
  14  1433.024
  15  2076.846
  16  1741.577
  17  1895.687
  18  2022.308
  19  2280.182
  20  1920.437
  21  1004.924
  22  1556.946
  23  2276.626
  24  2119.883
  25  1866.986
  26  1475.745
  27  2048.724
  28  1738.154
  29  2394.603
  30  2233.252
  31  1899.275
  32  2392.393
  33  1851.014
  34  1506.714
  35  1675.136
  36  1757.062
  37  1255.423
  38  1625.528
  39  1985.176
  40  1848.502
  41  1628.062
  42  1371.287
  43  1660.264
  44  1753.618
  45  1706.727
  46  2183.372
  47  1687.3
  48  1486.32
  49  2206.295
  50  2690.87
  51  2395.74
  52  2271.855
  53  2114.805
  54  2326.087
  55  2444.278
  56  1520.262
  57  1789.978
  58  1832.129
  59  1476.389
  60  1587.3
  61  1552.617
  62  1414.917
  63  1641.702
  64  1614.016
  65  1703.815
  66  1785.046
  67  2116.787
  68  1778.464
  69  2431.285
  70  1794.088
  71  2457.566
  72  2221.295
  73  2713.202
  74  2133.116
  75  2359.76
  76  2274.034
  77  1881.404
  78  1902.717
  79  1831.665
  80  2043.625
  81  1978.517
  82  2531.94
  83  2501.642
  84  1894.869
  85  1831.494
  86  2235.108
  87  2335.453
  88  2264.33
  89  1899.709
  90  2004.232
  91  2577.45
  92  2148.399
  93  2225.155
  94  1941.151
  95  2015.097
  96  1903.381
  97  2187.503
  98  1598.716
  99  1788.379
 100  1597.029
 101  1531.426
 102  1643.011
 103  1227.263
 104  1628.128
 105  1194.156
 106  1288.129
 107  1659.935
 108  1798.468
 109  1650.003
 110  2061.55
 111  2124.316
 112  2019.468
 113  1977.1
 114  1771.028
 115  2103.247
 116  1890.758
 117  2126.523
 118  1787.793
 119  1965.242
 120  2299.451
 121  1955.021
 122  2266.348
 123  2035.204
 124  2478.292
 125  2485.793
 126  2100.401
 127  1959.062
 128  1800.308
 129  2049.921
 130  1540.152
 131  1500.115
 132  2523.667
 133  2218.524
 134  1745.273
 135  1627.206
 136  2473.378
 137  1887.059
 138  1914.383
 139  1367.501
 140  1565.703
 141  1714.751
 142  2211.242
 143  1288.383
 144  1846.736
 145  2133.186
 146  2138.706
 147  2162.234
 148  2771.177
 149  2915.989
 150  1892.923
 151  1434.925
 152  2504.508
 153  2754.81
 154  2484.853
 155  3016.96
 156  2837.094
 157  4582.472
 158  5147.324
 159  3401.438
 160  2122.896
 161  2120.834
 162  1653.576
 163  2715.039
 164  2223.953
 165  2263.061
 166  2179.687
 167  2569.615
 168  2086.356
 169  2053.245
 170  1834.581
 171  1712.476
 172  1920.17
 173  1289.289
 174  2044.549
 175  1459.75
 176  1654.896
 177  1918.673
 178  1742.63
 179  1695.39
 180  2004.971
 181  2053.417
 182  2001.971
 183  2202.506
 184  1455.388
 185  2104.345
 186  2633.249
 187  2517.882
 188  2292.902
 189  2326.838
 190  2427.184
 191  2320.792
 192  2461.769
 193  1879.277
 194  1971.523
 195  1850.217
 196  2016.787
 197  1691.689
 198  1467.56
 199  1820.626
 200  1938.63
 201  2809.62
 202  1798.793
 203  1706.888
 204  2262.733
 205  2337.574
 206  2055.561
 207  1683.467
 208  1838.055
 209  2117.966
 210  1760.044
 211  1286.396
 212  2246.203
 213  1876.828
 214  1962.607
 215  1797.491
 216  2162.536
 217  2224.122
 218  2347.698
 219  1931.602
 220  1674.933
 221  2045.679
 222  1781.514
 223  1764.92
 224  1246.073
 225  2308.492
 226  1659.242
 227  1583.178
 228  1377.926
 229  1465.92
 230  2063.702
 231  1798.674
 232  1619.273
 233  1410.984
 234  2345.785
 235  1228.343
 236  1362.495
 237  1637.221
 238  2119.792
 239  1779.222
 240  2248.793
 241  2083.667
 242  1884.545
 243  1746.438
 244  2325.148
 245  1979.352
 246  1658.826
 247  1790.157
 248  1915.875
 249  1985.367
 250  2064.846
 251  1806.979
 252  1526.815
 253  1703.615
 254  2234.132
 255  1398.746
