# Input file       =  1194051750.097979_cleaned.dat
# Candidate        =  PSR_0332+5434
# Telescope        =  AR
# Epoch_topo       =  58064.043623819205
# Epoch_bary       =  N/A
# T_sample         =  0.002
# Data Folded      =  7340032
# Data Avg         =  0.0247269487397063
# Data StdDev      =  1.00006694125866 
# Profile Bins     =  512
# Profile Avg      =  354.459031698248 
# Profile StdDev   =  119.741051456924 
# Reduced chi-sqr  =  1.300
# Prob(Noise)      <  5.29e-06   (~4.4 sigma)
# P_topo (ms)      =  714.501695485003  +/- 0.000238
# P'_topo (s/s)    =  -0                +/- 1.25e-10
# P''_topo (s/s^2) =  0                 +/- 5.53e-14
# P_bary (ms)      =  N/A
# P'_bary (s/s)    =  N/A
# P''_bary (s/s^2) =  N/A
# P_orb (s)        =  N/A
# asin(i)/c (s)    =  N/A
# eccentricity     =  N/A
# w (rad)          =  N/A
# T_peri           =  N/A
######################################################
   0  469.391
   1  355.8362
   2  343.9491
   3  370.1646
   4  343.0617
   5  388.0993
   6  481.6
   7  431.6636
   8  428.0997
   9  278.0613
  10  316.8868
  11  262.6737
  12  181.8376
  13  276.771
  14  274.091
  15  268.6513
  16  271.3692
  17  322.42
  18  328.9985
  19  297.5743
  20  260.2542
  21  218.2079
  22  272.2592
  23  378.2565
  24  482.0501
  25  488.5669
  26  519.6002
  27  534.5565
  28  334.4178
  29  456.7074
  30  459.5674
  31  345.7041
  32  321.9856
  33  403.3808
  34  549.8314
  35  355.6188
  36  270.3864
  37  342.7323
  38  315.4669
  39  289.7061
  40  320.2219
  41  436.1725
  42  292.9752
  43  305.4328
  44  292.896
  45  336.9266
  46  411.2701
  47  320.4854
  48  407.5687
  49  424.0652
  50  350.9364
  51  353.9221
  52  262.7451
  53  241.8584
  54  295.7213
  55  223.2989
  56  202.2332
  57  305.5661
  58  372.3465
  59  347.7795
  60  453.6213
  61  420.1504
  62  311.2345
  63  427.7622
  64  678.33
  65  601.9399
  66  721.8781
  67  904.6161
  68  1044.554
  69  877.1526
  70  872.8018
  71  786.1373
  72  623.962
  73  584.0413
  74  471.6645
  75  364.9307
  76  427.8314
  77  381.0138
  78  331.0883
  79  382.9365
  80  470.6855
  81  440.733
  82  341.2556
  83  433.3807
  84  461.6635
  85  509.8932
  86  460.0727
  87  390.1883
  88  438.2908
  89  477.7706
  90  457.6269
  91  327.5782
  92  337.5387
  93  358.5933
  94  307.6791
  95  445.0366
  96  287.4121
  97  266.0873
  98  325.5816
  99  370.0666
 100  288.4297
 101  265.0924
 102  250.5424
 103  425.8625
 104  412.9225
 105  384.5813
 106  233.3714
 107  303.9241
 108  383.6526
 109  375.6133
 110  466.1196
 111  419.0253
 112  459.2239
 113  273.1543
 114  339.0478
 115  354.2949
 116  273.0366
 117  372.9929
 118  267.9793
 119  251.6506
 120  275.1385
 121  298.4901
 122  458.585
 123  593.5885
 124  375.9196
 125  252.7676
 126  266.5088
 127  332.9314
 128  317.2879
 129  371.8066
 130  383.2749
 131  307.6854
 132  422.9144
 133  349.9963
 134  261.3722
 135  253.1616
 136  328.4216
 137  376.0396
 138  330.0254
 139  244.5641
 140  405.8956
 141  476.0149
 142  393.1683
 143  491.6382
 144  403.244
 145  366.5798
 146  365.9901
 147  338.0126
 148  292.4541
 149  157.9528
 150  390.294
 151  519.2659
 152  376.0673
 153  279.8266
 154  193.0874
 155  181.6335
 156  380.0792
 157  383.0118
 158  380.0359
 159  414.3133
 160  454.1852
 161  414.6138
 162  347.4103
 163  238.0637
 164  253.6348
 165  233.4407
 166  415.4852
 167  389.2277
 168  291.5548
 169  326.9726
 170  232.6743
 171  233.3156
 172  221.6548
 173  227.4061
 174  258.5367
 175  290.3729
 176  341.0617
 177  339.3416
 178  430.4183
 179  363.8218
 180  322.3921
 181  371.4352
 182  377.8398
 183  304.8758
 184  314.5675
 185  306.8575
 186  246.5892
 187  316.7647
 188  325.4736
 189  334.3423
 190  432.1558
 191  262.622
 192  289.4015
 193  350.2856
 194  282.8752
 195  320.6306
 196  300.3584
 197  305.033
 198  243.2358
 199  337.6767
 200  310.7419
 201  310.7699
 202  345.0823
 203  229.4743
 204  285.2154
 205  371.8206
 206  393.7458
 207  355.2815
 208  366.0622
 209  428.2439
 210  362.676
 211  319.472
 212  341.1393
 213  378.1603
 214  455.8108
 215  478.8105
 216  425.7038
 217  445.2072
 218  368.7819
 219  292.611
 220  380.7481
 221  431.9533
 222  402.7278
 223  360.0349
 224  401.1848
 225  388.1938
 226  332.0915
 227  429.0457
 228  451.9108
 229  318.3274
 230  342.8048
 231  436.6106
 232  353.2094
 233  342.8432
 234  317.0943
 235  333.9816
 236  263.2508
 237  286.3435
 238  239.5475
 239  338.4991
 240  431.2083
 241  346.3647
 242  307.7839
 243  233.3377
 244  245.9917
 245  186.3727
 246  262.7676
 247  324.0861
 248  320.3578
 249  257.2894
 250  308.0942
 251  384.7116
 252  407.9793
 253  301.4651
 254  416.5562
 255  429.5988
 256  287.571
 257  267.6864
 258  348.7832
 259  163.1909
 260  257.7635
 261  456.5912
 262  384.8961
 263  239.0539
 264  322.568
 265  248.1541
 266  282.0204
 267  509.3118
 268  473.4356
 269  382.4413
 270  215.5387
 271  358.1393
 272  297.3987
 273  316.7362
 274  357.2188
 275  380.69
 276  370.6617
 277  459.2443
 278  489.4875
 279  482.4298
 280  491.9328
 281  521.7126
 282  522.2006
 283  439.0977
 284  344.2092
 285  422.8787
 286  303.552
 287  306.0732
 288  288.4855
 289  462.9086
 290  445.9821
 291  397.2387
 292  360.7372
 293  422.376
 294  349.1696
 295  322.9164
 296  303.8549
 297  321.9339
 298  422.3591
 299  429.6344
 300  418.0346
 301  411.7856
 302  405.8484
 303  465.6375
 304  407.2052
 305  327.3484
 306  445.2022
 307  463.3803
 308  274.2733
 309  244.0806
 310  460.7119
 311  376.3304
 312  182.9957
 313  235.0553
 314  396.4253
 315  331.7556
 316  301.8733
 317  284.097
 318  281.2209
 319  364.1634
 320  361.3039
 321  362.808
 322  433.896
 323  355.8383
 324  212.2191
 325  413.1362
 326  457.0799
 327  357.4232
 328  449.765
 329  583.3744
 330  493.7878
 331  434.7235
 332  439.1855
 333  507.5671
 334  337.2097
 335  329.4047
 336  277.2972
 337  249.4351
 338  319.5584
 339  339.6997
 340  352.3186
 341  295.304
 342  366.4502
 343  409.8358
 344  357.7711
 345  345.7237
 346  284.7797
 347  333.6392
 348  337.8542
 349  249.2656
 350  340.2834
 351  311.5708
 352  284.9908
 353  390.5945
 354  509.7724
 355  348.0688
 356  386.7849
 357  374.7488
 358  211.4485
 359  325.9357
 360  240.9995
 361  333.688
 362  295.0084
 363  316.6478
 364  365.7391
 365  233.5176
 366  433.3052
 367  474.3176
 368  350.8325
 369  383.8135
 370  366.2612
 371  283.9669
 372  266.8243
 373  341.4763
 374  404.4345
 375  392.6004
 376  340.7896
 377  355.6928
 378  312.9922
 379  207.2292
 380  143.3056
 381  268.7138
 382  329.7967
 383  356.1327
 384  174.5409
 385  269.2634
 386  352.8529
 387  363.3636
 388  399.8428
 389  513.8008
 390  363.5347
 391  299.2605
 392  290.7368
 393  400.097
 394  392.3331
 395  360.3797
 396  372.2906
 397  267.9758
 398  315.1215
 399  357.6796
 400  324.0299
 401  225.8744
 402  276.0143
 403  368.508
 404  348.3694
 405  431.349
 406  406.7676
 407  296.3008
 408  318.7687
 409  302.8667
 410  349.3601
 411  451.7856
 412  332.5507
 413  373.9231
 414  413.4471
 415  330.6654
 416  214.8331
 417  318.2892
 418  474.7943
 419  386.3276
 420  191.2922
 421  281.6314
 422  296.6402
 423  336.8118
 424  323.3379
 425  286.3618
 426  321.2643
 427  387.7546
 428  423.5464
 429  395.5513
 430  399.9695
 431  284.1533
 432  319.6996
 433  360.1968
 434  426.3846
 435  368.3544
 436  357.8994
 437  454.866
 438  333.5689
 439  339.7349
 440  399.3672
 441  319.9024
 442  269.3727
 443  276.1787
 444  285.1566
 445  243.3225
 446  326.4667
 447  423.0653
 448  344.1435
 449  279.6559
 450  271.3336
 451  259.4282
 452  302.8859
 453  360.8081
 454  365.4844
 455  329.1992
 456  201.0861
 457  334.017
 458  323.3758
 459  309.2866
 460  313.5316
 461  330.6992
 462  329.4809
 463  432.0442
 464  365.7961
 465  341.3792
 466  333.1344
 467  263.6715
 468  371.0428
 469  314.9915
 470  378.3895
 471  340.8822
 472  328.9929
 473  382.1058
 474  336.8291
 475  230.8689
 476  232.0481
 477  327.7509
 478  258.8781
 479  178.2225
 480  297.2476
 481  402.2284
 482  438.0801
 483  248.9421
 484  358.1298
 485  254.8981
 486  342.0602
 487  332.1248
 488  431.7368
 489  363.6469
 490  485.5233
 491  550.7239
 492  359.5179
 493  272.4825
 494  273.0722
 495  124.6463
 496  217.8482
 497  201.8535
 498  211.2115
 499  200.7921
 500  239.1132
 501  359.9954
 502  337.3403
 503  315.3686
 504  236.5919
 505  302.6456
 506  342.9073
 507  288.5152
 508  373.3505
 509  410.6414
 510  427.6129
 511  516.3481
