# Input file       =  1194296026.116019_cleaned.dat
# Candidate        =  PSR_0332+5434
# Telescope        =  AR
# Epoch_topo       =  58066.870892546518
# Epoch_bary       =  N/A
# T_sample         =  0.002
# Data Folded      =  7340032
# Data Avg         =  0.0252588265143112
# Data StdDev      =  1.00004562261883 
# Profile Bins     =  512
# Profile Avg      =  361.61448354894  
# Profile StdDev   =  119.738498911447 
# Reduced chi-sqr  =  1.199
# Prob(Noise)      <  0.00127   (~3.0 sigma)
# P_topo (ms)      =  714.504105960832  +/- 0.000306
# P'_topo (s/s)    =  -0                +/- 1.61e-10
# P''_topo (s/s^2) =  0                 +/- 7.13e-14
# P_bary (ms)      =  N/A
# P'_bary (s/s)    =  N/A
# P''_bary (s/s^2) =  N/A
# P_orb (s)        =  N/A
# asin(i)/c (s)    =  N/A
# eccentricity     =  N/A
# w (rad)          =  N/A
# T_peri           =  N/A
######################################################
   0  360.1847
   1  328.2363
   2  345.4668
   3  336.7534
   4  305.2382
   5  201.7412
   6  265.064
   7  390.0613
   8  358.9483
   9  352.7773
  10  337.4361
  11  295.6306
  12  376.08
  13  359.8306
  14  268.1761
  15  193.4967
  16  210.5885
  17  371.2133
  18  433.878
  19  232.9759
  20  264.2387
  21  291.8078
  22  300.307
  23  264.5859
  24  412.3577
  25  541.014
  26  463.6393
  27  383.0699
  28  372.448
  29  327.376
  30  308.1455
  31  333.7861
  32  295.8866
  33  239.8098
  34  197.3474
  35  241.1051
  36  283.1189
  37  263.2602
  38  344.2022
  39  388.5368
  40  352.7503
  41  361.542
  42  370.5953
  43  459.7928
  44  354.5843
  45  400.3118
  46  261.2683
  47  212.8778
  48  314.0171
  49  379.2247
  50  358.505
  51  436.4145
  52  428.3125
  53  334.709
  54  346.7607
  55  342.0978
  56  313.9984
  57  341.5976
  58  446.872
  59  368.4304
  60  304.2144
  61  291.117
  62  329.0937
  63  439.9456
  64  424.1691
  65  408.4509
  66  314.215
  67  424.5952
  68  447.4966
  69  516.4038
  70  504.9216
  71  462.0353
  72  481.3454
  73  490.6069
  74  311.2981
  75  314.185
  76  362.163
  77  362.8553
  78  372.4736
  79  362.0359
  80  340.5544
  81  278.1649
  82  303.1826
  83  331.7447
  84  369.6742
  85  423.2741
  86  452.3542
  87  412.7475
  88  338.6093
  89  385.5364
  90  239.6949
  91  280.7859
  92  277.4451
  93  369.7426
  94  462.819
  95  325.8968
  96  293.5153
  97  375.0904
  98  330.7507
  99  371.5906
 100  181.955
 101  321.2637
 102  458.0081
 103  264.5333
 104  221.8286
 105  267.9832
 106  316.5233
 107  334.0381
 108  391.5952
 109  471.4315
 110  444.6567
 111  385.5366
 112  326.3829
 113  252.1036
 114  321.497
 115  402.802
 116  285.3306
 117  297.3748
 118  220.3838
 119  366.1415
 120  247.5814
 121  275.4954
 122  345.5648
 123  409.1448
 124  455.5754
 125  388.3646
 126  250.2262
 127  338.7035
 128  315.1039
 129  267.1196
 130  256.2375
 131  298.6452
 132  271.0061
 133  244.2857
 134  347.9276
 135  348.7671
 136  325.433
 137  429.696
 138  300.8594
 139  258.7418
 140  397.371
 141  354.3976
 142  357.3395
 143  319.0187
 144  324.1521
 145  391.5486
 146  351.058
 147  317.4845
 148  252.7354
 149  201.0562
 150  328.1969
 151  242.8858
 152  216.6561
 153  362.3354
 154  296.4639
 155  183.3627
 156  314.3004
 157  377.066
 158  402.7161
 159  320.4321
 160  268.8002
 161  385.9738
 162  393.2598
 163  245.8318
 164  408.4786
 165  355.9881
 166  253.5433
 167  225.4431
 168  296.7608
 169  363.0608
 170  314.7431
 171  307.2295
 172  262.3947
 173  286.726
 174  298.5541
 175  264.5755
 176  273.1936
 177  401.7527
 178  360.4562
 179  319.815
 180  249.0008
 181  175.7299
 182  193.4438
 183  283.5279
 184  237.2348
 185  315.7232
 186  295.5241
 187  336.0073
 188  337.3815
 189  322.487
 190  286.6433
 191  404.0137
 192  371.9785
 193  333.0313
 194  280.4809
 195  251.4337
 196  315.3877
 197  367.4177
 198  316.7561
 199  234.0497
 200  239.7396
 201  429.0818
 202  332.2232
 203  374.7423
 204  458.5964
 205  364.9843
 206  291.6413
 207  354.7445
 208  355.4251
 209  442.1216
 210  406.0726
 211  347.3615
 212  126.6366
 213  179.3445
 214  248.0401
 215  288.8705
 216  295.3759
 217  299.4182
 218  275.4938
 219  323.7716
 220  277.5822
 221  345.9527
 222  287.0273
 223  277.6693
 224  185.3355
 225  138.8963
 226  186.2004
 227  298.7924
 228  383.4856
 229  408.8935
 230  421.9159
 231  357.9086
 232  438.5351
 233  390.6532
 234  297.6857
 235  392.4486
 236  343.2535
 237  300.9745
 238  383.4025
 239  522.4727
 240  506.7759
 241  452.5279
 242  439.9212
 243  390.6831
 244  300.6624
 245  281.6394
 246  314.0997
 247  315.9954
 248  412.5886
 249  423.0808
 250  363.3745
 251  411.5405
 252  216.1211
 253  256.2686
 254  346.5924
 255  382.1394
 256  253.2865
 257  274.977
 258  334.5435
 259  379.8634
 260  369.3499
 261  291.619
 262  282.9552
 263  400.0454
 264  342.1251
 265  391.8492
 266  415.3778
 267  372.7595
 268  337.4784
 269  303.0916
 270  411.901
 271  416.4186
 272  386.6087
 273  436.1262
 274  428.4834
 275  425.8574
 276  329.9156
 277  265.6031
 278  501.7506
 279  469.8456
 280  383.537
 281  352.7171
 282  471.4979
 283  528.8969
 284  378.7332
 285  258.0783
 286  396.9044
 287  303.7753
 288  381.9083
 289  418.6072
 290  385.1875
 291  349.6544
 292  437.2278
 293  453.0818
 294  390.501
 295  388.9223
 296  364.5016
 297  377.8571
 298  382.0399
 299  454.9447
 300  469.2523
 301  369.4002
 302  393.8067
 303  393.1532
 304  235.3022
 305  278.6529
 306  453.9512
 307  433.4971
 308  334.5435
 309  352.2498
 310  317.4016
 311  394.6533
 312  454.1245
 313  413.8995
 314  361.6093
 315  307.0742
 316  302.5984
 317  340.4795
 318  363.2765
 319  350.9474
 320  370.4432
 321  369.6308
 322  358.0018
 323  268.5303
 324  378.71
 325  425.0907
 326  530.829
 327  438.9158
 328  523.1389
 329  473.3478
 330  476.3094
 331  487.5372
 332  484.3595
 333  490.9551
 334  402.3258
 335  382.8392
 336  451.2398
 337  392.6771
 338  440.0568
 339  324.2261
 340  343.3926
 341  412.1359
 342  357.1306
 343  421.2804
 344  378.2383
 345  443.5254
 346  468.9247
 347  417.4799
 348  382.8456
 349  304.4002
 350  404.4532
 351  507.3061
 352  488.8018
 353  557.7178
 354  570.8271
 355  492.1692
 356  440.3526
 357  317.5812
 358  310.3085
 359  448.4897
 360  418.6644
 361  477.9603
 362  374.4147
 363  230.399
 364  380.9214
 365  602.0201
 366  561.6419
 367  556.807
 368  546.0901
 369  534.084
 370  804.4545
 371  889.9753
 372  941.8053
 373  899.2079
 374  768.718
 375  585.1204
 376  517.5488
 377  450.9964
 378  540.3008
 379  472.101
 380  328.6625
 381  255.74
 382  230.6258
 383  383.3322
 384  496.1469
 385  551.5117
 386  518.6728
 387  444.1554
 388  466.1703
 389  466.9471
 390  396.8944
 391  396.6652
 392  459.4199
 393  491.3816
 394  404.6609
 395  328.8228
 396  397.3729
 397  370.7832
 398  336.0034
 399  417.9108
 400  473.3868
 401  428.803
 402  482.3419
 403  433.2487
 404  190.1283
 405  313.5404
 406  317.5328
 407  297.7398
 408  280.7724
 409  309.5885
 410  334.9955
 411  355.3999
 412  333.6917
 413  400.1931
 414  250.1782
 415  350.0017
 416  310.1061
 417  291.0024
 418  210.0835
 419  281.1684
 420  301.998
 421  286.2334
 422  326.6569
 423  429.8188
 424  478.894
 425  280.1131
 426  203.2134
 427  332.5065
 428  365.9934
 429  329.2961
 430  291.3867
 431  178.6242
 432  352.2675
 433  412.6241
 434  418.6767
 435  452.3634
 436  398.2461
 437  259.3531
 438  268.5424
 439  359.6761
 440  319.1008
 441  363.5779
 442  347.6686
 443  357.6422
 444  438.2179
 445  366.7247
 446  356.1494
 447  371.7967
 448  354.8956
 449  283.0581
 450  260.6161
 451  344.8868
 452  435.4688
 453  435.8296
 454  459.3769
 455  447.0827
 456  470.7787
 457  495.6359
 458  342.0369
 459  304.4016
 460  382.4002
 461  341.8686
 462  482.635
 463  447.6318
 464  301.9237
 465  398.4286
 466  454.6183
 467  325.567
 468  370.6354
 469  385.4178
 470  436.1656
 471  389.6045
 472  259.3303
 473  273.1777
 474  368.1074
 475  366.4969
 476  316.5471
 477  363.4579
 478  471.9703
 479  360.1714
 480  362.4648
 481  415.564
 482  300.5556
 483  366.7677
 484  415.5764
 485  282.2302
 486  273.649
 487  344.0712
 488  415.644
 489  477.082
 490  480.815
 491  341.7514
 492  233.6938
 493  307.738
 494  372.3957
 495  319.8308
 496  302.5346
 497  330.7278
 498  408.4974
 499  373.3246
 500  306.3723
 501  235.8522
 502  311.0932
 503  341.9252
 504  305.4713
 505  394.9077
 506  397.7957
 507  343.3771
 508  311.3578
 509  410.7881
 510  244.8366
 511  156.202
