# Input file       =  1195243722.108974-PSRB0329-2ms-sampling-dd.dat
# Candidate        =  PSR_0332+5434
# Telescope        =  AR
# Epoch_topo       =  58077.839596168684
# Epoch_bary       =  N/A
# T_sample         =  0.002
# Data Folded      =  7340032
# Data Avg         =  -4.78205440180311e-10
# Data StdDev      =  59.3871904668231 
# Profile Bins     =  512
# Profile Avg      =  0.580520360791506
# Profile StdDev   =  7110.60863647807 
# Reduced chi-sqr  =  1.049
# Prob(Noise)      <  0.213   (~0.8 sigma)
# P_topo (ms)      =  714.515172248248  +/- 0.0174
# P'_topo (s/s)    =  -0                +/- 1.85e-08
# P''_topo (s/s^2) =  0                 +/- 8.1e-12
# P_bary (ms)      =  N/A
# P'_bary (s/s)    =  N/A
# P''_bary (s/s^2) =  N/A
# P_orb (s)        =  N/A
# asin(i)/c (s)    =  N/A
# eccentricity     =  N/A
# w (rad)          =  N/A
# T_peri           =  N/A
######################################################
   0  -375.9163
   1  -92.37617
   2  -581.947
   3  -794.6721
   4  -127.6799
   5  -535.254
   6  -630.0855
   7  -185.2643
   8  -111.7855
   9  -491.9697
  10  -775.6577
  11  -1063.049
  12  -1394.398
  13  -1255.041
  14  -550.5376
  15  -233.2382
  16  -598.3904
  17  -430.5688
  18  -14.38432
  19  445.704
  20  -287.906
  21  -164.9903
  22  124.2259
  23  53.2457
  24  -618.7335
  25  -722.7805
  26  116.0273
  27  325.6937
  28  -90.88932
  29  -421.253
  30  -504.4767
  31  -1131.953
  32  -329.3627
  33  508.7774
  34  357.896
  35  -417.3309
  36  -863.4196
  37  -998.4095
  38  -886.2753
  39  -819.3051
  40  17.20335
  41  26.59613
  42  -151.1198
  43  -135.1654
  44  -388.275
  45  -960.66
  46  -850.3414
  47  -503.0294
  48  -442.4764
  49  -894.1609
  50  -888.2952
  51  -287.8549
  52  -3.013833
  53  41.92553
  54  138.2865
  55  1000.968
  56  224.9521
  57  -851.0406
  58  -214.293
  59  -431.1132
  60  -755.066
  61  -575.6055
  62  -931.4069
  63  -872.675
  64  -635.2258
  65  -763.3375
  66  -390.6238
  67  -907.9176
  68  -729.2689
  69  -313.0246
  70  -2.744866
  71  111.2053
  72  360.7664
  73  761.3875
  74  -81.48696
  75  -244.7376
  76  -335.2307
  77  -217.9926
  78  -568.9576
  79  -429.4596
  80  228.7283
  81  136.5267
  82  60.61046
  83  -394.6281
  84  -1052.467
  85  -937.5386
  86  -899.9392
  87  -582.0651
  88  -833.3309
  89  -584.5641
  90  -591.2979
  91  -284.0507
  92  -270.512
  93  -453.7577
  94  -578.3857
  95  -89.50346
  96  307.9916
  97  162.054
  98  -379.3722
  99  -453.1438
 100  -812.955
 101  -830.1557
 102  -706.1893
 103  -1180.823
 104  -1196.772
 105  -1371.841
 106  -927.541
 107  -528.9036
 108  -885.318
 109  -803.7437
 110  -984.8558
 111  -246.5846
 112  -174.058
 113  -847.5157
 114  -1315.899
 115  -1115.179
 116  -601.7053
 117  -1199.117
 118  -939.1903
 119  -943.313
 120  -358.3439
 121  -496.6775
 122  -785.7947
 123  -796.7552
 124  -736.53
 125  -764.6149
 126  -56.78899
 127  -234.2607
 128  -872.5258
 129  -650.3442
 130  -370.733
 131  -452.4948
 132  -424.2406
 133  -322.3287
 134  -566.9637
 135  -793.4962
 136  -587.0304
 137  68.39159
 138  208.5564
 139  303.8148
 140  396.0773
 141  -223.6758
 142  -754.9692
 143  -351.0569
 144  360.8779
 145  550.9989
 146  307.4036
 147  432.6891
 148  -124.699
 149  -976.4936
 150  -945.783
 151  -30.78016
 152  747.3121
 153  289.4066
 154  -192.7505
 155  -345.831
 156  -472.5889
 157  -1038.21
 158  -575.2285
 159  -272.0302
 160  -437.8185
 161  -117.8177
 162  401.6734
 163  672.3741
 164  101.6285
 165  13.86545
 166  -143.3932
 167  764.2404
 168  372.5037
 169  51.28681
 170  70.88503
 171  -247.3608
 172  344.5734
 173  726.6055
 174  680.7863
 175  -67.88863
 176  -184.0226
 177  -978.3749
 178  -663.993
 179  39.83648
 180  -14.77242
 181  -84.21017
 182  -197.6219
 183  -339.7816
 184  -323.4866
 185  -218.6721
 186  -44.83884
 187  -28.61903
 188  -24.41204
 189  -67.6624
 190  177.7735
 191  114.5604
 192  -371.2892
 193  -88.99071
 194  119.8261
 195  177.3242
 196  -381.2951
 197  -370.5768
 198  -824.795
 199  -1562.591
 200  -1019.037
 201  -778.395
 202  -277.0573
 203  -411.7147
 204  -405.0124
 205  675.8
 206  500.7266
 207  66.16678
 208  131.015
 209  -282.4461
 210  -685.9183
 211  -805.1591
 212  -303.1586
 213  169.6259
 214  198.3935
 215  413.2504
 216  -186.2349
 217  -754.8483
 218  -806.3365
 219  -832.1464
 220  -427.0587
 221  -12.45817
 222  -6.070307
 223  74.69584
 224  -132.1912
 225  -218.5443
 226  83.43919
 227  320.0829
 228  61.66407
 229  -503.2188
 230  367.1118
 231  304.2903
 232  -246.9275
 233  -400.8855
 234  -216.7225
 235  -920.4614
 236  -960.9458
 237  -237.0292
 238  -413.5667
 239  -489.7951
 240  -552.6597
 241  -235.7023
 242  -863.181
 243  -1246.364
 244  -828.4348
 245  -576.1423
 246  -566.9649
 247  -246.6191
 248  36.23367
 249  445.6682
 250  398.4232
 251  -92.18993
 252  -224.9306
 253  -14.3498
 254  253.2591
 255  214.7009
 256  -345.4904
 257  -140.1507
 258  -297.571
 259  -686.3427
 260  -486.766
 261  -1036.425
 262  -599.8231
 263  -505.4983
 264  -721.9482
 265  -452.8055
 266  24.10928
 267  -367.8505
 268  -853.9375
 269  -1354.392
 270  -1276.352
 271  -987.994
 272  -431.5599
 273  11.18649
 274  257.5711
 275  -77.17489
 276  -602.262
 277  -896.5912
 278  -1249.506
 279  -649.6742
 280  -211.7979
 281  -722.527
 282  -1598.241
 283  -1601.107
 284  -1047.025
 285  -1030.744
 286  -480.6708
 287  -30.71804
 288  -552.784
 289  -475.3027
 290  -475.4339
 291  -622.7199
 292  -220.0663
 293  -371.1627
 294  -65.58271
 295  -347.6193
 296  -470.0216
 297  -372.1661
 298  -9.839481
 299  307.5152
 300  7.254717
 301  161.0922
 302  58.88613
 303  -239.0721
 304  388.267
 305  1513.232
 306  2249.608
 307  2222.079
 308  2158.874
 309  1527.85
 310  549.6378
 311  488.5372
 312  130.6298
 313  242.1832
 314  -294.1083
 315  -146.3475
 316  -243.7958
 317  -39.43943
 318  -11.16033
 319  -75.16759
 320  234.8593
 321  -19.06594
 322  183.1674
 323  812.239
 324  74.82557
 325  -18.92657
 326  -88.0648
 327  -512.05
 328  -585.0804
 329  -947.2333
 330  -438.3492
 331  -558.9108
 332  -456.5304
 333  -517.5182
 334  -492.016
 335  -15.13894
 336  365.1173
 337  389.2522
 338  -301.2447
 339  -38.50116
 340  -565.2567
 341  -593.1206
 342  -146.9404
 343  343.886
 344  510.239
 345  -196.5771
 346  -602.6149
 347  -796.9393
 348  -730.0162
 349  -377.7469
 350  152.6912
 351  1039.299
 352  563.1431
 353  -75.33173
 354  155.2921
 355  28.57146
 356  140.0448
 357  381.1232
 358  643.6548
 359  872.5194
 360  196.3508
 361  -728.8327
 362  -1157.102
 363  -1163.598
 364  -957.2061
 365  -828.0909
 366  -236.9581
 367  -175.2597
 368  -453.5284
 369  -588.8582
 370  -209.1583
 371  -520.0129
 372  -591.438
 373  -14.45192
 374  -243.8171
 375  -483.6373
 376  43.82585
 377  35.30946
 378  -120.3615
 379  515.9603
 380  -40.25254
 381  73.6372
 382  497.9957
 383  -449.1372
 384  -745.9489
 385  131.8651
 386  -1184.363
 387  -154.6954
 388  889.5018
 389  -1493.888
 390  795.6644
 391  970.967
 392  -2062.835
 393  2310.157
 394  257.5606
 395  -4350.598
 396  8982.276
 397  60564.1
 398  101660.6
 399  -7392.279
 400  -393.9292
 401  2435.533
 402  -2579.189
 403  1099.88
 404  681.6411
 405  -880.8066
 406  937.2878
 407  -548.4207
 408  -1597.006
 409  1284.369
 410  213.8335
 411  -274.3972
 412  442.3524
 413  -1022.163
 414  -1567.983
 415  -352.7132
 416  -288.2085
 417  -364.3078
 418  -324.4343
 419  -781.3313
 420  -432.2426
 421  -750.926
 422  -1238.784
 423  -637.0438
 424  -716.368
 425  -887.1405
 426  -745.1354
 427  -361.5051
 428  -556.6533
 429  -627.5029
 430  -23.06535
 431  -76.1204
 432  222.3902
 433  473.392
 434  -70.22103
 435  -571.936
 436  -327.9975
 437  -29.58433
 438  407.4559
 439  167.4228
 440  -488.4518
 441  -620.0009
 442  -723.6187
 443  -1416.37
 444  -1070.175
 445  -694.4266
 446  -947.5119
 447  -1183.387
 448  -737.5302
 449  -709.9368
 450  -912.7769
 451  -753.2385
 452  -345.0854
 453  -1063.529
 454  -1012.041
 455  -659.434
 456  -172.8809
 457  -519.6881
 458  -1313.19
 459  -1134.862
 460  -1248.325
 461  -1300.865
 462  -1079.55
 463  -1159.725
 464  -1039.233
 465  -943.6516
 466  -531.9901
 467  -623.3469
 468  -393.1893
 469  -893.8859
 470  -1389.457
 471  -439.864
 472  -435.8468
 473  -792.5913
 474  -1193.355
 475  -1615.464
 476  -1486.656
 477  -1092.218
 478  -694.703
 479  -910.3915
 480  -440.4154
 481  -208.5964
 482  -108.259
 483  -343.5039
 484  169.2023
 485  229.2865
 486  -286.4281
 487  -24.61704
 488  127.4987
 489  -421.6099
 490  -597.0269
 491  -340.5609
 492  153.184
 493  -252.5073
 494  -315.5665
 495  680.855
 496  88.98387
 497  -987.2849
 498  -397.511
 499  237.0446
 500  -458.8417
 501  -748.331
 502  -59.59174
 503  266.0178
 504  -7.137572
 505  -95.78735
 506  -241.0056
 507  -12.57993
 508  -418.881
 509  -427.4056
 510  -560.9369
 511  -346.7413
