# Input file       =  1195746036.118177-PSRB0329-2ms-sampling-dd.dat
# Candidate        =  PSR_0332+5434
# Telescope        =  AR
# Epoch_topo       =  58083.653415719644
# Epoch_bary       =  N/A
# T_sample         =  0.002
# Data Folded      =  7208960
# Data Avg         =  2.06840696106476e-09
# Data StdDev      =  23.1548221764925 
# Profile Bins     =  512
# Profile Avg      =  -0.000423180832842984
# Profile StdDev   =  2747.53211510837 
# Reduced chi-sqr  =  0.534
# Prob(Noise)      <  1   (~0.0 sigma)
# P_topo (ms)      =  714.521167895813  +/- 0.000442
# P'_topo (s/s)    =  -0                +/- 2.38e-10
# P''_topo (s/s^2) =  0                 +/- 1.07e-13
# P_bary (ms)      =  N/A
# P'_bary (s/s)    =  N/A
# P''_bary (s/s^2) =  N/A
# P_orb (s)        =  N/A
# asin(i)/c (s)    =  N/A
# eccentricity     =  N/A
# w (rad)          =  N/A
# T_peri           =  N/A
######################################################
   0  -694.1254
   1  -1211.729
   2  -359.1693
   3  -2177.502
   4  -2360.239
   5  -676.2365
   6  -393.0424
   7  911.5762
   8  -1048.303
   9  -1466.586
  10  -2981.606
  11  -2630.867
  12  732.7875
  13  -882.4769
  14  -274.4937
  15  99.32136
  16  1028.419
  17  -773.0126
  18  -1752.829
  19  -1042.145
  20  545.9722
  21  84.85835
  22  -32.69289
  23  520.3837
  24  1787.63
  25  -975.6703
  26  -150.1252
  27  986.337
  28  -504.5839
  29  -2846.836
  30  -1991.439
  31  -1309.641
  32  -880.4662
  33  -730.25
  34  -241.9186
  35  -561.6461
  36  -992.1994
  37  579.0823
  38  -132.5248
  39  -94.58381
  40  894.3215
  41  975.1319
  42  -724.3628
  43  -147.8046
  44  426.9745
  45  3585.745
  46  3122.151
  47  3212.465
  48  2828.406
  49  1750.366
  50  90.12612
  51  -547.5195
  52  1391.218
  53  1175.188
  54  470.8758
  55  -1031.557
  56  -577.548
  57  475.4043
  58  124.4517
  59  -1106.184
  60  -1048.984
  61  -2156.233
  62  -1436.621
  63  -1063.567
  64  332.187
  65  2487.74
  66  845.7844
  67  1759.726
  68  0.9815881
  69  592.1113
  70  29.31252
  71  -1661.329
  72  -2428.29
  73  -2918.64
  74  -1091.969
  75  126.489
  76  491.6423
  77  652.9664
  78  -2196.327
  79  -3108.687
  80  -2099.164
  81  -999.3517
  82  -985.4675
  83  -72.27042
  84  -329.0289
  85  -1631.999
  86  -3057.281
  87  -2443.678
  88  -1150.826
  89  -2375.577
  90  -940.058
  91  -1269.514
  92  -863.2747
  93  -1516.141
  94  -350.9117
  95  1877.149
  96  1687.632
  97  -244.911
  98  -357.7743
  99  -373.4094
 100  -489.6468
 101  -1130.861
 102  341.6576
 103  2541.569
 104  1546.119
 105  975.7709
 106  -1304.906
 107  -3288.708
 108  -3466.319
 109  -2597.156
 110  -473.0954
 111  -179.6104
 112  -988.5966
 113  -2853.073
 114  -2492.185
 115  -962.0707
 116  -290.851
 117  -879.2488
 118  -3156.723
 119  -2432.825
 120  -566.8447
 121  -2515.364
 122  -3953.457
 123  -3804.697
 124  -1829.453
 125  -1991.289
 126  -360.2158
 127  -655.9595
 128  -2981.835
 129  -3593.434
 130  -1479.525
 131  -923.4271
 132  -2396.812
 133  -2373.047
 134  754.5042
 135  -17.35641
 136  -109.5699
 137  95.99529
 138  547.7297
 139  -490.7927
 140  -484.0216
 141  21.72694
 142  -753.8086
 143  -813.0927
 144  -63.2318
 145  1382.096
 146  154.066
 147  -121.0135
 148  -1501.072
 149  -1355.26
 150  -1949.639
 151  -592.6385
 152  -653.7538
 153  -1300.077
 154  -400.9285
 155  671.1986
 156  547.2249
 157  286.8417
 158  774.3133
 159  1713.943
 160  1637.667
 161  1330.558
 162  -550.25
 163  -10.56876
 164  649.4246
 165  2648.453
 166  1438.292
 167  695.3582
 168  406.8879
 169  -1048.468
 170  -135.2646
 171  -1583.476
 172  100.104
 173  581.7844
 174  -144.6959
 175  -176.1324
 176  -1818.068
 177  -273.1296
 178  -1561.645
 179  1582.477
 180  1534.903
 181  1151.435
 182  1337.691
 183  81.42003
 184  1288.6
 185  -184.6155
 186  855.6167
 187  731.8652
 188  629.9249
 189  -1109.611
 190  -1962.185
 191  -1686.024
 192  1853.686
 193  1214.041
 194  705.6138
 195  111.0364
 196  -576.3061
 197  -1197.804
 198  -150.2759
 199  563.0915
 200  -259.6669
 201  1491.72
 202  2434.972
 203  1741.94
 204  396.767
 205  -205.4105
 206  899.7385
 207  -25.0449
 208  1254.065
 209  44.87114
 210  403.3699
 211  772.7773
 212  -2097.088
 213  -2300.681
 214  -15.65074
 215  1082.662
 216  -1007.59
 217  -2409.164
 218  -2625.246
 219  -1798.218
 220  -145.4129
 221  -497.8479
 222  -1049.401
 223  130.6018
 224  1213.228
 225  1926.076
 226  1131.784
 227  783.21
 228  364.6991
 229  -1792.462
 230  -2166.905
 231  371.7926
 232  -797.6197
 233  -1785.395
 234  -1182.828
 235  -808.8441
 236  -2411.131
 237  -1341.458
 238  74.66945
 239  111.6958
 240  -1708.761
 241  -413.8258
 242  25.73979
 243  -171.1524
 244  440.2014
 245  73.55759
 246  128.8438
 247  -1280.647
 248  -706.5458
 249  270.4208
 250  281.5717
 251  928.4608
 252  -677.4472
 253  -324.9786
 254  13.26456
 255  -177.8377
 256  210.5577
 257  993.6647
 258  1863.585
 259  1862.918
 260  1910.704
 261  535.3186
 262  -1211.366
 263  645.7156
 264  496.104
 265  -358.3081
 266  -999.2333
 267  -448.5427
 268  -984.3181
 269  -1058.007
 270  7.024652
 271  1234.258
 272  133.5686
 273  -789.9159
 274  -1137.008
 275  -601.2347
 276  468.9594
 277  1609.451
 278  1740.25
 279  -76.42879
 280  888.394
 281  860.0071
 282  1308.727
 283  587.3487
 284  -33.72767
 285  -497.1135
 286  -1456.929
 287  -1262.289
 288  838.7951
 289  -739.285
 290  -32.1738
 291  -907.1904
 292  1493.663
 293  419.4309
 294  338.3498
 295  682.8105
 296  784.3038
 297  1522.329
 298  227.8926
 299  -9.342038
 300  537.3499
 301  -46.4043
 302  1028.46
 303  101.534
 304  933.2852
 305  1003.735
 306  2654.352
 307  2353.437
 308  -153.9131
 309  682.0222
 310  255.1776
 311  433.9646
 312  1103.569
 313  2352.882
 314  2147.959
 315  1121.891
 316  1543.728
 317  2153.537
 318  1999.153
 319  -591.8469
 320  -361.3823
 321  -309.4192
 322  -384.5758
 323  -154.8206
 324  -900.8098
 325  -1134.676
 326  -2427.408
 327  -691.7557
 328  -1224.657
 329  -2513.016
 330  -1869.172
 331  -3233.811
 332  -3081.742
 333  -3488.227
 334  -2285.919
 335  -160.1028
 336  -1339.138
 337  -267.2022
 338  -157.769
 339  -1214.803
 340  -868.1193
 341  -2010.408
 342  -1542.55
 343  -997.9892
 344  -814.7507
 345  582.9354
 346  -69.85288
 347  -375.3544
 348  -185.0734
 349  387.7505
 350  -462.9858
 351  773.4624
 352  2489.019
 353  2285.202
 354  1422.558
 355  -1674.8
 356  -1442.917
 357  -1023.795
 358  257.8971
 359  795.6387
 360  1780.101
 361  -181.1211
 362  -1231.082
 363  1096.063
 364  5013.191
 365  2510.638
 366  2895.517
 367  4151.326
 368  2907.055
 369  557.2404
 370  -1023.982
 371  568.22
 372  2232.329
 373  3246.748
 374  3192.125
 375  754.9757
 376  -72.85556
 377  -326.3434
 378  385.3235
 379  -44.53882
 380  -1243.256
 381  -871.6619
 382  672.2717
 383  -521.4427
 384  161.932
 385  1375.927
 386  1038.147
 387  693.8443
 388  1262.801
 389  1370.088
 390  729.9584
 391  -842.1941
 392  482.0243
 393  -129.265
 394  978.2808
 395  2318.276
 396  2966.206
 397  2212.842
 398  1655.955
 399  2450.141
 400  2097.006
 401  530.6422
 402  748.0881
 403  1129.249
 404  532.495
 405  -86.88167
 406  -338.7804
 407  -1012.408
 408  63.99959
 409  4002.758
 410  2726.932
 411  2317.934
 412  1475.591
 413  1614.878
 414  304.4828
 415  -1582.508
 416  -83.1495
 417  1259.094
 418  607.7426
 419  762.6926
 420  465.0936
 421  627.5992
 422  -224.2187
 423  -107.2022
 424  1586.335
 425  -685.1735
 426  -1526.56
 427  -338.2244
 428  11.23368
 429  349.3992
 430  1436.378
 431  3691.254
 432  1406.231
 433  3526.331
 434  2473.752
 435  1216.801
 436  -556.5932
 437  192.8732
 438  3396.285
 439  3473.496
 440  3458.446
 441  1016.458
 442  1445.318
 443  68.32632
 444  -615.6689
 445  1321.937
 446  3415.296
 447  1427.017
 448  -412.4361
 449  -1369.414
 450  307.4328
 451  -867.8362
 452  109.0092
 453  1087
 454  1475.649
 455  324.226
 456  -544.7252
 457  948.9325
 458  -554.1464
 459  -143.9915
 460  1479.27
 461  -137.2298
 462  1362.367
 463  355.1465
 464  2276.714
 465  1625.68
 466  515.5041
 467  424.8094
 468  1032.413
 469  346.6319
 470  1247.069
 471  1250.086
 472  773.2084
 473  -277.6929
 474  -675.7888
 475  -788.604
 476  -593.2772
 477  -842.7488
 478  670.8223
 479  755.6718
 480  -1288.309
 481  213.6781
 482  -1054.675
 483  -1366.187
 484  -775.837
 485  1260.775
 486  1614.255
 487  2424.914
 488  3717.831
 489  2148.665
 490  -392.7639
 491  408.4878
 492  958.3564
 493  234.5603
 494  -1955.822
 495  -2422.013
 496  -825.0711
 497  -2627.823
 498  -1545.745
 499  -1052.875
 500  -1198.707
 501  -868.4183
 502  -264.5839
 503  2662.685
 504  41.84154
 505  -525.6702
 506  -944.7252
 507  -2406.469
 508  -3098.137
 509  -1116.835
 510  86.6422
 511  -1511.758
