# Input file       =  1195760658.106143_cleaned.dat
# Candidate        =  PSR_0332+5434
# Telescope        =  AR
# Epoch_topo       =  58083.822651691473
# Epoch_bary       =  N/A
# T_sample         =  0.002
# Data Folded      =  7340032
# Data Avg         =  0.125520961146339
# Data StdDev      =  1.00052250527025 
# Profile Bins     =  512
# Profile Avg      =  1799.46923694234 
# Profile StdDev   =  119.795597519297 
# Reduced chi-sqr  =  0.656
# Prob(Noise)      <  1   (~0.0 sigma)
# P_topo (ms)      =  714.521366475041  +/- 5.71e-05
# P'_topo (s/s)    =  -0                +/- 3.01e-11
# P''_topo (s/s^2) =  0                 +/- 1.33e-14
# P_bary (ms)      =  N/A
# P'_bary (s/s)    =  N/A
# P''_bary (s/s^2) =  N/A
# P_orb (s)        =  N/A
# asin(i)/c (s)    =  N/A
# eccentricity     =  N/A
# w (rad)          =  N/A
# T_peri           =  N/A
######################################################
   0  1771.153
   1  1826.634
   2  1747.846
   3  1819.505
   4  1877.414
   5  1819.394
   6  1883.867
   7  1721.126
   8  1739.555
   9  1758.512
  10  1830.102
  11  1925.984
  12  1935.044
  13  1830.928
  14  1818.477
  15  1845.088
  16  1852.208
  17  1828.904
  18  1807.552
  19  1941.825
  20  1789.259
  21  1589.273
  22  1687.631
  23  1805.879
  24  1756.315
  25  1799.005
  26  1946.627
  27  1889.625
  28  1792.802
  29  1841.178
  30  1847.293
  31  1811.908
  32  1828.198
  33  1805.387
  34  1726.667
  35  1735.37
  36  1749.175
  37  1787.486
  38  1738.961
  39  1756.135
  40  1670.428
  41  1623.716
  42  1731.121
  43  1761.209
  44  1771.827
  45  1710.265
  46  1782.878
  47  1766.92
  48  1804.907
  49  1726.409
  50  1712.355
  51  1757.566
  52  1697.129
  53  1748.886
  54  1744.773
  55  1840.753
  56  1820.696
  57  1745.837
  58  1766.006
  59  1774.058
  60  1790.632
  61  1821.957
  62  1802.391
  63  1824.616
  64  1783.8
  65  1816.312
  66  1796.871
  67  1824.527
  68  1857.106
  69  1754.3
  70  1766.75
  71  1816.946
  72  1868.639
  73  1853.65
  74  1732.509
  75  1704.83
  76  1680.361
  77  1797.525
  78  1770.224
  79  1781.284
  80  1754.219
  81  1660.064
  82  1780.596
  83  1773.095
  84  1730.089
  85  1715.251
  86  1799.384
  87  1971.543
  88  1936.869
  89  1861.697
  90  1715.004
  91  1820.701
  92  1804.079
  93  1671.231
  94  1772.344
  95  1822.193
  96  1807.284
  97  1797.672
  98  1850.753
  99  1928.029
 100  1891.326
 101  1896.571
 102  1946.768
 103  1851.357
 104  1800.22
 105  1798.758
 106  1882.243
 107  1939.034
 108  1780.351
 109  1733.719
 110  1758.918
 111  1835.77
 112  1828.996
 113  1805.876
 114  1833.113
 115  1888.812
 116  1834.925
 117  1740.399
 118  1832.746
 119  1741.214
 120  1726.749
 121  1863.263
 122  1823.642
 123  1838.614
 124  1839.357
 125  1799.709
 126  1825.784
 127  1864.426
 128  1693.387
 129  1649.754
 130  1812.045
 131  1766.272
 132  1757.42
 133  1726.1
 134  1733.968
 135  1724.909
 136  1707.327
 137  1703.491
 138  1652.036
 139  1777.819
 140  1850.822
 141  1765.286
 142  1780.423
 143  1752.825
 144  1820.97
 145  1825.221
 146  1803.326
 147  1748.103
 148  1790.305
 149  1780.931
 150  1869.322
 151  1860.527
 152  1837.857
 153  1780.137
 154  1790.979
 155  1861.536
 156  1797.084
 157  1724.465
 158  1745.407
 159  1862.053
 160  1736.262
 161  1699.878
 162  1763.621
 163  1786.482
 164  1848.73
 165  1818.924
 166  1797.935
 167  1791.195
 168  1793.143
 169  1874.021
 170  1804.323
 171  1799.825
 172  1702.345
 173  1808.307
 174  1772.809
 175  1732.168
 176  1665.671
 177  1843.647
 178  1850.789
 179  1845.459
 180  1926.082
 181  1827.696
 182  1812.122
 183  1841.228
 184  1827.597
 185  1758.256
 186  1735.312
 187  1929.667
 188  1793.142
 189  1569.918
 190  1611.035
 191  1706.481
 192  1810.126
 193  1625.302
 194  1682.834
 195  1852.138
 196  1781.168
 197  1704.836
 198  1802.882
 199  1901.497
 200  1713.644
 201  1707.354
 202  1813.828
 203  1774.545
 204  1757.967
 205  1796.334
 206  1872.231
 207  1811.92
 208  1753.05
 209  1695.905
 210  1819.036
 211  1822.031
 212  1758.725
 213  1739.109
 214  1656.809
 215  1732.132
 216  1914.285
 217  1739.225
 218  1778.818
 219  1825.494
 220  1796.435
 221  1719.335
 222  1657.667
 223  1691
 224  1683.244
 225  1664.546
 226  1789.807
 227  1740.687
 228  1740.824
 229  1707.154
 230  1739.871
 231  1741.394
 232  1784.699
 233  1773.428
 234  1816.69
 235  1837.787
 236  1714.796
 237  1715.768
 238  1747.316
 239  1741.766
 240  1827.223
 241  1839.264
 242  1819.02
 243  1760.955
 244  1721.687
 245  1736.747
 246  1683.903
 247  1753.287
 248  1735.609
 249  1760.86
 250  1826.357
 251  1858.517
 252  1789.307
 253  1853.812
 254  1904.448
 255  1817.065
 256  1736.06
 257  1740.469
 258  1800.304
 259  1896.681
 260  1883.487
 261  1760.01
 262  1697.536
 263  1624.241
 264  1680.525
 265  1737.978
 266  1811.209
 267  1787.611
 268  1699.48
 269  1625.177
 270  1735.174
 271  1795.202
 272  1868.18
 273  1831.493
 274  1868.593
 275  1873.377
 276  1798.734
 277  1709.788
 278  1759.042
 279  1791.965
 280  1777.247
 281  1837.418
 282  1869.534
 283  1817.874
 284  1707.095
 285  1746.534
 286  1685.763
 287  1754.513
 288  1730.762
 289  1777.076
 290  1744.83
 291  1766.419
 292  1757.237
 293  1762.802
 294  1761.759
 295  1842.504
 296  1822.875
 297  1762.476
 298  1767.353
 299  1826.518
 300  1843.774
 301  1677.498
 302  1812.402
 303  1970.321
 304  1802.309
 305  1673.203
 306  1684.898
 307  1809.638
 308  1790.793
 309  1788.838
 310  1882.834
 311  1855.795
 312  1800.807
 313  1862.009
 314  1924.986
 315  1859.5
 316  1729.457
 317  1649.912
 318  1629.876
 319  1730.427
 320  1797.857
 321  1783.589
 322  1720.664
 323  1785.335
 324  1762.416
 325  1716.875
 326  1799.264
 327  1868.82
 328  1859.496
 329  1962.65
 330  1944.349
 331  2038.185
 332  2062.323
 333  1970.861
 334  1929.852
 335  1810.028
 336  1722.474
 337  1775.688
 338  1847.089
 339  1901.139
 340  1718.418
 341  1752.528
 342  1734.138
 343  1759.917
 344  1806.082
 345  1910.749
 346  1832.447
 347  1748.742
 348  1722.605
 349  1752.522
 350  1855.678
 351  1911.96
 352  1844.13
 353  1808.201
 354  1889.298
 355  1841.158
 356  1862.812
 357  1746.973
 358  1724.099
 359  1857.302
 360  1869.747
 361  1876.839
 362  1744.21
 363  1749.412
 364  1784.144
 365  1770.592
 366  1856.847
 367  1916.348
 368  1781.443
 369  1761.395
 370  1753.65
 371  1788.066
 372  1786.271
 373  1803.395
 374  1823.294
 375  1864.999
 376  1886.356
 377  1883.661
 378  1919.496
 379  1903.949
 380  1790.478
 381  1837.367
 382  1959.635
 383  1841.306
 384  1841.564
 385  1765.356
 386  1833.127
 387  1829.457
 388  1855.249
 389  1845.331
 390  1858.535
 391  1877.954
 392  1895.005
 393  1984.133
 394  1930.299
 395  1932.209
 396  1819.702
 397  1781.483
 398  1820.227
 399  1829.663
 400  1846.271
 401  1738.916
 402  1843.652
 403  1964.288
 404  1914.887
 405  1851.71
 406  1914.144
 407  1843.155
 408  1810.959
 409  1774.658
 410  1800.011
 411  1826.043
 412  1798.691
 413  1832.496
 414  1775.192
 415  1749.362
 416  1762.478
 417  1724.493
 418  1738.188
 419  1755.11
 420  1779.904
 421  1839.082
 422  1810.495
 423  1800.925
 424  1833.825
 425  1726.379
 426  1737.874
 427  1788.189
 428  1809.103
 429  1802.843
 430  1769.637
 431  1866.319
 432  1924.569
 433  1796.596
 434  1740.404
 435  1749.243
 436  1811.127
 437  1793.58
 438  1809.958
 439  1836.934
 440  1888.271
 441  1734.412
 442  1775.938
 443  1878.202
 444  1744.806
 445  1804.993
 446  1907.524
 447  1892.353
 448  1877.723
 449  1762.516
 450  1740.608
 451  1762.146
 452  1819.119
 453  1802.854
 454  1737.705
 455  1810.941
 456  1854.37
 457  1873.724
 458  1806.195
 459  1857.776
 460  1835.335
 461  1729.037
 462  1817.475
 463  1812.869
 464  1775.012
 465  1873.139
 466  1750.782
 467  1811.298
 468  1829.273
 469  1836.751
 470  1810.008
 471  1724.081
 472  1835.469
 473  1795.134
 474  1793.507
 475  1770.023
 476  1777.479
 477  1809.124
 478  1851.123
 479  1884.372
 480  1842.823
 481  1810.284
 482  1935.92
 483  1873.054
 484  1782.816
 485  1831.588
 486  1845.816
 487  1853.157
 488  1908.17
 489  1754.613
 490  1813.454
 491  1799.076
 492  1854.653
 493  1868.169
 494  1901.027
 495  1923.715
 496  1778.907
 497  1729.02
 498  1783.915
 499  1868.013
 500  1821.548
 501  1734.606
 502  1860.831
 503  1913.176
 504  1832.917
 505  1776.35
 506  1894.711
 507  1870.733
 508  1895.295
 509  1786.314
 510  1784.342
 511  1848.298
