# Input file       =  1195517101.114235_cleaned.dat
# Candidate        =  PSR_0332+5434
# Telescope        =  AR
# Epoch_topo       =  58081.003705025869
# Epoch_bary       =  N/A
# T_sample         =  0.002
# Data Folded      =  7340032
# Data Avg         =  0.188998384439661
# Data StdDev      =  4.56230092643915 
# Profile Bins     =  512
# Profile Avg      =  2709.46937722685 
# Profile StdDev   =  546.258142787093 
# Reduced chi-sqr  =  0.713
# Prob(Noise)      <  1   (~0.0 sigma)
# P_topo (ms)      =  714.518783602049  +/- 9.11e-05
# P'_topo (s/s)    =  -0                +/- 4.81e-11
# P''_topo (s/s^2) =  0                 +/- 2.12e-14
# P_bary (ms)      =  N/A
# P'_bary (s/s)    =  N/A
# P''_bary (s/s^2) =  N/A
# P_orb (s)        =  N/A
# asin(i)/c (s)    =  N/A
# eccentricity     =  N/A
# w (rad)          =  N/A
# T_peri           =  N/A
######################################################
   0  2406.18
   1  2542.816
   2  2855.626
   3  2271.611
   4  2271.078
   5  2803.897
   6  2752.149
   7  2518.43
   8  2750.842
   9  2992.006
  10  2480.323
  11  2437.466
  12  2560.713
  13  2703.401
  14  2385.882
  15  2534.527
  16  2995.556
  17  3163.763
  18  3053.949
  19  2606.063
  20  2725.303
  21  2616.552
  22  2260.472
  23  2466.418
  24  2667.013
  25  2408.757
  26  2209.765
  27  2724.95
  28  2494.102
  29  2451.434
  30  2943.88
  31  3265.451
  32  2915.686
  33  2646.716
  34  2781.703
  35  2592.647
  36  2917.64
  37  3107.37
  38  2904.749
  39  2918.064
  40  2996.581
  41  2501.019
  42  1854.986
  43  1730.811
  44  2516.377
  45  2980.574
  46  2975.704
  47  2406.303
  48  2429.073
  49  2914.304
  50  2717.96
  51  2767.086
  52  2913.585
  53  2848.854
  54  2928.971
  55  2714.892
  56  2969.199
  57  2921.349
  58  2921.405
  59  3436.722
  60  3050.32
  61  2509.601
  62  2273.792
  63  2215.677
  64  2116.75
  65  2488.489
  66  2743.606
  67  2233.963
  68  2069.084
  69  2444.229
  70  2834.272
  71  2784.461
  72  2611.386
  73  2958.381
  74  3051.802
  75  2984.144
  76  2719.762
  77  2701.577
  78  2745.867
  79  2869.92
  80  3112.994
  81  2661.312
  82  2607.032
  83  2193.319
  84  2549.501
  85  2726.135
  86  2618.249
  87  2804.941
  88  2685.98
  89  2428.577
  90  2059.328
  91  2487.209
  92  2653.181
  93  2181.853
  94  2122.401
  95  2545.594
  96  2410.09
  97  1992.293
  98  1922.257
  99  1974.843
 100  2465.693
 101  2407.187
 102  2373.346
 103  2182.34
 104  2008.714
 105  2385.27
 106  2622.678
 107  2675.229
 108  2533.97
 109  2732.482
 110  2593.24
 111  2217.539
 112  2049.051
 113  2378.96
 114  2929.133
 115  3039.145
 116  2606.243
 117  2221.978
 118  2210.761
 119  2372.776
 120  2530.465
 121  2205.395
 122  2211.315
 123  2327.598
 124  2691.087
 125  2449.727
 126  2678.07
 127  2742.421
 128  2887.225
 129  2871.505
 130  2961.652
 131  2932.067
 132  2953.01
 133  2628.654
 134  2924.284
 135  2755.121
 136  3057.145
 137  2938.271
 138  2572.562
 139  2381.34
 140  2238.616
 141  2572.901
 142  2826.016
 143  2519.749
 144  2811.069
 145  2775.225
 146  2291.861
 147  2583.909
 148  2752.043
 149  2850.834
 150  2828.581
 151  2776.931
 152  2628.912
 153  2393.584
 154  2533.258
 155  2698.896
 156  2741.114
 157  3022.306
 158  2975.599
 159  2837.522
 160  2491.385
 161  2670.521
 162  3071.818
 163  3259.691
 164  2863.389
 165  2640.291
 166  2624.012
 167  2962.281
 168  2866.501
 169  3066.107
 170  2983.09
 171  2838.444
 172  2828.089
 173  2875.471
 174  2591.129
 175  2569.357
 176  2575.4
 177  2773.173
 178  2753.326
 179  2994.521
 180  3086.422
 181  3453.556
 182  3441.81
 183  3076.329
 184  3054.274
 185  2781.353
 186  2441.743
 187  2533.673
 188  2983.759
 189  3001.201
 190  2955.041
 191  2764.185
 192  2842.861
 193  2729.55
 194  2559.535
 195  2297.284
 196  1901.097
 197  2394.094
 198  2500.138
 199  2686.38
 200  2908.497
 201  2890.543
 202  2800.792
 203  2261.384
 204  2357.462
 205  2343.605
 206  2489.018
 207  2724.692
 208  2745.829
 209  2755.494
 210  2584.127
 211  2546.135
 212  2631.206
 213  2733.081
 214  2688.661
 215  2686.425
 216  2703.747
 217  2781.431
 218  2644.851
 219  2794.566
 220  3215.093
 221  2964.596
 222  2881.659
 223  2926.067
 224  3449.093
 225  3048.787
 226  2730.553
 227  2451.548
 228  2665.106
 229  2837.726
 230  2479.711
 231  2336.288
 232  2394.15
 233  2369.116
 234  2646.431
 235  2820.563
 236  2647.079
 237  2636.501
 238  2581.918
 239  2481.841
 240  2529.561
 241  2849.334
 242  2761.091
 243  2729.729
 244  2796.748
 245  3282.152
 246  3017.91
 247  2429.676
 248  2932.022
 249  3483.361
 250  3209.936
 251  2949.88
 252  2871.293
 253  3094.2
 254  2868.338
 255  2855.018
 256  3123.6
 257  2917.373
 258  2823.904
 259  2822.775
 260  2610.933
 261  2653.738
 262  2907.65
 263  2632.832
 264  2331.285
 265  2448.335
 266  2537.843
 267  2634.242
 268  2633.496
 269  2050.709
 270  2346.013
 271  2224.059
 272  2212.743
 273  2503.246
 274  2826.271
 275  2622.344
 276  2394.865
 277  2448.07
 278  2617.609
 279  2706.823
 280  2968.255
 281  2699.368
 282  2739.554
 283  2046.554
 284  2368.308
 285  3103.265
 286  2812.759
 287  3127.524
 288  3083.97
 289  2481.407
 290  2181.124
 291  2785.753
 292  2763.491
 293  2673
 294  2944.892
 295  3471.615
 296  3474.481
 297  2756.27
 298  2490.183
 299  2541.019
 300  2382.12
 301  2542.143
 302  2694.843
 303  2745.166
 304  2574.171
 305  2580.403
 306  2644.71
 307  2491.419
 308  2577.428
 309  2870.76
 310  2923.058
 311  2921.502
 312  3156.249
 313  3086.085
 314  2987.879
 315  2673.764
 316  2755.668
 317  2949.358
 318  2982.674
 319  3083.046
 320  3183.624
 321  3074.269
 322  2962.023
 323  2874.906
 324  2623.515
 325  2539.154
 326  2680.439
 327  2683.678
 328  2559.758
 329  2880.454
 330  2390.005
 331  1926.209
 332  2347.208
 333  2213.828
 334  2522.438
 335  2973.467
 336  2847.668
 337  2444.338
 338  2723.042
 339  2825.827
 340  2225.866
 341  2247.853
 342  2267.264
 343  2466.901
 344  2692.815
 345  2829.008
 346  2869.725
 347  2849.431
 348  2954.742
 349  2905.925
 350  2356.032
 351  2620.051
 352  3264.6
 353  3374.857
 354  2946.15
 355  3004.844
 356  3074.395
 357  3007.214
 358  2709.018
 359  3000.918
 360  3287.691
 361  3078.179
 362  2913.7
 363  2849.582
 364  3045.136
 365  2610.033
 366  2682.84
 367  2800.197
 368  2784.611
 369  2677.484
 370  2560.896
 371  2612.459
 372  2370.541
 373  2517.37
 374  2435.347
 375  2526.586
 376  3011.289
 377  3278.953
 378  3333.216
 379  3223.396
 380  3105.538
 381  3214.511
 382  3199.722
 383  2953.24
 384  3003.401
 385  3146.334
 386  3016.882
 387  2510.144
 388  2724.73
 389  2314.864
 390  2343.761
 391  2595.4
 392  2882.03
 393  2673.997
 394  2657.621
 395  2931.522
 396  2766.476
 397  2694.974
 398  2302.172
 399  2190.197
 400  2545.824
 401  2700.57
 402  2496.124
 403  2749.783
 404  2760.285
 405  2644.935
 406  2784.472
 407  2696.444
 408  2871.099
 409  2174.511
 410  2656.056
 411  2789.064
 412  2756.749
 413  2699.462
 414  2620.208
 415  2554.248
 416  2343.47
 417  2302.623
 418  2746.27
 419  2663.419
 420  2758.308
 421  2667.906
 422  2349.421
 423  2207.995
 424  2132.377
 425  2047.584
 426  2332.404
 427  2799.421
 428  2938.469
 429  2951.632
 430  2560.739
 431  2655.716
 432  2306.171
 433  2461.251
 434  2653.305
 435  2997.694
 436  3140.236
 437  2736.842
 438  2820.926
 439  3276.43
 440  2758.865
 441  2589.639
 442  2796.753
 443  2805.789
 444  2733.938
 445  3003.354
 446  2838.689
 447  2496.84
 448  2698.737
 449  3342.862
 450  3015.015
 451  2420.479
 452  2606.53
 453  2829.767
 454  2719.002
 455  2559.414
 456  2663.079
 457  2801.125
 458  2722.73
 459  2393.732
 460  2431.781
 461  2591.065
 462  2462.83
 463  2418.855
 464  2785.185
 465  2757.068
 466  2587.017
 467  3179.22
 468  2978.188
 469  2791.243
 470  3307.973
 471  3536.78
 472  3569.651
 473  3512.529
 474  3991.772
 475  4109.609
 476  4253.523
 477  4296.267
 478  4137.386
 479  3565.746
 480  3079.604
 481  2751.77
 482  2529.913
 483  2558.352
 484  2766.355
 485  2756.134
 486  2460.236
 487  2560.314
 488  2692.484
 489  2525.079
 490  2536.555
 491  2336.35
 492  2747.337
 493  3010.383
 494  3004.281
 495  2629.835
 496  2581.427
 497  2472.299
 498  2319.323
 499  2486.907
 500  2658.466
 501  2511.158
 502  2475.539
 503  2491.976
 504  2266.16
 505  2222.874
 506  2593.858
 507  2602.371
 508  2395.192
 509  2395.259
 510  2606.049
 511  2741.185
