# Input file       =  1195086376.112684_cleaned.dat
# Candidate        =  PSR_0332+5434
# Telescope        =  AR
# Epoch_topo       =  58076.018461952364
# Epoch_bary       =  N/A
# T_sample         =  0.002
# Data Folded      =  7340032
# Data Avg         =  0.161265091975792
# Data StdDev      =  1.00015870801585 
# Profile Bins     =  512
# Profile Avg      =  2311.85267594471 
# Profile StdDev   =  119.752038969401 
# Reduced chi-sqr  =  0.559
# Prob(Noise)      <  1   (~0.0 sigma)
# P_topo (ms)      =  714.513637938258  +/- 4.94e-05
# P'_topo (s/s)    =  -0                +/- 2.61e-11
# P''_topo (s/s^2) =  0                 +/- 1.15e-14
# P_bary (ms)      =  N/A
# P'_bary (s/s)    =  N/A
# P''_bary (s/s^2) =  N/A
# P_orb (s)        =  N/A
# asin(i)/c (s)    =  N/A
# eccentricity     =  N/A
# w (rad)          =  N/A
# T_peri           =  N/A
######################################################
   0  2454.893
   1  2529.849
   2  2377.142
   3  2351.489
   4  2365.329
   5  2369.425
   6  2321.186
   7  2279.728
   8  2289.578
   9  2343.925
  10  2428.043
  11  2411.078
  12  2475.297
  13  2360.043
  14  2361.407
  15  2377.651
  16  2350.462
  17  2331.865
  18  2423.219
  19  2403.968
  20  2383.2
  21  2372.623
  22  2471.722
  23  2481.416
  24  2480.038
  25  2431.636
  26  2422.994
  27  2257.55
  28  2144.609
  29  2332.506
  30  2425.104
  31  2396.236
  32  2391.797
  33  2398.252
  34  2376.79
  35  2340.282
  36  2325.189
  37  2414.297
  38  2294.639
  39  2306.436
  40  2364.69
  41  2281.702
  42  2252.805
  43  2204.213
  44  2252.77
  45  2252.68
  46  2230.543
  47  2317.251
  48  2405.741
  49  2340.16
  50  2243.818
  51  2255.181
  52  2292.383
  53  2331.123
  54  2343.911
  55  2369.799
  56  2330.868
  57  2351.604
  58  2303.387
  59  2334.248
  60  2308.532
  61  2356.504
  62  2427.793
  63  2335.145
  64  2317.319
  65  2233.118
  66  2230.784
  67  2226.873
  68  2288.614
  69  2358.355
  70  2312.392
  71  2314.857
  72  2382.713
  73  2396.883
  74  2350.467
  75  2342.236
  76  2370.505
  77  2362.828
  78  2298.428
  79  2269.925
  80  2275.3
  81  2244.957
  82  2320.144
  83  2357.11
  84  2303.352
  85  2205.11
  86  2242.154
  87  2286.26
  88  2273.189
  89  2192.338
  90  2289.074
  91  2322.057
  92  2305.031
  93  2289.776
  94  2340.322
  95  2282.813
  96  2304.74
  97  2312.31
  98  2342.581
  99  2312.585
 100  2264.397
 101  2318.391
 102  2314.097
 103  2239.957
 104  2242.209
 105  2255.834
 106  2223.642
 107  2255.088
 108  2394.777
 109  2371.126
 110  2299.903
 111  2333.727
 112  2355.127
 113  2299.345
 114  2208.516
 115  2216.943
 116  2215.529
 117  2210.128
 118  2262.318
 119  2362.132
 120  2371.429
 121  2303.071
 122  2195.514
 123  2246.653
 124  2304.927
 125  2408.049
 126  2422.343
 127  2353.57
 128  2287.798
 129  2357.334
 130  2396.597
 131  2314.009
 132  2313.069
 133  2372.985
 134  2367.842
 135  2360.389
 136  2418.585
 137  2430.476
 138  2427.092
 139  2451.21
 140  2380.546
 141  2375.826
 142  2296.677
 143  2353.653
 144  2416.299
 145  2345.872
 146  2297.89
 147  2301.932
 148  2388.168
 149  2394.92
 150  2360.44
 151  2423.525
 152  2384.522
 153  2288.292
 154  2257.944
 155  2308.765
 156  2260.189
 157  2178.265
 158  2217.592
 159  2355.285
 160  2296.431
 161  2276.763
 162  2265.242
 163  2243.583
 164  2268.858
 165  2306.607
 166  2255.251
 167  2194.329
 168  2266.341
 169  2382.991
 170  2310.462
 171  2243.477
 172  2337.18
 173  2328.17
 174  2314.071
 175  2148.671
 176  2265.754
 177  2334.082
 178  2227.189
 179  2235.952
 180  2233.07
 181  2196.062
 182  2234.833
 183  2306.607
 184  2348.049
 185  2384.582
 186  2323.964
 187  2292.122
 188  2248.877
 189  2305.812
 190  2347.166
 191  2303.244
 192  2300.88
 193  2342.521
 194  2304.047
 195  2271.101
 196  2242.412
 197  2279.945
 198  2357.732
 199  2285.183
 200  2249.046
 201  2312.989
 202  2312.03
 203  2321.357
 204  2263.825
 205  2264.923
 206  2286.677
 207  2309.454
 208  2225.511
 209  2224.782
 210  2219.843
 211  2316.234
 212  2392.762
 213  2389.749
 214  2357.258
 215  2336.15
 216  2254.961
 217  2166.631
 218  2177.201
 219  2152.779
 220  2177.232
 221  2214.373
 222  2185.092
 223  2171.555
 224  2171.397
 225  2218.707
 226  2233.967
 227  2255.558
 228  2219.92
 229  2174.451
 230  2246.591
 231  2268.979
 232  2242.631
 233  2196.642
 234  2232.992
 235  2237.88
 236  2210.009
 237  2279.432
 238  2230.136
 239  2168.041
 240  2293.622
 241  2318.76
 242  2241.073
 243  2339.072
 244  2381.11
 245  2352.832
 246  2281.853
 247  2214.826
 248  2206.833
 249  2273.591
 250  2319.375
 251  2307.969
 252  2294.746
 253  2226.57
 254  2238.107
 255  2293.587
 256  2256.751
 257  2206.123
 258  2204.39
 259  2327.043
 260  2346.618
 261  2290.105
 262  2357.334
 263  2356.313
 264  2326.351
 265  2304.76
 266  2334.303
 267  2297.114
 268  2329.413
 269  2403.42
 270  2382.231
 271  2274.386
 272  2361.311
 273  2347.738
 274  2316.499
 275  2297.551
 276  2329.294
 277  2345.867
 278  2309.546
 279  2321.77
 280  2330.306
 281  2270.462
 282  2248.6
 283  2356.947
 284  2394.114
 285  2308.703
 286  2282.207
 287  2307.833
 288  2258.104
 289  2255.598
 290  2250.699
 291  2285.062
 292  2277.522
 293  2272.131
 294  2307.765
 295  2273.23
 296  2196.333
 297  2311.434
 298  2387.805
 299  2357.994
 300  2338.439
 301  2345.029
 302  2358.685
 303  2256.133
 304  2252.05
 305  2309.438
 306  2339.876
 307  2289.299
 308  2355.319
 309  2410.771
 310  2304.292
 311  2310.509
 312  2383.579
 313  2457.51
 314  2332.619
 315  2293.448
 316  2331.247
 317  2340.172
 318  2338.617
 319  2362.594
 320  2403.239
 321  2326.408
 322  2359.292
 323  2356.423
 324  2333.208
 325  2359.245
 326  2351.597
 327  2310.57
 328  2318.312
 329  2380.03
 330  2389.111
 331  2324.262
 332  2304.954
 333  2338.399
 334  2303.177
 335  2249.336
 336  2312.598
 337  2397.667
 338  2311.228
 339  2187.365
 340  2343.249
 341  2439.19
 342  2416.509
 343  2351.776
 344  2405.3
 345  2358.646
 346  2370.429
 347  2312.433
 348  2339.356
 349  2338.91
 350  2422.344
 351  2321.187
 352  2310.932
 353  2301.957
 354  2272.86
 355  2367.281
 356  2439.082
 357  2381.308
 358  2328.257
 359  2374.479
 360  2314.266
 361  2320.137
 362  2331.899
 363  2330.47
 364  2321.306
 365  2348.367
 366  2356.843
 367  2289.132
 368  2233.25
 369  2299.865
 370  2386.484
 371  2355.04
 372  2323.531
 373  2368.941
 374  2393.49
 375  2344.065
 376  2280.822
 377  2306.073
 378  2300.729
 379  2337.117
 380  2270.549
 381  2240.499
 382  2189.997
 383  2293.073
 384  2399.356
 385  2352.679
 386  2303.987
 387  2316.399
 388  2330.753
 389  2266.132
 390  2193.717
 391  2236.91
 392  2321.953
 393  2376.246
 394  2332.042
 395  2332.609
 396  2269.274
 397  2292.913
 398  2276.801
 399  2274.59
 400  2233.803
 401  2273.705
 402  2370.078
 403  2311.081
 404  2260.589
 405  2270.86
 406  2296.933
 407  2268.987
 408  2271.602
 409  2307.386
 410  2257.329
 411  2213.478
 412  2217.909
 413  2404.43
 414  2384.353
 415  2289.351
 416  2343.14
 417  2403.724
 418  2343.09
 419  2343.341
 420  2263.107
 421  2229.856
 422  2234.881
 423  2264.581
 424  2145.565
 425  2090.686
 426  2259.603
 427  2286.699
 428  2344.384
 429  2340.08
 430  2338.963
 431  2343.045
 432  2346.412
 433  2268.001
 434  2327.601
 435  2339.361
 436  2394.197
 437  2330.258
 438  2264.466
 439  2163.739
 440  2118.096
 441  2243.642
 442  2319.769
 443  2295.696
 444  2364.349
 445  2435.777
 446  2296.888
 447  2257.494
 448  2349.096
 449  2340.89
 450  2292.468
 451  2248.914
 452  2277.835
 453  2223.095
 454  2241.443
 455  2332.756
 456  2354.044
 457  2307.271
 458  2273.692
 459  2319.823
 460  2385.006
 461  2335.084
 462  2361.915
 463  2375.988
 464  2338.898
 465  2354.842
 466  2361.55
 467  2252.822
 468  2217.765
 469  2285.917
 470  2416.238
 471  2343.174
 472  2286.511
 473  2295.507
 474  2273.652
 475  2227.465
 476  2235.113
 477  2279.843
 478  2345.873
 479  2348.935
 480  2313.5
 481  2252.028
 482  2226.887
 483  2307.882
 484  2392.755
 485  2390.683
 486  2304.838
 487  2296.513
 488  2383.051
 489  2381.083
 490  2287.343
 491  2284.865
 492  2281.717
 493  2240.989
 494  2331.319
 495  2390.885
 496  2360.072
 497  2252.492
 498  2343.853
 499  2370.328
 500  2295.326
 501  2323.907
 502  2384.082
 503  2403.517
 504  2363.506
 505  2378.793
 506  2384.554
 507  2297.069
 508  2351.752
 509  2389.848
 510  2404.207
 511  2356.958
