# Input file       =  1195416006.108325-PSRB0329-2ms-sampling-dd.dat
# Candidate        =  PSR_0332+5434
# Telescope        =  AR
# Epoch_topo       =  58079.833623938946
# Epoch_bary       =  N/A
# T_sample         =  0.002
# Data Folded      =  7340032
# Data Avg         =  -3.52019824233743e-09
# Data StdDev      =  14.7864990026349 
# Profile Bins     =  512
# Profile Avg      =  0.0712022219729521
# Profile StdDev   =  1770.4324229675  
# Reduced chi-sqr  =  0.511
# Prob(Noise)      <  1   (~0.0 sigma)
# P_topo (ms)      =  714.517232279611  +/- 6.54e-05
# P'_topo (s/s)    =  -0                +/- 3.45e-11
# P''_topo (s/s^2) =  0                 +/- 1.52e-14
# P_bary (ms)      =  N/A
# P'_bary (s/s)    =  N/A
# P''_bary (s/s^2) =  N/A
# P_orb (s)        =  N/A
# asin(i)/c (s)    =  N/A
# eccentricity     =  N/A
# w (rad)          =  N/A
# T_peri           =  N/A
######################################################
   0  -705.877
   1  -454.2742
   2  -178.3147
   3  -929.4737
   4  -710.7435
   5  -536.7269
   6  -343.7641
   7  718.7729
   8  946.1385
   9  1507.029
  10  564.088
  11  -25.98262
  12  626.1461
  13  -41.18921
  14  93.69827
  15  -294.1417
  16  754.5049
  17  663.425
  18  572.6505
  19  389.7534
  20  157.0232
  21  29.23631
  22  759.6917
  23  635.6859
  24  9.360204
  25  473.788
  26  -57.22498
  27  -517.7399
  28  -273.7316
  29  -637.7078
  30  -989.9885
  31  -481.605
  32  -629.99
  33  -611.8057
  34  -129.0543
  35  701.2865
  36  282.0374
  37  -371.3914
  38  -274.625
  39  -445.1714
  40  7.442865
  41  -336.0715
  42  -1441.918
  43  -648.5983
  44  -307.3471
  45  -773.5305
  46  -1046.197
  47  -1073.766
  48  252.1085
  49  334.4559
  50  1002.341
  51  2335.724
  52  2438.753
  53  1455.858
  54  863.815
  55  1011.302
  56  477.3261
  57  505.9947
  58  29.81679
  59  112.8576
  60  72.45678
  61  -221.527
  62  -697.7303
  63  950.8262
  64  -107.6697
  65  109.0207
  66  -340.5849
  67  -60.63169
  68  207.2649
  69  1122.988
  70  2098.198
  71  1350.798
  72  -616.9757
  73  -163.9725
  74  -826.6971
  75  -799.8495
  76  -1434.096
  77  -335.8762
  78  -558.7313
  79  415.03
  80  717.5863
  81  161.5163
  82  -1023.524
  83  61.85334
  84  625.133
  85  64.84158
  86  -1071.762
  87  -1210.363
  88  100.5925
  89  -839.9694
  90  -725.3226
  91  -1468.083
  92  -1457.9
  93  -64.63714
  94  873.5428
  95  955.8716
  96  103.3288
  97  348.4207
  98  611.0255
  99  217.3915
 100  -467.1761
 101  -1015.359
 102  -941.9542
 103  -113.1777
 104  229.1218
 105  -664.5184
 106  -375.9203
 107  326.9073
 108  804.1946
 109  243.7013
 110  146.0061
 111  622.9128
 112  1548.36
 113  1166.447
 114  958.8459
 115  402.7147
 116  547.3531
 117  -43.73258
 118  542.7317
 119  455.6171
 120  300.2152
 121  457.9921
 122  1769.695
 123  1285.506
 124  1169.05
 125  13.58665
 126  747.377
 127  956.6326
 128  -91.44407
 129  485.1964
 130  572.4599
 131  -138.3615
 132  -32.68142
 133  438.71
 134  353.3047
 135  811.8448
 136  1057.135
 137  1531.051
 138  864.0547
 139  51.2176
 140  59.88718
 141  1474.128
 142  2392.659
 143  1746.234
 144  194.0958
 145  1032.268
 146  766.3317
 147  1394.847
 148  142.4468
 149  -887.0013
 150  -222.6487
 151  1333.858
 152  433.3857
 153  -450.191
 154  -756.0485
 155  323.2185
 156  84.881
 157  369.9492
 158  325.9728
 159  -562.8447
 160  -1929.37
 161  -1175.651
 162  -1494.096
 163  -915.9759
 164  -128.14
 165  511.6019
 166  -278.0846
 167  -953.3292
 168  -736.0915
 169  -216.8163
 170  1136.336
 171  655.7614
 172  -1316.425
 173  -2662.651
 174  -2657.234
 175  -1473.347
 176  -2484.463
 177  -1306.978
 178  -909.2238
 179  104.7483
 180  923.0693
 181  -184.4882
 182  -2113.032
 183  -2328.516
 184  -575.6056
 185  -1362.271
 186  -1354.221
 187  -1820.719
 188  -563.6289
 189  -45.67712
 190  -245.6053
 191  -959.0525
 192  9.308784
 193  460.3032
 194  -18.31823
 195  160.5118
 196  144.0135
 197  -683.4072
 198  -7.208052
 199  271.4001
 200  -625.1282
 201  -1024.82
 202  623.7426
 203  189.9108
 204  -421.9202
 205  -691.9341
 206  -874.5529
 207  -1728.534
 208  -405.6997
 209  1183.185
 210  659.4496
 211  -757.1966
 212  -684.9449
 213  262.2087
 214  1035.605
 215  804.1595
 216  985.5117
 217  874.7748
 218  987.569
 219  82.95197
 220  246.5115
 221  701.5569
 222  1193.001
 223  1116.848
 224  2041.359
 225  551.8479
 226  366.5706
 227  855.835
 228  611.2464
 229  -865.52
 230  -2706.509
 231  -865.7263
 232  532.4252
 233  627.0503
 234  -255.9332
 235  -33.35653
 236  641.4578
 237  266.5037
 238  -145.1378
 239  -861.745
 240  -357.0356
 241  607.3624
 242  -500.3394
 243  -1610.169
 244  -1463.378
 245  -532.9149
 246  222.2819
 247  958.1087
 248  31.09442
 249  -433.8722
 250  -650.8066
 251  292.4695
 252  524.2109
 253  -315.5
 254  -874.8586
 255  -1931.554
 256  -720.4489
 257  -842.7658
 258  85.20675
 259  684.3281
 260  408.2692
 261  122.0473
 262  -1093.217
 263  -385.8539
 264  198.0485
 265  1847.614
 266  937.4066
 267  -271.4044
 268  -237.3269
 269  -1315.21
 270  -899.2778
 271  -717.3873
 272  -950.2421
 273  -1169.516
 274  205.9504
 275  1555.991
 276  2712.503
 277  1390.456
 278  1256.049
 279  803.6075
 280  2114.879
 281  2068.973
 282  872.9994
 283  431.1788
 284  1112.696
 285  805.4213
 286  -138.3605
 287  -756.2123
 288  -172.0882
 289  102.797
 290  97.60809
 291  -1141.293
 292  -951.4389
 293  886.1789
 294  1628.079
 295  1013.434
 296  72.57272
 297  -451.6835
 298  -718.9874
 299  -593.0257
 300  -1113.4
 301  -1276.688
 302  -452.4079
 303  220.9367
 304  -93.90665
 305  -567.9167
 306  -249.407
 307  -1476.395
 308  -835.3243
 309  1922.283
 310  419.8712
 311  -1611.009
 312  -935.233
 313  -126.4356
 314  -345.225
 315  -556.1182
 316  -969.1747
 317  -1070.219
 318  -1112.844
 319  -224.6907
 320  -1251.236
 321  -1767.112
 322  -885.3412
 323  25.55534
 324  -382.2036
 325  -1555.413
 326  -1145.791
 327  -148.2131
 328  132.0406
 329  -408.0526
 330  -711.0391
 331  -194.1775
 332  -766.5629
 333  -18.58386
 334  783.8911
 335  1674.094
 336  1249.586
 337  355.1244
 338  192.3191
 339  -139.4627
 340  -910.2467
 341  -322.138
 342  792.2922
 343  218.9307
 344  -1099.972
 345  -411.2407
 346  263.617
 347  -288.8241
 348  -690.2036
 349  -808.8297
 350  -893.1622
 351  690.6992
 352  667.9941
 353  253.0188
 354  -109.2398
 355  -357.6952
 356  -89.72608
 357  -38.87837
 358  -548.7769
 359  -1413.358
 360  -75.16917
 361  -44.6719
 362  -7.243803
 363  -2273.736
 364  -2663.567
 365  -2029.467
 366  -622.5525
 367  -318.592
 368  135.9674
 369  -727.192
 370  217.4319
 371  87.68204
 372  21.44496
 373  -197.7707
 374  542.3878
 375  1450.724
 376  731.5465
 377  -80.99211
 378  331.4818
 379  -240.0624
 380  -276.8512
 381  609.5446
 382  486.6586
 383  -202.9934
 384  503.8329
 385  695.9276
 386  193.5333
 387  -636.918
 388  -1231.355
 389  -1920.169
 390  -664.1345
 391  -1359.439
 392  -683.7098
 393  -950.7803
 394  261.0521
 395  70.35551
 396  -98.3193
 397  284.6333
 398  198.881
 399  883.2747
 400  -264.8065
 401  226.2561
 402  27.65374
 403  345.5226
 404  -92.17903
 405  583.8058
 406  -20.9386
 407  290.8235
 408  586.8506
 409  1283.451
 410  -308.3517
 411  -589.6788
 412  -789.3237
 413  361.2132
 414  -301.3714
 415  422.2764
 416  53.5965
 417  -58.19969
 418  245.6165
 419  273.1834
 420  -55.83605
 421  -431.2912
 422  -468.8208
 423  1306.029
 424  1452.078
 425  272.3007
 426  -70.67216
 427  110.4958
 428  -444.5525
 429  -482.1725
 430  -690.4244
 431  633.5191
 432  -255.4025
 433  -125.5825
 434  116.5702
 435  -204.1857
 436  207.847
 437  1030.377
 438  1748.428
 439  1000.042
 440  -382.4286
 441  -1024.556
 442  -831.057
 443  -573.3
 444  -1295.786
 445  -2126.949
 446  -731.8714
 447  -1011.833
 448  -189.0371
 449  468.2713
 450  19.52232
 451  -445.666
 452  51.74564
 453  169.1742
 454  -370.1949
 455  -618.3788
 456  912.2253
 457  1294.78
 458  -104.8856
 459  -477.2014
 460  559.8546
 461  1623.271
 462  1390.115
 463  1510.327
 464  1114.782
 465  656.0865
 466  -377.9783
 467  -368.4957
 468  -236.9234
 469  -2081.157
 470  -1785.688
 471  -1452.288
 472  -989.5784
 473  -2129.059
 474  -1151.354
 475  -878.6075
 476  -911.5689
 477  -412.4838
 478  613.152
 479  839.6061
 480  1344.225
 481  1807.232
 482  570.6119
 483  -309.1356
 484  -1026.48
 485  -98.70469
 486  -70.56802
 487  -433.1194
 488  -1006.176
 489  -360.7273
 490  533.0552
 491  384.4598
 492  491.9542
 493  777.6409
 494  862.5793
 495  1651.493
 496  2131.355
 497  1322.003
 498  310.5983
 499  103.206
 500  538.1848
 501  1514.2
 502  1548.08
 503  1454.023
 504  1324.501
 505  1055.342
 506  1643.516
 507  1414.268
 508  1657.331
 509  1917.156
 510  2427.838
 511  896.0315
