# Input file       =  1195674484.107206_cleaned.dat
# Candidate        =  PSR_0332+5434
# Telescope        =  AR
# Epoch_topo       =  58082.825267444518
# Epoch_bary       =  N/A
# T_sample         =  0.002
# Data Folded      =  7340032
# Data Avg         =  0.114536878845331
# Data StdDev      =  1.00032925537891 
# Profile Bins     =  512
# Profile Avg      =  1642.00727487059 
# Profile StdDev   =  119.772459123026 
# Reduced chi-sqr  =  0.775
# Prob(Noise)      <  1   (~0.0 sigma)
# P_topo (ms)      =  714.520331013706  +/- 7.24e-05
# P'_topo (s/s)    =  -0                +/- 3.82e-11
# P''_topo (s/s^2) =  0                 +/- 1.69e-14
# P_bary (ms)      =  N/A
# P'_bary (s/s)    =  N/A
# P''_bary (s/s^2) =  N/A
# P_orb (s)        =  N/A
# asin(i)/c (s)    =  N/A
# eccentricity     =  N/A
# w (rad)          =  N/A
# T_peri           =  N/A
######################################################
   0  2031.035
   1  1988.352
   2  1848.758
   3  1781.622
   4  1762.055
   5  1746.364
   6  1699.28
   7  1723.203
   8  1720.828
   9  1635.487
  10  1664.759
  11  1665.147
  12  1630.099
  13  1595.068
  14  1556.077
  15  1612.711
  16  1497.285
  17  1594.623
  18  1592.81
  19  1625.986
  20  1554.531
  21  1535.942
  22  1705.9
  23  1725.262
  24  1643.965
  25  1678.461
  26  1725.499
  27  1588.607
  28  1563.72
  29  1609.01
  30  1597.973
  31  1458.114
  32  1443.356
  33  1663.714
  34  1608.386
  35  1517.185
  36  1580.748
  37  1662.036
  38  1699.65
  39  1659.938
  40  1739.953
  41  1750.403
  42  1684.304
  43  1707.738
  44  1699.924
  45  1615.22
  46  1638.846
  47  1622.645
  48  1613.665
  49  1620.949
  50  1610.052
  51  1627.652
  52  1577.272
  53  1630.598
  54  1689.483
  55  1562.349
  56  1639.929
  57  1701.463
  58  1660.853
  59  1604.867
  60  1645.669
  61  1609.23
  62  1727.107
  63  1734.688
  64  1698.918
  65  1623.888
  66  1697.588
  67  1648.007
  68  1567.979
  69  1627.175
  70  1698.984
  71  1649.672
  72  1712.389
  73  1738.784
  74  1685.834
  75  1590.953
  76  1671.068
  77  1681.148
  78  1561.905
  79  1562.285
  80  1727.382
  81  1780.473
  82  1673.785
  83  1602.293
  84  1636.774
  85  1679.427
  86  1652.558
  87  1709.023
  88  1672.588
  89  1590.978
  90  1621.012
  91  1693.52
  92  1662.657
  93  1607.954
  94  1628.79
  95  1605.507
  96  1719.744
  97  1758.315
  98  1774.499
  99  1685.343
 100  1634.625
 101  1616.709
 102  1483.301
 103  1637.111
 104  1713.32
 105  1631.512
 106  1642.027
 107  1628.711
 108  1681.625
 109  1720.272
 110  1694.068
 111  1651.994
 112  1625.801
 113  1613.287
 114  1538.883
 115  1582.693
 116  1571.217
 117  1558.97
 118  1565.367
 119  1656.536
 120  1654.017
 121  1510.209
 122  1564.418
 123  1653.919
 124  1585.705
 125  1558.047
 126  1668.1
 127  1586.916
 128  1538.079
 129  1540.863
 130  1566.973
 131  1484.689
 132  1561.69
 133  1662.835
 134  1673.234
 135  1531.537
 136  1593.766
 137  1693.229
 138  1673.404
 139  1515.401
 140  1541.39
 141  1629.914
 142  1621.914
 143  1582.884
 144  1552.513
 145  1550.664
 146  1576.471
 147  1589.181
 148  1575.881
 149  1619.069
 150  1587.098
 151  1636.6
 152  1572.634
 153  1476.842
 154  1613.083
 155  1632.106
 156  1575.558
 157  1503.921
 158  1506.353
 159  1516.021
 160  1469.536
 161  1540.441
 162  1570.241
 163  1558.659
 164  1654.005
 165  1647.962
 166  1654.533
 167  1621.88
 168  1587.545
 169  1674.787
 170  1540.316
 171  1481.87
 172  1469.258
 173  1609.185
 174  1617.397
 175  1609.741
 176  1672.907
 177  1666.418
 178  1685.82
 179  1611.254
 180  1663.795
 181  1713.174
 182  1724.925
 183  1650.858
 184  1528.883
 185  1536.029
 186  1569.441
 187  1593.956
 188  1561.074
 189  1646.226
 190  1644.075
 191  1617.901
 192  1696.526
 193  1754.268
 194  1744.357
 195  1721.199
 196  1673.697
 197  1665.225
 198  1666.539
 199  1614.034
 200  1617.412
 201  1701.509
 202  1624.562
 203  1594.078
 204  1618.968
 205  1603.911
 206  1563.745
 207  1587.479
 208  1588.32
 209  1640.648
 210  1630.313
 211  1638.839
 212  1688.898
 213  1697.876
 214  1747.23
 215  1783.961
 216  1717.46
 217  1601.481
 218  1579.294
 219  1610.555
 220  1674.491
 221  1606.165
 222  1491.572
 223  1527.211
 224  1597.162
 225  1614.994
 226  1556.961
 227  1514.398
 228  1510.596
 229  1549.423
 230  1590.357
 231  1547.036
 232  1551.406
 233  1788.563
 234  1679.178
 235  1618.151
 236  1596.088
 237  1666.731
 238  1738.815
 239  1608.489
 240  1610.97
 241  1669.718
 242  1603.646
 243  1590.072
 244  1610.103
 245  1554.685
 246  1534.907
 247  1554.515
 248  1643.028
 249  1655.134
 250  1638.067
 251  1577.41
 252  1604.285
 253  1663.391
 254  1642.348
 255  1648.619
 256  1594.701
 257  1596.554
 258  1663.717
 259  1625.128
 260  1566.455
 261  1611.499
 262  1667.484
 263  1616.879
 264  1570.823
 265  1638.848
 266  1669.856
 267  1622.671
 268  1646.755
 269  1685.573
 270  1648.942
 271  1620.64
 272  1589.382
 273  1656.477
 274  1599.838
 275  1575.781
 276  1556.698
 277  1650.83
 278  1716.117
 279  1584.288
 280  1582.308
 281  1633.211
 282  1733.761
 283  1717.893
 284  1654.559
 285  1617.596
 286  1696.658
 287  1661.815
 288  1593.309
 289  1619.741
 290  1534.404
 291  1575.811
 292  1556.289
 293  1511.518
 294  1626.605
 295  1659.68
 296  1603.91
 297  1626.614
 298  1702.822
 299  1619.49
 300  1553.139
 301  1609.438
 302  1605.844
 303  1606.088
 304  1624.553
 305  1656.399
 306  1703.275
 307  1710.992
 308  1733.653
 309  1746.66
 310  1678.071
 311  1544.992
 312  1556.337
 313  1595.529
 314  1661.905
 315  1611.082
 316  1603.268
 317  1668.614
 318  1621.428
 319  1605.281
 320  1590.604
 321  1557.296
 322  1577.991
 323  1602.3
 324  1720.798
 325  1702.548
 326  1733.338
 327  1561.777
 328  1473.342
 329  1535.055
 330  1600.438
 331  1599.443
 332  1443.593
 333  1588.615
 334  1627.34
 335  1600.804
 336  1618.478
 337  1614.205
 338  1666.916
 339  1644.149
 340  1579.327
 341  1646.909
 342  1652.995
 343  1642.994
 344  1660.001
 345  1748.267
 346  1704.151
 347  1664.248
 348  1618.498
 349  1613.674
 350  1618.706
 351  1653.029
 352  1685.226
 353  1703.079
 354  1651.451
 355  1606.006
 356  1623.662
 357  1590.307
 358  1576.575
 359  1610.539
 360  1542.526
 361  1565.36
 362  1624.573
 363  1667.689
 364  1623.945
 365  1623.975
 366  1673.395
 367  1551.974
 368  1650.781
 369  1714.355
 370  1628.529
 371  1505.773
 372  1655.452
 373  1761.401
 374  1685.496
 375  1712.838
 376  1742.129
 377  1700.614
 378  1659.891
 379  1762.227
 380  1788.086
 381  1759.783
 382  1749.159
 383  1671.592
 384  1674.034
 385  1607.658
 386  1599.822
 387  1646.183
 388  1714.778
 389  1666.464
 390  1684.68
 391  1715.646
 392  1676.414
 393  1617.579
 394  1613.725
 395  1659.752
 396  1649.639
 397  1608.781
 398  1740.447
 399  1691.499
 400  1657.373
 401  1707.795
 402  1684.058
 403  1586.282
 404  1582.021
 405  1669.948
 406  1614.966
 407  1605.424
 408  1571.779
 409  1581.588
 410  1661.151
 411  1698.888
 412  1700.636
 413  1666.6
 414  1683.74
 415  1669.413
 416  1672.292
 417  1623.385
 418  1575.595
 419  1616.326
 420  1665.197
 421  1721.569
 422  1660.273
 423  1655.647
 424  1698.255
 425  1693.523
 426  1593.318
 427  1565.703
 428  1499.533
 429  1524.597
 430  1593.03
 431  1526.309
 432  1560.934
 433  1647.183
 434  1663.928
 435  1699.21
 436  1643.665
 437  1623.414
 438  1700.431
 439  1651.46
 440  1668.408
 441  1753.881
 442  1669.537
 443  1648.195
 444  1569.673
 445  1678.205
 446  1679.511
 447  1658.03
 448  1752.69
 449  1694.093
 450  1692.186
 451  1730.984
 452  1748.547
 453  1655.518
 454  1531.046
 455  1657.316
 456  1658.509
 457  1639.291
 458  1642.847
 459  1739.469
 460  1737.308
 461  1680.179
 462  1642.883
 463  1667.813
 464  1661.461
 465  1703.292
 466  1806.238
 467  1781.113
 468  1750.271
 469  1717.179
 470  1777.027
 471  1655.24
 472  1521.026
 473  1685.745
 474  1733.934
 475  1633.036
 476  1578.175
 477  1664.274
 478  1744.397
 479  1716.656
 480  1667.692
 481  1729.937
 482  1656.951
 483  1544.424
 484  1588.287
 485  1547.376
 486  1562.796
 487  1539.556
 488  1595.227
 489  1695.366
 490  1699.065
 491  1719.542
 492  1639.235
 493  1692.088
 494  1733.702
 495  1801.566
 496  1765.464
 497  1777.961
 498  1803.969
 499  1744.286
 500  1732.614
 501  1753.788
 502  1802.004
 503  1803.115
 504  1707.669
 505  1777.158
 506  1821.941
 507  1811.184
 508  1696.119
 509  1839.133
 510  1911.906
 511  1979.256
