# Input file       =  1195142387.113752_cleaned.dat
# Candidate        =  PSR_0332+5434
# Telescope        =  AR
# Epoch_topo       =  58076.666737427680
# Epoch_bary       =  N/A
# T_sample         =  0.002
# Data Folded      =  7143424
# Data Avg         =  1.94922925494803 
# Data StdDev      =  48.1222003329993 
# Profile Bins     =  256
# Profile Avg      =  54390.4238445461 
# Profile StdDev   =  8038.56834175536 
# Reduced chi-sqr  =  0.539
# Prob(Noise)      <  1   (~0.0 sigma)
# P_topo (ms)      =  714.513946291645  +/- 0.00013
# P'_topo (s/s)    =  -0                +/- 7.05e-11
# P''_topo (s/s^2) =  0                 +/- 3.2e-14
# P_bary (ms)      =  N/A
# P'_bary (s/s)    =  N/A
# P''_bary (s/s^2) =  N/A
# P_orb (s)        =  N/A
# asin(i)/c (s)    =  N/A
# eccentricity     =  N/A
# w (rad)          =  N/A
# T_peri           =  N/A
######################################################
   0  60108.64
   1  54615.52
   2  54523.1
   3  53422.63
   4  49138.75
   5  54107.09
   6  50359.27
   7  56279.41
   8  60020.18
   9  57989.73
  10  53865.99
  11  58995.38
  12  57773.21
  13  60154.82
  14  60593.04
  15  57833.86
  16  56734.72
  17  50377.05
  18  51562.39
  19  55585.39
  20  63911.57
  21  58879.67
  22  55823.85
  23  56651.86
  24  57984.49
  25  63684.83
  26  53491.25
  27  60824.55
  28  64928.1
  29  56653.6
  30  45277.2
  31  51643.5
  32  51888.43
  33  53112.61
  34  60465.13
  35  60260.47
  36  60566.12
  37  49055.24
  38  53592.86
  39  59861
  40  49779.72
  41  53785.61
  42  57800.66
  43  56883.86
  44  49451.52
  45  59335.54
  46  50472.33
  47  47668.32
  48  50197.27
  49  49888.98
  50  56591.58
  51  50498.35
  52  55856.61
  53  46886.49
  54  54086.74
  55  49855.96
  56  56034.81
  57  57200.54
  58  57573.12
  59  62070.11
  60  57418.96
  61  51364.95
  62  49464.04
  63  58732.56
  64  55173.24
  65  49793.54
  66  36333.58
  67  44736.99
  68  52289.07
  69  51078.62
  70  56288.42
  71  60296.54
  72  59559.14
  73  50492.74
  74  52732.1
  75  63591.43
  76  56193.07
  77  53258.61
  78  52880.22
  79  62085.38
  80  46024.82
  81  52470.88
  82  50162.73
  83  53420.21
  84  49503.45
  85  46913.52
  86  50238.71
  87  44468.93
  88  47031.98
  89  51619.53
  90  51143.64
  91  50414.36
  92  54330.93
  93  60722.39
  94  61846.98
  95  59190
  96  59889.7
  97  62036.62
  98  53720.62
  99  57466.91
 100  53983.54
 101  46681.48
 102  51020.62
 103  55876.85
 104  50602.07
 105  43518.5
 106  52647.23
 107  54580.84
 108  56029.89
 109  52945.41
 110  53739.7
 111  62481.01
 112  52463.39
 113  56139.82
 114  51488.14
 115  55980.52
 116  58308.08
 117  56885.35
 118  55949.66
 119  54907.75
 120  57197.98
 121  53910.31
 122  55132.22
 123  59974.26
 124  49735.93
 125  50466.46
 126  54513.08
 127  49294.42
 128  53889.82
 129  47857.12
 130  46519.19
 131  45762.28
 132  43863.38
 133  49651.79
 134  45728.25
 135  46385.66
 136  55510.96
 137  50035.26
 138  53449.07
 139  49396.5
 140  50610.91
 141  46534.87
 142  45793.12
 143  50359.36
 144  48530.38
 145  47181.25
 146  44752.42
 147  50993.52
 148  49531.08
 149  47854.8
 150  56968.77
 151  63812.07
 152  64369.68
 153  51482.91
 154  62308.07
 155  62193.45
 156  63594.66
 157  58676.91
 158  61974.21
 159  59345.58
 160  56001.75
 161  60287.62
 162  59921.14
 163  62668.37
 164  52697.4
 165  58403.66
 166  57028.51
 167  51638.22
 168  55372.57
 169  59660.09
 170  53354.73
 171  51926.61
 172  55542.66
 173  52278.18
 174  53618.5
 175  55824.92
 176  60378.84
 177  57841.7
 178  49211.67
 179  55056.97
 180  59357.38
 181  57611.11
 182  61919.77
 183  55840.94
 184  60338.29
 185  56952.2
 186  57463.09
 187  52419.73
 188  51085.1
 189  45672
 190  44745.8
 191  50239.25
 192  47684.18
 193  54394.51
 194  58002.63
 195  57978.55
 196  53999.12
 197  60076.92
 198  52730.8
 199  56138.88
 200  58970.64
 201  56746.61
 202  60328.84
 203  62599.45
 204  60714.01
 205  58195.55
 206  61890.59
 207  57679.59
 208  62247.14
 209  62423.39
 210  59965.27
 211  53752.71
 212  63730.51
 213  58259.12
 214  46761.76
 215  52699.01
 216  60843.21
 217  50012.23
 218  57757.59
 219  55044.04
 220  58875.6
 221  48904.48
 222  57760.07
 223  53006.23
 224  59546.4
 225  54842.12
 226  57442.39
 227  54577.92
 228  53741.41
 229  52183.16
 230  54237.03
 231  56852.16
 232  44285.66
 233  51596.82
 234  56170.84
 235  55928.69
 236  55948.27
 237  55042.85
 238  51989.86
 239  42902.91
 240  56373.38
 241  56978.27
 242  51510.74
 243  44867.87
 244  47537.01
 245  54749.82
 246  52066.41
 247  51406.09
 248  55729.76
 249  51381.16
 250  48988.86
 251  54165.22
 252  45878.93
 253  43007.49
 254  56250.21
 255  60970.25
