# Input file       =  1195573752.099748_cleaned.dat
# Candidate        =  PSR_0332+5434
# Telescope        =  AR
# Epoch_topo       =  58081.659387728563
# Epoch_bary       =  N/A
# T_sample         =  0.002
# Data Folded      =  7143424
# Data Avg         =  0.238636494376013
# Data StdDev      =  9.07675368155552 
# Profile Bins     =  256
# Profile Avg      =  6659.14093791081 
# Profile StdDev   =  1516.22544866115 
# Reduced chi-sqr  =  0.411
# Prob(Noise)      <  1   (~0.0 sigma)
# P_topo (ms)      =  714.519100020299  +/- 6.82e-05
# P'_topo (s/s)    =  -0                +/- 3.7e-11
# P''_topo (s/s^2) =  0                 +/- 1.68e-14
# P_bary (ms)      =  N/A
# P'_bary (s/s)    =  N/A
# P''_bary (s/s^2) =  N/A
# P_orb (s)        =  N/A
# asin(i)/c (s)    =  N/A
# eccentricity     =  N/A
# w (rad)          =  N/A
# T_peri           =  N/A
######################################################
   0  5765.013
   1  6302.356
   2  6246.164
   3  7336.268
   4  7516.461
   5  6362.063
   6  7423.089
   7  6798.764
   8  6332.259
   9  5521.153
  10  6647.09
  11  7342.647
  12  6661.702
  13  6149.194
  14  6576.148
  15  7591.273
  16  4446.575
  17  6252.599
  18  6336.3
  19  7874.668
  20  6921.552
  21  6520.416
  22  6588.228
  23  6735.047
  24  7661.441
  25  7940.112
  26  7203.35
  27  6763.015
  28  7035.987
  29  7610.955
  30  7683.875
  31  8137.555
  32  6724.771
  33  7386.453
  34  6198.518
  35  5898.777
  36  5448.915
  37  6917.041
  38  6649.699
  39  5677.907
  40  6482.778
  41  6828.515
  42  7097.4
  43  5160.518
  44  6068.724
  45  5160.245
  46  5267.837
  47  6855.284
  48  7848.691
  49  6911.635
  50  5594.898
  51  6521.628
  52  5735.704
  53  5598.583
  54  6499.216
  55  6020.968
  56  8175.941
  57  6583.955
  58  7192.493
  59  6399.245
  60  5983.891
  61  5577.511
  62  7172.509
  63  7973.878
  64  7745.501
  65  6723.683
  66  6567.24
  67  5831.879
  68  5221.977
  69  6474.662
  70  7645.921
  71  6275.467
  72  7583.533
  73  7750.344
  74  7505.968
  75  7414.902
  76  7543.114
  77  6073.461
  78  6540.327
  79  6464.978
  80  6331.808
  81  6534.864
  82  6196.452
  83  6770.601
  84  6887.858
  85  7383.964
  86  5866.857
  87  6093.572
  88  5609.796
  89  7114.451
  90  7135.475
  91  6008.083
  92  7481.911
  93  7081.638
  94  6473.537
  95  5379.303
  96  5277.316
  97  6992.114
  98  6979.074
  99  7182.832
 100  6723.893
 101  7397.035
 102  6099.197
 103  7732.719
 104  7247.129
 105  7772.058
 106  8361.691
 107  6485.448
 108  6383.165
 109  6693.769
 110  8147.547
 111  7580.828
 112  5976.665
 113  6776.615
 114  7393.948
 115  6174.188
 116  6756.084
 117  6507.989
 118  5751.812
 119  6228.56
 120  5861.583
 121  6383.778
 122  6819.002
 123  7098.986
 124  6412.698
 125  6967.83
 126  8886.414
 127  5472.523
 128  6935.537
 129  6327.088
 130  6484.551
 131  5334.263
 132  5160.544
 133  5698.577
 134  5836.746
 135  6168.66
 136  4407.052
 137  5320.636
 138  5029.601
 139  5572.069
 140  6805.817
 141  5653.622
 142  6721.981
 143  5585.732
 144  6117.928
 145  4896.242
 146  6696.606
 147  6810.122
 148  6095.558
 149  5989.688
 150  6414.931
 151  7299.651
 152  7272.036
 153  6279.143
 154  6458.593
 155  7437.391
 156  7609.615
 157  8176.659
 158  6815.075
 159  5271.437
 160  6930.562
 161  6034.963
 162  8342.527
 163  7188.471
 164  6820.954
 165  7598.254
 166  7188.42
 167  6762.214
 168  6554.641
 169  8148.735
 170  6703.944
 171  6599.442
 172  5632.527
 173  6633.849
 174  6628.885
 175  6310.027
 176  7065.319
 177  5570.001
 178  6003.908
 179  5851.062
 180  8204.218
 181  7221.1
 182  7357.375
 183  8345.222
 184  7936.842
 185  8618.238
 186  6935.192
 187  7235.699
 188  8667.951
 189  7721.965
 190  7468.435
 191  6139.422
 192  6790.145
 193  6691.016
 194  7228.23
 195  5734.638
 196  6701.532
 197  6585.175
 198  8234.476
 199  5320.48
 200  5179.787
 201  6919.277
 202  7139.046
 203  5940.602
 204  5515.369
 205  6805.787
 206  6652.862
 207  6611.576
 208  6386.259
 209  6544.828
 210  7776.988
 211  7273.911
 212  7519.519
 213  6573.9
 214  6803.456
 215  5076.249
 216  6445.071
 217  7090.111
 218  6744.361
 219  6889.95
 220  5898.581
 221  7223.204
 222  7008.638
 223  6492.398
 224  6967.939
 225  6586.703
 226  6597.992
 227  5821.73
 228  6142.383
 229  5797.421
 230  7361.518
 231  6872.731
 232  5056.917
 233  6377.821
 234  7757.074
 235  8210.798
 236  6148.232
 237  7431.738
 238  7277.884
 239  6657.866
 240  7065.717
 241  7317.261
 242  5698.525
 243  6443.166
 244  6738.484
 245  5745.988
 246  7339.393
 247  7356.491
 248  6459.068
 249  4272.011
 250  5898.617
 251  6005.144
 252  5619.025
 253  6029.426
 254  8515.204
 255  8133.82
