# Input file       =  1195832188.113894-PSRB0329-2ms-sampling-dd.dat
# Candidate        =  PSR_0332+5434
# Telescope        =  AR
# Epoch_topo       =  58084.650545299701
# Epoch_bary       =  N/A
# T_sample         =  0.002
# Data Folded      =  7208960
# Data Avg         =  -2.63143878592786e-09
# Data StdDev      =  39.0144643660344 
# Profile Bins     =  512
# Profile Avg      =  0.42780865445927 
# Profile StdDev   =  4629.42418569971 
# Reduced chi-sqr  =  0.927
# Prob(Noise)      <  0.88   (~0.0 sigma)
# P_topo (ms)      =  714.522201499049  +/- 5.81e-05
# P'_topo (s/s)    =  -0                +/- 3.12e-11
# P''_topo (s/s^2) =  0                 +/- 1.4e-14
# P_bary (ms)      =  N/A
# P'_bary (s/s)    =  N/A
# P''_bary (s/s^2) =  N/A
# P_orb (s)        =  N/A
# asin(i)/c (s)    =  N/A
# eccentricity     =  N/A
# w (rad)          =  N/A
# T_peri           =  N/A
######################################################
   0  -3125.018
   1  -2690.003
   2  -2993.681
   3  -3651.5
   4  -2899.552
   5  -3282.357
   6  -1665.989
   7  -1204.498
   8  -183.4902
   9  -1410.598
  10  -3214.032
  11  -2048.936
  12  -2224.834
  13  -582.3891
  14  -726.2097
  15  -98.76977
  16  -2701.713
  17  -4667.732
  18  -4987.397
  19  -4573.793
  20  -3845.473
  21  -3446.997
  22  -3089.089
  23  -3977.388
  24  -4525.611
  25  -4868.042
  26  -4721.365
  27  -4220.383
  28  -4226.392
  29  -3985.046
  30  -4063.437
  31  -4688.741
  32  -4501.532
  33  -3627.73
  34  -2107.431
  35  -1175.959
  36  -1439.328
  37  -2677.468
  38  -3879.522
  39  -4905.113
  40  -3440.822
  41  -2703.245
  42  -1785.543
  43  -1507.017
  44  -2642.828
  45  -3945.751
  46  -5933.741
  47  -4679.141
  48  -4249.51
  49  -2539.568
  50  -2998.12
  51  -3315.264
  52  -3473.226
  53  -3992.081
  54  -2222.156
  55  -386.8315
  56  1914.084
  57  1725.196
  58  1491.198
  59  -1433.371
  60  -3519.973
  61  -3048.126
  62  -1352.13
  63  501.8849
  64  -343.8281
  65  -1012.519
  66  -4039.499
  67  -5372.282
  68  -5047.361
  69  -4540.098
  70  -4091.421
  71  -3302.462
  72  -3712.218
  73  -3608.278
  74  -4780.395
  75  -5237.243
  76  -3707.859
  77  -2668.134
  78  -1306.764
  79  -1367.373
  80  -2918.188
  81  -3649.972
  82  -4959.253
  83  -2923.184
  84  -1936.004
  85  -1264.879
  86  -1553.405
  87  -1659.768
  88  -2021.934
  89  -4064.757
  90  -1414.124
  91  -97.04013
  92  1989.332
  93  677.5801
  94  -707.5574
  95  -3652.106
  96  -6112.433
  97  -3910.253
  98  -2273.44
  99  -131.4732
 100  -984.1301
 101  -1529.863
 102  -3393.181
 103  -4478.792
 104  -3312.686
 105  -2671.367
 106  -1535.425
 107  -1722.603
 108  -2052.406
 109  -2231.856
 110  -3273.475
 111  -2938.406
 112  -776.6495
 113  721.5167
 114  1622.134
 115  1828.505
 116  -278.8723
 117  -1973.971
 118  -2941.533
 119  -687.8726
 120  1321.371
 121  1897.729
 122  1053.632
 123  -1374.881
 124  -2583.876
 125  -4970.145
 126  -1774.651
 127  -430.0847
 128  872.1042
 129  1228.958
 130  -334.3736
 131  -1666.288
 132  -2995.051
 133  -1602.384
 134  -1195.722
 135  -435.6168
 136  -863.283
 137  -2057.235
 138  -3168.094
 139  -3913.63
 140  -2470.192
 141  -2180.621
 142  -968.2206
 143  -571.0002
 144  -1333.689
 145  -2879.531
 146  -4085.152
 147  -3346.253
 148  -1688.967
 149  -654.2195
 150  -486.5405
 151  -910.4443
 152  -3326.916
 153  -3476.375
 154  -3476.928
 155  -1362.724
 156  -728.9136
 157  1933.097
 158  2453.111
 159  1429.527
 160  -1173.928
 161  -3142.553
 162  -2806.473
 163  -1477.404
 164  379.1062
 165  981.3506
 166  -1145.487
 167  -3256.054
 168  -5927.355
 169  -3679.59
 170  -2707.807
 171  -1458.664
 172  -681.9082
 173  -2260.075
 174  -3745.328
 175  -6566.361
 176  -4588.146
 177  -2520.869
 178  -362.55
 179  343.9226
 180  -844.1644
 181  -2894.624
 182  -6099.56
 183  -5218.542
 184  -4092.086
 185  -2263.22
 186  -2352.033
 187  -1776.785
 188  -3044.218
 189  -5372.963
 190  -5659.803
 191  -4864.305
 192  -4294.256
 193  -4590.038
 194  -3921.07
 195  -3590.606
 196  -4395.569
 197  -4740.732
 198  -3263.389
 199  -2065.09
 200  -1882.624
 201  -1617.173
 202  -2442.359
 203  -3281.752
 204  -4903.487
 205  -2669.119
 206  -1051.374
 207  49.84929
 208  623.0851
 209  -1247.543
 210  -2415.418
 211  -4019.087
 212  -1378.923
 213  455.8997
 214  1570.92
 215  2343.984
 216  528.0405
 217  -1179.261
 218  -3715.644
 219  -2028.553
 220  -959.9168
 221  1225.286
 222  1990.79
 223  170.8784
 224  -177.4848
 225  -3874.991
 226  -1800.095
 227  -69.68221
 228  1336.223
 229  1042.048
 230  2273.708
 231  1927.628
 232  -2105.738
 233  -1841.126
 234  -785.0967
 235  1335.448
 236  1480.37
 237  1702.368
 238  11.11385
 239  -2047.769
 240  -2085.439
 241  1382.7
 242  2681.266
 243  3125.127
 244  3919.93
 245  1494.527
 246  -56.6501
 247  -20.96681
 248  2678.793
 249  4785.7
 250  2843.736
 251  3550.639
 252  2759.604
 253  4200.147
 254  3057.686
 255  4607.386
 256  5788.117
 257  1806.799
 258  2788.787
 259  3500.52
 260  5131.856
 261  2137.626
 262  3766.735
 263  2345.304
 264  1953.475
 265  1728.898
 266  2894.214
 267  2488.323
 268  -1559.34
 269  -266.6387
 270  -526.6231
 271  1445.371
 272  1735.855
 273  4486.738
 274  2783.406
 275  1207.604
 276  1099.014
 277  -1200.787
 278  -497.2793
 279  -77.86847
 280  1294.422
 281  688.3439
 282  -1136.496
 283  -2687.661
 284  -2422.376
 285  -300.6137
 286  461.0589
 287  1100.443
 288  691.4611
 289  -1707.17
 290  -4282.676
 291  -1859.1
 292  -75.32101
 293  952.1254
 294  1900.808
 295  313.021
 296  -1507.758
 297  -4077.445
 298  -2199.814
 299  -1447.365
 300  36.11982
 301  2225.756
 302  1010.258
 303  2058.318
 304  -1030.772
 305  968.258
 306  1254.214
 307  2585.416
 308  2341.204
 309  1051.04
 310  2292.35
 311  -1756.896
 312  -171.0266
 313  728.4382
 314  3475.269
 315  2904.568
 316  2333.135
 317  2314.844
 318  -617.8574
 319  -660.5504
 320  -867.8258
 321  1625.052
 322  2322.435
 323  2601.756
 324  1525.762
 325  -1619.177
 326  -3484.403
 327  -2499.873
 328  -1308.444
 329  -785.4481
 330  -300.2209
 331  -1432.831
 332  -2340.544
 333  -2631.918
 334  -2595.71
 335  -2350.498
 336  -3237.545
 337  -2789.742
 338  -1335.825
 339  93.6996
 340  -243.4041
 341  194.7273
 342  1340.845
 343  2630.734
 344  4537.397
 345  5589.498
 346  6904.173
 347  2737.373
 348  3468.424
 349  1334.805
 350  2131.212
 351  4024.676
 352  5094.636
 353  5012.574
 354  -734.6954
 355  -561.1958
 356  -591.4989
 357  1916.604
 358  2191.463
 359  3943.274
 360  3561.528
 361  100.6595
 362  97.48287
 363  -311.1601
 364  3268.947
 365  3444.259
 366  5031.635
 367  4893.771
 368  2027.692
 369  -1079.195
 370  -1695.062
 371  -317.3933
 372  595.1279
 373  3886.017
 374  5084.367
 375  4302.386
 376  628.9509
 377  -105.945
 378  103.4945
 379  901.79
 380  3744.973
 381  4334.987
 382  4466.863
 383  2434.476
 384  2994.619
 385  3194.261
 386  3273.609
 387  6402.922
 388  5669.962
 389  8207.847
 390  4376.046
 391  4628.602
 392  2405.86
 393  4750.657
 394  5056.906
 395  5305.046
 396  7355.04
 397  3563.666
 398  5087.757
 399  2847.442
 400  4594.044
 401  4346.745
 402  7202.285
 403  8720.152
 404  6463.033
 405  7433.395
 406  3734.823
 407  5389.899
 408  3384.891
 409  8100.752
 410  7877.287
 411  8056.433
 412  7437.198
 413  4601.366
 414  6345.058
 415  4311.534
 416  8214.998
 417  7454.776
 418  7785.927
 419  6032.503
 420  3325.538
 421  4301.747
 422  2775.851
 423  6746.015
 424  6340.683
 425  7144.94
 426  5093.867
 427  4748.813
 428  4107.665
 429  4724.314
 430  8269.208
 431  8654.206
 432  10590.08
 433  7412.897
 434  8090.769
 435  5030.472
 436  5127.18
 437  5479.005
 438  4450.591
 439  4395.926
 440  2255.804
 441  3895.677
 442  1678.021
 443  151.3259
 444  -1616.922
 445  -489.7242
 446  16.38603
 447  599.0566
 448  956.1155
 449  -1351.286
 450  -2256.161
 451  -2715.27
 452  -624.8697
 453  130.1382
 454  811.9597
 455  1169.416
 456  -834.2448
 457  -2388.717
 458  -2545.649
 459  378.4816
 460  666.5211
 461  2118.022
 462  3425.748
 463  2484.162
 464  1350.373
 465  -292.5876
 466  2985.343
 467  2227.622
 468  4826.78
 469  5196.28
 470  4767.697
 471  3134.475
 472  -158.3314
 473  1046.961
 474  842.0124
 475  2972.809
 476  2013.548
 477  651.7372
 478  -2199.371
 479  -3540.094
 480  -2867.13
 481  -1307.595
 482  879.7401
 483  1925.167
 484  821.2256
 485  -1427.213
 486  -2743.385
 487  -2843.094
 488  -156.7723
 489  71.62125
 490  -875.5891
 491  -1968.316
 492  -2094.365
 493  -2590.463
 494  -1467.404
 495  1700.977
 496  3057.659
 497  2997.46
 498  3575.563
 499  1432.093
 500  642.4283
 501  687.0686
 502  2380.049
 503  746.1766
 504  625.8561
 505  -23.47301
 506  -1652.043
 507  -2427.342
 508  -2760.642
 509  -3269.288
 510  -3943.797
 511  -2437.301
