# Input file       =  1195071474.114979_cleaned.dat
# Candidate        =  PSR_0332+5434
# Telescope        =  AR
# Epoch_topo       =  58075.845985127075
# Epoch_bary       =  N/A
# T_sample         =  0.002
# Data Folded      =  7340032
# Data Avg         =  0.152595889015088
# Data StdDev      =  1.00015542530666 
# Profile Bins     =  512
# Profile Avg      =  2187.69950555245 
# Profile StdDev   =  119.751645920662 
# Reduced chi-sqr  =  0.429
# Prob(Noise)      <  1   (~0.0 sigma)
# P_topo (ms)      =  714.513122147189  +/- 0.0174
# P'_topo (s/s)    =  -0                +/- 1.85e-08
# P''_topo (s/s^2) =  0                 +/- 8.1e-12
# P_bary (ms)      =  N/A
# P'_bary (s/s)    =  N/A
# P''_bary (s/s^2) =  N/A
# P_orb (s)        =  N/A
# asin(i)/c (s)    =  N/A
# eccentricity     =  N/A
# w (rad)          =  N/A
# T_peri           =  N/A
######################################################
   0  2229.532
   1  2218.404
   2  2201.884
   3  2204.968
   4  2205.79
   5  2187.945
   6  2129.064
   7  2051.715
   8  2139.271
   9  2200.161
  10  2152.355
  11  2145.54
  12  2130.025
  13  2196.656
  14  2195.013
  15  2152.041
  16  2135.701
  17  2140.28
  18  2166.057
  19  2261.836
  20  2143.522
  21  2133.792
  22  2189.036
  23  2238.348
  24  2188.149
  25  2169.731
  26  2190.467
  27  2201.529
  28  2184.184
  29  2193.613
  30  2154.748
  31  2150.613
  32  2227.681
  33  2296.249
  34  2291.855
  35  2221.608
  36  2188.214
  37  2154.753
  38  2232.945
  39  2186.678
  40  2278.87
  41  2260.517
  42  2217.105
  43  2222.676
  44  2228.438
  45  2220.738
  46  2229.828
  47  2250.301
  48  2300.168
  49  2207.909
  50  2141.427
  51  2122.66
  52  2167.552
  53  2111.252
  54  2170.259
  55  2122.892
  56  2121.057
  57  2158.904
  58  2135.231
  59  2165.648
  60  2174.351
  61  2236.497
  62  2280.883
  63  2169.587
  64  2255.896
  65  2234.691
  66  2224.864
  67  2228.994
  68  2237.85
  69  2217.814
  70  2149.24
  71  2096.512
  72  2239.732
  73  2276.398
  74  2183.872
  75  2115.231
  76  2276.01
  77  2247.597
  78  2112.458
  79  2128.7
  80  2136.379
  81  2130.443
  82  2086.585
  83  2120.071
  84  2132.863
  85  2105.878
  86  2106.544
  87  2172.405
  88  2104.433
  89  2179.32
  90  2139.711
  91  2141.312
  92  2091.579
  93  2067.715
  94  2158.789
  95  2209.25
  96  2208.602
  97  2119.875
  98  2092.996
  99  2148.899
 100  2094.917
 101  2091.188
 102  2109.765
 103  2193.766
 104  2124.977
 105  2271.154
 106  2183.658
 107  2121.14
 108  2193.726
 109  2212.013
 110  2217.972
 111  2282.203
 112  2264.932
 113  2194.685
 114  2198.951
 115  2170.906
 116  2214.251
 117  2246.504
 118  2176.676
 119  2215.1
 120  2226.118
 121  2105.365
 122  2099.152
 123  2109.003
 124  2159.429
 125  2203.938
 126  2198.308
 127  2155.242
 128  2124.991
 129  2170.125
 130  2228.123
 131  2218.938
 132  2206.438
 133  2152.054
 134  2259.863
 135  2218.224
 136  2144.384
 137  2190.064
 138  2163.856
 139  2097.843
 140  2095.588
 141  2101.987
 142  2130.378
 143  2147.509
 144  2255.356
 145  2234.993
 146  2182.797
 147  2228.935
 148  2273.164
 149  2204.891
 150  2144.266
 151  2188.216
 152  2197.104
 153  2226.19
 154  2237.78
 155  2252.359
 156  2200.554
 157  2124.652
 158  2200.001
 159  2148.762
 160  2142.299
 161  2195.02
 162  2221.267
 163  2243.25
 164  2106.938
 165  2117.31
 166  2124.896
 167  2173.658
 168  2147.63
 169  2097.178
 170  2171.515
 171  2201.274
 172  2246.846
 173  2251.299
 174  2227.583
 175  2220.187
 176  2247.313
 177  2243.748
 178  2239.057
 179  2218.342
 180  2213.318
 181  2177.282
 182  2203.132
 183  2209.952
 184  2109.413
 185  2138.276
 186  2192.815
 187  2209.19
 188  2176.144
 189  2234.298
 190  2145.142
 191  2138.337
 192  2119.78
 193  2131.681
 194  2119.191
 195  2170.384
 196  2092.801
 197  2180.584
 198  2255.346
 199  2303.652
 200  2219.446
 201  2161.845
 202  2137.36
 203  2127.898
 204  2181.331
 205  2237.205
 206  2216.026
 207  2173.799
 208  2161.087
 209  2121.404
 210  2188.984
 211  2252.759
 212  2174.816
 213  2156.859
 214  2257.362
 215  2207.821
 216  2223.555
 217  2160.536
 218  2127.235
 219  2147.92
 220  2266.26
 221  2185.283
 222  2159.82
 223  2216.104
 224  2151.685
 225  2172.562
 226  2299.259
 227  2358.192
 228  2272.292
 229  2182.933
 230  2152.567
 231  2147.373
 232  2144.417
 233  2191.677
 234  2280.457
 235  2252.299
 236  2203.884
 237  2091.433
 238  2162.033
 239  2128.772
 240  2124.308
 241  2173.047
 242  2225.514
 243  2221.641
 244  2288.583
 245  2238.231
 246  2181.524
 247  2154.507
 248  2184.342
 249  2194.001
 250  2240.429
 251  2194.806
 252  2173.059
 253  2173.654
 254  2161.746
 255  2166.494
 256  2198.527
 257  2199.654
 258  2192.63
 259  2204.097
 260  2102.202
 261  2121.951
 262  2202.705
 263  2200.324
 264  2203.033
 265  2222.722
 266  2207.671
 267  2217.03
 268  2179.373
 269  2191.667
 270  2221.853
 271  2242.221
 272  2298.085
 273  2240.662
 274  2140.706
 275  2122.586
 276  2228.622
 277  2308.684
 278  2196.181
 279  2234.48
 280  2163.78
 281  2192.238
 282  2118.179
 283  2222.26
 284  2208.666
 285  2252.5
 286  2239.732
 287  2195.236
 288  2192.783
 289  2112.505
 290  2226.867
 291  2215.601
 292  2197.418
 293  2097.528
 294  2093.228
 295  2151.253
 296  2167.754
 297  2127.997
 298  2225.29
 299  2187.159
 300  2185.848
 301  2250.126
 302  2236.837
 303  2279.497
 304  2394.732
 305  2464.232
 306  2482.301
 307  2296.458
 308  2127.9
 309  2166.635
 310  2177.042
 311  2154.761
 312  2247.266
 313  2177.767
 314  2260.444
 315  2285.137
 316  2228.398
 317  2121.623
 318  2114.775
 319  2185.112
 320  2245.585
 321  2117.426
 322  2201.959
 323  2167.168
 324  2189.859
 325  2113.317
 326  2177.982
 327  2214.75
 328  2203.205
 329  2189.281
 330  2169.696
 331  2055.244
 332  2080.375
 333  2239.882
 334  2243.402
 335  2221.626
 336  2237.811
 337  2256.231
 338  2187.661
 339  2217.712
 340  2179.55
 341  2243.539
 342  2286.967
 343  2262.479
 344  2235.962
 345  2245.284
 346  2232.417
 347  2186.87
 348  2207.241
 349  2215.698
 350  2158.02
 351  2155.312
 352  2189.313
 353  2282.514
 354  2167.76
 355  2229.381
 356  2226.366
 357  2280.849
 358  2222.812
 359  2247.724
 360  2219.74
 361  2170.606
 362  2259.482
 363  2286.131
 364  2197.949
 365  2215.966
 366  2186.898
 367  2241.418
 368  2184.784
 369  2160.339
 370  2218.814
 371  2130.924
 372  2088.524
 373  2208.408
 374  2207.213
 375  2134.567
 376  2197.229
 377  2245.08
 378  2186.76
 379  2129.74
 380  2184.26
 381  2216.67
 382  2175.457
 383  2113.516
 384  2172.477
 385  2116.088
 386  2131.443
 387  2177.214
 388  2261.975
 389  2183.721
 390  2177.513
 391  2144.855
 392  2211.484
 393  2202.354
 394  2214.947
 395  2273.163
 396  2301.42
 397  2298.271
 398  2208.604
 399  2080.079
 400  2067.203
 401  2099.682
 402  2129.68
 403  2036.532
 404  2116.343
 405  2151.789
 406  2098.167
 407  2134.172
 408  2102.754
 409  2096.572
 410  2113.619
 411  2203.886
 412  2222.619
 413  2241.726
 414  2207.641
 415  2136.861
 416  2157.997
 417  2162.94
 418  2137.728
 419  2177.79
 420  2173.357
 421  2207.682
 422  2142.757
 423  2093.027
 424  2066.711
 425  2135.206
 426  2255.098
 427  2257.589
 428  2174.934
 429  2204.502
 430  2216.267
 431  2184.998
 432  2155.085
 433  2167.449
 434  2126.976
 435  2158.321
 436  2158.119
 437  2156.452
 438  2174.093
 439  2253.646
 440  2152.673
 441  2210.063
 442  2219.947
 443  2242.387
 444  2259.775
 445  2308.133
 446  2280.26
 447  2158.261
 448  2152.312
 449  2219.083
 450  2194.983
 451  2257.275
 452  2210.446
 453  2170.148
 454  2119.926
 455  2179.499
 456  2159.197
 457  2167.58
 458  2194.012
 459  2189.137
 460  2122.291
 461  2155.617
 462  2129.579
 463  2198.868
 464  2172.826
 465  2128.621
 466  2174.844
 467  2180.875
 468  2113.103
 469  2044.746
 470  2123.994
 471  2115.452
 472  2103.968
 473  2199.198
 474  2307.55
 475  2191.221
 476  2117.766
 477  2166.794
 478  2184.274
 479  2179.016
 480  2144.259
 481  2170.661
 482  2233.271
 483  2207.575
 484  2211.924
 485  2121.746
 486  2167.435
 487  2241.245
 488  2234.807
 489  2127.266
 490  2145.242
 491  2201.817
 492  2251.353
 493  2153.91
 494  2136.922
 495  2183.332
 496  2227.288
 497  2202.912
 498  2234.991
 499  2173.048
 500  2196.901
 501  2245.877
 502  2285.964
 503  2196.516
 504  2188.96
 505  2183.487
 506  2206.395
 507  2169.763
 508  2222.021
 509  2240.341
 510  2253.606
 511  2273.398
