# Input file       =  1195918367.104826_cleaned.dat
# Candidate        =  PSR_0332+5434
# Telescope        =  AR
# Epoch_topo       =  58085.647987324373
# Epoch_bary       =  N/A
# T_sample         =  0.002
# Data Folded      =  7208960
# Data Avg         =  0.317652445012408
# Data StdDev      =  9.63099028065193 
# Profile Bins     =  512
# Profile Avg      =  4471.88560042264 
# Profile StdDev   =  1142.80536877766 
# Reduced chi-sqr  =  0.514
# Prob(Noise)      <  1   (~0.0 sigma)
# P_topo (ms)      =  714.523234086988  +/- 3.02e-05
# P'_topo (s/s)    =  -0                +/- 1.62e-11
# P''_topo (s/s^2) =  0                 +/- 7.3e-15
# P_bary (ms)      =  N/A
# P'_bary (s/s)    =  N/A
# P''_bary (s/s^2) =  N/A
# P_orb (s)        =  N/A
# asin(i)/c (s)    =  N/A
# eccentricity     =  N/A
# w (rad)          =  N/A
# T_peri           =  N/A
######################################################
   0  4051.626
   1  4671.183
   2  3460.923
   3  4015.653
   4  4235.606
   5  4342.056
   6  4414.993
   7  4197.161
   8  4696.441
   9  3534.816
  10  4475.499
  11  4862.892
  12  4648.51
  13  4402.878
  14  4931.09
  15  5402.889
  16  4622.124
  17  4222.877
  18  4458.489
  19  4601.468
  20  4278.4
  21  4168.202
  22  3998.176
  23  3524.128
  24  3437.863
  25  3781.629
  26  3742.343
  27  3637.027
  28  4020.27
  29  3999.642
  30  4253.686
  31  3569.994
  32  4989.536
  33  4524.302
  34  3882.088
  35  3484.858
  36  3983.683
  37  3808.915
  38  3744.594
  39  4677.007
  40  4854.292
  41  4062.774
  42  3959.729
  43  4254.239
  44  5010.375
  45  4604.558
  46  4928.756
  47  4551.473
  48  3431.847
  49  3673.846
  50  3718.531
  51  4230.875
  52  3909.191
  53  3873.061
  54  4323.845
  55  4204.436
  56  3373.195
  57  3342.994
  58  4566.16
  59  4252.438
  60  4015.111
  61  4420.583
  62  4252.503
  63  3403.382
  64  3624.052
  65  4639.748
  66  4463.208
  67  4433.717
  68  4532.838
  69  4134.899
  70  3626.669
  71  4163.125
  72  4448.641
  73  4082.856
  74  4028.713
  75  5279.493
  76  4819.03
  77  4248.514
  78  3750.593
  79  4332.286
  80  4063.727
  81  4197.899
  82  4144.778
  83  4821.748
  84  4048.728
  85  4356.728
  86  4220.259
  87  4768.157
  88  3755.115
  89  3811.378
  90  4374.817
  91  4162.756
  92  4440.589
  93  4289.219
  94  4351.312
  95  3491.498
  96  3801.301
  97  4796.431
  98  4552.115
  99  3713.137
 100  3800.929
 101  4233.702
 102  4064.642
 103  3859.752
 104  4771.354
 105  4873.609
 106  4580.131
 107  5292.366
 108  5492.381
 109  4384.549
 110  3270.582
 111  4284.195
 112  4384.29
 113  4561.187
 114  5240.905
 115  5204.238
 116  4480.325
 117  3855.367
 118  4964.421
 119  4596.561
 120  4462.024
 121  4155.233
 122  4779.285
 123  4603.398
 124  3850.618
 125  4813.389
 126  5136.054
 127  4180.973
 128  4169.06
 129  4449.361
 130  4798.314
 131  4036.777
 132  3941.425
 133  4376.161
 134  3880.468
 135  3805.105
 136  3778.306
 137  4010.486
 138  3170.452
 139  3257.8
 140  3682.377
 141  3859.595
 142  4305.345
 143  4583.365
 144  5138.771
 145  4323.391
 146  4082.718
 147  4226.408
 148  4181.274
 149  4150.16
 150  3841.509
 151  4197.028
 152  4364.371
 153  3459.908
 154  4411.917
 155  3924.852
 156  4249.557
 157  4650.29
 158  4881.635
 159  4725.183
 160  3763.854
 161  4644.579
 162  4398.781
 163  3676.12
 164  3592.932
 165  4355.755
 166  3931.412
 167  3441.432
 168  3899.141
 169  4720.237
 170  4679.417
 171  4707.693
 172  4695.307
 173  4550.409
 174  3429.899
 175  4215.99
 176  5251.961
 177  4398.765
 178  4326.275
 179  3492.144
 180  4428.51
 181  3932.952
 182  4214.259
 183  4727.604
 184  3638.628
 185  3883.087
 186  3884.59
 187  4350.483
 188  4310.72
 189  4422.624
 190  5253.375
 191  4817.804
 192  4896.693
 193  4382.247
 194  5028.532
 195  4646.372
 196  4476.414
 197  5141.666
 198  4597.793
 199  4074.685
 200  4960.255
 201  5119.907
 202  4277.647
 203  3939.95
 204  4996.581
 205  4992.6
 206  5024.68
 207  4960.244
 208  5497.174
 209  4726.664
 210  4428.172
 211  4474.867
 212  5034.276
 213  3675.244
 214  3774.865
 215  4407.272
 216  4441.718
 217  4002.605
 218  4015.903
 219  4886.281
 220  3955.642
 221  4125.526
 222  4630.744
 223  4759.363
 224  3891.704
 225  4227.095
 226  5044.453
 227  4606.51
 228  4580.314
 229  4575.482
 230  5055.092
 231  4283.753
 232  4040.266
 233  4918.513
 234  4735.092
 235  4252.207
 236  4536.016
 237  4648.696
 238  3819.542
 239  3887.429
 240  4613.051
 241  4741.455
 242  4568.73
 243  4589.841
 244  4262.034
 245  4396.463
 246  4040.272
 247  4586.19
 248  4705.86
 249  5185.442
 250  4584.414
 251  4898.45
 252  4822.413
 253  4424.217
 254  4773.66
 255  5401.602
 256  4509.146
 257  4699.758
 258  4998.099
 259  4903.036
 260  4178.899
 261  4702.653
 262  5431.042
 263  4656.442
 264  5110.287
 265  5606.319
 266  5778.147
 267  4633.959
 268  5198.082
 269  5861.777
 270  4659.412
 271  4230.132
 272  5590.379
 273  5989.712
 274  5275.787
 275  5071.207
 276  5294.948
 277  5139.705
 278  4862.847
 279  5162.259
 280  6185.331
 281  5715.598
 282  5664.131
 283  6529.643
 284  5924.109
 285  4876.414
 286  5304.714
 287  5016.259
 288  4565.851
 289  3970.3
 290  5272.328
 291  5719.017
 292  4988.238
 293  4738.362
 294  4113.049
 295  3887.142
 296  4399.036
 297  4927.54
 298  5423.886
 299  4310.127
 300  4677.316
 301  5209.854
 302  5437.504
 303  4914.45
 304  4973.192
 305  6248.056
 306  5271.863
 307  5676.545
 308  5677.032
 309  6030.062
 310  5642.461
 311  6327.836
 312  7544.596
 313  6444.943
 314  5678.297
 315  5569.064
 316  5555.121
 317  4500.946
 318  4490.277
 319  4484.535
 320  4484.614
 321  4440.518
 322  4800.047
 323  5495.185
 324  4765.01
 325  4554.891
 326  5002.605
 327  4826.241
 328  4189.852
 329  4337.25
 330  4090.694
 331  4094
 332  3860.423
 333  4167.726
 334  3966.066
 335  3874.322
 336  4205.054
 337  4795.849
 338  4444.654
 339  4419.981
 340  4901.853
 341  4963.914
 342  3898.135
 343  4324.356
 344  4330.2
 345  4657.979
 346  3979.428
 347  3965.903
 348  5202.378
 349  4612.554
 350  4770.415
 351  5171.559
 352  5273.369
 353  4173.668
 354  4328.712
 355  5161.983
 356  4100.335
 357  4004.41
 358  4674.885
 359  5005.621
 360  4918.531
 361  4689.169
 362  5180.335
 363  4494.47
 364  4135.753
 365  4590.821
 366  4543.932
 367  3998.953
 368  3857.011
 369  4043.326
 370  3977.312
 371  3858.943
 372  4479.697
 373  4589.967
 374  4807.747
 375  4252.565
 376  4610.383
 377  4830.56
 378  4343.157
 379  4778.417
 380  5439.111
 381  5348.555
 382  5344.599
 383  4679.209
 384  4624.652
 385  3567.424
 386  4398.003
 387  4748.251
 388  4415.468
 389  4262.247
 390  4650.169
 391  4966.088
 392  4108.495
 393  4856.437
 394  4927.375
 395  4516.999
 396  3774.398
 397  4063.166
 398  4731.252
 399  3940.756
 400  3761.855
 401  4395.988
 402  4439.329
 403  4237.332
 404  4410.772
 405  4660.095
 406  4103.395
 407  3462.91
 408  4163.981
 409  4347.52
 410  4418.37
 411  4915.889
 412  4538.94
 413  4486.872
 414  4328.406
 415  5479.816
 416  5035.056
 417  4810.102
 418  4078.304
 419  4308.017
 420  4341.805
 421  4271.861
 422  5024.698
 423  5776.283
 424  4749.818
 425  4663.184
 426  4848.59
 427  4876.643
 428  4535.799
 429  5052.454
 430  5146.429
 431  5016.381
 432  4255.79
 433  3856.516
 434  4629.397
 435  4388.493
 436  5235.254
 437  4943.478
 438  4236.753
 439  4612.53
 440  4886.056
 441  6127.919
 442  5342.761
 443  5319.311
 444  4982.877
 445  4640.563
 446  3898.218
 447  4015.99
 448  4648.319
 449  4824.798
 450  4212.073
 451  4373.881
 452  3881.747
 453  3504.082
 454  3659.864
 455  4689.645
 456  4932.26
 457  3896.671
 458  3811.585
 459  3766.626
 460  4089.823
 461  3797.437
 462  4585.356
 463  5012.38
 464  4933.892
 465  5109.315
 466  5041.99
 467  4080.56
 468  4334.987
 469  4219.757
 470  4959.567
 471  4230.507
 472  4655.467
 473  4760.918
 474  4366.609
 475  4469.1
 476  4355.634
 477  4858.585
 478  3668.442
 479  3621.165
 480  4255.663
 481  4177.689
 482  3574.235
 483  3704.498
 484  4669.986
 485  3909.132
 486  4039.964
 487  4242.859
 488  4231.354
 489  3441.005
 490  3445.134
 491  3990.614
 492  3421.751
 493  3213.225
 494  3943.578
 495  3706.247
 496  3759.458
 497  3892.202
 498  4431.997
 499  4666.778
 500  3872.411
 501  4868.414
 502  4976.92
 503  4382.861
 504  3876.321
 505  4578.298
 506  4249.2
 507  3271.683
 508  3391.184
 509  3822.191
 510  3590.152
 511  3587.994
