# Input file       =  1195918367.104826-PSRB0329-2ms-sampling-dd.dat
# Candidate        =  PSR_0332+5434
# Telescope        =  AR
# Epoch_topo       =  58085.647987324373
# Epoch_bary       =  N/A
# T_sample         =  0.002
# Data Folded      =  7208960
# Data Avg         =  -3.43254758731852e-10
# Data StdDev      =  18.4482902780629 
# Profile Bins     =  512
# Profile Avg      =  -0.151559801033438
# Profile StdDev   =  2189.05891919475 
# Reduced chi-sqr  =  0.829
# Prob(Noise)      <  0.998   (~0.0 sigma)
# P_topo (ms)      =  714.523234227733  +/- 0.000117
# P'_topo (s/s)    =  -0                +/- 6.3e-11
# P''_topo (s/s^2) =  0                 +/- 2.83e-14
# P_bary (ms)      =  N/A
# P'_bary (s/s)    =  N/A
# P''_bary (s/s^2) =  N/A
# P_orb (s)        =  N/A
# asin(i)/c (s)    =  N/A
# eccentricity     =  N/A
# w (rad)          =  N/A
# T_peri           =  N/A
######################################################
   0  -193.9006
   1  331.0763
   2  755.6414
   3  1300.856
   4  320.4103
   5  -1663.427
   6  -1512.362
   7  -834.1735
   8  -735.027
   9  -893.3012
  10  -771.4305
  11  -249.5639
  12  -1497.385
  13  -1248.869
  14  -1222.322
  15  -1613.817
  16  -2323.196
  17  -1892.712
  18  -1560.687
  19  -2843.866
  20  -2933.685
  21  -3075.282
  22  -2879.062
  23  -2959.253
  24  -2824.627
  25  -2276.253
  26  -2493.124
  27  -3194.043
  28  -2818.331
  29  -3011.143
  30  -2471.707
  31  -2330.938
  32  -1441.744
  33  -1077.928
  34  -1318.744
  35  -253.3415
  36  -712.4506
  37  -1535.529
  38  -1284.812
  39  -293.9629
  40  477.6255
  41  -873.5974
  42  -901.4219
  43  -1046.374
  44  -929.9219
  45  -754.33
  46  -517.0995
  47  -730.2668
  48  -1775.154
  49  -1334.624
  50  -1264.808
  51  -1506.409
  52  -571.0966
  53  -1246.65
  54  -706.4233
  55  -1801.289
  56  -1501.779
  57  -1154.461
  58  -1787.253
  59  -2289.165
  60  -1868.729
  61  -1716.804
  62  -2081.804
  63  -1661.395
  64  -1322.095
  65  -1501.906
  66  -1708.923
  67  -1139.781
  68  -567.4768
  69  -509.5516
  70  -1684.754
  71  -1482.962
  72  -3035.2
  73  -2748.316
  74  -2331.467
  75  -1524.155
  76  -1779.264
  77  -1999.797
  78  -1477.026
  79  -1437.333
  80  -1749.494
  81  -2036.184
  82  -761.2167
  83  1021.576
  84  571.6099
  85  1021.512
  86  1140.647
  87  785.5635
  88  351.6151
  89  933.9143
  90  1377.416
  91  1510.702
  92  1846.69
  93  2910.399
  94  2971.239
  95  3033.383
  96  2521.138
  97  1329.432
  98  -638.8326
  99  352.7759
 100  2296.782
 101  3723.819
 102  3592.757
 103  2968.364
 104  2299.417
 105  1224.855
 106  1460.66
 107  2819.981
 108  2951.827
 109  2704.43
 110  1940.663
 111  1138.933
 112  362.3425
 113  264.2363
 114  1425.982
 115  524.5403
 116  225.2724
 117  -521.8981
 118  -2088.705
 119  -2587.488
 120  -2895.856
 121  -1718.702
 122  -1366.96
 123  -1821.027
 124  -1688.55
 125  -2318.556
 126  -1521.76
 127  -1690.925
 128  -313.6936
 129  67.24981
 130  239.332
 131  1018.968
 132  1281.97
 133  129.5917
 134  -1683.347
 135  -671.1599
 136  1800.681
 137  1875.395
 138  2557.858
 139  1498.413
 140  172.3557
 141  -1365.98
 142  13.56494
 143  1118.057
 144  873.0692
 145  164.4709
 146  -866.3173
 147  -617.642
 148  -1544.225
 149  -751.5069
 150  73.60007
 151  -12.3728
 152  -899.3952
 153  -1209.174
 154  -1506.239
 155  -56.98553
 156  586.5181
 157  1960.219
 158  1034.4
 159  598.7183
 160  -224.5789
 161  -720.6699
 162  -1148.517
 163  -299.723
 164  578.0897
 165  1082.732
 166  826.799
 167  709.0377
 168  -613.3102
 169  -1006.834
 170  -948.6151
 171  265.2856
 172  89.49752
 173  -379.8391
 174  -835.8353
 175  -1196.267
 176  -742.1686
 177  -1411.292
 178  -1697.296
 179  -632.5838
 180  -1467.526
 181  -936.0015
 182  -465.8804
 183  -216.7396
 184  -1217.851
 185  -1480.232
 186  -613.4615
 187  -1704.955
 188  -2386.082
 189  -1712.971
 190  -1409.911
 191  -1923.481
 192  -1973.151
 193  -939.9422
 194  -426.8443
 195  -169.504
 196  -602.0123
 197  -1718.724
 198  -1851.303
 199  -2190.598
 200  -548.2952
 201  -847.2391
 202  -1538.057
 203  -2374.478
 204  -2310.571
 205  -1391.027
 206  -1398.745
 207  -1.519465
 208  -578.6802
 209  -1130.716
 210  -990.2599
 211  -2039.365
 212  -932.5648
 213  -396.8225
 214  1091.363
 215  1107.003
 216  761.9442
 217  -118.3068
 218  -782.4608
 219  288.187
 220  316.6272
 221  1786.551
 222  2079.346
 223  638.1362
 224  689.7142
 225  252.7904
 226  714.8354
 227  579.4435
 228  1787.798
 229  2286.355
 230  1443.221
 231  297.0186
 232  -520.1039
 233  -1630.282
 234  -1007.129
 235  -975.0161
 236  351.5265
 237  392.7245
 238  -1249.09
 239  -1284.961
 240  -2368.078
 241  -1606.392
 242  -1671.319
 243  -519.4726
 244  -293.5702
 245  -822.2252
 246  -238.4334
 247  -218.2465
 248  685.1622
 249  782.1676
 250  2048.795
 251  2028.017
 252  -3.401167
 253  343.9968
 254  -521.3997
 255  1224.934
 256  1071.135
 257  2246.042
 258  2051.015
 259  79.94183
 260  -223.4902
 261  -224.1315
 262  -165.1868
 263  -524.3176
 264  590.0179
 265  1718.804
 266  1675.839
 267  1087.799
 268  112.5668
 269  -571.5623
 270  -196.3546
 271  362.2522
 272  1589.543
 273  2152.832
 274  1409.209
 275  440.0464
 276  132.7852
 277  715.9984
 278  1247.878
 279  2924.913
 280  3502.86
 281  2107.414
 282  1651.641
 283  245.0476
 284  829.1449
 285  1200.177
 286  3187.409
 287  2944.226
 288  2399.344
 289  2052.444
 290  1066.891
 291  59.84533
 292  269.8187
 293  1895.557
 294  2599.814
 295  1387.9
 296  1445.721
 297  1291.668
 298  1506.584
 299  1920.649
 300  2254.401
 301  2902.271
 302  1257.211
 303  922.1293
 304  1335.537
 305  1763.826
 306  1290.877
 307  2542.114
 308  3304.961
 309  1691.933
 310  1679.151
 311  676.0345
 312  1167.621
 313  223.0252
 314  1092.345
 315  2837.608
 316  3220.747
 317  1471.763
 318  218.4228
 319  -628.4886
 320  -316.8566
 321  194.2082
 322  1269.253
 323  1591.96
 324  1002.466
 325  1332.725
 326  343.695
 327  774.3107
 328  588.243
 329  2160.578
 330  3304.812
 331  2380.107
 332  2559.02
 333  1134.996
 334  1614.897
 335  1398.601
 336  3811.929
 337  4766.007
 338  4084.544
 339  3776.824
 340  2241.807
 341  1575.189
 342  828.0261
 343  1120.177
 344  1374.116
 345  1150.749
 346  1587.706
 347  1622.103
 348  2528.629
 349  2074.057
 350  2801.381
 351  3413.861
 352  1475.824
 353  -427.1826
 354  -1104.436
 355  33.06097
 356  805.442
 357  1065.515
 358  832.0691
 359  -310.3392
 360  -1432.345
 361  -1928.442
 362  -1944.686
 363  -1331.095
 364  -622.7893
 365  -41.99805
 366  -592.2947
 367  -1533.188
 368  -1422.52
 369  -1599.636
 370  -1018.316
 371  -1464.177
 372  -278.3004
 373  389.6744
 374  -173.2917
 375  -126.3696
 376  -640.08
 377  -699.3212
 378  -1288.934
 379  247.408
 380  -133.7275
 381  -832.9902
 382  -215.1692
 383  -820.3804
 384  -806.4346
 385  -1208.599
 386  -658.6145
 387  -119.1019
 388  -1365.456
 389  -652.4044
 390  -355.4316
 391  -797.617
 392  -1299.864
 393  -1145.389
 394  198.1996
 395  41.8486
 396  708.4329
 397  555.7701
 398  479.3
 399  -380.7061
 400  469.7769
 401  2152.476
 402  1855.131
 403  1313.203
 404  1378.352
 405  1140.928
 406  1694.207
 407  758.5402
 408  829.5104
 409  43.0667
 410  -837.2775
 411  -43.47979
 412  -580.5033
 413  -345.1909
 414  -303.809
 415  764.5605
 416  568.3691
 417  215.1156
 418  796.0728
 419  -17.08431
 420  -424.5341
 421  -251.1913
 422  886.9775
 423  1228.627
 424  -192.0972
 425  190.8974
 426  -404.7498
 427  -1090.683
 428  -1206.545
 429  -550.8978
 430  -520.4409
 431  -1162.768
 432  -977.155
 433  -185.6344
 434  -1017.086
 435  -87.75612
 436  96.78232
 437  501.8242
 438  -415.5659
 439  925.5793
 440  722.5519
 441  -23.88025
 442  -489.9805
 443  -328.1514
 444  -118.8631
 445  -480.7108
 446  -50.03843
 447  -76.14442
 448  -813.7388
 449  -1255.603
 450  -520.8659
 451  -84.63335
 452  -331.6661
 453  140.1022
 454  -142.8787
 455  -1258.156
 456  -1395.984
 457  -1352.89
 458  914.4258
 459  1352.624
 460  1351.514
 461  992.4835
 462  -658.6473
 463  -708.4885
 464  419.7507
 465  1605.005
 466  1873.14
 467  1205.519
 468  1184.122
 469  -364.4341
 470  -1803.745
 471  -1849.007
 472  -294.072
 473  490.8486
 474  -381.5135
 475  -447.8857
 476  -1419.609
 477  -2071.855
 478  -1398.438
 479  -205.7617
 480  1337.83
 481  37.13923
 482  -925.5029
 483  -1994.152
 484  -1595.061
 485  -570.7974
 486  312.9829
 487  1522.494
 488  1030.292
 489  171.2683
 490  -611.9579
 491  -1262.862
 492  -663.6993
 493  550.7976
 494  934.7769
 495  811.9879
 496  -491.3769
 497  -348.9844
 498  -1190.945
 499  -167.0632
 500  1132.078
 501  2019.024
 502  1423.12
 503  -719.537
 504  -609.4097
 505  -773.4214
 506  136.4358
 507  647.3233
 508  1645.844
 509  735.6072
 510  -489.2422
 511  -268.4621
