# Input file       =  1195071474.114979_cleaned.dat
# Candidate        =  PSR_0332+5434
# Telescope        =  AR
# Epoch_topo       =  58075.845985127075
# Epoch_bary       =  N/A
# T_sample         =  0.002
# Data Folded      =  7340032
# Data Avg         =  1.62399742508777 
# Data StdDev      =  10.5667872550697 
# Profile Bins     =  256
# Profile Avg      =  46563.9118352364 
# Profile StdDev   =  1789.25383896584 
# Reduced chi-sqr  =  0.393
# Prob(Noise)      <  1   (~0.0 sigma)
# P_topo (ms)      =  714.513122022326  +/- 0.0174
# P'_topo (s/s)    =  -0                +/- 1.85e-08
# P''_topo (s/s^2) =  0                 +/- 8.1e-12
# P_bary (ms)      =  N/A
# P'_bary (s/s)    =  N/A
# P''_bary (s/s^2) =  N/A
# P_orb (s)        =  N/A
# asin(i)/c (s)    =  N/A
# eccentricity     =  N/A
# w (rad)          =  N/A
# T_peri           =  N/A
######################################################
   0  46959.45
   1  46523.46
   2  46999.95
   3  45686.5
   4  47716.91
   5  46879.45
   6  46987.67
   7  46538.12
   8  44443.42
   9  45311.29
  10  45348.77
  11  45683.96
  12  46537.9
  13  46076.41
  14  46873.25
  15  45806.51
  16  46446.1
  17  46105.71
  18  47224.36
  19  47307.29
  20  46069.95
  21  47392.83
  22  48249.85
  23  46220.14
  24  47238.39
  25  47051.69
  26  46934.59
  27  46103.56
  28  47294.92
  29  48021.21
  30  45702.23
  31  45400.22
  32  46053.25
  33  45253.93
  34  46165.37
  35  46516.82
  36  47477.21
  37  46854.94
  38  47366.83
  39  46717.21
  40  45156.66
  41  46948.82
  42  46388.88
  43  48000.16
  44  44772.94
  45  45615.66
  46  44916.08
  47  44947.11
  48  45308.95
  49  45532.92
  50  46591.71
  51  45481.54
  52  45992.91
  53  46484.28
  54  44878.55
  55  45251.79
  56  45312.86
  57  45934.37
  58  46206.71
  59  46570.59
  60  48173.64
  61  48381.74
  62  47738.8
  63  46938.44
  64  46347.85
  65  46642.04
  66  45481.68
  67  46886.66
  68  46728.45
  69  45851.74
  70  47784.39
  71  47033.86
  72  47206.25
  73  46190.52
  74  46520.84
  75  45502.65
  76  46437.83
  77  47579.67
  78  46686.99
  79  48113.85
  80  46867.65
  81  47294.35
  82  46833.77
  83  46350.98
  84  46110.49
  85  45990.68
  86  46838.48
  87  45524.04
  88  45327.53
  89  45251.45
  90  46316.68
  91  47435.16
  92  47967.43
  93  47254.98
  94  48263.75
  95  46065.63
  96  45414.84
  97  45015.58
  98  46273.38
  99  46001.79
 100  45633.48
 101  46004.22
 102  45602.97
 103  45267.56
 104  48012.63
 105  47412.5
 106  45798.98
 107  46127.47
 108  47383.82
 109  46023.45
 110  46681.64
 111  46889.14
 112  48176.75
 113  47727.99
 114  45540.75
 115  46937.24
 116  46979.12
 117  45947.64
 118  48698.48
 119  48140.85
 120  46830.95
 121  45953.29
 122  48891.73
 123  46969.14
 124  45837.77
 125  45627.32
 126  46952.64
 127  48090.11
 128  46539.06
 129  46028.66
 130  47657.02
 131  47313.83
 132  46406
 133  46799.32
 134  47308.62
 135  46000.39
 136  45812.85
 137  47056.99
 138  47030.36
 139  46795.12
 140  46697.34
 141  47358.98
 142  46041.54
 143  47593.83
 144  47462.4
 145  47258.23
 146  46269.8
 147  47239.64
 148  47440.68
 149  46584.67
 150  46398.16
 151  46470.34
 152  45827.74
 153  46123.26
 154  46485.16
 155  46974.53
 156  47287.21
 157  49776.96
 158  50930.63
 159  46282.89
 160  46122.21
 161  47959.34
 162  47495.9
 163  47339.41
 164  44977.57
 165  47002.04
 166  47135.31
 167  46365.28
 168  46200.54
 169  46675.42
 170  45917.54
 171  44816.9
 172  48193.27
 173  47154.5
 174  46756.39
 175  47929.81
 176  48204.9
 177  47424.3
 178  46621.52
 179  47308.19
 180  47052.79
 181  47886.17
 182  46434.26
 183  47054.71
 184  47438.05
 185  47516.01
 186  47824.51
 187  46911.98
 188  46434.66
 189  46781.75
 190  46371.3
 191  45484.93
 192  46255.27
 193  46582.95
 194  46915.39
 195  46742.18
 196  46136.69
 197  44868.84
 198  45098.14
 199  46538.43
 200  46150.59
 201  46727.12
 202  47358.99
 203  48476.07
 204  46461.78
 205  44367.53
 206  45197.56
 207  45221.04
 208  45872.77
 209  45499.5
 210  45908.1
 211  47871.91
 212  46370.27
 213  45194.94
 214  45808.21
 215  46831.52
 216  46433.38
 217  44907.44
 218  47494.14
 219  46672.74
 220  47027.74
 221  45742.08
 222  45553.54
 223  45504.2
 224  46556.13
 225  46780.96
 226  47321.98
 227  47487.37
 228  47960.3
 229  46243.88
 230  47439.3
 231  47516.42
 232  46124.84
 233  46660.17
 234  47169.81
 235  45840.22
 236  45260.23
 237  46192.02
 238  46209.64
 239  44499.54
 240  44825.1
 241  45597.9
 242  48660.48
 243  45671.02
 244  46223.01
 245  46112.38
 246  46237.36
 247  46119.5
 248  45346.66
 249  46303.21
 250  45516.66
 251  48163.41
 252  45147.51
 253  45780.55
 254  46714.4
 255  46243.4
