# Input file       =  1195933010.124426-PSRB0329-2ms-sampling-dd.dat
# Candidate        =  PSR_0332+5434
# Telescope        =  AR
# Epoch_topo       =  58085.817466717890
# Epoch_bary       =  N/A
# T_sample         =  0.002
# Data Folded      =  7340032
# Data Avg         =  -1.95074420005092e-10
# Data StdDev      =  6.03043783679303 
# Profile Bins     =  512
# Profile Avg      =  0.159589736486295
# Profile StdDev   =  722.042632880566 
# Reduced chi-sqr  =  0.422
# Prob(Noise)      <  1   (~0.0 sigma)
# P_topo (ms)      =  714.52343327107   +/- 8.47e-05
# P'_topo (s/s)    =  -0                +/- 4.47e-11
# P''_topo (s/s^2) =  0                 +/- 1.97e-14
# P_bary (ms)      =  N/A
# P'_bary (s/s)    =  N/A
# P''_bary (s/s^2) =  N/A
# P_orb (s)        =  N/A
# asin(i)/c (s)    =  N/A
# eccentricity     =  N/A
# w (rad)          =  N/A
# T_peri           =  N/A
######################################################
   0  263.6793
   1  -31.30889
   2  -508.4568
   3  -489.7508
   4  -504.1901
   5  -308.9013
   6  577.2859
   7  770.0994
   8  451.5316
   9  -161.6976
  10  -544.6636
  11  -444.1423
  12  -555.7206
  13  -112.4774
  14  132.5792
  15  393.2447
  16  409.7979
  17  324.9742
  18  -183.8489
  19  -348.1755
  20  73.51372
  21  417.2375
  22  185.8308
  23  31.0375
  24  104.2913
  25  -241.3098
  26  -1138.278
  27  -617.1345
  28  185.1516
  29  394.0413
  30  109.8304
  31  -104.4207
  32  -122.5507
  33  -225.4381
  34  87.84045
  35  215.9241
  36  12.36662
  37  214.1653
  38  354.3909
  39  184.7994
  40  -56.7239
  41  -302.0266
  42  -25.19515
  43  289.7568
  44  264.4024
  45  -241.1794
  46  -365.279
  47  -507.4489
  48  -448.0828
  49  -225.2783
  50  -194.8485
  51  215.2127
  52  87.15517
  53  167.868
  54  80.83172
  55  -200.2031
  56  65.08913
  57  257.9371
  58  40.63977
  59  -229.6455
  60  33.66674
  61  736.6409
  62  208.3307
  63  -59.5575
  64  57.77306
  65  -257.1689
  66  292.1535
  67  451.3145
  68  30.3002
  69  -199.5726
  70  -65.06943
  71  -62.56536
  72  261.1449
  73  699.0588
  74  378.339
  75  277.7311
  76  161.0167
  77  -28.13578
  78  -209.74
  79  -123.8841
  80  169.0457
  81  100.3002
  82  268.8636
  83  310.767
  84  283.652
  85  -85.75922
  86  -113.4727
  87  55.04893
  88  46.42551
  89  4.81544
  90  434.2409
  91  452.8772
  92  158.3618
  93  128.3214
  94  551.3062
  95  382.7542
  96  149.7761
  97  -193.8385
  98  -164.9016
  99  199.0038
 100  294.6409
 101  202.0309
 102  -145.5927
 103  238.5933
 104  -204.1889
 105  -56.04781
 106  -111.0348
 107  24.03959
 108  436.5418
 109  304.3971
 110  81.28672
 111  380.5091
 112  50.57541
 113  -175.5553
 114  -79.20262
 115  -308.9244
 116  -125.743
 117  1.560399
 118  57.38859
 119  -193.818
 120  194.6772
 121  142.3822
 122  175.6207
 123  585.6091
 124  662.2424
 125  679.1552
 126  769.5104
 127  904.4127
 128  1313.715
 129  1373.814
 130  1439.082
 131  590.3355
 132  31.66357
 133  -325.7535
 134  -523.775
 135  351.7691
 136  318.7629
 137  205.6173
 138  407.2648
 139  647.2952
 140  186.6366
 141  -78.78975
 142  123.6509
 143  -43.19889
 144  131.2332
 145  447.9722
 146  254.0645
 147  159.5591
 148  160.8119
 149  455.8827
 150  140.8034
 151  190.6418
 152  179.9767
 153  168.6444
 154  40.86346
 155  -279.8129
 156  79.66103
 157  588.0441
 158  461.7015
 159  423.4734
 160  -270.368
 161  -256.7573
 162  -272.2946
 163  -124.2265
 164  7.252246
 165  133.7723
 166  296.7652
 167  202.9218
 168  214.9846
 169  -81.83429
 170  -500.9232
 171  -214.6985
 172  -99.77916
 173  91.04335
 174  -5.000116
 175  180.3507
 176  34.07927
 177  -233.7673
 178  -142.8221
 179  -87.80664
 180  77.9977
 181  255.5424
 182  292.9189
 183  94.80872
 184  -152.2744
 185  139.9344
 186  147.5207
 187  197.9766
 188  -139.1464
 189  -125.8696
 190  153.979
 191  465.3954
 192  912.7688
 193  464.3669
 194  226.2774
 195  346.1298
 196  391.2645
 197  528.2711
 198  290.876
 199  1.646348
 200  -67.06364
 201  195.782
 202  313.3393
 203  362.4867
 204  477.5443
 205  236.0737
 206  -285.1716
 207  -565.2536
 208  -350.9037
 209  192.9893
 210  363.1893
 211  283.3445
 212  -168.1961
 213  -549.3209
 214  -55.49837
 215  -222.6928
 216  -162.86
 217  129.7703
 218  -120.0978
 219  -162.3206
 220  -349.1648
 221  -13.27351
 222  -109.4232
 223  63.25123
 224  303.3495
 225  372.9955
 226  501.4558
 227  298.1422
 228  243.4618
 229  107.7551
 230  105.9285
 231  261.8641
 232  278.4942
 233  380.5464
 234  -68.77261
 235  7.812713
 236  247.8136
 237  140.0176
 238  301.5488
 239  255.7245
 240  359.9044
 241  137.5464
 242  -3.839397
 243  -128.9621
 244  -156.121
 245  460.065
 246  -55.40021
 247  18.17325
 248  134.9467
 249  189.9875
 250  396.0815
 251  -11.04768
 252  45.89729
 253  241.5954
 254  148.1378
 255  -70.69322
 256  -444.3425
 257  -207.8978
 258  115.9075
 259  355.3646
 260  11.03647
 261  115.8564
 262  -251.2107
 263  -52.163
 264  154.8757
 265  178.1481
 266  168.179
 267  99.71054
 268  48.51854
 269  -140.4041
 270  -31.1983
 271  10.52529
 272  235.1874
 273  -12.74617
 274  215.0564
 275  163.9928
 276  -162.4344
 277  -548.6385
 278  -401.8124
 279  288.5642
 280  133.1652
 281  36.24807
 282  238.9231
 283  -86.72799
 284  -787.2048
 285  -734.0679
 286  -340.302
 287  -307.1439
 288  -399.0468
 289  -35.90938
 290  -207.1221
 291  -321.4061
 292  -486.3934
 293  -615.336
 294  -684.4578
 295  -136.3233
 296  461.5559
 297  570.5009
 298  266.4846
 299  -405.6316
 300  -409.5378
 301  -102.8127
 302  -0.1593286
 303  119.604
 304  -11.59976
 305  88.66158
 306  169.5548
 307  0.3903197
 308  -157.8603
 309  372.3047
 310  550.0738
 311  240.2605
 312  -371.534
 313  -489.7417
 314  -83.53145
 315  162.3797
 316  -13.01762
 317  119.1325
 318  275.9597
 319  315.1862
 320  277.1189
 321  249.0486
 322  27.0451
 323  216.9874
 324  224.4061
 325  88.04482
 326  197.7361
 327  -278.4699
 328  -591.8697
 329  -341.9388
 330  -463.5169
 331  -209.9514
 332  -89.3269
 333  -115.9585
 334  -60.91277
 335  40.64939
 336  64.84708
 337  -656.1534
 338  -687.7164
 339  -310.2579
 340  143.5872
 341  -137.2355
 342  -585.6188
 343  -127.5543
 344  140.7174
 345  -155.8035
 346  117.2538
 347  -25.24604
 348  419.8901
 349  379.4006
 350  -9.475061
 351  -681.6366
 352  -621.3124
 353  55.44513
 354  280.2307
 355  -97.08879
 356  -559.423
 357  -571.9102
 358  -748.7358
 359  -404.2909
 360  -370.3564
 361  -406.9258
 362  -530.0997
 363  -497.9286
 364  -687.8644
 365  -316.9735
 366  -42.36178
 367  221.8973
 368  415.0312
 369  406.0886
 370  160.5709
 371  -307.0886
 372  -102.8426
 373  161.7531
 374  176.8688
 375  153.747
 376  -27.51698
 377  -216.0697
 378  -26.4466
 379  370.2461
 380  344.97
 381  106.5586
 382  192.3192
 383  455.438
 384  67.18816
 385  -220.7934
 386  -90.89681
 387  -98.27874
 388  69.48738
 389  -125.3005
 390  -229.0897
 391  -164.7225
 392  128.0318
 393  8.345281
 394  -50.45654
 395  97.55787
 396  407.5873
 397  325.6618
 398  472.7596
 399  73.30453
 400  -234.6075
 401  -131.4017
 402  -54.24826
 403  38.07597
 404  -60.75462
 405  -78.05718
 406  356.6548
 407  417.1388
 408  -78.66995
 409  -144.5263
 410  -238.9677
 411  -265.6106
 412  113.2632
 413  -210.3578
 414  -12.93701
 415  23.70658
 416  -153.9191
 417  8.730453
 418  -37.0486
 419  269.7389
 420  -181.5406
 421  -416.2434
 422  -268.474
 423  -616.016
 424  -322.9342
 425  -25.47532
 426  -342.0493
 427  -298.8759
 428  -653.3502
 429  -580.5492
 430  -708.5785
 431  -302.4102
 432  -134.698
 433  22.71611
 434  -74.36497
 435  -261.1284
 436  -38.73699
 437  -368.5043
 438  -43.16244
 439  385.4733
 440  253.0816
 441  296.9678
 442  -127.6337
 443  -479.6122
 444  30.02685
 445  500.0867
 446  850.0448
 447  435.4766
 448  55.87833
 449  -10.55685
 450  -250.1204
 451  -239.2176
 452  -484.722
 453  -218.2298
 454  59.92109
 455  -13.53261
 456  -425.3407
 457  -341.2574
 458  -51.66693
 459  -382.6925
 460  -364.4996
 461  -424.8484
 462  -266.7975
 463  -14.89354
 464  3.867774
 465  -64.45815
 466  -136.4786
 467  -237.515
 468  371.8133
 469  483.6738
 470  269.6794
 471  224.5972
 472  -150.9045
 473  -453.7229
 474  -34.46567
 475  214.4164
 476  44.81056
 477  18.09865
 478  -198.2937
 479  -425.263
 480  -585.1193
 481  -853.4174
 482  -735.327
 483  -610.3912
 484  -340.9928
 485  -505.7348
 486  -933.557
 487  -829.3817
 488  -667.6262
 489  -823.3375
 490  -708.6899
 491  -421.9005
 492  -125.8964
 493  -125.1142
 494  -604.2564
 495  -614.7034
 496  -412.583
 497  -538.9793
 498  -204.8108
 499  140.4472
 500  -36.56129
 501  337.2263
 502  387.303
 503  295.3538
 504  125.4576
 505  -213.4781
 506  258.6048
 507  -49.6133
 508  -179.4869
 509  -377.2987
 510  -379.3251
 511  -106.5004
