# Input file       =  1195846833.110793_cleaned.dat
# Candidate        =  PSR_0332+5434
# Telescope        =  AR
# Epoch_topo       =  58084.820047578622
# Epoch_bary       =  N/A
# T_sample         =  0.002
# Data Folded      =  7340032
# Data Avg         =  0.106154376804126
# Data StdDev      =  1.00048223492046 
# Profile Bins     =  512
# Profile Avg      =  1521.86923071513 
# Profile StdDev   =  119.79077582804  
# Reduced chi-sqr  =  0.591
# Prob(Noise)      <  1   (~0.0 sigma)
# P_topo (ms)      =  714.522398895599  +/- 0.000243
# P'_topo (s/s)    =  -0                +/- 1.28e-10
# P''_topo (s/s^2) =  0                 +/- 5.66e-14
# P_bary (ms)      =  N/A
# P'_bary (s/s)    =  N/A
# P''_bary (s/s^2) =  N/A
# P_orb (s)        =  N/A
# asin(i)/c (s)    =  N/A
# eccentricity     =  N/A
# w (rad)          =  N/A
# T_peri           =  N/A
######################################################
   0  1728.988
   1  1666.586
   2  1580.336
   3  1492.691
   4  1485.292
   5  1563.816
   6  1577.401
   7  1616.565
   8  1620.411
   9  1602.011
  10  1588.131
  11  1645.339
  12  1563.792
  13  1434.397
  14  1422.576
  15  1502.705
  16  1467.618
  17  1432.806
  18  1394.714
  19  1471.845
  20  1479.835
  21  1369.975
  22  1446.619
  23  1459.951
  24  1499.508
  25  1421.221
  26  1459.071
  27  1535.454
  28  1428.234
  29  1446.946
  30  1432.704
  31  1435.82
  32  1429.355
  33  1416.491
  34  1413.405
  35  1302.124
  36  1423.208
  37  1438.79
  38  1505.446
  39  1417.887
  40  1452.11
  41  1549.026
  42  1485.233
  43  1496.406
  44  1406.584
  45  1462.222
  46  1486.433
  47  1453.87
  48  1527.329
  49  1466.119
  50  1465.981
  51  1488.354
  52  1465.246
  53  1467.329
  54  1430.527
  55  1481.156
  56  1515.175
  57  1435.472
  58  1530.441
  59  1538.345
  60  1461.67
  61  1405.234
  62  1430.252
  63  1469.234
  64  1560.07
  65  1620.174
  66  1576.567
  67  1594.709
  68  1569.414
  69  1583.283
  70  1518.347
  71  1501.216
  72  1553.2
  73  1506.126
  74  1438.813
  75  1519.183
  76  1484.685
  77  1535.526
  78  1454.566
  79  1566.73
  80  1552.481
  81  1528.21
  82  1517.523
  83  1544.645
  84  1526.11
  85  1504.545
  86  1578.541
  87  1596.207
  88  1628.266
  89  1591.453
  90  1477.709
  91  1618.589
  92  1514.491
  93  1356.255
  94  1419.273
  95  1521.333
  96  1492.847
  97  1434.289
  98  1501.947
  99  1539.38
 100  1492.729
 101  1529.316
 102  1533.825
 103  1540.14
 104  1588.562
 105  1592.578
 106  1528.72
 107  1473.081
 108  1562.08
 109  1468.789
 110  1454.337
 111  1553.396
 112  1545.016
 113  1551.901
 114  1484.186
 115  1522.82
 116  1525.883
 117  1481.7
 118  1559.8
 119  1579.778
 120  1611.214
 121  1478.611
 122  1477.752
 123  1519.094
 124  1466.274
 125  1464.757
 126  1485.38
 127  1484.956
 128  1542.182
 129  1476.233
 130  1487.476
 131  1474.425
 132  1524.016
 133  1501.697
 134  1452.75
 135  1444.044
 136  1458.638
 137  1506.814
 138  1512.82
 139  1623.786
 140  1625.966
 141  1563.109
 142  1587.94
 143  1502.262
 144  1508.095
 145  1461.893
 146  1528.535
 147  1568.477
 148  1542.057
 149  1487.765
 150  1415.702
 151  1450.648
 152  1462.766
 153  1520.925
 154  1461.654
 155  1536.912
 156  1529.529
 157  1495.152
 158  1514.536
 159  1578.232
 160  1530.131
 161  1484.745
 162  1525.194
 163  1558.719
 164  1482.448
 165  1415.063
 166  1523.215
 167  1686.138
 168  1660.579
 169  1657.162
 170  1608.641
 171  1563.917
 172  1543.533
 173  1539.873
 174  1631.378
 175  1672.751
 176  1650.242
 177  1601.512
 178  1484.355
 179  1454.918
 180  1554.881
 181  1559.671
 182  1571.762
 183  1606.82
 184  1512.142
 185  1488.175
 186  1439.091
 187  1592.035
 188  1609.955
 189  1529.764
 190  1502.872
 191  1527.6
 192  1520.264
 193  1504.929
 194  1455.909
 195  1598.99
 196  1635.993
 197  1646.006
 198  1548.328
 199  1516.828
 200  1532.634
 201  1613.409
 202  1610.619
 203  1577.127
 204  1576.453
 205  1515.685
 206  1509.577
 207  1465.321
 208  1504.704
 209  1421.776
 210  1494.978
 211  1569.774
 212  1580.054
 213  1533.129
 214  1496.35
 215  1537.218
 216  1608.908
 217  1480.116
 218  1503.43
 219  1540.277
 220  1625.721
 221  1560.155
 222  1502.671
 223  1556.223
 224  1598.101
 225  1537.449
 226  1528.878
 227  1543.544
 228  1646.215
 229  1596.047
 230  1588.893
 231  1565.85
 232  1531.997
 233  1496.349
 234  1571.157
 235  1547.663
 236  1560.607
 237  1579.657
 238  1592.395
 239  1620.722
 240  1591.612
 241  1555.562
 242  1548.02
 243  1564.632
 244  1439.865
 245  1353.048
 246  1416.582
 247  1562.517
 248  1552.374
 249  1542.002
 250  1454.92
 251  1510.753
 252  1559.815
 253  1472.143
 254  1493.459
 255  1592.651
 256  1627.822
 257  1556.612
 258  1563.528
 259  1552.348
 260  1470.888
 261  1479.669
 262  1551.789
 263  1581.701
 264  1466.041
 265  1486.778
 266  1608.173
 267  1680.575
 268  1588.11
 269  1669.765
 270  1690.861
 271  1599.956
 272  1626.813
 273  1542.113
 274  1373.595
 275  1467.115
 276  1616.014
 277  1596.996
 278  1591.336
 279  1492.648
 280  1508.348
 281  1498.862
 282  1481.001
 283  1499.255
 284  1503.041
 285  1412.912
 286  1456.345
 287  1488.627
 288  1527.773
 289  1487.776
 290  1579.389
 291  1622.25
 292  1627.54
 293  1524.48
 294  1587.19
 295  1615.32
 296  1534.857
 297  1494.674
 298  1539.693
 299  1528.349
 300  1591.784
 301  1597.578
 302  1533.302
 303  1448.5
 304  1541.119
 305  1515.845
 306  1516.646
 307  1501.1
 308  1529.781
 309  1543.274
 310  1592.361
 311  1645
 312  1595.274
 313  1588.14
 314  1621.946
 315  1499.972
 316  1546.175
 317  1531.164
 318  1510.076
 319  1609.603
 320  1559.094
 321  1471.995
 322  1347.734
 323  1489.879
 324  1572.366
 325  1616.05
 326  1640.366
 327  1520.624
 328  1574.265
 329  1557.393
 330  1486.781
 331  1569.474
 332  1553.654
 333  1586.823
 334  1490.804
 335  1491.824
 336  1441.751
 337  1450.708
 338  1496.164
 339  1424.666
 340  1484.213
 341  1559.59
 342  1610.251
 343  1534.127
 344  1487.99
 345  1527.253
 346  1470.23
 347  1476.789
 348  1525.07
 349  1541.809
 350  1579.081
 351  1619.308
 352  1599.866
 353  1599.677
 354  1518.898
 355  1579.267
 356  1567.382
 357  1462.916
 358  1460.887
 359  1519.641
 360  1502.863
 361  1429.174
 362  1483.49
 363  1438.699
 364  1478.766
 365  1492.315
 366  1488.608
 367  1518.417
 368  1554.473
 369  1569.521
 370  1568.83
 371  1576.682
 372  1572.221
 373  1491.712
 374  1516.956
 375  1468.058
 376  1537.256
 377  1538.771
 378  1571.841
 379  1489.022
 380  1473.505
 381  1487.869
 382  1573.262
 383  1574.768
 384  1561.377
 385  1493.778
 386  1498.617
 387  1552.123
 388  1488.693
 389  1403.549
 390  1477.614
 391  1486.762
 392  1572.836
 393  1546.912
 394  1416.154
 395  1391.656
 396  1439.949
 397  1474.414
 398  1473.038
 399  1499.789
 400  1611.636
 401  1457.409
 402  1483.468
 403  1540.295
 404  1536.914
 405  1509.084
 406  1481.589
 407  1422.656
 408  1462.028
 409  1453.312
 410  1507.76
 411  1474.14
 412  1426.173
 413  1352.369
 414  1416.817
 415  1585.674
 416  1470.008
 417  1432.086
 418  1408.304
 419  1502.403
 420  1512.352
 421  1493.043
 422  1403.436
 423  1574.255
 424  1617.783
 425  1502.999
 426  1512.342
 427  1460.107
 428  1499.17
 429  1625.035
 430  1663.058
 431  1572.535
 432  1395.335
 433  1394.882
 434  1488.568
 435  1591.112
 436  1489.534
 437  1476.496
 438  1446.732
 439  1453.571
 440  1386.561
 441  1482.087
 442  1572.273
 443  1575.425
 444  1633.007
 445  1605.968
 446  1574.225
 447  1543.642
 448  1623.537
 449  1591.084
 450  1567.249
 451  1551.585
 452  1526
 453  1572.841
 454  1577.952
 455  1556.737
 456  1492.578
 457  1518.04
 458  1540.813
 459  1556.907
 460  1616.531
 461  1439.053
 462  1463.724
 463  1545.127
 464  1520.011
 465  1474.87
 466  1550.821
 467  1523.196
 468  1431.89
 469  1418.009
 470  1525.725
 471  1478.588
 472  1530.281
 473  1538.859
 474  1617.617
 475  1557.395
 476  1533.824
 477  1485.543
 478  1563.838
 479  1572.122
 480  1592.78
 481  1558.628
 482  1605.2
 483  1615.939
 484  1528.293
 485  1454.424
 486  1448.051
 487  1498.685
 488  1481.624
 489  1431.338
 490  1393.669
 491  1426.159
 492  1432.231
 493  1429.113
 494  1414.953
 495  1438.246
 496  1391.796
 497  1361.548
 498  1441.352
 499  1600.825
 500  1561.898
 501  1472.529
 502  1480.687
 503  1550.275
 504  1528.076
 505  1661.693
 506  1616.399
 507  1611.069
 508  1565.705
 509  1545.489
 510  1643.539
 511  1625.711
