# Input file       =  1195000152.117789_cleaned.dat
# Candidate        =  PSR_0332+5434
# Telescope        =  AR
# Epoch_topo       =  58075.020499048485
# Epoch_bary       =  N/A
# T_sample         =  0.002
# Data Folded      =  7340032
# Data Avg         =  1.2656217480835  
# Data StdDev      =  16.4151516410852 
# Profile Bins     =  512
# Profile Avg      =  18142.5684136883 
# Profile StdDev   =  1965.43594857219 
# Reduced chi-sqr  =  0.508
# Prob(Noise)      <  1   (~0.0 sigma)
# P_topo (ms)      =  714.51261478662   +/- 3.79e-05
# P'_topo (s/s)    =  -0                +/- 2e-11
# P''_topo (s/s^2) =  0                 +/- 8.83e-15
# P_bary (ms)      =  N/A
# P'_bary (s/s)    =  N/A
# P''_bary (s/s^2) =  N/A
# P_orb (s)        =  N/A
# asin(i)/c (s)    =  N/A
# eccentricity     =  N/A
# w (rad)          =  N/A
# T_peri           =  N/A
######################################################
   0  18001.18
   1  18376.39
   2  19315.49
   3  19738.96
   4  19705.08
   5  18983.75
   6  18850.01
   7  18790.95
   8  18583.07
   9  18762.81
  10  19362.62
  11  16812.51
  12  16563.59
  13  17579.72
  14  17175.02
  15  19236
  16  19485.02
  17  20004.96
  18  18207.08
  19  17574.35
  20  17996.6
  21  18516.2
  22  17946.68
  23  18992.63
  24  19077.39
  25  18537.12
  26  17942.21
  27  17573.41
  28  17480.69
  29  17154.88
  30  18192.04
  31  18434.53
  32  18615.2
  33  18838.62
  34  18288.12
  35  17961.67
  36  17361.67
  37  18301.93
  38  18973.18
  39  18976.45
  40  17284.53
  41  17396.01
  42  17650.96
  43  16002.61
  44  16024.88
  45  17800.05
  46  18209.66
  47  17199.09
  48  16136.07
  49  17251.62
  50  16494.65
  51  16800.49
  52  18212.11
  53  17895.18
  54  17161.48
  55  17103.39
  56  18547.03
  57  19203.54
  58  17626.74
  59  16755.12
  60  17254.15
  61  16636.28
  62  16392.75
  63  16580.24
  64  18464.41
  65  18193.2
  66  18833.35
  67  20252.84
  68  19224.39
  69  18465
  70  19421.07
  71  19564.46
  72  18389.73
  73  18701.68
  74  19323.15
  75  19152.18
  76  18441.61
  77  19881.51
  78  19641.2
  79  18701.29
  80  18865.46
  81  20212.96
  82  17851.79
  83  16699.67
  84  17591.74
  85  18786.07
  86  18575.7
  87  18596.23
  88  20056.18
  89  18511.01
  90  17215.58
  91  17788.28
  92  17184.59
  93  16898.31
  94  17136.29
  95  18550.09
  96  17246.64
  97  17057.72
  98  19304.5
  99  19028.5
 100  16623.75
 101  17442.6
 102  17139.41
 103  17358
 104  17306.09
 105  16906.02
 106  17672.81
 107  18392.62
 108  18334.65
 109  16648.48
 110  16777.84
 111  16762.76
 112  16673.6
 113  18280.73
 114  18242.89
 115  16046.75
 116  16851.1
 117  17014.43
 118  17868.49
 119  17676.23
 120  18970.64
 121  18271.28
 122  15940.65
 123  16907.21
 124  18961.2
 125  18744.83
 126  17259.42
 127  16899.89
 128  17856.39
 129  16918
 130  16733.86
 131  17316.25
 132  18060.17
 133  16628.46
 134  17060.49
 135  16990.38
 136  16256.89
 137  15850.78
 138  17641.75
 139  18239.94
 140  18102.78
 141  17351.06
 142  17903.87
 143  17825.79
 144  17122.58
 145  17032.99
 146  18251.64
 147  17556.47
 148  17091.11
 149  18578.18
 150  18819.31
 151  16586.18
 152  16521.77
 153  17208.18
 154  16464.13
 155  17581.15
 156  19592.45
 157  19660.07
 158  18772.94
 159  19140.66
 160  17946.03
 161  17958.54
 162  17574.26
 163  19992.99
 164  20100.11
 165  18621.84
 166  18160.18
 167  18736.19
 168  18412.56
 169  19331.73
 170  19321.09
 171  19937.92
 172  18550.91
 173  17689.13
 174  18351.9
 175  18964.35
 176  17874.17
 177  18334.64
 178  19547.58
 179  19696.5
 180  18356.03
 181  18050.93
 182  17909.29
 183  17735.36
 184  16040.25
 185  17577.04
 186  18375.82
 187  17887.86
 188  17860.14
 189  18267.75
 190  17747.83
 191  18195.63
 192  18428.61
 193  17194.8
 194  15800.66
 195  17052.68
 196  18459.99
 197  17888.08
 198  17400.36
 199  18842.14
 200  17948.39
 201  14997.69
 202  16495.95
 203  17682.82
 204  17079.21
 205  16576.66
 206  19260.86
 207  19280.82
 208  17799.47
 209  15937.25
 210  17457.64
 211  17329.34
 212  18930.49
 213  17970.02
 214  18713.03
 215  17757.43
 216  17742.26
 217  18107.04
 218  17189.44
 219  18236.15
 220  18727.93
 221  19498.5
 222  18561.81
 223  17618.62
 224  19305.8
 225  18702.63
 226  17147.31
 227  18930.62
 228  19816.73
 229  18861.62
 230  17213.15
 231  16955.51
 232  19826.49
 233  18035.61
 234  17814.39
 235  18498.36
 236  18045.79
 237  16775.17
 238  17101.19
 239  16825.61
 240  17421.62
 241  17913.44
 242  19032.23
 243  18777.99
 244  18008.11
 245  19258.56
 246  18392.98
 247  17304.69
 248  18388.7
 249  19248.64
 250  18297.99
 251  17516.85
 252  17117.22
 253  17301.29
 254  16428.17
 255  16243.43
 256  18766.97
 257  18623.35
 258  16628.35
 259  16782.39
 260  17306.52
 261  17005.06
 262  17668.3
 263  18853.89
 264  18463.1
 265  15838.97
 266  15041.37
 267  17366.8
 268  17577.35
 269  16547
 270  17409.16
 271  18021.46
 272  16924.97
 273  16284.42
 274  15848.36
 275  17404.22
 276  18814.55
 277  17745.34
 278  18115.06
 279  17514.19
 280  17579.88
 281  16607.75
 282  16367.11
 283  18234.09
 284  19826.96
 285  19641.85
 286  19199.36
 287  18336.31
 288  18098.16
 289  17813.9
 290  17816.45
 291  18008.19
 292  19268.54
 293  18422.31
 294  16457.72
 295  14893.88
 296  16845.23
 297  17537.82
 298  16920.48
 299  17401.72
 300  19467.04
 301  18709.1
 302  18252.51
 303  18115.52
 304  18202.83
 305  17787.45
 306  18724.48
 307  19060.76
 308  20018.82
 309  19078.44
 310  18460.74
 311  17474.39
 312  17081.74
 313  18531.81
 314  19287
 315  19683.73
 316  20746.58
 317  18196.75
 318  18527.9
 319  18429.34
 320  18166.21
 321  17923.36
 322  17684.03
 323  17451.8
 324  17612.68
 325  16875.88
 326  17183.51
 327  17576.52
 328  17639.73
 329  18665.94
 330  17966.76
 331  19341.33
 332  19576.54
 333  19434.51
 334  18945.63
 335  18236.89
 336  17302.74
 337  17099.61
 338  17939.1
 339  18919.52
 340  17877.99
 341  17509.86
 342  18074.01
 343  19624.14
 344  19008.73
 345  18765.26
 346  18660.96
 347  17864.5
 348  18123.66
 349  18122.5
 350  19296.97
 351  18315.28
 352  17444.76
 353  19553.71
 354  18498.4
 355  18274.78
 356  18249.69
 357  19144.34
 358  19021.32
 359  18494.35
 360  18873.72
 361  19096.83
 362  17096.5
 363  17186.21
 364  18089.52
 365  18094.94
 366  18533.55
 367  17981.87
 368  19490.27
 369  18999.94
 370  18721.41
 371  19054.94
 372  18426.64
 373  17904.34
 374  17958.73
 375  17940.18
 376  18429.78
 377  17988.79
 378  19004.95
 379  18308
 380  17769.41
 381  17786.54
 382  18219.03
 383  16657.6
 384  17148.54
 385  18396.78
 386  19151.41
 387  18250.91
 388  16618.48
 389  17094.79
 390  18204.21
 391  17471.12
 392  17683.96
 393  18724.96
 394  18078.01
 395  17440.52
 396  18670.41
 397  18736.07
 398  19590.88
 399  18071.84
 400  19212.6
 401  19970.5
 402  19229.19
 403  18912.9
 404  19047.85
 405  18726.04
 406  18001.21
 407  18400.83
 408  18578.3
 409  16907.02
 410  17583.58
 411  19301.88
 412  18852.94
 413  18811.4
 414  19801.67
 415  18773.84
 416  18776.71
 417  19050.66
 418  19698.13
 419  19547.66
 420  18175.29
 421  19864.17
 422  20409.25
 423  18571.5
 424  17623.82
 425  18954.56
 426  19309.69
 427  18342.49
 428  19420.42
 429  19581.3
 430  18847.29
 431  19257.72
 432  19609.37
 433  20520.54
 434  18472.54
 435  20426.88
 436  20203.05
 437  19568.2
 438  18839.49
 439  18553.48
 440  18621.53
 441  17616.19
 442  17270.55
 443  18163.97
 444  18076.35
 445  17729.59
 446  17494.42
 447  17907.78
 448  16768.99
 449  17809.11
 450  19663.83
 451  19201.29
 452  18017.37
 453  19242.3
 454  19166.31
 455  19288.02
 456  20672.99
 457  20853.41
 458  21297
 459  20281.35
 460  19676.93
 461  18485.45
 462  18020.47
 463  17677.12
 464  20010.16
 465  19249.45
 466  18296.59
 467  17893.66
 468  18459.5
 469  18896.91
 470  17819.38
 471  18128.44
 472  17097.67
 473  16682.2
 474  17296.34
 475  17886.16
 476  18099.39
 477  16743.95
 478  18861.93
 479  19132.82
 480  17348.65
 481  17279.46
 482  17966.12
 483  17358.91
 484  18612.63
 485  18841.25
 486  20177.15
 487  19079.44
 488  17485.64
 489  18101.16
 490  18758.76
 491  18497.38
 492  18023.53
 493  18091.54
 494  17980.64
 495  18303.92
 496  19403.77
 497  18665.13
 498  17837.34
 499  18446.71
 500  17722.13
 501  17008.67
 502  16251.97
 503  18076.91
 504  18302.61
 505  17821.03
 506  17370.53
 507  17854.8
 508  18318.52
 509  19087.86
 510  18549.04
 511  19030.74
