# Input file       =  1195258620.102966_cleaned.dat
# Candidate        =  PSR_0332+5434
# Telescope        =  AR
# Epoch_topo       =  58078.012026654702
# Epoch_bary       =  N/A
# T_sample         =  0.002
# Data Folded      =  7340032
# Data Avg         =  0.253929056712617
# Data StdDev      =  14.3385925744931 
# Profile Bins     =  512
# Profile Avg      =  3640.45273851675 
# Profile StdDev   =  1716.80322631341 
# Reduced chi-sqr  =  0.405
# Prob(Noise)      <  1   (~0.0 sigma)
# P_topo (ms)      =  714.515689247302  +/- 5.02e-05
# P'_topo (s/s)    =  -0                +/- 2.65e-11
# P''_topo (s/s^2) =  0                 +/- 1.17e-14
# P_bary (ms)      =  N/A
# P'_bary (s/s)    =  N/A
# P''_bary (s/s^2) =  N/A
# P_orb (s)        =  N/A
# asin(i)/c (s)    =  N/A
# eccentricity     =  N/A
# w (rad)          =  N/A
# T_peri           =  N/A
######################################################
   0  3434.853
   1  3712.21
   2  3894.948
   3  2468.266
   4  2734.097
   5  3778.129
   6  2524.41
   7  2819.014
   8  3167.803
   9  4070.322
  10  2828.781
  11  3682.829
  12  4893.07
  13  3770.55
  14  3055.372
  15  3723.03
  16  4879.11
  17  3714.999
  18  2752.406
  19  3297.208
  20  3611.311
  21  3862.177
  22  3446.128
  23  3991.54
  24  3236.922
  25  2778.518
  26  2259.358
  27  2440.423
  28  2056.674
  29  3322.211
  30  3636.884
  31  4213.14
  32  3762.904
  33  4024.24
  34  4505.75
  35  4093.416
  36  3556.835
  37  4138.701
  38  3958.672
  39  3026.453
  40  3580.342
  41  4085.301
  42  3583.607
  43  2347.938
  44  1809.73
  45  2419.826
  46  3090.635
  47  3834.531
  48  3866.688
  49  3284.312
  50  3772.547
  51  3113.575
  52  3149.383
  53  3430.855
  54  4197.664
  55  4904.54
  56  5130.578
  57  3624.438
  58  3543.404
  59  4174.048
  60  4174.168
  61  2817.086
  62  2803.489
  63  3016.747
  64  2048.235
  65  2419.476
  66  2999.058
  67  3040.62
  68  2606.179
  69  3602.41
  70  3949.55
  71  2901.808
  72  2469.911
  73  2850.008
  74  1988.58
  75  1209.968
  76  3817.866
  77  3453.051
  78  3004.678
  79  2923.676
  80  2806.294
  81  3171.356
  82  3435.927
  83  4043.522
  84  3821.235
  85  3257.993
  86  3113.182
  87  3481.713
  88  3862.423
  89  4144.043
  90  3885.078
  91  4318.007
  92  2497.974
  93  3447.638
  94  3692.196
  95  3889.44
  96  4137.567
  97  4788.789
  98  4708.745
  99  4121.08
 100  4683.468
 101  4497.17
 102  4530.257
 103  4754.589
 104  3897.583
 105  4876.566
 106  4745.495
 107  3424.39
 108  3807.461
 109  3482.143
 110  3714.767
 111  3269.445
 112  4838.463
 113  5368.018
 114  3690.722
 115  4089.738
 116  5056.674
 117  4186.224
 118  3934.682
 119  4138.811
 120  4187.281
 121  3154.937
 122  3042.328
 123  3811.485
 124  2204.288
 125  1692.871
 126  2935.723
 127  3014.409
 128  2672.658
 129  3160.678
 130  3274.772
 131  2532.591
 132  3289.471
 133  4150.986
 134  4307.21
 135  4701.04
 136  4081.008
 137  3350.222
 138  3415.684
 139  2836.46
 140  2485.071
 141  3183.109
 142  3270.862
 143  2691.339
 144  1800.418
 145  2295.392
 146  2086.489
 147  1850.026
 148  2986.192
 149  1924.442
 150  2809.447
 151  3500.796
 152  3097.35
 153  3536.147
 154  3068.036
 155  3526.181
 156  4005.321
 157  3250.795
 158  4499.182
 159  4749.536
 160  5529.088
 161  3830.857
 162  3859.569
 163  3987.053
 164  4156.487
 165  4271.479
 166  4322.219
 167  4086.55
 168  4560.302
 169  5156.724
 170  4579.334
 171  3162.686
 172  2661.267
 173  3547.348
 174  4315.035
 175  4312.183
 176  3850.539
 177  4332.093
 178  3346.212
 179  3592.714
 180  4011.978
 181  4302.48
 182  3497.111
 183  2982.73
 184  4373.695
 185  4129.463
 186  3753.899
 187  3713.113
 188  3360.567
 189  2878.746
 190  3254.82
 191  4146.83
 192  3658.993
 193  2816.42
 194  3111.751
 195  3349.016
 196  3541.581
 197  3254.773
 198  4399.12
 199  4239.44
 200  2567.729
 201  3598.452
 202  4277.076
 203  4267.607
 204  3359.62
 205  3627.297
 206  3398.342
 207  3409.94
 208  3653.466
 209  3320.594
 210  3389.928
 211  3380.64
 212  3806.514
 213  3815.863
 214  2870.018
 215  3098.069
 216  4573.87
 217  5291.528
 218  5000.534
 219  4723.876
 220  4931.347
 221  4008.407
 222  4014.632
 223  4192.116
 224  3690.963
 225  3173.513
 226  3328.035
 227  2766.091
 228  2982.258
 229  3228.849
 230  2775.701
 231  3593.219
 232  3614.042
 233  3377.828
 234  3663.185
 235  3804.753
 236  3443.489
 237  4183.009
 238  5007.578
 239  4894.999
 240  4208.487
 241  4797.661
 242  4347.099
 243  3410.767
 244  3382.876
 245  3657.147
 246  4729.009
 247  4614.667
 248  4959.138
 249  5209.826
 250  3678.522
 251  2849.253
 252  3083.57
 253  3342.355
 254  2858.538
 255  4062.274
 256  4857.758
 257  4435.988
 258  4038.324
 259  4352.472
 260  3813.729
 261  3194.163
 262  3977.701
 263  4473.702
 264  4716.608
 265  4743.135
 266  4346.816
 267  3623.39
 268  3700.906
 269  4067.902
 270  4380.349
 271  3971.643
 272  3942.836
 273  3219.19
 274  2804.396
 275  3577.885
 276  3279.364
 277  2720.545
 278  2982.58
 279  3039.654
 280  3099.316
 281  3725.476
 282  3996.644
 283  3316.343
 284  4167.878
 285  3341.828
 286  2093.976
 287  2500.311
 288  2399.877
 289  1845.42
 290  1555.808
 291  3529.294
 292  3664.597
 293  2415.942
 294  3410.977
 295  3915
 296  4107.002
 297  3847.188
 298  5093.936
 299  4916.097
 300  3276.122
 301  3309.909
 302  3819.883
 303  3453.028
 304  3641.061
 305  4389.003
 306  5299.941
 307  4419.382
 308  4777.044
 309  4037.114
 310  3590.551
 311  3358.936
 312  4350.782
 313  4753.631
 314  3427.642
 315  3094.799
 316  3982.299
 317  4131.652
 318  3288.827
 319  2498.207
 320  3509.034
 321  2516.443
 322  2528.856
 323  3762.717
 324  4279.582
 325  3330.691
 326  3169.877
 327  3547.673
 328  2378.987
 329  2439.86
 330  4231.512
 331  3075.164
 332  3373.49
 333  3367.719
 334  3722.044
 335  3031.029
 336  2012.771
 337  2475.444
 338  2572.371
 339  2452.688
 340  2174.37
 341  3103.541
 342  3012.439
 343  2809.963
 344  3430.194
 345  3716.236
 346  3422.76
 347  3049.9
 348  3885.584
 349  4825.156
 350  3622.802
 351  3220.695
 352  4038.254
 353  3806.132
 354  3018.703
 355  3577.885
 356  3828.6
 357  3179.764
 358  2815.689
 359  3795.986
 360  3178.06
 361  3170.26
 362  3510.283
 363  3490.375
 364  2832.16
 365  2681.89
 366  3500.904
 367  3468.409
 368  4180.207
 369  4063.181
 370  5078.353
 371  4360.853
 372  3320.819
 373  4209.625
 374  5125.672
 375  4616.529
 376  4028.447
 377  4808.4
 378  4803.989
 379  4462.333
 380  4564.015
 381  4959.014
 382  3779.023
 383  3000.437
 384  3567.455
 385  3646.934
 386  3510.684
 387  2634.207
 388  3303.647
 389  2735.204
 390  3459.926
 391  4096.453
 392  4754.064
 393  5003.13
 394  6127.189
 395  5663.08
 396  4927.986
 397  5286.641
 398  4835.712
 399  4667.654
 400  4125.409
 401  3951.899
 402  4346.332
 403  3227.968
 404  3681.063
 405  3786.396
 406  3734.5
 407  3591.528
 408  2615.447
 409  3345.009
 410  2409.875
 411  2107.155
 412  2854.974
 413  3089.921
 414  2519.735
 415  3056.469
 416  4081.205
 417  3821.169
 418  2760.304
 419  2463.604
 420  3729.489
 421  3877.635
 422  3143.654
 423  3955.023
 424  4327.325
 425  3624.247
 426  3269.99
 427  3322.701
 428  3375.818
 429  2593.854
 430  3290.741
 431  3480.011
 432  2626.701
 433  2908.2
 434  3833.555
 435  4320.816
 436  3402.053
 437  2848.035
 438  3561.97
 439  3422.475
 440  2469.317
 441  2487.781
 442  3054.638
 443  2428.294
 444  2121.09
 445  2753.345
 446  3012.823
 447  2900.533
 448  3157.326
 449  3812.737
 450  3571.672
 451  2711.165
 452  3373.421
 453  3609.2
 454  3711.04
 455  4796.704
 456  5153.513
 457  5103.983
 458  4231.607
 459  4545.713
 460  3725.885
 461  3556.173
 462  4282.977
 463  4900.041
 464  4797.789
 465  4124.849
 466  4599.477
 467  5171.554
 468  5462.915
 469  4658.562
 470  3575.592
 471  3426.531
 472  4236.146
 473  5144.161
 474  4785.728
 475  4108.443
 476  3587.054
 477  3240.122
 478  3560.591
 479  3669.237
 480  3331.922
 481  4323.575
 482  5324.229
 483  4408.747
 484  4272.542
 485  5027.211
 486  5112.574
 487  4844.764
 488  5121.513
 489  4640.87
 490  4877.508
 491  4661.527
 492  5487.489
 493  3900.737
 494  3132.127
 495  3561.566
 496  3314.905
 497  3011.755
 498  2429.177
 499  2750.001
 500  2994.883
 501  2607.106
 502  3734.264
 503  3794.148
 504  3665.743
 505  3936.994
 506  3609.498
 507  3732.57
 508  3603.801
 509  3396.151
 510  3553.237
 511  2275.405
