# Input file       =  1195243722.108974_cleaned.dat
# Candidate        =  PSR_0332+5434
# Telescope        =  AR
# Epoch_topo       =  58077.839596168684
# Epoch_bary       =  N/A
# T_sample         =  0.002
# Data Folded      =  7340032
# Data Avg         =  0.427947996948206
# Data StdDev      =  7.92427851145454 
# Profile Bins     =  1024
# Profile Avg      =  3068.12483826488 
# Profile StdDev   =  670.901448349498 
# Reduced chi-sqr  =  0.497
# Prob(Noise)      <  1   (~0.0 sigma)
# P_topo (ms)      =  714.515172248248  +/- 5.82e-05
# P'_topo (s/s)    =  -0                +/- 3.07e-11
# P''_topo (s/s^2) =  0                 +/- 1.36e-14
# P_bary (ms)      =  N/A
# P'_bary (s/s)    =  N/A
# P''_bary (s/s^2) =  N/A
# P_orb (s)        =  N/A
# asin(i)/c (s)    =  N/A
# eccentricity     =  N/A
# w (rad)          =  N/A
# T_peri           =  N/A
######################################################
   0  3501.927
   1  3422.415
   2  3169.237
   3  3236.758
   4  3187.198
   5  3176.242
   6  3149.237
   7  3144.268
   8  2959.886
   9  3123.908
  10  3016.963
  11  3170.15
  12  2956.081
  13  2941.337
  14  2980.839
  15  3044.159
  16  3008.359
  17  3157.688
  18  3144.051
  19  3246.923
  20  2944.736
  21  2782.44
  22  2713.89
  23  2765.523
  24  3021.405
  25  3342.914
  26  3236.142
  27  3113.783
  28  2914.928
  29  2955.222
  30  3100.024
  31  3234.496
  32  3237.564
  33  3179.332
  34  3035.744
  35  3176.015
  36  3055.25
  37  2945.525
  38  2847.052
  39  2818.043
  40  2504.267
  41  2499.248
  42  2459.019
  43  2658.673
  44  2764.49
  45  2954.873
  46  3205.273
  47  3112.486
  48  3117.993
  49  3082.593
  50  3100.038
  51  3039.813
  52  3192.512
  53  3172.826
  54  3435.628
  55  3366.614
  56  3322.422
  57  3165.89
  58  3127.929
  59  3116.378
  60  3234.33
  61  3350.508
  62  3508.133
  63  3277.774
  64  3222.911
  65  3111.904
  66  3072.415
  67  3105.317
  68  3364.118
  69  3434.281
  70  3445.177
  71  3438.661
  72  3320.355
  73  3299.804
  74  3147.461
  75  3272.796
  76  3201.667
  77  3053.264
  78  2832.917
  79  2774.1
  80  2944.041
  81  3180.517
  82  3420.576
  83  3606.235
  84  3573.493
  85  3540.505
  86  3372.029
  87  3241.512
  88  3025.416
  89  2952.794
  90  2934.82
  91  2846.611
  92  2877.672
  93  3077.565
  94  2867.147
  95  3006.399
  96  3106.048
  97  3437.678
  98  3321.191
  99  3171.834
 100  3078.363
 101  3195.472
 102  3174.58
 103  3276.122
 104  3224.493
 105  3141.996
 106  3009.777
 107  2814.506
 108  2779.117
 109  2866.19
 110  2808.455
 111  3148.614
 112  3032.218
 113  3202.541
 114  3028.677
 115  2762.585
 116  2754.034
 117  2933.708
 118  3121.5
 119  3129.215
 120  3181.805
 121  3330.787
 122  3418.448
 123  3199.36
 124  3196.872
 125  3315.53
 126  3568.987
 127  3840.467
 128  3610.731
 129  3223.172
 130  2951.046
 131  2736.289
 132  3025.917
 133  3165.885
 134  3259.213
 135  3075.751
 136  2830.713
 137  2858.082
 138  2974.154
 139  2866.261
 140  2887.199
 141  2670.504
 142  2852.861
 143  3008.378
 144  3135.298
 145  3099.49
 146  2984.606
 147  3043.728
 148  3228.393
 149  3213.735
 150  3010.008
 151  2982.237
 152  3059.596
 153  2996.251
 154  3040.488
 155  3236.093
 156  3362.068
 157  3236.067
 158  3282.847
 159  3378.938
 160  3437.968
 161  3560.255
 162  3653.198
 163  3656.65
 164  3393.719
 165  3379.562
 166  3353.742
 167  3274.937
 168  3175.724
 169  3249.499
 170  3314.139
 171  3151.528
 172  2928.822
 173  2952.187
 174  2978.259
 175  3143.146
 176  3381.425
 177  3650.21
 178  3563.787
 179  3409.117
 180  3329.481
 181  3409.659
 182  3427.844
 183  3251.03
 184  3135.739
 185  2945.624
 186  2922.094
 187  2841.558
 188  2840.539
 189  3060.313
 190  3204.698
 191  3177.205
 192  3001.867
 193  3001.853
 194  2960.257
 195  3044.926
 196  2922.322
 197  3157.904
 198  3183.369
 199  3288.874
 200  3265.991
 201  3189.463
 202  3162.693
 203  3029.741
 204  2946.313
 205  3106.15
 206  3170.699
 207  3401.344
 208  3448.699
 209  3427.692
 210  3293.906
 211  3273.689
 212  3141.105
 213  3098.15
 214  3065.911
 215  3094.535
 216  3151.219
 217  2852.33
 218  2857.48
 219  2821.167
 220  3043.15
 221  3005.08
 222  2863.733
 223  2705.39
 224  2892.605
 225  2695.796
 226  2787.154
 227  2584.284
 228  2685.645
 229  2820.77
 230  2885.995
 231  2832.662
 232  2825.74
 233  2891.504
 234  3063.749
 235  3012.055
 236  2928.179
 237  2902.229
 238  2972.013
 239  3154.67
 240  3328.642
 241  3258.15
 242  3157.323
 243  2936.881
 244  2682.372
 245  2689.758
 246  2578.868
 247  2729.622
 248  2860.477
 249  3027.217
 250  2967.128
 251  2815.987
 252  2836.058
 253  2955.302
 254  2848.098
 255  2822.545
 256  2946.401
 257  3073.474
 258  3050.468
 259  3005.887
 260  2869.109
 261  3060.011
 262  2864.917
 263  3153.186
 264  3112.893
 265  2972.968
 266  2839.198
 267  3054.781
 268  3273.725
 269  3297.646
 270  3127.592
 271  2927.375
 272  2849.375
 273  2829.645
 274  2876.645
 275  2953.954
 276  2911.817
 277  3074.894
 278  3035.198
 279  2944.519
 280  2989.875
 281  3054.891
 282  3123.828
 283  3238.245
 284  3134.831
 285  3098.035
 286  2983.205
 287  2842.807
 288  2890.388
 289  2955.668
 290  3133.258
 291  3400.966
 292  3394.554
 293  3366.36
 294  3333.904
 295  3283.528
 296  3427.953
 297  3308.882
 298  3281.021
 299  3109.636
 300  2883.927
 301  2787.49
 302  2880.39
 303  3051.647
 304  3193.442
 305  3319.101
 306  3325.209
 307  3446.127
 308  3467.113
 309  3243.034
 310  3419.999
 311  3369.749
 312  3563.295
 313  3080.753
 314  2876.416
 315  2782.053
 316  2758.221
 317  2747.833
 318  3032.302
 319  3224.091
 320  3480.061
 321  3591.166
 322  3455.447
 323  3349.098
 324  3231.502
 325  3209.585
 326  3250.714
 327  3071.792
 328  3117.961
 329  2934.139
 330  2809.93
 331  2813.284
 332  2922.453
 333  3041.384
 334  3014.925
 335  3132.055
 336  3154.92
 337  3104.714
 338  3152.374
 339  3337.087
 340  3332.209
 341  3317.552
 342  3288.369
 343  3363.841
 344  3051.23
 345  3239.3
 346  3177.521
 347  3145.144
 348  2994.003
 349  3117.371
 350  3456.813
 351  3457.995
 352  3182.721
 353  3289.832
 354  3227.817
 355  3224.505
 356  3178.804
 357  3245.019
 358  3075.172
 359  3024.271
 360  3104.926
 361  3418.029
 362  3447.157
 363  3591.286
 364  3652.499
 365  3429.635
 366  3258.753
 367  3175.881
 368  3189.448
 369  3038.846
 370  2696.051
 371  2711.999
 372  2823.596
 373  2922.781
 374  3205.773
 375  3432.802
 376  3349.562
 377  3306.209
 378  3146.254
 379  3206.965
 380  3196.034
 381  3126.281
 382  3152.439
 383  3033.498
 384  3043.652
 385  3063.324
 386  3053.85
 387  3029.28
 388  3163.062
 389  3117.076
 390  3181.103
 391  2935.015
 392  2965.038
 393  3175.189
 394  3118.007
 395  3307.859
 396  3391.488
 397  3228.599
 398  3280.352
 399  3137.899
 400  3143.082
 401  2994.6
 402  3138.891
 403  3177.6
 404  3233.139
 405  3219.498
 406  3365.943
 407  3167.369
 408  2968.238
 409  2901.942
 410  2908.78
 411  2972.905
 412  3006.847
 413  2753.06
 414  2536.562
 415  2552.881
 416  2693.112
 417  2742.662
 418  2633.675
 419  2799.129
 420  2976.81
 421  3148.489
 422  3148.135
 423  3113.947
 424  2999.005
 425  3161.842
 426  3417.176
 427  3664.659
 428  3540.938
 429  3394.508
 430  3233.893
 431  3252.438
 432  3288.163
 433  3440.272
 434  3328.034
 435  3073.15
 436  2986.305
 437  2849.137
 438  2883.33
 439  2883.516
 440  3007.656
 441  3057.842
 442  3130.894
 443  3076.208
 444  3064.486
 445  3210.397
 446  3287.214
 447  3478.72
 448  3296.158
 449  3273.833
 450  3067.529
 451  2813.297
 452  2631.803
 453  2682.192
 454  2698.593
 455  2896.402
 456  2904.359
 457  3208.385
 458  3301.062
 459  3226.643
 460  3253.845
 461  3156.159
 462  3117.914
 463  3112.904
 464  3050.914
 465  2988.064
 466  2987.646
 467  2913.105
 468  3150.083
 469  3126.734
 470  3233.502
 471  3231.413
 472  3197.32
 473  3105.573
 474  3002.204
 475  2895.872
 476  3172.909
 477  3400.647
 478  3522.798
 479  3501.609
 480  3166.881
 481  3123.597
 482  3126.287
 483  3107.239
 484  3211.78
 485  3097.074
 486  2972.398
 487  2861.88
 488  2744.826
 489  2907.986
 490  3132.449
 491  3097.185
 492  3029.081
 493  3035.083
 494  3095.126
 495  3136.26
 496  2824.215
 497  2976.806
 498  3136.561
 499  3202.244
 500  3120.439
 501  2908.934
 502  2768.825
 503  2612.841
 504  2714.114
 505  2886.011
 506  3013.063
 507  2810.432
 508  2797.945
 509  2866.634
 510  2917.787
 511  3016.876
 512  3124.593
 513  3375.286
 514  3499.236
 515  3540.996
 516  3538.493
 517  3614.584
 518  3255.265
 519  3251.309
 520  3231.145
 521  3213.19
 522  3134.087
 523  3152.787
 524  3209.76
 525  3525.838
 526  3391.626
 527  3374.995
 528  3172.106
 529  3105.603
 530  3064.385
 531  3192.082
 532  3219.758
 533  3206.975
 534  2792.803
 535  2939.854
 536  3001.26
 537  2879.058
 538  2607.671
 539  2609.043
 540  2720.771
 541  2972.365
 542  2887.016
 543  3053.015
 544  2965.792
 545  2735.719
 546  2721.665
 547  2929.002
 548  3112.956
 549  3175.163
 550  3077.494
 551  3006.487
 552  2883.142
 553  2793.748
 554  2767.932
 555  2713.276
 556  2759.626
 557  2856.945
 558  2819.205
 559  2728.026
 560  2984.943
 561  2921.61
 562  3107.202
 563  3151.6
 564  3367.923
 565  3463.954
 566  3325.866
 567  3187.05
 568  3112.424
 569  2961.914
 570  2999.543
 571  2610.698
 572  2564.231
 573  2482.611
 574  2690.003
 575  2795.695
 576  2997.813
 577  3034.179
 578  3056.249
 579  2733.69
 580  2439.026
 581  2233.376
 582  2307.516
 583  2426.665
 584  2681.737
 585  2615.976
 586  2671.209
 587  2529.024
 588  2672.277
 589  2918.983
 590  3186.727
 591  2986.219
 592  2802.106
 593  2691.407
 594  2842.125
 595  2959.396
 596  2964.451
 597  3002.621
 598  2976.992
 599  2943.909
 600  3093.922
 601  2957.319
 602  2783.839
 603  2993.675
 604  3117.073
 605  3238.236
 606  3081.516
 607  3036.911
 608  3005.009
 609  2938.398
 610  2899.771
 611  3065.305
 612  3141.602
 613  3236.053
 614  3356.927
 615  3274.511
 616  3129.675
 617  3001.11
 618  2950.957
 619  3101.335
 620  3086.891
 621  3149.483
 622  3242.244
 623  2998.529
 624  3238.07
 625  3549.432
 626  3810.932
 627  3992.73
 628  4044.454
 629  4405.233
 630  4287.177
 631  4081.861
 632  4076.942
 633  4064.521
 634  4034.232
 635  3662.414
 636  3450.894
 637  3164.301
 638  3403.201
 639  3214.761
 640  3312.265
 641  3129.777
 642  3302.196
 643  3306.812
 644  3149.089
 645  2970.05
 646  3051.775
 647  3062.067
 648  3187.939
 649  3049.729
 650  3103.662
 651  3009.9
 652  2976.49
 653  3103.25
 654  3191.17
 655  3071.038
 656  3181.118
 657  3210.855
 658  3015.198
 659  2928.564
 660  2882.167
 661  3266.553
 662  3353.456
 663  3396.897
 664  3331.852
 665  3014.992
 666  2960.846
 667  3063.512
 668  3120.502
 669  3008.422
 670  2829.438
 671  2781.018
 672  2904.815
 673  2853.226
 674  2694.126
 675  2811.159
 676  3024.733
 677  2998.554
 678  2940.313
 679  2824.145
 680  3009.464
 681  2886.398
 682  2929.823
 683  3005.632
 684  3012.402
 685  2857.156
 686  2919.515
 687  3190.995
 688  3238.959
 689  3219.53
 690  3134.17
 691  3130.825
 692  2980.245
 693  2900.791
 694  3004.677
 695  2942.865
 696  2821.588
 697  2687.725
 698  2698.1
 699  2812.291
 700  2813.679
 701  2888.383
 702  2973.289
 703  3311.529
 704  3306.586
 705  3263.796
 706  3070.399
 707  2827.698
 708  2841.609
 709  2709.691
 710  2779.627
 711  2791.546
 712  2725.108
 713  2993.403
 714  3035.625
 715  3192.65
 716  3232.824
 717  3335.434
 718  3716.144
 719  3731.713
 720  3730.417
 721  3462.323
 722  3144.358
 723  3024.527
 724  3152.271
 725  3181.208
 726  3206.815
 727  3000.375
 728  3042.917
 729  3151.389
 730  3115.747
 731  3115.992
 732  3240.838
 733  3256.164
 734  3466.45
 735  3346.75
 736  3268.19
 737  2972.824
 738  2715.049
 739  2682.332
 740  2675.715
 741  2632.833
 742  2681.095
 743  2646.401
 744  2677.984
 745  2747.062
 746  2713.879
 747  2651.204
 748  2804.797
 749  3060.78
 750  3151.615
 751  2989.187
 752  2848.808
 753  2822.806
 754  2844.618
 755  2992.939
 756  3062.336
 757  2980.578
 758  2807.934
 759  2810.316
 760  2788.695
 761  2882.108
 762  2983.71
 763  3106.017
 764  3049.955
 765  2983.756
 766  2862.88
 767  2964.434
 768  2999.262
 769  3137.355
 770  3245.729
 771  3231.192
 772  3185.828
 773  3266.267
 774  3072.614
 775  3253.665
 776  3097.976
 777  3222.239
 778  3235.955
 779  3190.506
 780  3157.208
 781  3141.509
 782  3203.138
 783  3137.219
 784  2941.927
 785  2871.512
 786  2898.994
 787  2799.885
 788  2913.981
 789  3051.729
 790  2999.891
 791  3233.68
 792  3171.147
 793  3303.518
 794  3090.951
 795  3122.563
 796  3263.652
 797  3402.102
 798  3342.097
 799  3421.372
 800  3173.921
 801  3240.781
 802  3266.614
 803  3381.698
 804  3333.249
 805  3296.458
 806  3277.881
 807  3349.219
 808  3225.285
 809  3081.166
 810  3062.859
 811  2950.627
 812  3068.59
 813  3142.482
 814  3212.527
 815  3263.112
 816  3042.819
 817  2950.006
 818  3085.377
 819  2987.442
 820  3205.447
 821  3223.369
 822  3324.991
 823  3215.034
 824  2999.28
 825  3136.998
 826  3402.282
 827  3438.337
 828  3392.553
 829  3069.915
 830  2965.016
 831  2743.506
 832  2741.564
 833  2864.492
 834  3333.557
 835  3527.88
 836  3609.244
 837  3266.215
 838  3181.786
 839  3129.425
 840  3157.842
 841  2898.633
 842  2787.842
 843  2573.629
 844  2561.697
 845  2497.854
 846  2665.022
 847  2795.324
 848  2997.737
 849  3094.442
 850  3020.784
 851  3016.46
 852  2918.703
 853  3019.763
 854  2823.695
 855  2924.252
 856  2905.266
 857  2835.434
 858  2658.631
 859  2614.306
 860  2636.535
 861  2838.293
 862  2875.776
 863  3012.65
 864  2885.666
 865  2871.829
 866  2712.399
 867  2687.683
 868  2768.557
 869  2964.263
 870  3120.8
 871  3129.492
 872  3183.857
 873  3074.31
 874  3028.918
 875  3156.947
 876  3155.412
 877  3483.657
 878  3242.518
 879  3259.8
 880  3166.243
 881  3206.227
 882  3336.61
 883  3325.246
 884  3147.09
 885  3085.832
 886  3011.236
 887  3055.888
 888  3087.363
 889  3199.397
 890  3361.211
 891  3471.422
 892  3428.321
 893  3560.51
 894  3432.666
 895  3310.223
 896  3143.396
 897  2864.434
 898  2923.818
 899  3051.136
 900  3170.494
 901  3025.48
 902  2561.724
 903  2496.55
 904  2705.946
 905  2758.701
 906  2970.072
 907  2878.981
 908  2907.242
 909  2651.082
 910  2520.793
 911  2667.712
 912  3093.705
 913  2988.234
 914  3143.129
 915  2982.093
 916  3106.757
 917  2882.16
 918  2824.526
 919  2844.591
 920  3030.414
 921  3071.867
 922  2957.117
 923  2636.35
 924  2633.802
 925  2736.402
 926  2683.359
 927  2729.861
 928  2791.14
 929  2942.613
 930  2973.189
 931  2855.033
 932  2635.342
 933  2445.816
 934  2589.571
 935  2533.054
 936  2554.113
 937  2536.896
 938  2642.521
 939  2645.802
 940  2740.545
 941  2823.233
 942  2767.74
 943  2688.146
 944  2739.298
 945  2845.951
 946  2686.528
 947  2851.386
 948  2986.558
 949  2987.316
 950  2938.114
 951  2770.608
 952  2951.795
 953  2904.773
 954  2874.574
 955  2849.452
 956  2635.892
 957  2602.912
 958  2872.696
 959  3063.702
 960  3216.969
 961  3036.177
 962  2919.75
 963  2825.062
 964  2603.736
 965  2445.333
 966  2337.853
 967  2097.614
 968  2462.137
 969  2434.737
 970  2639.102
 971  2759.407
 972  2843.213
 973  2854.648
 974  2795.92
 975  2680.514
 976  2841.981
 977  3108.508
 978  3165.639
 979  3244.406
 980  3145.402
 981  3213.491
 982  3068.135
 983  2962.727
 984  3081.685
 985  3339.774
 986  3491.858
 987  3355.303
 988  3192.854
 989  3093.612
 990  3253.052
 991  3194.52
 992  3363.052
 993  3345.547
 994  3200.374
 995  3017.281
 996  2900.448
 997  2990.49
 998  3009.245
 999  2979.232
1000  3185.865
1001  3171.031
1002  3200.544
1003  2938.992
1004  2964.702
1005  3001.733
1006  3486.167
1007  3640.055
1008  3602.319
1009  2921.942
1010  2615.505
1011  2715.407
1012  2964.592
1013  3163.246
1014  3300.989
1015  3413.03
1016  3284.048
1017  3015.99
1018  2897.188
1019  3017.805
1020  3146.381
1021  3326.395
1022  3402.749
1023  3490.015
