# Input file       =  1195517101.114235-PSRB0329-2ms-sampling-dd.dat
# Candidate        =  PSR_0332+5434
# Telescope        =  AR
# Epoch_topo       =  58081.003705025869
# Epoch_bary       =  N/A
# T_sample         =  0.002
# Data Folded      =  7340032
# Data Avg         =  -2.77781563519844e-11
# Data StdDev      =  6.36014149421204 
# Profile Bins     =  512
# Profile Avg      =  -0.106349542962594
# Profile StdDev   =  761.519052887869 
# Reduced chi-sqr  =  0.509
# Prob(Noise)      <  1   (~0.0 sigma)
# P_topo (ms)      =  714.518783602049  +/- 0.000449
# P'_topo (s/s)    =  -0                +/- 2.37e-10
# P''_topo (s/s^2) =  0                 +/- 1.05e-13
# P_bary (ms)      =  N/A
# P'_bary (s/s)    =  N/A
# P''_bary (s/s^2) =  N/A
# P_orb (s)        =  N/A
# asin(i)/c (s)    =  N/A
# eccentricity     =  N/A
# w (rad)          =  N/A
# T_peri           =  N/A
######################################################
   0  -405.7552
   1  -516.3579
   2  -50.38021
   3  -531.7676
   4  -331.3232
   5  203.4394
   6  189.6774
   7  -133.789
   8  -5.609694
   9  5.922486
  10  -293.2719
  11  -257.943
  12  -60.80085
  13  43.8011
  14  -503.2457
  15  -75.25396
  16  445.7131
  17  726.8577
  18  379.4894
  19  -104.2819
  20  -185.0336
  21  -583.2846
  22  -656.3861
  23  -230.1928
  24  122.1105
  25  -263.6166
  26  -500.9628
  27  -134.4958
  28  -549.6472
  29  -706.4863
  30  -45.8852
  31  727.2198
  32  205.898
  33  -61.83476
  34  264.7598
  35  -362.1452
  36  116.2269
  37  348.3772
  38  319.7134
  39  284.3664
  40  252.3039
  41  -387.4926
  42  -939.6548
  43  -835.9955
  44  -85.61266
  45  306.167
  46  264.0311
  47  -268.7158
  48  -154.3181
  49  307.8569
  50  63.02146
  51  -4.313819
  52  117.6498
  53  -11.22853
  54  -141.9391
  55  -360.4947
  56  58.80312
  57  258.4666
  58  309.6461
  59  856.6079
  60  466.1469
  61  -82.23056
  62  -627.4598
  63  -622.5919
  64  -477.9164
  65  -91.05503
  66  133.2703
  67  -441.0906
  68  -586.6113
  69  -205.9231
  70  387.6281
  71  224.7314
  72  84.25375
  73  634.9531
  74  431.8054
  75  248.013
  76  35.94897
  77  93.77982
  78  139.859
  79  227.6595
  80  519.8058
  81  -111.9147
  82  -130.5056
  83  -713.916
  84  -268.3904
  85  -113.1424
  86  -368.3931
  87  -316.8772
  88  -449.2267
  89  -383.6327
  90  -665.876
  91  -308.729
  92  -393.442
  93  -807.7638
  94  -900.4677
  95  -495.5466
  96  -546.1025
  97  -540.7512
  98  -459.9124
  99  -739.7067
 100  -394.7836
 101  -445.1579
 102  -369.1175
 103  -462.4997
 104  -635.1772
 105  -25.10882
 106  99.2979
 107  99.65561
 108  -124.4868
 109  40.31303
 110  -25.78605
 111  -355.8307
 112  -727.2743
 113  -325.3507
 114  249.6462
 115  231.1217
 116  -254.6615
 117  -585.0161
 118  -510.4599
 119  -367.9399
 120  -451.9532
 121  -537.0388
 122  -414.5863
 123  -537.7469
 124  -350.0223
 125  -537.9105
 126  -309.943
 127  -224.8548
 128  -182.3061
 129  -203.0666
 130  -58.54339
 131  102.7509
 132  54.585
 133  -128.324
 134  115.4579
 135  -46.16219
 136  81.22251
 137  -15.55286
 138  -146.7557
 139  -106.7
 140  -45.34093
 141  94.88934
 142  166.1413
 143  -166.9135
 144  163.229
 145  461.3525
 146  195.0185
 147  640.6066
 148  621.8992
 149  234.0224
 150  70.53614
 151  -11.04056
 152  129.2132
 153  -103.6343
 154  62.27573
 155  151.8216
 156  191.468
 157  455.302
 158  428.9598
 159  365.9633
 160  162.9341
 161  227.0419
 162  491.8971
 163  547.8575
 164  53.7776
 165  -131.2583
 166  -321.9249
 167  188.296
 168  115.5368
 169  96.19404
 170  -1.917265
 171  -44.04714
 172  51.88795
 173  130.11
 174  -156.0147
 175  -209.0625
 176  -210.0986
 177  145.394
 178  87.24579
 179  308.1491
 180  458.5312
 181  803.4619
 182  626.0844
 183  -53.14068
 184  196.5505
 185  -83.3027
 186  -378.2603
 187  -414.9694
 188  190.1689
 189  173.8306
 190  36.08435
 191  -225.3976
 192  -24.51145
 193  -229.2741
 194  -393.3547
 195  -686.9279
 196  -990.6241
 197  -421.7812
 198  -374.1837
 199  -211.8097
 200  64.03529
 201  31.04902
 202  -70.89715
 203  -719.692
 204  -680.8079
 205  -472.4232
 206  -330.7822
 207  -212.3071
 208  -77.67311
 209  42.08903
 210  -212.2603
 211  -228.248
 212  -215.3378
 213  -101.71
 214  97.33894
 215  -153.9404
 216  -129.0698
 217  -323.4175
 218  -414.7189
 219  -253.0151
 220  186.1234
 221  -17.95599
 222  -181.7174
 223  -31.48081
 224  456.356
 225  183.3222
 226  -48.64784
 227  -457.5703
 228  -173.8033
 229  -22.78803
 230  -120.1448
 231  -216.7393
 232  -341.3567
 233  -397.9588
 234  4.0852
 235  -57.03531
 236  -312.6412
 237  -393.7814
 238  -89.79707
 239  17.8448
 240  -77.89571
 241  270.2567
 242  62.52338
 243  -120.7179
 244  -296.6943
 245  236.5183
 246  217.3578
 247  -289.8035
 248  168.9436
 249  660.047
 250  415.0211
 251  148.8058
 252  11.92395
 253  195.0162
 254  39.55854
 255  144.7928
 256  169.0188
 257  -175.2892
 258  -36.81713
 259  -15.26858
 260  -111.4791
 261  -154.347
 262  122.5792
 263  -398.7155
 264  -603.9683
 265  -523.9802
 266  -256.3
 267  164.6289
 268  104.9674
 269  -494.9058
 270  -262.3425
 271  -442.9481
 272  -204.9394
 273  226.4426
 274  542.4191
 275  454.2896
 276  -104.7722
 277  -48.77394
 278  0.4364547
 279  92.5629
 280  523.0892
 281  411.2538
 282  148.2883
 283  -456.5104
 284  -359.2327
 285  225.8676
 286  74.69258
 287  634.1165
 288  513.2125
 289  -219.9469
 290  -635.7335
 291  -193.1498
 292  334.064
 293  292.5484
 294  401.1923
 295  758.1103
 296  493.3253
 297  -219.5815
 298  -335.8386
 299  -108.9591
 300  -251.4547
 301  -147.9332
 302  -116.5264
 303  -86.46131
 304  -95.24866
 305  -139.5397
 306  -91.10712
 307  -94.13194
 308  84.97278
 309  439.6223
 310  520.5394
 311  514.5271
 312  710.6572
 313  530.7711
 314  391.5878
 315  95.06102
 316  0.1932454
 317  503.4751
 318  298.179
 319  431.6499
 320  390.7206
 321  410.64
 322  71.52715
 323  -133.0838
 324  -171.1335
 325  -265.7562
 326  -56.89888
 327  -151.1146
 328  -67.74625
 329  110.4936
 330  -545.5925
 331  -953.5223
 332  -523.6216
 333  -559.4932
 334  -309.5762
 335  186.6969
 336  75.73399
 337  -345.788
 338  -163.482
 339  -129.3933
 340  -545.048
 341  -430.2636
 342  -262.9724
 343  -201.8443
 344  -53.34503
 345  235.9914
 346  383.5467
 347  495.2213
 348  404.7674
 349  273.5065
 350  -273.6756
 351  -145.1808
 352  253.1434
 353  526.1965
 354  253.3046
 355  90.84743
 356  44.67028
 357  -105.9388
 358  -310.2983
 359  94.21028
 360  610.3102
 361  490.0661
 362  300.0307
 363  63.73758
 364  42.35573
 365  -443.0249
 366  -141.8707
 367  156.1978
 368  190.7126
 369  15.30215
 370  -62.27451
 371  -147.7857
 372  -328.3616
 373  -64.68211
 374  -148.1903
 375  -115.0109
 376  330.7842
 377  502.7748
 378  671.9756
 379  558.5772
 380  486.5016
 381  641.6686
 382  544.1588
 383  338.0574
 384  256.5584
 385  272.0767
 386  430.8481
 387  -87.04495
 388  -58.99986
 389  -514.2318
 390  -697.935
 391  -564.163
 392  -331.7237
 393  -290.4676
 394  -178.6666
 395  245.9395
 396  -82.79288
 397  -431.9339
 398  -633.8497
 399  -766.6975
 400  -369.6951
 401  13.7276
 402  304.9066
 403  331.7961
 404  467.6834
 405  184.959
 406  213.0999
 407  241.1882
 408  331.9242
 409  -385.705
 410  221.1492
 411  423.6808
 412  179.7328
 413  209.5477
 414  44.48159
 415  -152.9803
 416  -131.0268
 417  -383.8869
 418  -61.3951
 419  -152.0666
 420  134.2884
 421  -58.1161
 422  -418.9251
 423  -363.9955
 424  -479.4704
 425  -479.2882
 426  -453.1554
 427  -44.70558
 428  171.1823
 429  205.3927
 430  -168.4473
 431  -170.4917
 432  -477.8899
 433  -546.6915
 434  -192.3895
 435  260.3806
 436  577.7994
 437  157.0881
 438  138.2989
 439  656.546
 440  348.7448
 441  192.6231
 442  319.1501
 443  345.5916
 444  290.8664
 445  500.2922
 446  260.4506
 447  -156.9289
 448  216.7139
 449  742.0646
 450  467.4243
 451  -45.00687
 452  122.4081
 453  433.1634
 454  208.8029
 455  358.9957
 456  280.1596
 457  467.3556
 458  341.1851
 459  -229.3171
 460  -118.8132
 461  153.1419
 462  111.8068
 463  35.02454
 464  442.725
 465  486.0323
 466  -120.2375
 467  452.7657
 468  436.8754
 469  589.7916
 470  825.813
 471  797.4498
 472  908.0838
 473  871.4838
 474  1246.085
 475  1470.252
 476  1814.885
 477  2201.568
 478  1905.037
 479  1084.119
 480  479.1739
 481  177.317
 482  8.558494
 483  40.20833
 484  30.31805
 485  179.4076
 486  -187.7843
 487  -5.837153
 488  115.3959
 489  31.7923
 490  146.5644
 491  -250.7047
 492  162.8588
 493  259.3093
 494  393.5078
 495  -21.99162
 496  -14.59197
 497  206.9191
 498  -264.2364
 499  -193.5866
 500  -203.6395
 501  -510.9463
 502  -429.9567
 503  -355.4689
 504  -451.9162
 505  -568.6462
 506  -273.7571
 507  -145.066
 508  -324.341
 509  -248.1443
 510  114.2777
 511  61.53667
