# Input file       =  1195056768.116008_cleaned.dat
# Candidate        =  PSR_0332+5434
# Telescope        =  AR
# Epoch_topo       =  58075.675776805649
# Epoch_bary       =  N/A
# T_sample         =  0.002
# Data Folded      =  7208960
# Data Avg         =  9.87665942669741 
# Data StdDev      =  72.7692850402687 
# Profile Bins     =  512
# Profile Avg      =  139056.302284615 
# Profile StdDev   =  8634.74338596278 
# Reduced chi-sqr  =  0.413
# Prob(Noise)      <  1   (~0.0 sigma)
# P_topo (ms)      =  714.512921803357  +/- 0.000116
# P'_topo (s/s)    =  -0                +/- 6.25e-11
# P''_topo (s/s^2) =  0                 +/- 2.81e-14
# P_bary (ms)      =  N/A
# P'_bary (s/s)    =  N/A
# P''_bary (s/s^2) =  N/A
# P_orb (s)        =  N/A
# asin(i)/c (s)    =  N/A
# eccentricity     =  N/A
# w (rad)          =  N/A
# T_peri           =  N/A
######################################################
   0  137520
   1  141100.4
   2  137817.8
   3  135898.2
   4  137320.2
   5  130224.5
   6  133186.3
   7  139150.5
   8  143772.3
   9  141148.7
  10  134393.1
  11  141217.7
  12  144636.1
  13  145060.4
  14  142859.5
  15  139072
  16  135981
  17  135911.6
  18  134582.2
  19  137901.9
  20  132782
  21  135231.4
  22  143959.5
  23  146013
  24  135312.2
  25  134590.9
  26  139320.1
  27  139837.1
  28  141656.9
  29  143514.9
  30  145746.7
  31  137960.9
  32  130900.2
  33  137972.8
  34  135713.4
  35  134322.4
  36  140115.9
  37  145302
  38  141802.7
  39  138749.2
  40  136865.4
  41  138971
  42  136621
  43  137571.2
  44  137465.9
  45  134211.2
  46  133706.3
  47  141626.7
  48  137170.9
  49  131196.6
  50  131156.6
  51  140020.2
  52  140899.5
  53  136381.7
  54  139627.6
  55  144540.6
  56  138582.3
  57  137253.8
  58  140041
  59  137559.4
  60  135287.3
  61  137306.5
  62  134096.8
  63  137062.3
  64  137502.5
  65  143815.3
  66  141544.6
  67  136382.2
  68  132837.3
  69  134920.3
  70  135681.1
  71  136219
  72  136046.8
  73  140172.6
  74  139685.3
  75  135706.1
  76  140200.8
  77  138666.5
  78  136669.2
  79  139106.3
  80  138330.9
  81  139553.7
  82  139664.7
  83  142083.8
  84  143563.4
  85  140354.1
  86  139496.8
  87  141236
  88  139256
  89  140278.2
  90  138805
  91  135964.1
  92  136651.8
  93  135663.2
  94  140925
  95  141073.8
  96  137419.7
  97  142299.9
  98  140063.5
  99  141290.9
 100  142612.8
 101  139936.9
 102  141010.5
 103  136660.4
 104  135996.5
 105  136049.5
 106  130951.6
 107  134338.7
 108  138843.6
 109  140145.9
 110  138027.1
 111  141277
 112  137960
 113  136649.7
 114  134742.8
 115  130356.4
 116  131816.3
 117  136405
 118  135058.9
 119  136452.5
 120  135933.3
 121  129517.7
 122  130578.7
 123  137897.1
 124  145293
 125  140192.6
 126  135611.1
 127  138278.9
 128  129088.4
 129  134605.9
 130  141531.5
 131  145878.2
 132  142032.3
 133  143977.2
 134  134702
 135  131344.6
 136  131147.4
 137  136484.1
 138  139736.6
 139  141983.4
 140  143139.9
 141  138093.6
 142  135337.4
 143  134430.3
 144  133423.9
 145  140058.1
 146  136921.4
 147  142983
 148  139306.6
 149  139212.5
 150  136027.6
 151  137933.1
 152  143887.4
 153  132893
 154  134058.6
 155  143334.6
 156  145095.2
 157  140021
 158  137168.1
 159  139957.1
 160  140186.5
 161  138196.4
 162  138152.7
 163  136962.2
 164  137597.6
 165  136975.9
 166  140043.8
 167  142264.4
 168  137022.5
 169  141052.2
 170  141474
 171  142561.4
 172  142320.1
 173  144952.2
 174  142642.2
 175  139283.2
 176  144142.6
 177  141117
 178  138206.8
 179  137486.5
 180  141469.1
 181  139301.7
 182  137336.9
 183  134241.5
 184  137617.6
 185  139339.5
 186  137772.5
 187  138074.8
 188  141292.4
 189  136332.7
 190  144682.5
 191  144866.9
 192  145240
 193  134908.8
 194  132623.1
 195  130843.7
 196  134905.6
 197  138019.5
 198  136299.4
 199  136105.9
 200  142191.6
 201  143631.4
 202  145969.1
 203  141113.5
 204  135951.8
 205  141296.5
 206  138470.4
 207  136433.1
 208  139553.5
 209  138947.3
 210  137697.1
 211  133705.5
 212  143918.9
 213  142707.4
 214  142816.3
 215  142469.5
 216  143966.7
 217  145243.8
 218  139140.4
 219  143630.1
 220  139737.9
 221  129481.1
 222  134226.2
 223  144719.8
 224  140446.7
 225  140901.6
 226  144550.8
 227  141969.2
 228  141478.9
 229  138174.8
 230  138627.6
 231  138753.9
 232  137062.3
 233  134935.7
 234  135744.4
 235  134828.8
 236  142039.4
 237  147217.2
 238  140243.8
 239  139030
 240  139901.1
 241  140195.2
 242  133520.8
 243  133142.7
 244  138739.3
 245  139673.3
 246  139052.5
 247  138274.2
 248  145924.4
 249  146941.2
 250  140613.3
 251  144303.6
 252  143613.2
 253  136121.7
 254  135193.3
 255  137150.4
 256  128577.4
 257  132587.5
 258  143755.7
 259  146343.3
 260  140908.5
 261  137983.4
 262  148142.1
 263  147413.6
 264  144942
 265  140211.8
 266  143830.7
 267  144833.7
 268  140946.3
 269  142935.3
 270  140568.1
 271  136985.1
 272  136730.5
 273  139091.8
 274  148770.2
 275  142190.3
 276  139693.1
 277  137203.4
 278  131510.8
 279  139190.2
 280  144263.6
 281  142514.8
 282  146959.9
 283  144060.5
 284  140953.3
 285  136338.7
 286  140288.5
 287  145144.2
 288  142030.5
 289  144009.7
 290  140891.8
 291  138093.8
 292  135317.2
 293  136289.7
 294  141726.6
 295  145277.1
 296  147169
 297  140343.4
 298  136891.7
 299  138290.1
 300  139762.1
 301  142354.3
 302  141662.1
 303  139178.9
 304  138002.5
 305  139737
 306  137619.7
 307  138004.4
 308  137023.1
 309  137329.1
 310  137139
 311  137071
 312  141679.1
 313  138241.8
 314  136586.6
 315  140052.8
 316  135198.8
 317  139213.5
 318  141561.2
 319  142971.6
 320  136034.1
 321  134861.5
 322  140699.7
 323  142583
 324  135516.3
 325  137081.7
 326  138910.8
 327  138424.2
 328  131716.7
 329  134989.3
 330  139461.3
 331  138058.7
 332  137252
 333  132028.3
 334  132945.7
 335  133901.8
 336  141133.4
 337  139738
 338  138955.4
 339  141991.9
 340  143019.7
 341  143830
 342  138402.6
 343  138717.5
 344  137119.7
 345  136079.9
 346  132346
 347  133092.4
 348  137477.6
 349  141420.9
 350  135365.3
 351  137731.6
 352  139460.3
 353  140318
 354  140581
 355  139742.6
 356  136113.8
 357  139637.3
 358  143037.5
 359  138927.7
 360  136719.2
 361  139385.4
 362  141840.7
 363  136668.6
 364  139790.5
 365  147872.5
 366  147183.5
 367  145009.3
 368  143165.1
 369  144459.3
 370  144725.8
 371  138027.2
 372  133082.7
 373  130444.9
 374  130730.6
 375  134459.2
 376  140444.5
 377  136123.2
 378  138744.2
 379  135980.3
 380  135574
 381  136909
 382  144419.3
 383  146120.3
 384  147004
 385  140540.3
 386  141980
 387  141454.4
 388  137764
 389  141847.3
 390  140211.2
 391  145385.6
 392  144296.2
 393  134678.6
 394  139254.3
 395  145244.5
 396  148028.4
 397  145849
 398  141790.5
 399  146589.9
 400  142640.1
 401  141340.3
 402  135457.3
 403  141079
 404  141239.7
 405  147097
 406  146267.9
 407  149856.4
 408  148551.9
 409  146797.4
 410  139475.4
 411  141191.5
 412  141926.5
 413  143273.8
 414  141492
 415  138268.1
 416  145500.2
 417  139929.2
 418  138466.8
 419  135003.8
 420  138035
 421  146008
 422  140599.2
 423  139659.2
 424  138272.2
 425  143093.1
 426  136580.9
 427  137649.5
 428  138480.3
 429  139098.7
 430  144337.7
 431  139535.7
 432  132184.3
 433  126549.7
 434  132647
 435  138897.4
 436  138340.8
 437  136462.6
 438  138869.4
 439  134589.3
 440  131133.8
 441  138803.8
 442  144975.4
 443  140618.3
 444  141326.2
 445  138368.8
 446  136624
 447  132683.5
 448  135652.5
 449  135112.8
 450  136465.1
 451  139323.2
 452  141651.8
 453  143778.5
 454  134104.9
 455  138288
 456  135400.5
 457  130205.5
 458  136599.7
 459  139635.5
 460  135042.7
 461  131589.2
 462  135393.5
 463  138447
 464  137291.5
 465  138025.4
 466  146652.6
 467  139909.2
 468  136764.8
 469  135133.1
 470  134588.5
 471  134523.3
 472  137976.9
 473  141204
 474  143301.2
 475  144773.9
 476  140399.4
 477  138724.4
 478  145300.7
 479  140515.6
 480  141365.8
 481  140458.4
 482  138576.7
 483  136252
 484  137796.2
 485  137724.2
 486  134307
 487  134237.6
 488  133046
 489  133118.9
 490  137988.8
 491  143775.5
 492  142221.1
 493  138136.3
 494  135846.1
 495  134779.5
 496  142035
 497  145558.5
 498  148511.3
 499  146158.5
 500  139742.8
 501  132508.9
 502  140436.2
 503  143548.2
 504  140021.2
 505  132375.2
 506  134181.5
 507  137681.6
 508  136806.3
 509  140381.8
 510  139737.2
 511  137772.3
