# Input file       =  1195832188.113894_cleaned.dat
# Candidate        =  PSR_0332+5434
# Telescope        =  AR
# Epoch_topo       =  58084.650545299701
# Epoch_bary       =  N/A
# T_sample         =  0.002
# Data Folded      =  7208960
# Data Avg         =  0.269733371867119
# Data StdDev      =  10.8381336525375 
# Profile Bins     =  512
# Profile Avg      =  3797.7625679106  
# Profile StdDev   =  1286.04400635023 
# Reduced chi-sqr  =  0.337
# Prob(Noise)      <  1   (~0.0 sigma)
# P_topo (ms)      =  714.522201499049  +/- 0.0177
# P'_topo (s/s)    =  -0                +/- 1.92e-08
# P''_topo (s/s^2) =  0                 +/- 8.55e-12
# P_bary (ms)      =  N/A
# P'_bary (s/s)    =  N/A
# P''_bary (s/s^2) =  N/A
# P_orb (s)        =  N/A
# asin(i)/c (s)    =  N/A
# eccentricity     =  N/A
# w (rad)          =  N/A
# T_peri           =  N/A
######################################################
   0  4006.143
   1  4533.936
   2  4212.232
   3  3467.49
   4  3338.203
   5  3469.78
   6  3805.392
   7  3386.863
   8  4094.595
   9  3846.985
  10  3517.806
  11  3992.108
  12  3751.044
  13  3509.302
  14  3539.092
  15  4468.696
  16  3740.309
  17  3194.159
  18  2934.487
  19  3237.927
  20  3162.518
  21  3634
  22  3815.855
  23  3691.447
  24  3629.812
  25  3134.914
  26  2959.597
  27  3231.711
  28  2989.89
  29  3173.277
  30  3427.903
  31  3735.097
  32  4209.778
  33  3425.729
  34  3946.134
  35  3976.599
  36  3382.722
  37  3537.098
  38  3756.805
  39  4537.968
  40  4496.448
  41  4197.067
  42  4120.226
  43  4227.331
  44  3887.121
  45  3631.679
  46  2704.134
  47  3763.046
  48  3960.22
  49  4601.125
  50  3905.816
  51  3874.811
  52  3993.834
  53  4447.374
  54  4915.19
  55  4699.427
  56  4563.639
  57  3637.248
  58  3923.533
  59  4372.312
  60  4090.821
  61  3749.763
  62  3643.58
  63  4344.67
  64  3811.097
  65  3715.696
  66  3622.041
  67  3231.191
  68  3545.017
  69  3462.447
  70  3333.848
  71  3632.968
  72  3117.209
  73  3467.618
  74  3120.501
  75  3482.547
  76  3580.335
  77  3630.257
  78  3490.488
  79  2788.578
  80  2597.299
  81  2581.231
  82  2987.966
  83  3974.712
  84  4307.027
  85  4014.708
  86  3862.71
  87  4309.845
  88  4617.706
  89  4086.491
  90  4837.398
  91  4639.358
  92  5284.645
  93  3726.664
  94  3710.991
  95  2686.647
  96  2311.696
  97  2780.717
  98  2687.082
  99  3559.223
 100  2638.778
 101  3382.522
 102  3436.588
 103  3280.211
 104  3807.091
 105  3866.369
 106  4057.434
 107  3781.318
 108  3365.018
 109  3233.891
 110  3446.04
 111  3943.382
 112  4140.646
 113  3971.136
 114  4066.985
 115  4020.083
 116  4458.992
 117  4637.026
 118  5152.928
 119  5279.16
 120  5816.811
 121  5518.196
 122  4348.43
 123  3887.412
 124  3779.927
 125  3134.171
 126  4066.758
 127  4350.762
 128  4182.666
 129  4258.692
 130  4499.019
 131  4931.886
 132  4488.218
 133  4035.388
 134  3950.535
 135  4192.245
 136  3603.158
 137  3305.723
 138  3655.424
 139  4019.943
 140  4091.844
 141  3311.746
 142  3246.609
 143  3477.698
 144  3842.315
 145  4607.387
 146  4967.61
 147  4816.868
 148  4537.127
 149  4270.316
 150  3622.504
 151  3337.558
 152  3384.879
 153  3840.099
 154  4429.131
 155  4674.897
 156  4143.542
 157  4324.713
 158  4318.237
 159  4445.749
 160  3714.242
 161  3329.148
 162  2942.633
 163  3222.237
 164  3627.247
 165  3548.24
 166  3722.247
 167  3555.117
 168  3366.177
 169  3321.02
 170  3172.927
 171  3288.948
 172  3681.046
 173  3783.678
 174  3676.252
 175  2800.738
 176  2885.333
 177  3400.718
 178  3984.749
 179  3875.905
 180  3566.702
 181  3195.163
 182  3157.619
 183  3156.466
 184  3317.011
 185  3507.329
 186  2815.117
 187  3398.401
 188  3599.203
 189  2688.861
 190  3056.844
 191  3684.886
 192  3384.533
 193  2666.359
 194  2445.353
 195  3513.584
 196  3549.651
 197  3967.346
 198  3613.938
 199  3202.784
 200  2870.786
 201  2927.711
 202  3991.454
 203  4608.584
 204  4366.138
 205  4346.265
 206  4247.49
 207  3947.652
 208  3203.909
 209  3050.512
 210  3212.338
 211  3622.006
 212  3671.912
 213  3986.466
 214  4362.278
 215  4517.715
 216  4197.846
 217  4226.469
 218  3752.955
 219  3855.966
 220  3621.415
 221  4247.882
 222  4236.453
 223  3193.346
 224  3417.347
 225  3272.047
 226  4193.878
 227  4476.06
 228  3905.977
 229  3401.074
 230  4218.548
 231  5119.538
 232  4160.807
 233  4366.793
 234  4637.741
 235  4424.245
 236  4404.938
 237  3627.388
 238  3503.895
 239  3249.815
 240  4095.623
 241  3792.989
 242  3370.419
 243  3675.541
 244  3722.625
 245  3866.306
 246  3475.033
 247  3736.454
 248  3525.223
 249  4028.757
 250  3907.008
 251  3514.76
 252  3330.136
 253  3205.67
 254  3043.532
 255  2724.186
 256  3778.175
 257  3630.455
 258  3557.346
 259  3245.703
 260  3315.506
 261  2899.05
 262  3510.144
 263  3526.502
 264  4271.773
 265  3647.073
 266  3999.071
 267  3889.789
 268  3845.673
 269  4117.032
 270  3562.273
 271  3991.939
 272  3863.308
 273  4569.459
 274  4393.864
 275  4213.567
 276  4416.476
 277  4386.472
 278  4782.621
 279  4390.146
 280  4423.751
 281  4191.678
 282  3938.962
 283  4315.514
 284  4510.004
 285  5039.372
 286  4496.318
 287  3813.986
 288  4519.625
 289  3688.909
 290  3493.074
 291  3833.833
 292  3929.266
 293  3701.725
 294  2895.88
 295  3072.106
 296  3217.792
 297  3391.948
 298  3819.066
 299  3533.867
 300  3207.669
 301  4124.352
 302  4328.639
 303  4723.505
 304  4371.435
 305  4386.568
 306  3843.38
 307  3872.954
 308  3223.076
 309  3459.405
 310  4175.778
 311  3500.892
 312  3953.015
 313  3637.051
 314  4272.183
 315  4092.825
 316  3991.012
 317  4495.566
 318  3947.375
 319  3144.99
 320  3649.119
 321  4392.489
 322  4338.556
 323  3959.55
 324  3900.612
 325  3359.996
 326  3359.526
 327  3675.028
 328  3498.52
 329  3754.063
 330  3582.927
 331  3784.546
 332  3639.418
 333  4567.001
 334  4308.844
 335  4261.055
 336  4010.07
 337  3525.826
 338  3743.948
 339  3805.485
 340  4286.553
 341  3563.037
 342  3317.238
 343  4369.892
 344  5106.507
 345  4747.132
 346  4528.602
 347  3942.447
 348  4063.623
 349  3380.067
 350  3676.774
 351  4330.997
 352  4308.291
 353  4378.958
 354  3206.93
 355  3474.477
 356  3829.5
 357  4307.663
 358  3835.05
 359  4183.428
 360  4294.931
 361  4136.495
 362  3931.621
 363  3640.052
 364  4096.86
 365  3804.406
 366  3726.663
 367  4492.369
 368  4878.206
 369  3649.556
 370  3048.902
 371  3059.51
 372  3528.675
 373  3918.81
 374  4855.454
 375  4677.077
 376  3692.877
 377  3201.453
 378  2780.436
 379  2997.598
 380  3039.017
 381  3612.396
 382  3738.501
 383  3677.207
 384  3192.406
 385  2918.54
 386  2431.658
 387  3286.738
 388  3686.085
 389  3971.136
 390  3458.14
 391  3335.249
 392  2981.664
 393  3707.761
 394  3048.286
 395  2968.428
 396  3703.793
 397  3996.19
 398  3944.27
 399  3726.822
 400  3454.116
 401  3335.792
 402  3684.152
 403  4155.008
 404  3678.32
 405  3672.211
 406  3875.232
 407  3235.561
 408  3244.423
 409  3865.375
 410  3870.432
 411  3895.826
 412  3783.62
 413  4115.537
 414  4453.191
 415  4388.666
 416  3631.419
 417  3525.024
 418  3165.159
 419  3060.875
 420  2912.758
 421  3834.583
 422  3503.306
 423  3096.547
 424  3005.835
 425  3045.771
 426  2761.828
 427  3682.623
 428  3557.445
 429  3954.031
 430  4195.093
 431  4189.861
 432  4370.962
 433  3996.683
 434  4643.297
 435  4323.759
 436  4616.673
 437  4218.288
 438  3391.046
 439  2983.519
 440  3276.981
 441  4048.067
 442  4182.58
 443  3804.58
 444  3635.274
 445  4123.191
 446  4450.379
 447  3800.227
 448  3977.287
 449  4160.362
 450  4238.974
 451  4983.46
 452  3868.433
 453  3362.842
 454  3354.14
 455  3421.427
 456  4171.474
 457  3930.181
 458  4476.18
 459  4391.886
 460  4297.465
 461  3710.17
 462  3386.518
 463  3726.091
 464  3526.587
 465  4128.978
 466  3853.311
 467  4043.156
 468  3512.42
 469  3180.603
 470  4105.202
 471  4367.905
 472  4216.502
 473  3778.301
 474  3104.841
 475  3530.555
 476  3050.245
 477  3478.212
 478  3520.334
 479  4136.208
 480  3832.779
 481  3464.239
 482  4028.031
 483  4958.116
 484  5101.148
 485  4711.028
 486  4806.553
 487  4396.75
 488  4442.894
 489  4059.581
 490  3647.565
 491  3324.923
 492  3905.256
 493  3844.366
 494  3973.837
 495  4002.015
 496  4015.275
 497  3730.049
 498  3464.316
 499  4235.487
 500  4247.771
 501  4198.642
 502  3774.637
 503  3576.322
 504  3365.146
 505  2845.828
 506  3268.309
 507  3099.141
 508  3444.204
 509  3465.488
 510  3582.083
 511  4306.312
