# Input file       =  1195416006.108325_cleaned.dat
# Candidate        =  PSR_0332+5434
# Telescope        =  AR
# Epoch_topo       =  58079.833623938946
# Epoch_bary       =  N/A
# T_sample         =  0.002
# Data Folded      =  7340032
# Data Avg         =  1.45828597964802 
# Data StdDev      =  13.9503499496083 
# Profile Bins     =  512
# Profile Avg      =  20905.9032726255 
# Profile StdDev   =  1670.31775798507 
# Reduced chi-sqr  =  0.469
# Prob(Noise)      <  1   (~0.0 sigma)
# P_topo (ms)      =  714.517232279611  +/- 7.79e-05
# P'_topo (s/s)    =  -0                +/- 4.11e-11
# P''_topo (s/s^2) =  0                 +/- 1.81e-14
# P_bary (ms)      =  N/A
# P'_bary (s/s)    =  N/A
# P''_bary (s/s^2) =  N/A
# P_orb (s)        =  N/A
# asin(i)/c (s)    =  N/A
# eccentricity     =  N/A
# w (rad)          =  N/A
# T_peri           =  N/A
######################################################
   0  20680.37
   1  21128.26
   2  21471.18
   3  20343.9
   4  20296.81
   5  20178.91
   6  20812.37
   7  20925.73
   8  21540.73
   9  21789.24
  10  20429.43
  11  20486.31
  12  21255.76
  13  20197.59
  14  20548.72
  15  20330.4
  16  21329
  17  21887.93
  18  21662.85
  19  21798.48
  20  21234.73
  21  20697.71
  22  20883.29
  23  21066.54
  24  21014.52
  25  21475.86
  26  20865.85
  27  20619.96
  28  20936.45
  29  20478.8
  30  20522.46
  31  19954.01
  32  20111
  33  19956.66
  34  20075.74
  35  21073.83
  36  21016.57
  37  20974.72
  38  20738.52
  39  20100.38
  40  21022.39
  41  20247.86
  42  18981.76
  43  20444.94
  44  20872.53
  45  20456.74
  46  20091.56
  47  19405
  48  20990.57
  49  20991.47
  50  21570.14
  51  22830.39
  52  23392.96
  53  22392.25
  54  21405.85
  55  21407.97
  56  20651.47
  57  21122.93
  58  20590.11
  59  20886.56
  60  20897.23
  61  20139.4
  62  19911.43
  63  21841.59
  64  21039.53
  65  20876.96
  66  20618.95
  67  20979.97
  68  21169.98
  69  21844.64
  70  23102.61
  71  22576.28
  72  20712.15
  73  20734.78
  74  20415.08
  75  20516.43
  76  19705.78
  77  19976.29
  78  20017.71
  79  20698.29
  80  21230.7
  81  21091.29
  82  19964.82
  83  20792.29
  84  21179.76
  85  20501.02
  86  19603.7
  87  20084.01
  88  21439.72
  89  20497.75
  90  20643.16
  91  20316.12
  92  19947.5
  93  20980.89
  94  21606.57
  95  21234.74
  96  20515.33
  97  20589.33
  98  21143.04
  99  20708.43
 100  20405.82
 101  20349.17
 102  20791.12
 103  20982.62
 104  20832.29
 105  20124.53
 106  21083.09
 107  21371.36
 108  21954.41
 109  21633.24
 110  21140.44
 111  21503.64
 112  21551.92
 113  21529.92
 114  21751.44
 115  21189.87
 116  20746.9
 117  20027.51
 118  20773.88
 119  21161.3
 120  21009.96
 121  21242.05
 122  22662.54
 123  21877.33
 124  21098.74
 125  20458.89
 126  21503.72
 127  21419.53
 128  20730.41
 129  21264.32
 130  21297.52
 131  20806.08
 132  21203.86
 133  20952.96
 134  21030.21
 135  21370.87
 136  21490.38
 137  22036.42
 138  21596.5
 139  20727.62
 140  20514.68
 141  21759.76
 142  22688.5
 143  21653.68
 144  21430.83
 145  22256.9
 146  21639.64
 147  22378.05
 148  21168.59
 149  20310.72
 150  20607.14
 151  21469.88
 152  21139.55
 153  20199.16
 154  20127.56
 155  21398.88
 156  20960.97
 157  20790.68
 158  20902.21
 159  20147.4
 160  18951.28
 161  19612.37
 162  19459.51
 163  19993.57
 164  20520.52
 165  21250.54
 166  21041.39
 167  20197.48
 168  20170.2
 169  20356.7
 170  21501.48
 171  20872.04
 172  19533.27
 173  18501.14
 174  18626.29
 175  19624.25
 176  18266.63
 177  19544.99
 178  20302.43
 179  21316.85
 180  22131.75
 181  20436.12
 182  18879.97
 183  18980.36
 184  20631.93
 185  19736.46
 186  19556.78
 187  19128.95
 188  20486
 189  20779.82
 190  20476.77
 191  19737.79
 192  20842.73
 193  21253.21
 194  20834.81
 195  20771.31
 196  20433.45
 197  20005.32
 198  20202.62
 199  20461.98
 200  20233.55
 201  19998.21
 202  21317.9
 203  20895.79
 204  20360.4
 205  20494.5
 206  20258.36
 207  19164.74
 208  20437.95
 209  21894.85
 210  21839.28
 211  20714.24
 212  20356.99
 213  21560.92
 214  22214.64
 215  21766.26
 216  22098.54
 217  21836.19
 218  21653.59
 219  20543.87
 220  21036.43
 221  21421.6
 222  21593.58
 223  21502.69
 224  22822.93
 225  21442.08
 226  21218.19
 227  21486.69
 228  21411.68
 229  20248.37
 230  18896.47
 231  20247.8
 232  21145.13
 233  21201.76
 234  20964.35
 235  21019.21
 236  21531.7
 237  21110.69
 238  20726.07
 239  19959.12
 240  20375.99
 241  21509.81
 242  20090.45
 243  19306.22
 244  19379.4
 245  20121.88
 246  21655.65
 247  22135.45
 248  20792.26
 249  20882.41
 250  20440.72
 251  21079.64
 252  21309.61
 253  20559.75
 254  20501.34
 255  19391.05
 256  20271.06
 257  19907.61
 258  21304.71
 259  21376.74
 260  21256.92
 261  21409.84
 262  20651.86
 263  21044.33
 264  20846.12
 265  22035.14
 266  21813.69
 267  20745.85
 268  20284.6
 269  19409.41
 270  20073.04
 271  20364.46
 272  19728.65
 273  19926.64
 274  21468.59
 275  22514.26
 276  22877.48
 277  21418.38
 278  22465.08
 279  21591.26
 280  22695.35
 281  22681.73
 282  21602.73
 283  21349.21
 284  21657.25
 285  21630.57
 286  20686.07
 287  20506.57
 288  21073.97
 289  21175.6
 290  21715.37
 291  20606.68
 292  20412.5
 293  21447.17
 294  21456.56
 295  21542.9
 296  20910.31
 297  20325.65
 298  20388.68
 299  20363.71
 300  20028.9
 301  19705.77
 302  20181.21
 303  20843.73
 304  20698.07
 305  20419.88
 306  20711.6
 307  19763.43
 308  20375.74
 309  22975.19
 310  21615.05
 311  19980.55
 312  20755.88
 313  21379.48
 314  20804.53
 315  20775.1
 316  20755.7
 317  20342.3
 318  20156.83
 319  20652.47
 320  19464.84
 321  19493.11
 322  20658.87
 323  21087.34
 324  20606.56
 325  19658.09
 326  19938.16
 327  20898.63
 328  20799.89
 329  20600.77
 330  20236.89
 331  21019.47
 332  20853.71
 333  21634.19
 334  21928.38
 335  22325.77
 336  22325.97
 337  22116.96
 338  21396.65
 339  20835.85
 340  20283.54
 341  20621.61
 342  21430.51
 343  20959.03
 344  20316.94
 345  20600.79
 346  20848.53
 347  21241.37
 348  20842.6
 349  20437.19
 350  19957.87
 351  21028.85
 352  21491.77
 353  21510.88
 354  21020.29
 355  20669.44
 356  21310.78
 357  21063.4
 358  20208.35
 359  19757.61
 360  21320.51
 361  21008.26
 362  21350.8
 363  19229.98
 364  18418.16
 365  19409.45
 366  20668.32
 367  20185.77
 368  20663.44
 369  20702.38
 370  21455.38
 371  20588.11
 372  20662.64
 373  21235.17
 374  21344.48
 375  21963.34
 376  22377.43
 377  21147.96
 378  21398.43
 379  20751.06
 380  20342.13
 381  21662.09
 382  21613.32
 383  20548.68
 384  21197.17
 385  21691.5
 386  21361.19
 387  20664.56
 388  19953.52
 389  19541.41
 390  20141.33
 391  19461
 392  20671.2
 393  20540.45
 394  21075.07
 395  20977.27
 396  20848.78
 397  20872.76
 398  21763.03
 399  22051.55
 400  20330.61
 401  20937.7
 402  21158.11
 403  21645.59
 404  20974.42
 405  20426.49
 406  19902.17
 407  20427.07
 408  21382.82
 409  22748.45
 410  21261.71
 411  20276.43
 412  20100.06
 413  21537.54
 414  20545.3
 415  21083.22
 416  21188.48
 417  20826.67
 418  20810.78
 419  20439.35
 420  20195.63
 421  20519.29
 422  20556.36
 423  21586.31
 424  21525.22
 425  21161.43
 426  21179.81
 427  21111.83
 428  20354.44
 429  20420.65
 430  20558.67
 431  21276.7
 432  20597.73
 433  20896.09
 434  21529.89
 435  21494.57
 436  21360.24
 437  21670.01
 438  22623.83
 439  21407.83
 440  19966.46
 441  20116.5
 442  19993.67
 443  20446.53
 444  20356.75
 445  19422.59
 446  20407.88
 447  20092.78
 448  20618.21
 449  21147.69
 450  21451.28
 451  20502.36
 452  21084.48
 453  21060.62
 454  20108.76
 455  20008.47
 456  22052.45
 457  21904.43
 458  20515.02
 459  20387.36
 460  21384.3
 461  21866.51
 462  22388.09
 463  22733.37
 464  22349.18
 465  21391.46
 466  20535.27
 467  21100.03
 468  21133.31
 469  19051.38
 470  19613.44
 471  19821.43
 472  20400.82
 473  19357.71
 474  19906.59
 475  20172.51
 476  20430.11
 477  20391.62
 478  21590.54
 479  21400.08
 480  21847.82
 481  22132.25
 482  21601.2
 483  20749.55
 484  19881.63
 485  20269.77
 486  20229.31
 487  20788.21
 488  20516.52
 489  21110.28
 490  21383.36
 491  21581.87
 492  21623.31
 493  21628.55
 494  21726.04
 495  22243.17
 496  22629.92
 497  22343.12
 498  21412.52
 499  20946.22
 500  21856.86
 501  22711.81
 502  22643.97
 503  22572.47
 504  22153.81
 505  21934.78
 506  22893.1
 507  22965.55
 508  22815.44
 509  22746.65
 510  22888.55
 511  21735.7
