# Input file       =  1195344761.110509_cleaned.dat
# Candidate        =  PSR_0332+5434
# Telescope        =  AR
# Epoch_topo       =  58079.009029056819
# Epoch_bary       =  N/A
# T_sample         =  0.002
# Data Folded      =  7340032
# Data Avg         =  0.786865091468958
# Data StdDev      =  10.4482298115783 
# Profile Bins     =  512
# Profile Avg      =  11280.7616260882 
# Profile StdDev   =  1250.99828010252 
# Reduced chi-sqr  =  0.611
# Prob(Noise)      <  1   (~0.0 sigma)
# P_topo (ms)      =  714.516718420968  +/- 0.000458
# P'_topo (s/s)    =  -0                +/- 2.42e-10
# P''_topo (s/s^2) =  0                 +/- 1.07e-13
# P_bary (ms)      =  N/A
# P'_bary (s/s)    =  N/A
# P''_bary (s/s^2) =  N/A
# P_orb (s)        =  N/A
# asin(i)/c (s)    =  N/A
# eccentricity     =  N/A
# w (rad)          =  N/A
# T_peri           =  N/A
######################################################
   0  10219.35
   1  11775.75
   2  12424.07
   3  12772.83
   4  12073.22
   5  12165.12
   6  12165.48
   7  12362.28
   8  11686.74
   9  11165.12
  10  11563.51
  11  10931.9
  12  11211.99
  13  11408.5
  14  11284.52
  15  12073.84
  16  11793.24
  17  11880.77
  18  11574.41
  19  11754
  20  11460.5
  21  12570.19
  22  11995.84
  23  11439.27
  24  11151.67
  25  11293.55
  26  11238.71
  27  11783.83
  28  12118.48
  29  11688.28
  30  11755.71
  31  11642.88
  32  11179.03
  33  10973.61
  34  11440.19
  35  12118.31
  36  12126.77
  37  12179.94
  38  12131.85
  39  12193.35
  40  11051.7
  41  11345.51
  42  11077.26
  43  10773.69
  44  11168.39
  45  11201.04
  46  11913.16
  47  10466.21
  48  10002.95
  49  11260.23
  50  10646.62
  51  10478.49
  52  10809.58
  53  11179.09
  54  11812.44
  55  11835.58
  56  11407.34
  57  10628.91
  58  11545.4
  59  11677.59
  60  11723.51
  61  11220.54
  62  11268.18
  63  11067.55
  64  11431.67
  65  10885.77
  66  10420.81
  67  10418.04
  68  11243.55
  69  12094.54
  70  12031.59
  71  11499.13
  72  11184.03
  73  11938.87
  74  11705.58
  75  11581.96
  76  10982.29
  77  11007.96
  78  11442.5
  79  10894.1
  80  11073.62
  81  10619.52
  82  10835.55
  83  11109.01
  84  10625.26
  85  11411.7
  86  11477.43
  87  11819.83
  88  11745.31
  89  11706.71
  90  9488.343
  91  8752.333
  92  9451.661
  93  9704.714
  94  10690.13
  95  11105.75
  96  10749.52
  97  10353.71
  98  10399.37
  99  10495.03
 100  10881.71
 101  11838.17
 102  11871.04
 103  11874.14
 104  11583.46
 105  11485.21
 106  11333.93
 107  11682.34
 108  11551.45
 109  11806.47
 110  11214.8
 111  11007.77
 112  10543.56
 113  9887.568
 114  10852.62
 115  11155.12
 116  11629.78
 117  10551.28
 118  10439.51
 119  11210.62
 120  10574.3
 121  10688.13
 122  10807.32
 123  10983.26
 124  11029.08
 125  11099.7
 126  11401.85
 127  11675.38
 128  12337.7
 129  11899.22
 130  12524.57
 131  12869.57
 132  12282.92
 133  11013.93
 134  11141.96
 135  11753.58
 136  11047.04
 137  11073.88
 138  11207.71
 139  11126.09
 140  10361.84
 141  11020.6
 142  11236.75
 143  11363.21
 144  11583.01
 145  11694.11
 146  11076.82
 147  10788.98
 148  10965.47
 149  11536.31
 150  11921.34
 151  11463.42
 152  11650.91
 153  11868.8
 154  11495.19
 155  11800.09
 156  10440.6
 157  10470.76
 158  11102.5
 159  11072.74
 160  11761.63
 161  11207.96
 162  11005.17
 163  9940.052
 164  10517.97
 165  10504.06
 166  10508.89
 167  10179.44
 168  10545.19
 169  11161.89
 170  10624.26
 171  10503.24
 172  10550.15
 173  10394.24
 174  10591.47
 175  11152.29
 176  10452.31
 177  11027.5
 178  11060
 179  10640.7
 180  10410.64
 181  10605.76
 182  11046.12
 183  11567.78
 184  11353.44
 185  10438.46
 186  9626.976
 187  10071.15
 188  10189.83
 189  10415.93
 190  10633.56
 191  10625.8
 192  10782.53
 193  10568.39
 194  10576.6
 195  9511.407
 196  9877.856
 197  10585.33
 198  11567.12
 199  12033.77
 200  12607.76
 201  11860.51
 202  11497.04
 203  11240.75
 204  10894.05
 205  12115.9
 206  11691.3
 207  11606.69
 208  11246.28
 209  10994.96
 210  10917.3
 211  10259.2
 212  10748.88
 213  10093.71
 214  10489.72
 215  10768.63
 216  11141.52
 217  11024.22
 218  11072.99
 219  11314.79
 220  11167.39
 221  11806.65
 222  11929.15
 223  12156.82
 224  11846.26
 225  11958.11
 226  11566.63
 227  12011.89
 228  12461.67
 229  11798.1
 230  11096.13
 231  10669.8
 232  11413.28
 233  11757.69
 234  11802.24
 235  11735.26
 236  11283.71
 237  10734.88
 238  10173.1
 239  10383.71
 240  11417.47
 241  12244.08
 242  12340.9
 243  12054.93
 244  10943.52
 245  10194.78
 246  9747.453
 247  10160.7
 248  10567.68
 249  10723.99
 250  11549.56
 251  11214.78
 252  11247.33
 253  10678
 254  11199.44
 255  11978.4
 256  11966.66
 257  11989.69
 258  11368.11
 259  12024.36
 260  11627.09
 261  11578.58
 262  11902.56
 263  11357.95
 264  11634.53
 265  11305.87
 266  11114.62
 267  10810.35
 268  12476.49
 269  12368.37
 270  12010.18
 271  11270.8
 272  10567.88
 273  11562.85
 274  11443.68
 275  13174.83
 276  12096.08
 277  11854.44
 278  12132.32
 279  11576.59
 280  11539.62
 281  10956.76
 282  10929.26
 283  10422.67
 284  11309.13
 285  11186.39
 286  10947.22
 287  11810.31
 288  12182.61
 289  11567.41
 290  11147.3
 291  11819.45
 292  11613.56
 293  11967.6
 294  11529.2
 295  11036.63
 296  10189.52
 297  10632.19
 298  11238.18
 299  11515.71
 300  10377.63
 301  10391.19
 302  11355.54
 303  11277.71
 304  11754.38
 305  12164.95
 306  11482.58
 307  11166.74
 308  11208.46
 309  12472.33
 310  12217.8
 311  12806.76
 312  12865.33
 313  13144.64
 314  13355.79
 315  13551.07
 316  13021.13
 317  13545.98
 318  13640.06
 319  12284.8
 320  11747.23
 321  11967.05
 322  11799.33
 323  11808.73
 324  11489.3
 325  11624.52
 326  11676.74
 327  11224.36
 328  12116.33
 329  11395.89
 330  11390.44
 331  11364.25
 332  11074.68
 333  11114.13
 334  10678.54
 335  10403.42
 336  10607.1
 337  11321.94
 338  11640.38
 339  11308.76
 340  11002.72
 341  11257.22
 342  11633.39
 343  11886.35
 344  11517.33
 345  12140.99
 346  12422.77
 347  12749.8
 348  11602.17
 349  11072.47
 350  10963.76
 351  10320.89
 352  11063.03
 353  10274.1
 354  10208.88
 355  10211.07
 356  10967.87
 357  11180.68
 358  10291.17
 359  11320.74
 360  11011.46
 361  10466.22
 362  10532.58
 363  11168.89
 364  11368.27
 365  10470.18
 366  10047.76
 367  9949.858
 368  10525.83
 369  10242.6
 370  11670.75
 371  11408.66
 372  10332.61
 373  10467.1
 374  10945.25
 375  11759.17
 376  11058.41
 377  10789.77
 378  10436.64
 379  10179.92
 380  10204.57
 381  10293.53
 382  10395.72
 383  10185.4
 384  9847.136
 385  10141.82
 386  10510.99
 387  10472.33
 388  10536.91
 389  11296.62
 390  11361.24
 391  11784.47
 392  11577.51
 393  11669.54
 394  12003.43
 395  12059.95
 396  10787.02
 397  11721.24
 398  11717.8
 399  12055.97
 400  12396.5
 401  11626.57
 402  11468.97
 403  11278.8
 404  11496.15
 405  11121.63
 406  11103.87
 407  11186.9
 408  10904.94
 409  10707.64
 410  10796.25
 411  10883.1
 412  10927.13
 413  11524.26
 414  11254.18
 415  10484.96
 416  11291.83
 417  11579.62
 418  12003.21
 419  10902.54
 420  11650.25
 421  11838.3
 422  11867.22
 423  12029.47
 424  12515.99
 425  12293.65
 426  10988.76
 427  10980.76
 428  11096.71
 429  11618.97
 430  12076.24
 431  11430.18
 432  10458.66
 433  10728.55
 434  11737.63
 435  11124.69
 436  11362.19
 437  10257.96
 438  10767.21
 439  11151.08
 440  10918.97
 441  11420.82
 442  11464.12
 443  11290.92
 444  10982.46
 445  10749.13
 446  11622.57
 447  11873.18
 448  11617.45
 449  11322.26
 450  11034.25
 451  10486.64
 452  12242.55
 453  12335.88
 454  11906.8
 455  11057.21
 456  12128.79
 457  12049.4
 458  11242.42
 459  11974.98
 460  12360.03
 461  13143.99
 462  13029.08
 463  12285.55
 464  11857.27
 465  12078.61
 466  12161.42
 467  12332.27
 468  12186.7
 469  11442.97
 470  11884.41
 471  11444.06
 472  11624.25
 473  11857.54
 474  12330.6
 475  12472.07
 476  11353.12
 477  10612.32
 478  10723.5
 479  11314.57
 480  11123.31
 481  10436.04
 482  9859.854
 483  10354.89
 484  10308.12
 485  10848.95
 486  10467.83
 487  9814.697
 488  11177.08
 489  11757.7
 490  11592.53
 491  11096.6
 492  10927.42
 493  11281.24
 494  10620.15
 495  10374.2
 496  10472.99
 497  10554.15
 498  11196.86
 499  11901.52
 500  11967.46
 501  11142.62
 502  10629.21
 503  11237.48
 504  11594.9
 505  12150.49
 506  11953.05
 507  10488.15
 508  10830.28
 509  10470.35
 510  10541.93
 511  10336.87
