# Input file       =  1195517101.114235_cleaned.dat
# Candidate        =  PSR_0332+5434
# Telescope        =  AR
# Epoch_topo       =  58081.003705025869
# Epoch_bary       =  N/A
# T_sample         =  0.002
# Data Folded      =  7340032
# Data Avg         =  0.188998384439661
# Data StdDev      =  4.56230092643915 
# Profile Bins     =  512
# Profile Avg      =  2709.46937723192 
# Profile StdDev   =  546.258142787093 
# Reduced chi-sqr  =  0.713
# Prob(Noise)      <  1   (~0.0 sigma)
# P_topo (ms)      =  714.518783605178  +/- 9.12e-05
# P'_topo (s/s)    =  -0                +/- 4.81e-11
# P''_topo (s/s^2) =  0                 +/- 2.12e-14
# P_bary (ms)      =  N/A
# P'_bary (s/s)    =  N/A
# P''_bary (s/s^2) =  N/A
# P_orb (s)        =  N/A
# asin(i)/c (s)    =  N/A
# eccentricity     =  N/A
# w (rad)          =  N/A
# T_peri           =  N/A
######################################################
   0  3055.324
   1  3273.403
   2  2884.57
   3  2636.127
   4  2614.373
   5  2951.155
   6  2887.933
   7  3041.62
   8  3012.092
   9  2815.331
  10  2843.953
  11  2869.983
  12  2613.142
  13  2569.142
  14  2573.875
  15  2761.183
  16  2745.355
  17  3000.029
  18  3065.674
  19  3434.537
  20  3460.68
  21  3079.266
  22  3067.489
  23  2800.289
  24  2452.391
  25  2508.465
  26  2965.926
  27  3014.992
  28  2965.222
  29  2764.641
  30  2839.257
  31  2730.452
  32  2582.591
  33  2313.4
  34  1902.225
  35  2357.485
  36  2500.471
  37  2669.342
  38  2911.254
  39  2899.59
  40  2819.146
  41  2270.702
  42  2338.96
  43  2346.004
  44  2495.796
  45  2701.246
  46  2752.653
  47  2743.601
  48  2597.445
  49  2546.308
  50  2625.162
  51  2732.155
  52  2682.317
  53  2703.524
  54  2686.796
  55  2792.616
  56  2650.307
  57  2770.827
  58  3213.875
  59  2966.216
  60  2900.846
  61  2902.278
  62  3442.055
  63  3064.87
  64  2757.68
  65  2459.405
  66  2644.099
  67  2841.295
  68  2492.023
  69  2348.424
  70  2393.011
  71  2365.903
  72  2617.725
  73  2828.593
  74  2640.257
  75  2651.611
  76  2583.139
  77  2475.839
  78  2521.118
  79  2838.731
  80  2765.636
  81  2742.009
  82  2770.462
  83  3266.693
  84  3052.335
  85  2429.732
  86  2896.027
  87  3488.196
  88  3228.3
  89  2952.023
  90  2865.739
  91  3094.423
  92  2882.973
  93  2843.928
  94  3114.382
  95  2935.638
  96  2824.558
  97  2831.424
  98  2618.724
  99  2640.479
 100  2902.857
 101  2653.953
 102  2332.429
 103  2458.628
 104  2525.977
 105  2623.004
 106  2654.914
 107  2062.075
 108  2330.669
 109  2238.666
 110  2198.259
 111  2477.665
 112  2829.322
 113  2641.424
 114  2400.964
 115  2434.602
 116  2633.957
 117  2662.886
 118  2985.015
 119  2692.883
 120  2750.623
 121  2089.766
 122  2311.427
 123  3088.474
 124  2835.612
 125  3093.722
 126  3111.616
 127  2522.065
 128  2161.096
 129  2760.21
 130  2787.112
 131  2666.903
 132  2900.461
 133  3453.686
 134  3507.025
 135  2786.929
 136  2502.32
 137  2530.263
 138  2384.745
 139  2533.722
 140  2690.402
 141  2753.863
 142  2582.795
 143  2566.005
 144  2657.074
 145  2491.868
 146  2582.922
 147  2838.309
 148  2929.738
 149  2903.293
 150  3157.274
 151  3099.732
 152  3001.698
 153  2675.816
 154  2740.39
 155  2946.965
 156  2973.773
 157  3081.47
 158  3184.378
 159  3086.904
 160  2962.721
 161  2892.838
 162  2623.407
 163  2532.172
 164  2674.425
 165  2696.875
 166  2546.439
 167  2886.748
 168  2423.909
 169  1927.898
 170  2325.567
 171  2227.573
 172  2480.16
 173  2980.477
 174  2868.249
 175  2439.435
 176  2695.703
 177  2850.481
 178  2247.661
 179  2246.932
 180  2255.747
 181  2450.032
 182  2689.661
 183  2828.37
 184  2858.472
 185  2865.564
 186  2934.016
 187  2931.228
 188  2369.151
 189  2600.139
 190  3231.981
 191  3398.808
 192  2946.445
 193  2992.375
 194  3080.065
 195  3027.303
 196  2716.908
 197  2965.379
 198  3294.568
 199  3083.131
 200  2928.446
 201  2832.254
 202  3065.612
 203  2612.053
 204  2671.589
 205  2791.856
 206  2790.785
 207  2685.404
 208  2566.719
 209  2614.641
 210  2376.394
 211  2514.091
 212  2434.887
 213  2520.974
 214  2965.791
 215  3291.171
 216  3336.085
 217  3234.942
 218  3092.916
 219  3209.984
 220  3201.179
 221  2969.396
 222  2991.182
 223  3145.032
 224  3040.998
 225  2521.543
 226  2722.327
 227  2329.755
 228  2337.56
 229  2571.949
 230  2888.318
 231  2678.737
 232  2664.786
 233  2901.874
 234  2792.575
 235  2696.699
 236  2328.024
 237  2178.971
 238  2526.883
 239  2714.56
 240  2484.928
 241  2742.652
 242  2768.206
 243  2645.626
 244  2783.049
 245  2681.579
 246  2884.697
 247  2194.186
 248  2619.02
 249  2794.701
 250  2764.33
 251  2700.768
 252  2623.84
 253  2556.535
 254  2352.669
 255  2294.955
 256  2727.167
 257  2671.92
 258  2746.681
 259  2692.389
 260  2367.326
 261  2203.811
 262  2135.907
 263  2042.961
 264  2306.867
 265  2789.635
 266  2934.054
 267  2967.7
 268  2561.476
 269  2661.393
 270  2310.992
 271  2469.815
 272  2635.177
 273  2989.102
 274  3117.095
 275  2782.292
 276  2778.938
 277  3280.966
 278  2791.492
 279  2582.475
 280  2790.687
 281  2805.711
 282  2734.421
 283  2978.948
 284  2873.546
 285  2506.158
 286  2668.89
 287  3311.583
 288  3056.089
 289  2432.925
 290  2601.221
 291  2819.248
 292  2730.995
 293  2550.996
 294  2670.734
 295  2786.463
 296  2746.476
 297  2388.258
 298  2434.059
 299  2584.637
 300  2477.763
 301  2398.289
 302  2781.692
 303  2773.241
 304  2564.854
 305  3154.908
 306  3006.573
 307  2789.244
 308  3269.674
 309  3539.14
 310  3567.992
 311  3508.128
 312  3959.713
 313  4114.837
 314  4251.216
 315  4294.708
 316  4156.132
 317  3584.489
 318  3116.796
 319  2763.604
 320  2538.944
 321  2543.263
 322  2762.937
 323  2769.04
 324  2470.283
 325  2545.848
 326  2684.971
 327  2545.849
 328  2527.456
 329  2346.834
 330  2707.546
 331  3022.239
 332  2987.883
 333  2669.923
 334  2562.474
 335  2490.4
 336  2317.443
 337  2473.925
 338  2666.821
 339  2525.79
 340  2461.901
 341  2504.57
 342  2273.882
 343  2211.697
 344  2570.123
 345  2625.625
 346  2403.153
 347  2372.921
 348  2600.255
 349  2746.375
 350  2432.722
 351  2502.217
 352  2867.873
 353  2303.425
 354  2248.116
 355  2783.637
 356  2758.819
 357  2539.337
 358  2726.221
 359  2989.874
 360  2517.078
 361  2430.416
 362  2547.337
 363  2709.218
 364  2400.53
 365  2493.043
 366  2986.461
 367  3160.281
 368  3083.171
 369  2610.245
 370  2726.976
 371  2625.483
 372  2281.121
 373  2433.958
 374  2663.377
 375  2433.305
 376  2195.286
 377  2711.008
 378  2512.225
 379  2443.699
 380  2908.747
 381  3255.643
 382  2952.582
 383  2648.61
 384  2776.63
 385  2613.721
 386  2865.863
 387  3125.494
 388  2912.561
 389  2916.798
 390  3002.223
 391  2523.38
 392  1884.093
 393  1721.822
 394  2466.27
 395  2968.422
 396  2990.951
 397  2440.839
 398  2401.875
 399  2896.754
 400  2741.9
 401  2756.885
 402  2910.13
 403  2840.076
 404  2943.336
 405  2709.107
 406  2960.983
 407  2930.396
 408  2904.154
 409  3423.352
 410  3089.986
 411  2524.511
 412  2277.566
 413  2234.965
 414  2095.333
 415  2481.861
 416  2725.489
 417  2278.762
 418  2045.129
 419  2437.772
 420  2805.255
 421  2812.066
 422  2594.292
 423  2949.287
 424  3046.99
 425  3000.865
 426  2725.956
 427  2702.527
 428  2746.507
 429  2832.222
 430  3132.492
 431  2686.157
 432  2614.359
 433  2196.058
 434  2521.533
 435  2731.875
 436  2623.834
 437  2794.636
 438  2701.978
 439  2447.295
 440  2063.054
 441  2453.904
 442  2673.765
 443  2210.683
 444  2108.126
 445  2516.5
 446  2436.075
 447  2004.37
 448  1920.648
 449  1973.897
 450  2433.243
 451  2426.585
 452  2375.232
 453  2196.198
 454  2009.231
 455  2358.488
 456  2621.322
 457  2662.366
 458  2550.537
 459  2713.218
 460  2619.724
 461  2227.491
 462  2042.515
 463  2353.214
 464  2909.632
 465  3048.672
 466  2634.416
 467  2229.767
 468  2209.468
 469  2351.055
 470  2547.728
 471  2213.377
 472  2202.229
 473  2312.562
 474  2693.195
 475  2457.362
 476  2659.287
 477  2737.141
 478  2874.381
 479  2876.919
 480  2961.367
 481  2924.42
 482  2980.976
 483  2626.377
 484  2917.623
 485  2749.589
 486  3046.297
 487  2970.833
 488  2578.68
 489  2384.999
 490  2241.661
 491  2544.323
 492  2846.418
 493  2511.826
 494  2787.833
 495  2799.282
 496  2300.298
 497  2568.901
 498  2744.292
 499  2860.112
 500  2821.268
 501  2788.084
 502  2649.731
 503  2384.262
 504  2515.626
 505  2691.335
 506  2731.114
 507  3019.215
 508  2985.163
 509  2854.053
 510  2497.491
 511  2641.872
