# Input file       =  1195588322.105109-PSRB0329-2ms-sampling-dd.dat
# Candidate        =  PSR_0332+5434
# Telescope        =  AR
# Epoch_topo       =  58081.828022049871
# Epoch_bary       =  N/A
# T_sample         =  0.002
# Data Folded      =  7340032
# Data Avg         =  9.76575032686442e-10
# Data StdDev      =  7.10239876400103 
# Profile Bins     =  512
# Profile Avg      =  -0.594576927949305
# Profile StdDev   =  850.391769572434 
# Reduced chi-sqr  =  0.448
# Prob(Noise)      <  1   (~0.0 sigma)
# P_topo (ms)      =  714.519298429094  +/- 8.66e-05
# P'_topo (s/s)    =  -0                +/- 4.57e-11
# P''_topo (s/s^2) =  0                 +/- 2.02e-14
# P_bary (ms)      =  N/A
# P'_bary (s/s)    =  N/A
# P''_bary (s/s^2) =  N/A
# P_orb (s)        =  N/A
# asin(i)/c (s)    =  N/A
# eccentricity     =  N/A
# w (rad)          =  N/A
# T_peri           =  N/A
######################################################
   0  -98.98824
   1  -359.4049
   2  -152.4491
   3  316.7873
   4  113.4413
   5  -38.9418
   6  -201.224
   7  80.1289
   8  106.6171
   9  -25.53347
  10  -249.6936
  11  -221.5472
  12  -341.0713
  13  -70.81911
  14  -55.22236
  15  33.64733
  16  -59.61884
  17  -270.5692
  18  40.07915
  19  -39.2335
  20  -515.191
  21  214.5007
  22  540.6127
  23  19.6644
  24  -333.835
  25  -634.2209
  26  -163.5682
  27  82.0078
  28  350.3313
  29  -149.8238
  30  -114.8881
  31  42.17308
  32  264.8961
  33  -57.97339
  34  -546.9819
  35  -434.8685
  36  -265.7515
  37  -277.8495
  38  -859.5418
  39  -328.2769
  40  -663.4547
  41  -492.9945
  42  -311.8864
  43  -75.83864
  44  -97.57004
  45  90.53508
  46  514.6537
  47  308.4995
  48  166.8412
  49  146.6225
  50  464.8127
  51  -55.85449
  52  -519.1675
  53  -518.3483
  54  -400.1166
  55  451.3102
  56  793.5063
  57  590.3756
  58  734.6502
  59  399.1018
  60  891.3256
  61  1332.384
  62  1462.083
  63  1536.068
  64  2233.52
  65  2194.352
  66  1363.354
  67  330.1362
  68  186.7948
  69  330.8353
  70  194.6403
  71  58.23429
  72  -221.71
  73  -599.2367
  74  -141.391
  75  -148.8042
  76  14.63263
  77  -312.539
  78  230.164
  79  325.4352
  80  -107.3927
  81  -366.7199
  82  -297.4804
  83  -609.5461
  84  94.49948
  85  175.7616
  86  -148.3239
  87  211.6753
  88  100.201
  89  228.6538
  90  569.2139
  91  -13.06655
  92  -67.02487
  93  733.2298
  94  865.1138
  95  -138.176
  96  -574.3178
  97  -143.4932
  98  -62.62241
  99  57.16397
 100  169.339
 101  88.24513
 102  -220.3329
 103  317.0892
 104  587.4678
 105  633.5959
 106  507.4254
 107  1172.011
 108  743.2496
 109  -58.0823
 110  335.3491
 111  222.5678
 112  506.4948
 113  275.3694
 114  573.0909
 115  -58.61249
 116  -385.9861
 117  51.81293
 118  -142.7319
 119  43.40439
 120  -44.07273
 121  920.2498
 122  887.9788
 123  623.8754
 124  158.0171
 125  -20.93043
 126  257.1551
 127  254.2881
 128  116.5907
 129  -125.9317
 130  95.53667
 131  -166.9492
 132  96.15
 133  433.1367
 134  367.7263
 135  -69.71298
 136  -157.5917
 137  -54.39048
 138  -123.4906
 139  -595.1781
 140  -859.572
 141  -348.9215
 142  310.4943
 143  446.4192
 144  342.5024
 145  -93.44755
 146  -90.29655
 147  154.5282
 148  348.5383
 149  -115.2564
 150  -93.16883
 151  -82.05766
 152  -113.1245
 153  -392.7129
 154  -290.2761
 155  195.4823
 156  -297.7187
 157  151.2668
 158  -387.7817
 159  -248.6676
 160  -182.2003
 161  -160.4171
 162  102.3211
 163  -624.5232
 164  -38.96046
 165  28.072
 166  -146.7045
 167  -97.34978
 168  -327.2429
 169  -273.1414
 170  -479.7052
 171  143.3311
 172  -94.29002
 173  203.6864
 174  -22.81542
 175  88.12451
 176  -39.64485
 177  -370.5687
 178  -122.3566
 179  122.1426
 180  250.2108
 181  4.615505
 182  -120.7803
 183  -380.394
 184  -109.1522
 185  58.73109
 186  -39.08456
 187  169.4001
 188  181.0194
 189  259.3973
 190  506.2977
 191  425.5915
 192  148.673
 193  82.93281
 194  -218.8466
 195  -254.5743
 196  -73.83971
 197  -318.8718
 198  -293.1253
 199  -213.7757
 200  -110.3691
 201  -432.4789
 202  -506.8975
 203  -114.7076
 204  -33.31388
 205  353.8452
 206  -144.7044
 207  -7.569491
 208  -244.6244
 209  -412.6024
 210  -486.2841
 211  -259.4174
 212  272.7622
 213  42.35379
 214  181.4229
 215  -289.9886
 216  -499.9044
 217  -412.6239
 218  51.10699
 219  -40.03185
 220  68.93215
 221  -213.6685
 222  -193.7236
 223  244.6441
 224  414.9958
 225  180.7054
 226  37.82087
 227  171.1846
 228  526.0361
 229  661.4442
 230  335.0572
 231  24.93702
 232  -53.67515
 233  382.0446
 234  607.2423
 235  463.1222
 236  570.7745
 237  611.326
 238  693.4877
 239  960.3826
 240  488.9959
 241  61.21916
 242  40.83438
 243  780.2279
 244  891.1567
 245  857.793
 246  425.3088
 247  784.8741
 248  577.0508
 249  114.2391
 250  741.1913
 251  346.6843
 252  252.0857
 253  133.9028
 254  -158.8807
 255  -389.5293
 256  -659.0839
 257  64.39178
 258  362.306
 259  389.9554
 260  250.2811
 261  313.2976
 262  32.59129
 263  -35.45767
 264  18.38209
 265  820.1191
 266  865.7515
 267  147.8026
 268  287.4465
 269  319.1585
 270  206.2741
 271  -207.9327
 272  -138.9045
 273  106.4072
 274  209.9122
 275  487.2405
 276  535.4155
 277  875.8615
 278  339.1462
 279  104.8086
 280  -202.6561
 281  -30.30062
 282  -310.1019
 283  -294.7466
 284  -171.4288
 285  -75.19395
 286  -78.58511
 287  119.342
 288  -426.7488
 289  94.77325
 290  585.315
 291  769.0026
 292  -87.91081
 293  -289.1744
 294  -62.93467
 295  82.57187
 296  450.2987
 297  226.8371
 298  -210.3487
 299  -425.6555
 300  -92.97881
 301  239.2434
 302  -99.26307
 303  -383.4757
 304  -571.5411
 305  -392.0762
 306  -275.4321
 307  -184.8199
 308  84.69255
 309  12.59324
 310  -226.8291
 311  -94.20039
 312  87.18091
 313  -382.4387
 314  -172.4375
 315  185.4114
 316  212.8088
 317  189.2029
 318  457.2805
 319  -34.64253
 320  -189.6885
 321  -762.8257
 322  -337.2877
 323  -257.8359
 324  104.8366
 325  539.728
 326  81.14616
 327  -52.99026
 328  129.4814
 329  306.3635
 330  191.6739
 331  -72.22307
 332  -31.57221
 333  -49.76657
 334  163.6561
 335  -603.668
 336  -639.6782
 337  -57.67891
 338  -205.6501
 339  -276.2683
 340  -805.6356
 341  -554.7668
 342  -670.3185
 343  -37.35554
 344  -237.8214
 345  -552.2755
 346  -498.6721
 347  -321.9658
 348  -203.4665
 349  -547.5727
 350  -617.1001
 351  -60.71857
 352  395.0776
 353  262.2145
 354  -152.5576
 355  -575.0385
 356  -818.1196
 357  -338.7434
 358  -21.34777
 359  -164.2417
 360  -156.3873
 361  -234.1085
 362  -55.37051
 363  -536.2224
 364  -445.3634
 365  -21.457
 366  211.6881
 367  278.5511
 368  188.822
 369  -325.0368
 370  -433.8815
 371  -108.157
 372  171.1128
 373  394.579
 374  -488.5429
 375  -220.8914
 376  -224.6576
 377  -91.9811
 378  -348.2533
 379  -55.98918
 380  15.15904
 381  183.7637
 382  24.83144
 383  201.0244
 384  -33.3757
 385  -166.8059
 386  -70.55019
 387  389.0267
 388  628.4484
 389  203.3861
 390  -200.5536
 391  -30.83823
 392  -14.0808
 393  -91.06027
 394  336.7032
 395  420.0348
 396  78.11933
 397  -345.5645
 398  -384.2657
 399  -289.8877
 400  172.5499
 401  627.3815
 402  522.5656
 403  -161.9149
 404  101.6653
 405  8.986086
 406  -551.9608
 407  -531.498
 408  218.4536
 409  152.0375
 410  573.8002
 411  171.4294
 412  -364.9568
 413  -79.46371
 414  91.0315
 415  321.8067
 416  283.2726
 417  122.9168
 418  545.5498
 419  743.731
 420  668.3369
 421  140.9062
 422  75.06425
 423  275.9668
 424  176.033
 425  -155.9757
 426  -203.603
 427  -101.6886
 428  86.87585
 429  219.8407
 430  80.98495
 431  -509.2283
 432  -393.1337
 433  -176.9528
 434  339.01
 435  154.0395
 436  254.6756
 437  335.0833
 438  98.06387
 439  -18.37407
 440  28.12317
 441  -426.9757
 442  -360.7766
 443  -90.52933
 444  103.3955
 445  40.17595
 446  -226.7812
 447  238.6265
 448  -329.1981
 449  -594.5286
 450  -530.1498
 451  -165.9592
 452  71.92374
 453  235.1308
 454  -331.4177
 455  -688.6848
 456  -636.4406
 457  -442.487
 458  -191.8492
 459  -155.4542
 460  -593.9315
 461  -322.5705
 462  -465.7334
 463  -442.9373
 464  -390.211
 465  74.0895
 466  -84.38708
 467  -238.9426
 468  -80.99324
 469  -180.4641
 470  -104.83
 471  -606.0782
 472  -299.37
 473  -96.49849
 474  -150.1393
 475  56.31096
 476  306.543
 477  606.3348
 478  -8.99366
 479  187.5044
 480  139.9945
 481  -70.57253
 482  44.87828
 483  -117.9396
 484  -306.0632
 485  -232.1878
 486  214.422
 487  -189.4719
 488  -458.1722
 489  -710.4073
 490  -239.0285
 491  -461.0161
 492  -659.3043
 493  -682.0685
 494  -508.8724
 495  -158.8795
 496  -267.2951
 497  -597.792
 498  -952.6075
 499  -1144.281
 500  -959.3661
 501  -444.4736
 502  -930.3079
 503  -963.4472
 504  -757.2291
 505  -705.1198
 506  -361.6885
 507  -478.6253
 508  -627.7383
 509  -302.5692
 510  -67.71002
 511  400.3268
