# Input file       =  1195315227.114825_cleaned.dat
# Candidate        =  PSR_0332+5434
# Telescope        =  AR
# Epoch_topo       =  58078.667200403070
# Epoch_bary       =  N/A
# T_sample         =  0.002
# Data Folded      =  7143424
# Data Avg         =  1.30218302923652 
# Data StdDev      =  30.6661693874867 
# Profile Bins     =  512
# Profile Avg      =  18168.095801003  
# Profile StdDev   =  3622.2445195311  
# Reduced chi-sqr  =  0.460
# Prob(Noise)      <  1   (~0.0 sigma)
# P_topo (ms)      =  714.51600285784   +/- 0.000295
# P'_topo (s/s)    =  -0                +/- 1.6e-10
# P''_topo (s/s^2) =  0                 +/- 7.25e-14
# P_bary (ms)      =  N/A
# P'_bary (s/s)    =  N/A
# P''_bary (s/s^2) =  N/A
# P_orb (s)        =  N/A
# asin(i)/c (s)    =  N/A
# eccentricity     =  N/A
# w (rad)          =  N/A
# T_peri           =  N/A
######################################################
   0  17730.58
   1  17277.17
   2  20016.91
   3  21568.6
   4  19596.94
   5  17320.75
   6  15423.47
   7  15113.46
   8  15569.71
   9  15529.62
  10  17285.72
  11  16982.14
  12  16703.49
  13  18290.78
  14  18288.12
  15  18249.31
  16  17798.93
  17  20690.27
  18  20687.54
  19  19006.15
  20  19379.23
  21  18839.58
  22  16609.43
  23  15943.17
  24  18254.46
  25  16938.54
  26  16284.8
  27  20940.76
  28  20883.63
  29  19827.42
  30  17182.12
  31  17760.57
  32  19517.03
  33  16520.88
  34  19008.03
  35  17105.95
  36  15935.67
  37  16209.07
  38  17012.96
  39  17098.8
  40  15186.8
  41  15089.29
  42  17488.63
  43  22125.93
  44  19608.54
  45  19288.81
  46  19328.7
  47  18756.62
  48  20233.25
  49  20227.12
  50  20174.15
  51  20114.97
  52  19982.8
  53  19894.52
  54  17529.6
  55  16421.6
  56  19802.15
  57  20305.93
  58  18804.06
  59  17747.44
  60  17987.44
  61  16882.95
  62  17057.85
  63  18135.53
  64  17782.46
  65  18162.49
  66  19150.93
  67  20543.28
  68  17607.34
  69  16505.21
  70  18975.38
  71  18624.29
  72  18547.39
  73  17694.63
  74  19479.2
  75  17214.4
  76  17011.07
  77  18778.14
  78  18685.01
  79  16801.84
  80  17052.55
  81  18547.86
  82  18436.13
  83  16793.43
  84  17351.38
  85  19349.94
  86  18363.48
  87  18416.6
  88  19168.34
  89  17602.87
  90  15902.57
  91  16012.46
  92  18646.48
  93  18026.24
  94  16994.34
  95  17964.12
  96  15544.75
  97  16163.79
  98  17709.45
  99  22168.55
 100  19583.42
 101  17524.02
 102  17487.77
 103  19117.42
 104  22092.67
 105  20661.04
 106  20846.47
 107  17701.02
 108  16221.81
 109  15598.4
 110  19165.51
 111  19618.76
 112  17323.12
 113  17011.08
 114  17325.33
 115  18196.21
 116  19616.52
 117  20635.46
 118  21150.71
 119  19317.51
 120  18472.59
 121  17854.48
 122  17041.49
 123  18837.07
 124  19537.04
 125  22225.46
 126  18538.76
 127  18802.5
 128  18724.91
 129  18176.82
 130  18667.15
 131  20376.25
 132  21706.97
 133  22467.42
 134  21495.07
 135  19550.16
 136  18455.49
 137  17478.4
 138  18711.76
 139  18208.86
 140  19570.83
 141  19142.79
 142  21717.98
 143  20470.91
 144  21442.67
 145  19926.59
 146  21181.16
 147  19613.66
 148  18969.69
 149  21949.96
 150  19186.32
 151  19288.48
 152  19816.17
 153  19764.18
 154  18594.49
 155  17617.54
 156  17492.04
 157  18009.08
 158  18425.28
 159  17659.29
 160  17350.13
 161  18076.56
 162  17367.26
 163  16251.29
 164  18675.1
 165  18993.83
 166  18645.02
 167  17671.08
 168  19199.52
 169  17453.06
 170  17120.93
 171  19265.47
 172  21457.43
 173  19603.16
 174  18635.92
 175  20261.01
 176  21101.87
 177  22346.27
 178  22325.15
 179  20674.42
 180  20260.16
 181  20185.83
 182  21592.66
 183  19022.56
 184  17003.32
 185  19802.26
 186  20279.33
 187  21928.66
 188  19661.71
 189  18454.23
 190  17236.45
 191  17207.55
 192  19978.59
 193  18439.28
 194  17690.45
 195  18449.94
 196  16677.13
 197  16463.72
 198  16514.12
 199  17406.9
 200  15702.12
 201  16023.21
 202  15267.26
 203  16280.62
 204  16602.49
 205  15068.21
 206  15056.61
 207  16814.46
 208  16103.86
 209  18109.68
 210  17010.15
 211  16745.35
 212  14774.67
 213  16272.7
 214  15418.53
 215  14610.38
 216  18470.66
 217  17861.49
 218  16834.32
 219  15508.62
 220  14968.29
 221  17339.33
 222  15952.08
 223  17229.38
 224  15156.72
 225  14433.98
 226  15665.34
 227  16062.19
 228  18294.01
 229  18214.14
 230  18807.17
 231  17557.54
 232  16867.83
 233  16546.4
 234  18588.4
 235  19567.08
 236  18234.02
 237  18695.36
 238  17914.85
 239  17407.34
 240  18332.12
 241  19637.07
 242  20126.01
 243  18275.24
 244  17291.3
 245  17766.39
 246  18329.05
 247  19452.7
 248  20834.6
 249  19884.83
 250  20059.31
 251  18353.84
 252  19159.35
 253  19501.54
 254  18570.59
 255  17041.88
 256  16832.84
 257  19456.6
 258  19111.81
 259  19853.14
 260  18021.88
 261  17494.36
 262  18049.42
 263  16673.75
 264  19941.41
 265  16642.59
 266  16702.27
 267  16582.11
 268  16674.66
 269  14762.7
 270  14151.41
 271  16736.38
 272  17208.32
 273  17752.82
 274  17240.74
 275  17980.38
 276  16853.44
 277  15459.56
 278  16889.84
 279  18508.15
 280  17112.76
 281  17366.11
 282  19685.5
 283  20826.71
 284  17692.72
 285  17424.74
 286  19661.01
 287  18293.97
 288  17232.54
 289  17536.86
 290  16862.72
 291  14614.44
 292  15772.63
 293  16334.91
 294  16467.13
 295  18169.36
 296  19630.71
 297  19978.95
 298  15021.8
 299  16024.55
 300  17348.52
 301  18198.7
 302  19612.77
 303  19016.05
 304  18310.41
 305  16458.47
 306  15342.15
 307  16500.35
 308  14476.08
 309  13426.42
 310  14378.58
 311  15934.11
 312  15745.94
 313  14471.39
 314  16733.38
 315  18395.07
 316  17883.95
 317  18053.88
 318  18177.72
 319  17540.91
 320  16460.51
 321  18605.98
 322  17393.46
 323  18164.06
 324  18726.5
 325  18797.11
 326  19477.64
 327  19481.58
 328  21648.45
 329  21634.02
 330  20860.67
 331  21472.21
 332  19944.16
 333  17734.49
 334  17381.82
 335  17318.71
 336  18201.17
 337  18020.79
 338  20667.85
 339  20595.49
 340  18201.9
 341  16159.66
 342  18445.6
 343  19537.07
 344  20084
 345  19820.83
 346  20634.35
 347  20822.92
 348  19024.55
 349  18896.45
 350  17495.58
 351  19633.32
 352  18625.48
 353  18774.09
 354  16941.06
 355  16637.22
 356  16119.57
 357  20696.16
 358  19988.8
 359  20315.92
 360  19031.26
 361  17781.33
 362  16759.55
 363  16173.93
 364  17662.98
 365  17148.79
 366  19049.35
 367  17569.62
 368  15021.75
 369  17829.58
 370  15408.66
 371  17202.57
 372  17903.42
 373  17531.76
 374  18573.34
 375  14941.36
 376  15536.98
 377  15469.24
 378  15816.9
 379  15383.75
 380  14033.92
 381  16736.42
 382  16576.44
 383  18894.97
 384  17128.1
 385  19028.31
 386  18740.48
 387  16343.95
 388  15948.52
 389  16751.57
 390  17977.87
 391  16759.17
 392  17387.04
 393  19070.34
 394  15429.22
 395  14232.86
 396  18394.91
 397  19193.38
 398  19977.78
 399  19757.28
 400  21093.92
 401  20077.91
 402  19693.98
 403  20120.11
 404  18656.87
 405  18483.12
 406  17425.75
 407  17330.41
 408  17354.07
 409  17673.92
 410  18197.84
 411  19182.74
 412  19208.93
 413  16868.47
 414  20670.13
 415  20246.13
 416  18404.66
 417  18092.35
 418  18022.89
 419  20762.52
 420  21918.04
 421  21962.36
 422  21562.12
 423  18680.09
 424  20693.82
 425  21620.14
 426  21779.68
 427  20432.07
 428  20541.46
 429  19870.94
 430  16944.92
 431  17602.81
 432  20106.88
 433  20028.8
 434  18623.28
 435  19979.12
 436  20821.21
 437  17967.49
 438  15404.88
 439  15671.64
 440  14884.78
 441  17643.66
 442  16411.97
 443  19365.59
 444  19100.04
 445  18340.49
 446  17061.07
 447  16624.04
 448  17937.2
 449  18045.83
 450  18608.75
 451  14823.78
 452  13370.25
 453  16311.74
 454  16371.59
 455  17409.03
 456  17392.81
 457  18919.16
 458  17086.41
 459  16782.38
 460  19237.95
 461  18432.03
 462  17414.88
 463  14820.45
 464  15586.01
 465  18217.54
 466  18738.27
 467  20663.99
 468  19749.21
 469  17603.04
 470  17152.84
 471  18048.99
 472  19092.92
 473  17902.42
 474  19874.7
 475  20085.73
 476  19184.27
 477  17803.32
 478  17137.3
 479  18346.8
 480  16615.44
 481  16196.02
 482  19193.33
 483  19932.1
 484  20999.45
 485  18182.79
 486  20638.59
 487  20439.83
 488  19006.82
 489  20909.45
 490  22321.75
 491  19854.52
 492  18052.47
 493  17947.85
 494  17743.21
 495  16558.83
 496  16942.19
 497  16188.33
 498  17788.95
 499  18742.88
 500  21078.12
 501  20090.05
 502  17955.55
 503  19642.69
 504  16506.39
 505  16141.03
 506  16129.5
 507  17286.52
 508  17751.61
 509  15623.55
 510  16419.01
 511  15850.37
