# Input file       =  1195229060.104711_cleaned.dat
# Candidate        =  PSR_0332+5434
# Telescope        =  AR
# Epoch_topo       =  58077.669897045263
# Epoch_bary       =  N/A
# T_sample         =  0.002
# Data Folded      =  7208960
# Data Avg         =  3.70653812762943 
# Data StdDev      =  55.0252649704261 
# Profile Bins     =  256
# Profile Avg      =  104373.526002012 
# Profile StdDev   =  9233.75756382239 
# Reduced chi-sqr  =  0.560
# Prob(Noise)      <  1   (~0.0 sigma)
# P_topo (ms)      =  714.51497317214   +/- 7.74e-05
# P'_topo (s/s)    =  -0                +/- 4.16e-11
# P''_topo (s/s^2) =  0                 +/- 1.87e-14
# P_bary (ms)      =  N/A
# P'_bary (s/s)    =  N/A
# P''_bary (s/s^2) =  N/A
# P_orb (s)        =  N/A
# asin(i)/c (s)    =  N/A
# eccentricity     =  N/A
# w (rad)          =  N/A
# T_peri           =  N/A
######################################################
   0  94995.38
   1  103357.6
   2  96770.07
   3  99670.41
   4  101443.7
   5  100837.4
   6  104496.1
   7  112252
   8  112592.5
   9  100380.1
  10  113430.5
  11  107270.6
  12  95918.45
  13  95969.29
  14  99890.48
  15  108401.9
  16  108803.6
  17  100289.4
  18  109759.4
  19  109554
  20  109109.2
  21  107174.7
  22  111298.7
  23  98662
  24  108479.2
  25  110203.4
  26  106342
  27  95266.34
  28  99571.76
  29  104672.1
  30  99833.37
  31  106712.8
  32  104819.5
  33  101367.7
  34  94451.86
  35  99120.55
  36  104695.2
  37  91885.55
  38  99726.16
  39  92175.05
  40  100934.5
  41  97093.1
  42  102091.1
  43  108851.7
  44  102473
  45  103079.6
  46  104535.9
  47  108951.7
  48  109559.6
  49  114851.7
  50  115453.8
  51  114555.1
  52  111867.3
  53  107016.4
  54  93204.77
  55  107937.2
  56  109898.8
  57  112766.1
  58  118912.5
  59  107712.5
  60  109130.6
  61  106290.9
  62  116059.1
  63  107654.7
  64  99996.72
  65  104486.3
  66  104884.7
  67  104533.4
  68  97528.35
  69  101080.1
  70  94239.21
  71  108110.7
  72  106777.9
  73  91639.52
  74  96119.33
  75  95063.7
  76  107952.4
  77  113535.7
  78  105637.3
  79  103684.1
  80  106955.5
  81  110915.1
  82  108846.6
  83  110259.4
  84  102843.9
  85  116610.2
  86  112359.2
  87  110323.9
  88  114256.3
  89  102859.6
  90  99155.77
  91  102983.1
  92  104103.9
  93  103936.5
  94  107284.6
  95  108931.4
  96  108620.4
  97  109901.3
  98  110479.8
  99  111971
 100  102837.5
 101  109499.4
 102  106029.5
 103  107567.3
 104  107406.3
 105  110647.1
 106  104582.4
 107  102920.7
 108  110409.8
 109  103135.1
 110  108379
 111  104533.9
 112  99116.97
 113  100549.4
 114  101142
 115  109228.5
 116  81756.41
 117  99592.17
 118  107594.9
 119  105356.7
 120  91584.01
 121  100112.5
 122  102964.5
 123  106067.2
 124  106817.4
 125  105957.4
 126  108446.9
 127  107674.8
 128  115964.4
 129  108885
 130  103323.4
 131  102485.2
 132  114677.3
 133  111135
 134  100050.1
 135  105138.7
 136  102479.7
 137  103305.6
 138  109500.6
 139  107170.7
 140  102239.2
 141  103385.4
 142  98657.55
 143  97270.68
 144  102191.6
 145  97898.84
 146  98588.86
 147  99399.3
 148  92013.77
 149  94888.85
 150  96067.94
 151  100138.2
 152  97057.65
 153  96274.03
 154  96381.34
 155  108206
 156  107799.1
 157  109891.3
 158  113368.6
 159  98803.31
 160  108227.9
 161  101699.6
 162  110478.8
 163  106027
 164  108392.6
 165  110458.4
 166  97447.62
 167  98642.41
 168  93800.98
 169  103194.5
 170  93584.6
 171  97350.88
 172  94024.81
 173  95177.45
 174  105007.2
 175  101791.9
 176  110931
 177  97702.59
 178  109860.7
 179  103745.6
 180  113169
 181  104983.5
 182  106549.1
 183  108138.2
 184  108565.5
 185  109833.9
 186  104625.1
 187  100267.6
 188  105522.7
 189  109139
 190  94282.13
 191  101981.3
 192  105898.4
 193  95084.9
 194  98634.87
 195  105042.5
 196  108268.8
 197  99871.84
 198  101669.6
 199  106407.2
 200  92868.82
 201  102200.6
 202  99464.5
 203  110274.9
 204  102793.2
 205  101911.5
 206  112906.4
 207  106567.3
 208  101411.9
 209  101920.2
 210  103535.7
 211  101843
 212  97114.16
 213  90484.22
 214  94898.4
 215  95185.38
 216  98771.95
 217  111207.4
 218  108815.1
 219  99216.98
 220  103420.2
 221  110228.8
 222  105691.9
 223  110183
 224  106331
 225  111295.3
 226  101574.8
 227  100896.3
 228  112007
 229  109351.6
 230  111430.4
 231  104662.1
 232  107210.9
 233  109541.1
 234  116261.9
 235  116211.2
 236  101345.1
 237  103381.7
 238  105367.9
 239  106555.4
 240  105164.9
 241  104821.4
 242  107659.9
 243  105084.1
 244  117077.4
 245  102937.1
 246  105953.1
 247  101245
 248  103861.2
 249  105489.7
 250  109275.2
 251  105527.6
 252  99535.73
 253  108691.4
 254  97299.52
 255  100233.4
