# Input file       =  1195502192.101845-PSRB0329-2ms-sampling-dd.dat
# Candidate        =  PSR_0332+5434
# Telescope        =  AR
# Epoch_topo       =  58080.831147012097
# Epoch_bary       =  N/A
# T_sample         =  0.002
# Data Folded      =  7340032
# Data Avg         =  7.80983950257672e-10
# Data StdDev      =  6.18323756698676 
# Profile Bins     =  512
# Profile Avg      =  -2.7607107972578 
# Profile StdDev   =  740.337808534213 
# Reduced chi-sqr  =  0.431
# Prob(Noise)      <  1   (~0.0 sigma)
# P_topo (ms)      =  714.51826556142   +/- 0.000854
# P'_topo (s/s)    =  -0                +/- 4.51e-10
# P''_topo (s/s^2) =  0                 +/- 1.99e-13
# P_bary (ms)      =  N/A
# P'_bary (s/s)    =  N/A
# P''_bary (s/s^2) =  N/A
# P_orb (s)        =  N/A
# asin(i)/c (s)    =  N/A
# eccentricity     =  N/A
# w (rad)          =  N/A
# T_peri           =  N/A
######################################################
   0  -141.7841
   1  -9.8637
   2  -297.4425
   3  -380.1118
   4  223.8215
   5  207.1691
   6  142.4747
   7  211.915
   8  -31.12547
   9  -31.3341
  10  -128.3881
  11  -173.7065
  12  -510.4465
  13  -350.6142
  14  -114.7827
  15  0.8517119
  16  -187.406
  17  -184.8415
  18  -2.256131
  19  -181.9715
  20  -261.4042
  21  -182.2198
  22  -24.91168
  23  -200.846
  24  -377.4499
  25  -16.48998
  26  -86.21901
  27  -332.5033
  28  -215.742
  29  -198.799
  30  -430.8769
  31  -149.3927
  32  275.8349
  33  -130.9437
  34  -287.7448
  35  -237.7521
  36  -185.3448
  37  -70.6204
  38  -297.4608
  39  -137.4312
  40  -373.9175
  41  -313.1448
  42  175.1053
  43  51.16587
  44  211.8436
  45  237.8192
  46  -66.78547
  47  -499.3004
  48  -477.0468
  49  -266.7316
  50  -157.0617
  51  -357.5555
  52  -613.8849
  53  -195.7559
  54  -182.1228
  55  -501.3437
  56  -120.4416
  57  -100.6653
  58  97.41687
  59  -397.5654
  60  -492.929
  61  -371.56
  62  -378.0521
  63  -430.4732
  64  -149.3786
  65  238.441
  66  151.6458
  67  255.559
  68  3.716253
  69  128.2571
  70  -81.01481
  71  -463.6589
  72  2.501116
  73  393.1288
  74  -160.2492
  75  -182.0942
  76  -1.641026
  77  258.4251
  78  -105.9834
  79  -86.20741
  80  -85.71735
  81  -167.9949
  82  -321.5418
  83  -260.0297
  84  -205.0069
  85  -434.5986
  86  -164.3711
  87  -153.5566
  88  -477.588
  89  -110.6981
  90  102.7993
  91  69.46539
  92  -53.3253
  93  -217.8521
  94  91.03024
  95  40.41204
  96  113.6877
  97  125.1169
  98  -83.89342
  99  139.2282
 100  263.8004
 101  47.53854
 102  23.26028
 103  46.11167
 104  225.4471
 105  5.7654
 106  185.8697
 107  526.2377
 108  608.8016
 109  355.0726
 110  514.801
 111  324.088
 112  224.7604
 113  169.959
 114  715.6036
 115  795.0402
 116  301.0348
 117  154.9188
 118  479.2016
 119  124.8815
 120  282.2594
 121  7.608895
 122  42.38726
 123  30.215
 124  362.6285
 125  447.1503
 126  -38.86512
 127  91.84995
 128  290.178
 129  326.0655
 130  -157.0106
 131  -241.7288
 132  228.3676
 133  296.0343
 134  216.9375
 135  -173.9848
 136  -364.5331
 137  -432.5178
 138  -74.65405
 139  79.30972
 140  -146.1062
 141  -314.9279
 142  -96.89069
 143  -427.6221
 144  -406.384
 145  -509.5453
 146  -303.4804
 147  42.78311
 148  94.34501
 149  112.0852
 150  -143.2434
 151  -536.8258
 152  -605.9921
 153  -60.76572
 154  104.5181
 155  -52.36604
 156  -246.1552
 157  25.73666
 158  236.9524
 159  274.4985
 160  265.6503
 161  371.2385
 162  461.2505
 163  214.7972
 164  102.6338
 165  -35.49162
 166  -50.82527
 167  395.2691
 168  279.689
 169  319.4519
 170  53.29618
 171  131.5058
 172  283.0739
 173  183.5035
 174  294.7449
 175  121.4857
 176  362.9591
 177  312.6628
 178  39.45928
 179  193.5163
 180  -24.92752
 181  153.4243
 182  421.1068
 183  198.5178
 184  240.4455
 185  129.1533
 186  621.9873
 187  546.6412
 188  338.9135
 189  268.8772
 190  165.4448
 191  178.7444
 192  160.4489
 193  96.82841
 194  275.4032
 195  100.3536
 196  248.1267
 197  298.1492
 198  119.4945
 199  293.5466
 200  170.3958
 201  93.73753
 202  37.87785
 203  292.6597
 204  403.7023
 205  341.273
 206  236.2085
 207  33.16752
 208  246.847
 209  157.14
 210  588.9553
 211  556.3909
 212  416.4152
 213  56.56696
 214  108.6857
 215  462.4912
 216  90.53246
 217  -168.3313
 218  48.67606
 219  -210.0513
 220  -218.9006
 221  -22.64643
 222  420.9958
 223  165.8236
 224  -122.1274
 225  26.88615
 226  -112.7408
 227  -264.8078
 228  -185.6697
 229  114.7743
 230  -79.14656
 231  136.4021
 232  29.96573
 233  56.12916
 234  153.6601
 235  134.029
 236  245.2438
 237  218.7208
 238  -97.99812
 239  -85.59944
 240  95.06989
 241  136.8922
 242  -41.75792
 243  120.131
 244  228.5292
 245  283.9507
 246  73.44626
 247  263.2786
 248  30.61585
 249  243.0683
 250  411.3506
 251  596.1994
 252  524.3268
 253  872.5512
 254  890.0624
 255  420.1957
 256  637.7108
 257  663.8135
 258  556.0909
 259  609.5212
 260  530.4684
 261  508.1156
 262  438.9529
 263  490.8637
 264  402.1606
 265  45.49452
 266  -366.0719
 267  -586.9483
 268  -489.4375
 269  -378.4098
 270  -512.2272
 271  -248.4842
 272  -169.3558
 273  -333.4178
 274  -630.0054
 275  -206.5941
 276  -19.7301
 277  -9.842658
 278  -29.74234
 279  98.01205
 280  14.78135
 281  -171.4251
 282  66.3314
 283  -27.50941
 284  210.8611
 285  123.5627
 286  -115.3146
 287  -126.4851
 288  -174.7598
 289  -110.6385
 290  -122.3448
 291  -70.85272
 292  220.5426
 293  300.7844
 294  397.8667
 295  -206.5258
 296  -168.4274
 297  131.363
 298  -71.16709
 299  -341.5299
 300  -316.4542
 301  -344.0268
 302  -317.1808
 303  -106.7863
 304  97.40739
 305  275.8253
 306  290.3512
 307  418.024
 308  556.2834
 309  579.3195
 310  819.3259
 311  654.7177
 312  647.6101
 313  671.5738
 314  637.5322
 315  887.1552
 316  940.3082
 317  658.163
 318  483.303
 319  110.7552
 320  295.5709
 321  307.8186
 322  402.0907
 323  609.1741
 324  425.8547
 325  648.8919
 326  451.4531
 327  170.0827
 328  231.2997
 329  534.4448
 330  635.5827
 331  355.3732
 332  442.7968
 333  407.9343
 334  -191.3072
 335  -271.0536
 336  -6.062637
 337  33.98538
 338  -141.9345
 339  -385.561
 340  -123.729
 341  -243.1208
 342  26.36669
 343  542.9476
 344  495.643
 345  383.3479
 346  355.2322
 347  95.49007
 348  -172.1956
 349  -317.0372
 350  8.573859
 351  187.7915
 352  -4.359131
 353  -334.8849
 354  -473.5197
 355  -108.4867
 356  -493.9236
 357  -554.5776
 358  -238.0055
 359  -206.2452
 360  -533.9465
 361  -591.5907
 362  -394.5764
 363  -145.2568
 364  -96.47328
 365  -37.28608
 366  -203.5516
 367  -155.6485
 368  3.420647
 369  64.51739
 370  97.4463
 371  -129.8982
 372  -370.597
 373  -556.148
 374  -286.1369
 375  -81.12048
 376  -258.1923
 377  -183.0939
 378  345.2183
 379  526.6382
 380  553.3497
 381  1190.002
 382  1606.886
 383  1306.547
 384  636.3331
 385  558.7017
 386  141.9834
 387  -252.7944
 388  -129.9737
 389  107.0534
 390  44.43686
 391  -356.8754
 392  -406.8156
 393  -131.7141
 394  67.03616
 395  -121.5118
 396  -0.9349674
 397  -70.76685
 398  -70.36556
 399  -238.2741
 400  -5.254224
 401  -86.46406
 402  -269.8725
 403  -311.6007
 404  -290.6531
 405  -250.1842
 406  68.17822
 407  80.85287
 408  -79.15411
 409  -43.61993
 410  18.38771
 411  114.375
 412  222.8393
 413  -13.15434
 414  -286.2566
 415  -214.9041
 416  -372.5248
 417  -169.3749
 418  -134.0006
 419  79.03677
 420  -153.0143
 421  -220.0123
 422  39.1969
 423  479.9692
 424  3.013606
 425  -43.33968
 426  -136.0724
 427  99.28891
 428  374.3877
 429  170.7805
 430  221.3964
 431  24.27596
 432  41.32642
 433  42.0672
 434  -128.2039
 435  -64.88557
 436  122.6409
 437  46.07761
 438  55.41089
 439  231.1523
 440  30.42815
 441  211.1064
 442  -60.33345
 443  -234.133
 444  -148.1728
 445  -231.3341
 446  -545.4125
 447  -868.8986
 448  -586.3136
 449  -460.9798
 450  -243.2109
 451  -380.8115
 452  -350.1757
 453  -513.7286
 454  -715.1814
 455  -747.1115
 456  -527.5278
 457  -404.7043
 458  -533.8052
 459  -339.0638
 460  -517.009
 461  -158.117
 462  -297.3856
 463  -545.9373
 464  -436.8441
 465  -392.3511
 466  -423.329
 467  -675.5275
 468  -380.4993
 469  -680.7221
 470  -889.7668
 471  -814.6447
 472  -752.8986
 473  -665.883
 474  -991.2938
 475  -1181.701
 476  -696.7768
 477  -527.8998
 478  -890.7532
 479  -551.4276
 480  -503.1718
 481  -336.0432
 482  -318.7413
 483  -406.8716
 484  -630.2614
 485  -1124.504
 486  -592.5101
 487  21.83598
 488  -629.0902
 489  -356.977
 490  53.94625
 491  105.6668
 492  47.94036
 493  101.833
 494  231.6794
 495  37.9849
 496  -60.93803
 497  180.3585
 498  320.9163
 499  58.5151
 500  -113.9425
 501  -312.5459
 502  -275.0983
 503  -226.7735
 504  67.62697
 505  156.7605
 506  138.0736
 507  15.8461
 508  -194.4869
 509  -67.60428
 510  96.17675
 511  86.74712
