# Input file       =  1195674484.107206-PSRB0329-2ms-sampling-dd.dat
# Candidate        =  PSR_0332+5434
# Telescope        =  AR
# Epoch_topo       =  58082.825267444518
# Epoch_bary       =  N/A
# T_sample         =  0.002
# Data Folded      =  7340032
# Data Avg         =  -1.3463871185169e-09
# Data StdDev      =  10.5804346164998 
# Profile Bins     =  512
# Profile Avg      =  0.0265235217197879
# Profile StdDev   =  1266.82756281937 
# Reduced chi-sqr  =  0.566
# Prob(Noise)      <  1   (~0.0 sigma)
# P_topo (ms)      =  714.520332268371  +/- 0.000127
# P'_topo (s/s)    =  -0                +/- 6.71e-11
# P''_topo (s/s^2) =  0                 +/- 2.96e-14
# P_bary (ms)      =  N/A
# P'_bary (s/s)    =  N/A
# P''_bary (s/s^2) =  N/A
# P_orb (s)        =  N/A
# asin(i)/c (s)    =  N/A
# eccentricity     =  N/A
# w (rad)          =  N/A
# T_peri           =  N/A
######################################################
   0  966.2657
   1  226.067
   2  -269.9076
   3  -204.1471
   4  51.35581
   5  -846.5172
   6  -885.6527
   7  -768.7687
   8  758.3347
   9  511.7576
  10  -650.5829
  11  -627.046
  12  391.4307
  13  726.284
  14  285.5202
  15  731.322
  16  1688.676
  17  1438.014
  18  790.4672
  19  607.3216
  20  25.58593
  21  -428.3376
  22  -340.5797
  23  727.3943
  24  -92.48869
  25  -526.729
  26  244.5559
  27  768.9728
  28  -677.734
  29  -569.7484
  30  -78.73873
  31  -202.7504
  32  -183.8492
  33  488.28
  34  -33.80899
  35  -765.3624
  36  -1055.511
  37  -492.4444
  38  -9.916185
  39  -175.9248
  40  318.5899
  41  296.0275
  42  1671.935
  43  1064.465
  44  1025.438
  45  863.9681
  46  714.4426
  47  1010.925
  48  -633.53
  49  -337.9174
  50  353.4549
  51  533.0228
  52  -161.3835
  53  -832.8141
  54  -498.6698
  55  446.2788
  56  938.5828
  57  916.6966
  58  290.9831
  59  397.7963
  60  -11.41835
  61  -222.2075
  62  -222.8412
  63  -130.3349
  64  -36.63234
  65  -635.5034
  66  -544.2468
  67  -1265.796
  68  -308.2369
  69  466.5335
  70  541.6545
  71  -9.883529
  72  393.9297
  73  -168.9409
  74  -451.808
  75  -1082.626
  76  -1072.004
  77  -2134.918
  78  -2065.375
  79  -1158.933
  80  -255.7932
  81  -1372.627
  82  -1072.344
  83  -67.05431
  84  -347.6242
  85  -1018.081
  86  -1264.95
  87  -212.112
  88  -207.3073
  89  -757.188
  90  -836.8568
  91  -1022.739
  92  -675.5704
  93  -399.4901
  94  -518.3646
  95  -380.1463
  96  -626.7469
  97  -204.9704
  98  -333.5878
  99  -960.226
 100  -475.6247
 101  174.1729
 102  -986.7587
 103  -734.7352
 104  -523.9545
 105  -1275.054
 106  -1918.798
 107  -858.8278
 108  173.9435
 109  -363.3524
 110  316.7643
 111  307.3443
 112  478.5755
 113  -145.1168
 114  -439.9106
 115  610.5267
 116  736.6417
 117  642.6017
 118  -439.9095
 119  -1041.936
 120  -1236.035
 121  -1116.986
 122  -224.1161
 123  37.71024
 124  37.57741
 125  -922.8209
 126  -512.6926
 127  17.23341
 128  353.7697
 129  242.3761
 130  -678.5602
 131  -465.4753
 132  -617.8486
 133  -491.7869
 134  -1283.996
 135  -1376.03
 136  -536.5477
 137  -362.8013
 138  6.108414
 139  -93.29384
 140  366.3151
 141  402.886
 142  -75.18948
 143  -2.886793
 144  8.210908
 145  -281.9089
 146  -287.2655
 147  137.7439
 148  -492.2149
 149  -1262.598
 150  -965.6238
 151  -25.64864
 152  208.8586
 153  158.764
 154  -208.9186
 155  -76.22691
 156  -133.1752
 157  -408.5883
 158  -272.6182
 159  -418.2359
 160  -145.0108
 161  247.9783
 162  273.3548
 163  -893.3339
 164  -968.0815
 165  -916.3637
 166  -511.7629
 167  -376.5877
 168  -663.8784
 169  -718.3495
 170  -546.5399
 171  -30.19463
 172  13.40908
 173  -435.0843
 174  -825.577
 175  -852.6827
 176  -341.8207
 177  -478.2759
 178  -1427.03
 179  -489.325
 180  -260.8018
 181  -155.4668
 182  -825.8806
 183  -761.0545
 184  -103.6646
 185  -323.0951
 186  -909.8533
 187  8.494041
 188  -210.4951
 189  -271.8832
 190  -128.3619
 191  -410.4151
 192  -1044.985
 193  -1158.682
 194  -1018.491
 195  -907.2742
 196  -396.1926
 197  -141.7504
 198  217.884
 199  160.0843
 200  -155.8326
 201  197.1628
 202  -240.0858
 203  -35.55624
 204  604.6183
 205  456.5291
 206  -712.1621
 207  -943.7331
 208  -268.8387
 209  -126.2098
 210  -391.0123
 211  -340.9504
 212  222.2757
 213  -332.01
 214  -18.52781
 215  383.1004
 216  648.0269
 217  526.8837
 218  367.7445
 219  873.8723
 220  192.011
 221  21.5722
 222  -148.3034
 223  -201.6257
 224  77.63616
 225  -539.2194
 226  -47.39679
 227  273.988
 228  143.2969
 229  402.6722
 230  164.5231
 231  -60.11762
 232  -334.9742
 233  -356.7445
 234  -786.7347
 235  -426.7004
 236  -451.7469
 237  -398.6422
 238  -66.97629
 239  -294.7617
 240  647.9927
 241  1451.152
 242  857.5281
 243  1270.067
 244  1282.916
 245  866.4631
 246  161.4103
 247  -639.6013
 248  -119.1606
 249  -310.3008
 250  202.625
 251  1058.005
 252  1134.659
 253  1487.589
 254  929.1421
 255  1317.609
 256  1442.304
 257  1015.125
 258  548.4384
 259  44.9583
 260  294.2613
 261  345.9024
 262  -147.3032
 263  159.4937
 264  411.0834
 265  1.093809
 266  -137.1395
 267  -1048.46
 268  -273.6632
 269  17.8891
 270  531.8093
 271  -9.603429
 272  781.619
 273  500.6313
 274  -274.451
 275  -5.355507
 276  -813.3273
 277  -300.7637
 278  -855.3148
 279  120.2377
 280  213.8264
 281  348.313
 282  560.4551
 283  184.0885
 284  196.1088
 285  365.9991
 286  -394.9135
 287  -669.9544
 288  336.2299
 289  443.5558
 290  699.8704
 291  1406.875
 292  1072.367
 293  1260.558
 294  738.9304
 295  618.2153
 296  184.2309
 297  -2.336991
 298  272.35
 299  719.4464
 300  370.1421
 301  212.5197
 302  -293.2246
 303  -401.9955
 304  -106.8535
 305  -102.7936
 306  -397.5014
 307  -575.1547
 308  -823.7032
 309  99.86469
 310  340.5527
 311  -57.88732
 312  178.2813
 313  -680.6667
 314  140.9283
 315  680.3523
 316  957.8894
 317  -374.5055
 318  -237.2308
 319  305.9574
 320  268.2097
 321  696.9458
 322  655.7113
 323  732.4594
 324  355.9839
 325  483.7951
 326  694.6568
 327  384.6413
 328  433.3902
 329  -356.3952
 330  -286.2742
 331  -378.9925
 332  -704.446
 333  -846.383
 334  -438.1671
 335  -953.2404
 336  -825.4675
 337  -253.2162
 338  461.5966
 339  466.0446
 340  98.39529
 341  164.3764
 342  147.8839
 343  -677.2269
 344  317.0042
 345  596.7371
 346  970.5262
 347  1146.333
 348  945.7754
 349  -459.1236
 350  -700.2184
 351  -759.945
 352  -564.0447
 353  -264.995
 354  -450.9275
 355  -534.3106
 356  -301.7658
 357  351.0141
 358  217.5377
 359  104.4032
 360  518.0208
 361  -448.6185
 362  -657.1422
 363  -363.7284
 364  -896.1857
 365  -95.18204
 366  616.6067
 367  717.8967
 368  -307.3688
 369  -1012.569
 370  -504.7356
 371  -736.6567
 372  -883.7073
 373  -981.7772
 374  -1354.34
 375  -695.7633
 376  -267.865
 377  -717.5965
 378  -832.6566
 379  -113.3839
 380  177.4149
 381  551.3507
 382  169.7453
 383  400.1597
 384  622.686
 385  413.5432
 386  60.62807
 387  172.7566
 388  45.72771
 389  5.010801
 390  -389.515
 391  -211.0003
 392  22.38282
 393  696.672
 394  891.3157
 395  1034.984
 396  898.9502
 397  568.8108
 398  509.4598
 399  475.9557
 400  410.2778
 401  325.6284
 402  404.6895
 403  -482.4806
 404  -640.2802
 405  396.6361
 406  -383.0685
 407  -906.178
 408  -1109.992
 409  -233.5518
 410  296.2126
 411  705.0795
 412  1498.751
 413  1928.187
 414  1555.518
 415  504.713
 416  194.4795
 417  -267.7487
 418  -1436.155
 419  -874.7402
 420  101.1476
 421  -302.1291
 422  -932.1843
 423  -619.6544
 424  -196.8828
 425  283.5662
 426  187.7421
 427  394.7997
 428  87.17028
 429  -246.3157
 430  -132.5085
 431  -764.0425
 432  -865.4934
 433  -731.4214
 434  62.77472
 435  577.3687
 436  796.4636
 437  452.8593
 438  301.9443
 439  1391.143
 440  1658.415
 441  1638.067
 442  1387.339
 443  1513.649
 444  2336.134
 445  1287.108
 446  241.8254
 447  -220.49
 448  250.556
 449  916.9968
 450  439.1656
 451  790.3273
 452  1640.498
 453  1646.786
 454  777.4319
 455  1294.368
 456  2078.664
 457  2064.453
 458  1775.723
 459  2131.594
 460  774.4711
 461  8.760271
 462  -153.9639
 463  629.6064
 464  290.3003
 465  -104.9789
 466  301.8479
 467  238.5756
 468  374.9682
 469  525.976
 470  423.0621
 471  331.7792
 472  -141.2327
 473  650.5605
 474  -511.9677
 475  90.57726
 476  633.1449
 477  427.8741
 478  -364.5909
 479  -607.8004
 480  -266.9409
 481  -138.6824
 482  130.2702
 483  260.3511
 484  752.6285
 485  -183.0966
 486  -84.68174
 487  -129.0597
 488  -387.0705
 489  -1325.64
 490  -1275.507
 491  -368.8448
 492  -1042.001
 493  -1152.434
 494  -737.3081
 495  207.6653
 496  1101.414
 497  810.983
 498  593.3026
 499  335.4406
 500  207.1205
 501  -66.80229
 502  753.3952
 503  182.3789
 504  589.4727
 505  244.2468
 506  61.91367
 507  -150.2326
 508  -276.723
 509  220.5522
 510  558.1668
 511  816.0333
