# Input file       =  1195588322.105109_cleaned.dat
# Candidate        =  PSR_0332+5434
# Telescope        =  AR
# Epoch_topo       =  58081.828022049871
# Epoch_bary       =  N/A
# T_sample         =  0.002
# Data Folded      =  7340032
# Data Avg         =  0.381593877424686
# Data StdDev      =  5.90234057567254 
# Profile Bins     =  256
# Profile Avg      =  10940.8334504242 
# Profile StdDev   =  999.432020251863 
# Reduced chi-sqr  =  0.640
# Prob(Noise)      <  1   (~0.0 sigma)
# P_topo (ms)      =  714.519298370578  +/- 0.000387
# P'_topo (s/s)    =  -0                +/- 2.04e-10
# P''_topo (s/s^2) =  0                 +/- 9.02e-14
# P_bary (ms)      =  N/A
# P'_bary (s/s)    =  N/A
# P''_bary (s/s^2) =  N/A
# P_orb (s)        =  N/A
# asin(i)/c (s)    =  N/A
# eccentricity     =  N/A
# w (rad)          =  N/A
# T_peri           =  N/A
######################################################
   0  10694.76
   1  11329.72
   2  12094.72
   3  11542.13
   4  10939.54
   5  10816.98
   6  11697.49
   7  11762.88
   8  11107.75
   9  10388.76
  10  10230.63
  11  10696.62
  12  11033.34
  13  10420.32
  14  12286.25
  15  10777.06
  16  10989.82
  17  11687.9
  18  10327.34
  19  11062.81
  20  10711.05
  21  10230.28
  22  10967
  23  11481.64
  24  10788.71
  25  10782
  26  11090.8
  27  11680.59
  28  11635.74
  29  10717.52
  30  10791.37
  31  12054.7
  32  11828.73
  33  11877.46
  34  11128.33
  35  10785.45
  36  10442.52
  37  10129.49
  38  10807.54
  39  10048.66
  40  10714.3
  41  10987.46
  42  10631.54
  43  10880.06
  44  10443.16
  45  11887.07
  46  10429.42
  47  9857.493
  48  10832.42
  49  10980.58
  50  11192.78
  51  10929.76
  52  11769.15
  53  11244.35
  54  10194.93
  55  11737.67
  56  10472.88
  57  10843.01
  58  10825.24
  59  11405.88
  60  11285.59
  61  10980.31
  62  11113.52
  63  11806.5
  64  10898.85
  65  10730.57
  66  11652.12
  67  10888.09
  68  10572.23
  69  12177.18
  70  11860.19
  71  11084.36
  72  9957.052
  73  11279.63
  74  11645.64
  75  10406.02
  76  10796.15
  77  11003.3
  78  11876.73
  79  11728
  80  11235.78
  81  11012.52
  82  10163.57
  83  10859.88
  84  10448.51
  85  10054.19
  86  11251.22
  87  11646.44
  88  11166.84
  89  10707.65
  90  10482.6
  91  10973.78
  92  10680.99
  93  9944.328
  94  10093.41
  95  11033.27
  96  10238.26
  97  10085.96
  98  11197.72
  99  10310.92
 100  10218.8
 101  10820.9
 102  10876.56
 103  10939.25
 104  10385.03
 105  10543.09
 106  10981.96
 107  12126.15
 108  11624.52
 109  11544.08
 110  11071.5
 111  10625.23
 112  11120
 113  9959.253
 114  10588.12
 115  10116.83
 116  10727.95
 117  10735.31
 118  9378.388
 119  9541.185
 120  9197.641
 121  9486.495
 122  10275.41
 123  9996.068
 124  11248.95
 125  11058.47
 126  11495.22
 127  11489.92
 128  11038.85
 129  11133.86
 130  10548.06
 131  10582.37
 132  10893.97
 133  10938.02
 134  11051.93
 135  10585.16
 136  12044.49
 137  10059.59
 138  10683.26
 139  11236.38
 140  10644.27
 141  11139.67
 142  10126.4
 143  10854.42
 144  9865.723
 145  9884.522
 146  10812.68
 147  10871.53
 148  11433.07
 149  10802.62
 150  11019.09
 151  9436.993
 152  10322.18
 153  12037.76
 154  12139.12
 155  12792.36
 156  13499.05
 157  14949.06
 158  12707.12
 159  11081.83
 160  10950.72
 161  9781.823
 162  9924.056
 163  10377.16
 164  11415.87
 165  10886.25
 166  10204.03
 167  10964
 168  10736.99
 169  10831.54
 170  11347.72
 171  11363.22
 172  12051.64
 173  10279.76
 174  11168.96
 175  11225.43
 176  10740.63
 177  11583.59
 178  12219.04
 179  11407.02
 180  10831.75
 181  11157.57
 182  11314.58
 183  10212.7
 184  10577.77
 185  11612.87
 186  11796.65
 187  10499.59
 188  10967.08
 189  10375.53
 190  10394.01
 191  11240.18
 192  11738.61
 193  11011.73
 194  10529.79
 195  9572.198
 196  11323.91
 197  11081.16
 198  10817.14
 199  11177.21
 200  10351.53
 201  10297.88
 202  10630.03
 203  10713.6
 204  10405.31
 205  10391.01
 206  10417.57
 207  10520.8
 208  10622.83
 209  10382.27
 210  10833.65
 211  11299.47
 212  11444.51
 213  11159.64
 214  10849.56
 215  11301.38
 216  10518.13
 217  10784.37
 218  11016.87
 219  11535.6
 220  11970.81
 221  11589.52
 222  10811.97
 223  10602.82
 224  9677.311
 225  9965.981
 226  9788.984
 227  10673.49
 228  10509.53
 229  10292.27
 230  10245.58
 231  11292.78
 232  10865.17
 233  9989.569
 234  10880.54
 235  10519.41
 236  10671.39
 237  11138.46
 238  10744.47
 239  12096.59
 240  11448.42
 241  10822.46
 242  11438.72
 243  11585.69
 244  11466.94
 245  10617.25
 246  11154.57
 247  12272.55
 248  11501.68
 249  11564.8
 250  11995.5
 251  11312.01
 252  10436.15
 253  10181.02
 254  11478.59
 255  11239.78
