# Input file       =  1195416006.108325_cleaned.dat
# Candidate        =  PSR_0332+5434
# Telescope        =  AR
# Epoch_topo       =  58079.833623938946
# Epoch_bary       =  N/A
# T_sample         =  0.002
# Data Folded      =  7340032
# Data Avg         =  0.112581910932039
# Data StdDev      =  1.00030286633317 
# Profile Bins     =  512
# Profile Avg      =  1613.95655075348 
# Profile StdDev   =  119.769299482452 
# Reduced chi-sqr  =  0.574
# Prob(Noise)      <  1   (~0.0 sigma)
# P_topo (ms)      =  714.517231110612  +/- 6.24e-05
# P'_topo (s/s)    =  -0                +/- 3.29e-11
# P''_topo (s/s^2) =  0                 +/- 1.45e-14
# P_bary (ms)      =  N/A
# P'_bary (s/s)    =  N/A
# P''_bary (s/s^2) =  N/A
# P_orb (s)        =  N/A
# asin(i)/c (s)    =  N/A
# eccentricity     =  N/A
# w (rad)          =  N/A
# T_peri           =  N/A
######################################################
   0  1813.22
   1  1759.742
   2  1689.556
   3  1636.078
   4  1613.351
   5  1563.507
   6  1527.202
   7  1554.336
   8  1558.423
   9  1539.717
  10  1567.214
  11  1529.647
  12  1621.333
  13  1616.072
  14  1642.42
  15  1592.32
  16  1676.693
  17  1740.642
  18  1727.826
  19  1633.278
  20  1564.255
  21  1496.326
  22  1570.621
  23  1654.759
  24  1622.308
  25  1581.449
  26  1581.136
  27  1655.377
  28  1580.218
  29  1602.968
  30  1602.888
  31  1670.233
  32  1679.613
  33  1684.027
  34  1621.41
  35  1560.15
  36  1577.499
  37  1676.02
  38  1693.18
  39  1681.57
  40  1737.11
  41  1727.245
  42  1694.167
  43  1709.613
  44  1695.152
  45  1674.606
  46  1698.345
  47  1732.298
  48  1711.454
  49  1663.322
  50  1698.659
  51  1621.059
  52  1640.585
  53  1618.043
  54  1548.792
  55  1572.947
  56  1619.902
  57  1593.475
  58  1482.779
  59  1583.408
  60  1608.365
  61  1538.912
  62  1516.885
  63  1554.346
  64  1593.533
  65  1586.746
  66  1618.232
  67  1620.825
  68  1643.198
  69  1610.607
  70  1703.589
  71  1645.597
  72  1591.241
  73  1606.933
  74  1663.623
  75  1667.257
  76  1664.801
  77  1694.182
  78  1575.199
  79  1554.92
  80  1527.284
  81  1579.09
  82  1587.459
  83  1638.221
  84  1732.239
  85  1647.866
  86  1598.683
  87  1579.935
  88  1587.39
  89  1577.826
  90  1508.773
  91  1571.099
  92  1628.775
  93  1600.228
  94  1572.206
  95  1580.92
  96  1541.88
  97  1623.78
  98  1610.417
  99  1737.466
 100  1686.924
 101  1663.482
 102  1642.03
 103  1615.062
 104  1581.609
 105  1642.321
 106  1674.512
 107  1610.746
 108  1594.456
 109  1628.285
 110  1582.957
 111  1688.879
 112  1659.133
 113  1655.97
 114  1639.607
 115  1554.668
 116  1578.645
 117  1647.862
 118  1735.99
 119  1694.557
 120  1619.699
 121  1628.478
 122  1577.352
 123  1587.809
 124  1569.128
 125  1591.188
 126  1609.578
 127  1670.021
 128  1636.969
 129  1602.54
 130  1537.663
 131  1530.601
 132  1558.332
 133  1594.696
 134  1567.237
 135  1585.741
 136  1608.026
 137  1602.782
 138  1638.255
 139  1576.272
 140  1524.527
 141  1627.944
 142  1653.459
 143  1612.427
 144  1527.803
 145  1541.114
 146  1584.441
 147  1579.227
 148  1607.891
 149  1556.589
 150  1547.361
 151  1551.017
 152  1711.761
 153  1615.19
 154  1626.882
 155  1646.497
 156  1707.719
 157  1744.762
 158  1664.788
 159  1689.55
 160  1648.878
 161  1636.942
 162  1668.251
 163  1678.243
 164  1582.016
 165  1525.952
 166  1622.19
 167  1647.739
 168  1628.394
 169  1600.05
 170  1720
 171  1691.458
 172  1544.669
 173  1456.877
 174  1559.173
 175  1617.354
 176  1637.356
 177  1654.805
 178  1673.986
 179  1620.394
 180  1568.495
 181  1689.869
 182  1596.661
 183  1618.802
 184  1647.627
 185  1649.388
 186  1559.294
 187  1556.17
 188  1612.046
 189  1612.449
 190  1617.799
 191  1648.056
 192  1650.212
 193  1704.843
 194  1680.722
 195  1658.887
 196  1693.971
 197  1602.983
 198  1633.643
 199  1762.073
 200  1718.649
 201  1565.057
 202  1559.506
 203  1651.289
 204  1720.834
 205  1633.151
 206  1685.452
 207  1596.626
 208  1559.972
 209  1586.821
 210  1637.605
 211  1605.71
 212  1658.822
 213  1676.55
 214  1653.609
 215  1545.285
 216  1576.639
 217  1556.961
 218  1616.568
 219  1632.881
 220  1560.636
 221  1479.737
 222  1424.416
 223  1480.88
 224  1472.918
 225  1448.409
 226  1618.125
 227  1680.534
 228  1676.645
 229  1606.899
 230  1492.549
 231  1498.896
 232  1500.737
 233  1520.473
 234  1444.572
 235  1506.957
 236  1582.307
 237  1632.628
 238  1646.586
 239  1594.794
 240  1550.362
 241  1615.464
 242  1618.178
 243  1587.507
 244  1505.758
 245  1582.557
 246  1587.973
 247  1616.942
 248  1553.273
 249  1613.994
 250  1603.346
 251  1580.047
 252  1625.715
 253  1664.29
 254  1618.94
 255  1585.143
 256  1670.927
 257  1651.697
 258  1681.556
 259  1624.476
 260  1591.454
 261  1574.715
 262  1646.425
 263  1697.75
 264  1676.36
 265  1655.836
 266  1673.565
 267  1663.708
 268  1595.998
 269  1628.624
 270  1653.252
 271  1631.698
 272  1667.569
 273  1618.378
 274  1633.547
 275  1636.161
 276  1649.318
 277  1650.546
 278  1531.141
 279  1582.9
 280  1639.691
 281  1632.595
 282  1637.027
 283  1600.187
 284  1631.161
 285  1750.451
 286  1693.083
 287  1602.612
 288  1508.127
 289  1591.558
 290  1563.473
 291  1477.167
 292  1494.622
 293  1543.337
 294  1641.269
 295  1723.544
 296  1634.397
 297  1646.877
 298  1645.582
 299  1704.925
 300  1768.165
 301  1629.708
 302  1636.539
 303  1564.41
 304  1508.72
 305  1528.119
 306  1662.091
 307  1697.087
 308  1610.43
 309  1633.879
 310  1704.531
 311  1679.836
 312  1656.917
 313  1635.233
 314  1722.748
 315  1635.932
 316  1589.917
 317  1598.572
 318  1536.054
 319  1584.23
 320  1616.015
 321  1628.256
 322  1562.271
 323  1643.964
 324  1787.358
 325  1624.94
 326  1616.168
 327  1664.205
 328  1672.038
 329  1652.238
 330  1589.34
 331  1600.797
 332  1598.445
 333  1645.59
 334  1615.703
 335  1601.909
 336  1514.453
 337  1572.288
 338  1666.506
 339  1615.691
 340  1534.7
 341  1633.446
 342  1756.119
 343  1635.855
 344  1623.477
 345  1608.434
 346  1710.037
 347  1608.48
 348  1532.311
 349  1569.321
 350  1557.482
 351  1548.697
 352  1593.795
 353  1622.142
 354  1602.392
 355  1539.685
 356  1505.704
 357  1685.198
 358  1651.811
 359  1559.533
 360  1565.77
 361  1561.792
 362  1517.205
 363  1571.331
 364  1566.384
 365  1617.206
 366  1491.84
 367  1630.663
 368  1578.97
 369  1484.915
 370  1496.526
 371  1661.083
 372  1615.956
 373  1509.183
 374  1481.695
 375  1525.802
 376  1585.092
 377  1573.841
 378  1583.484
 379  1522.338
 380  1527.826
 381  1625.863
 382  1705.403
 383  1673.206
 384  1707.263
 385  1793.79
 386  1695.38
 387  1555.572
 388  1509.911
 389  1550.86
 390  1539.832
 391  1592.969
 392  1637.504
 393  1639.266
 394  1579.985
 395  1567.426
 396  1544.954
 397  1526.969
 398  1463.628
 399  1551.558
 400  1706.079
 401  1712
 402  1650.505
 403  1664.899
 404  1649.977
 405  1553.969
 406  1599.734
 407  1520.622
 408  1603.981
 409  1561.499
 410  1657.384
 411  1569.545
 412  1373.868
 413  1455.97
 414  1603.29
 415  1579.102
 416  1569.05
 417  1623.693
 418  1586.876
 419  1600.629
 420  1574.625
 421  1661.312
 422  1686.708
 423  1700.074
 424  1781.926
 425  1701.78
 426  1592.704
 427  1601.592
 428  1668.935
 429  1676.932
 430  1671.978
 431  1648.479
 432  1691.063
 433  1730.276
 434  1703.46
 435  1663.902
 436  1569.343
 437  1531.978
 438  1600.055
 439  1651.897
 440  1545.533
 441  1545.933
 442  1588.353
 443  1549.499
 444  1491.896
 445  1566.751
 446  1619.665
 447  1698.596
 448  1592.125
 449  1606.14
 450  1635.549
 451  1677.972
 452  1674.709
 453  1629.448
 454  1565.116
 455  1562.381
 456  1593.477
 457  1699.512
 458  1646.943
 459  1546.763
 460  1491.022
 461  1559.489
 462  1626.945
 463  1618.124
 464  1700.072
 465  1662.195
 466  1598.834
 467  1640.299
 468  1571.839
 469  1569.88
 470  1515.873
 471  1609.628
 472  1660.875
 473  1605.49
 474  1612.858
 475  1655.228
 476  1583.127
 477  1575.682
 478  1600.087
 479  1632.361
 480  1623.293
 481  1557.554
 482  1691.789
 483  1656.771
 484  1672.771
 485  1644.337
 486  1719.018
 487  1665.993
 488  1569.188
 489  1617.146
 490  1630.295
 491  1596.529
 492  1604.386
 493  1578.564
 494  1601.084
 495  1547.008
 496  1537.476
 497  1589.63
 498  1606.162
 499  1622.621
 500  1612.87
 501  1606.223
 502  1535.401
 503  1484.946
 504  1555.8
 505  1647.319
 506  1604.746
 507  1581.732
 508  1627.492
 509  1750.057
 510  1872.193
 511  1868.986
