# Input file       =  1195315227.114825-PSRB0329-2ms-sampling-dd.dat
# Candidate        =  PSR_0332+5434
# Telescope        =  AR
# Epoch_topo       =  58078.667200403070
# Epoch_bary       =  N/A
# T_sample         =  0.002
# Data Folded      =  7208960
# Data Avg         =  3.08828273689055e-10
# Data StdDev      =  34.9299993957459 
# Profile Bins     =  512
# Profile Avg      =  0.146645786465691
# Profile StdDev   =  4144.76493876773 
# Reduced chi-sqr  =  0.553
# Prob(Noise)      <  1   (~0.0 sigma)
# P_topo (ms)      =  714.51600270017   +/- 0.000686
# P'_topo (s/s)    =  -0                +/- 3.68e-10
# P''_topo (s/s^2) =  0                 +/- 1.66e-13
# P_bary (ms)      =  N/A
# P'_bary (s/s)    =  N/A
# P''_bary (s/s^2) =  N/A
# P_orb (s)        =  N/A
# asin(i)/c (s)    =  N/A
# eccentricity     =  N/A
# w (rad)          =  N/A
# T_peri           =  N/A
######################################################
   0  -1683.084
   1  -1983.604
   2  592.3362
   3  1858.394
   4  -510.4552
   5  -2742.015
   6  -4385.179
   7  -3737.626
   8  -3089.436
   9  -3500.09
  10  -1535.504
  11  -899.1282
  12  -925.5868
  13  437.1231
  14  1482.954
  15  899.9623
  16  -41.4888
  17  2802.693
  18  2712.998
  19  714.2855
  20  1571.152
  21  1586.896
  22  615.2391
  23  -346.6239
  24  1364.427
  25  -1622.357
  26  -2304.314
  27  3912.82
  28  4541.895
  29  3993.713
  30  832.8546
  31  1502.273
  32  1695.443
  33  -2354.538
  34  -1053.441
  35  -1762.326
  36  -1826.947
  37  -919.8586
  38  326.4188
  39  -1113.025
  40  -3409.335
  41  -4681.277
  42  -2315.051
  43  2516.964
  44  379.1717
  45  289.661
  46  587.7938
  47  403.0853
  48  1202.007
  49  1315.364
  50  2253.714
  51  2688.836
  52  3104.906
  53  2670.113
  54  -688.4947
  55  -1451.655
  56  1486.177
  57  2361.767
  58  1052.36
  59  -1101.217
  60  -1198.174
  61  -1679.563
  62  -279.8803
  63  2524.51
  64  3053.807
  65  1756.866
  66  1634.864
  67  2372.159
  68  -585.2764
  69  -1670.315
  70  -231.481
  71  -423.1716
  72  395.8578
  73  381.8855
  74  1686.165
  75  -570.1346
  76  -1577.252
  77  -1156.875
  78  -1114.864
  79  -2435.218
  80  -1975.605
  81  -331.6043
  82  -569.129
  83  -2391.408
  84  -833.4363
  85  1322.428
  86  1398.061
  87  667.2612
  88  316.0159
  89  -722.5454
  90  -1611.934
  91  -1579.646
  92  680.8367
  93  415.5848
  94  -1233.95
  95  -692.2175
  96  -2648.59
  97  -1734.525
  98  -404.7122
  99  2298.221
 100  207.369
 101  -1121.201
 102  -286.7397
 103  -361.3929
 104  2447.411
 105  1273.479
 106  557.8542
 107  -2147.707
 108  -3860.376
 109  -3550.148
 110  -364.1223
 111  -695.2725
 112  -2046.889
 113  -1013.303
 114  339.0751
 115  1223.243
 116  2034.788
 117  1902.081
 118  1050.928
 119  259.9906
 120  176.4403
 121  633.5165
 122  562.2075
 123  1376.902
 124  1953.516
 125  3928.595
 126  -5.054838
 127  196.8936
 128  107.1334
 129  -570.9302
 130  -870.5121
 131  1435.188
 132  3054.539
 133  3214.612
 134  2515.118
 135  1247.256
 136  -164.664
 137  -1223.909
 138  653.3824
 139  -41.83744
 140  1208.291
 141  1377.004
 142  4246.733
 143  4235.693
 144  5860.502
 145  3617.582
 146  4639.772
 147  2355.415
 148  2064.259
 149  4261.461
 150  1760.327
 151  2560.678
 152  2878.894
 153  2324.701
 154  565.3762
 155  -678.5868
 156  -1425.699
 157  -1236.046
 158  -649.3246
 159  -1232.213
 160  -1190.45
 161  -839.4055
 162  -2062.145
 163  -3141.345
 164  -1361.799
 165  -689.8901
 166  -71.5527
 167  -1073.401
 168  765.0622
 169  -808.5254
 170  -1721.608
 171  848.0703
 172  4259.153
 173  3331.603
 174  2704.07
 175  3767.111
 176  3930.458
 177  3845.082
 178  3552.825
 179  2755.637
 180  2616.999
 181  2107.814
 182  2641.511
 183  -284.5298
 184  -2308.013
 185  427.5076
 186  936.9014
 187  2918.273
 188  656.2119
 189  -704.7943
 190  -1312.353
 191  -1633.051
 192  1312.562
 193  544.9064
 194  -148.2453
 195  996.5901
 196  -518.8903
 197  -231.1863
 198  -514.111
 199  673.9669
 200  -1176.669
 201  -1163.107
 202  -3261.388
 203  -2693.463
 204  -2802.402
 205  -3156.099
 206  -3007.64
 207  -1670.268
 208  -2452.371
 209  -347.132
 210  -455.4524
 211  -1445.614
 212  -3679.638
 213  -3204.056
 214  -4005.007
 215  -3635.342
 216  786.154
 217  250.6938
 218  -1752.053
 219  -3075.935
 220  -3313.854
 221  -43.07231
 222  -1362.665
 223  532.0753
 224  -2665.704
 225  -3095.621
 226  -2506.323
 227  -2411.962
 228  138.047
 229  267.0702
 230  772.2495
 231  -1071.665
 232  -1695.521
 233  -2781.947
 234  -1370.124
 235  1.816637
 236  -1370.119
 237  -888.0732
 238  -975.8547
 239  -1107.245
 240  -341.6316
 241  738.4935
 242  1190.524
 243  -1088.918
 244  -1689.629
 245  -850.1458
 246  174.1049
 247  1748.368
 248  1846.606
 249  421.3906
 250  586.3746
 251  -1435.281
 252  -1025.796
 253  -572.6761
 254  -1666.575
 255  -2936.988
 256  -3332.138
 257  -448.6062
 258  -373.1254
 259  106.6581
 260  -1772.488
 261  -1526.175
 262  -975.898
 263  -2092.898
 264  1159.993
 265  -1618.731
 266  -1555.169
 267  -822.7214
 268  -1591.972
 269  -4471.887
 270  -4911.224
 271  -3036.241
 272  -1777.898
 273  -29.44269
 274  -1307.041
 275  -1509.987
 276  -3245.617
 277  -3719.366
 278  -1685.445
 279  1089.588
 280  440.8682
 281  -36.23939
 282  1762.845
 283  1806.143
 284  -791.4874
 285  -768.7021
 286  2556.005
 287  2061.157
 288  1361.822
 289  2573.329
 290  1496.368
 291  -1759.202
 292  -737.8298
 293  -1085.322
 294  -623.9109
 295  1910.527
 296  4293.326
 297  4329.843
 298  -1062.753
 299  -1457.814
 300  -1918.642
 301  -1357.57
 302  734.9266
 303  -228.4909
 304  -826.8208
 305  -2799.258
 306  -3416.739
 307  -2540.463
 308  -4392.812
 309  -5557.387
 310  -4421.807
 311  -2487.281
 312  -1544.248
 313  -2476.627
 314  274.8578
 315  1583.648
 316  -38.50959
 317  -969.7934
 318  -1390.869
 319  -2412.561
 320  -3790.379
 321  -1491.911
 322  -1991.971
 323  -405.6526
 324  -95.06376
 325  358.1539
 326  713.3319
 327  -8.617981
 328  2683.248
 329  3025.779
 330  1709.147
 331  2987.036
 332  2364.281
 333  10.85042
 334  -1265.254
 335  -2088.139
 336  -233.4696
 337  -370.7128
 338  2744.383
 339  2437.769
 340  -984.0067
 341  -3164.185
 342  -1731.271
 343  -793.6558
 344  -179.7476
 345  558.8051
 346  1196.068
 347  981.1524
 348  -751.6216
 349  -1588.94
 350  -2280.242
 351  -100.1404
 352  -1117.497
 353  -841.2604
 354  -1064.974
 355  -1236.382
 356  -2799.808
 357  806.5742
 358  1710.284
 359  3741.509
 360  2667.59
 361  2701.171
 362  867.9418
 363  -108.1474
 364  1591.651
 365  1127.147
 366  2475.967
 367  -857.1671
 368  -3137.646
 369  -516.7174
 370  -2739.57
 371  -1758.342
 372  -943.1919
 373  -192.8158
 374  128.8696
 375  -4114.782
 376  -3920.688
 377  -4396.931
 378  -3060.265
 379  -2303.802
 380  -2902.419
 381  -1884.087
 382  -2594.397
 383  -502.1538
 384  -2536.325
 385  -698.8129
 386  -982.2389
 387  -2796.101
 388  -2296.997
 389  64.68225
 390  617.8092
 391  -1333.929
 392  -779.9844
 393  809.2476
 394  -2356.948
 395  -2829.312
 396  676.5173
 397  1290.34
 398  1982.038
 399  2591.784
 400  4527.788
 401  3305.186
 402  2363.115
 403  2330.746
 404  1372.597
 405  1749.855
 406  1580.472
 407  344.5191
 408  -504.2458
 409  176.5757
 410  -1188.13
 411  487.18
 412  1492.725
 413  -3210.892
 414  3016.033
 415  2234.469
 416  -4554.138
 417  7466.123
 418  10135.19
 419  10621.29
 420  1442.429
 421  2927.9
 422  5242.105
 423  -975.3708
 424  1955.802
 425  3093.001
 426  3412.72
 427  3143.017
 428  2983.643
 429  2048.865
 430  -98.35793
 431  884.5414
 432  1688.091
 433  2811.833
 434  1237.766
 435  2584.36
 436  3489.448
 437  -456.1305
 438  -3010.075
 439  -3356.182
 440  -3380.067
 441  -462.4709
 442  -1033.907
 443  2587.197
 444  2518.452
 445  1579.739
 446  -1279.106
 447  -815.5678
 448  1111.156
 449  3566.075
 450  4590.866
 451  -486.6376
 452  -3682.333
 453  -2467.563
 454  -1966.813
 455  -794.4333
 456  -985.2811
 457  -88.07558
 458  -2132.944
 459  -1347.148
 460  1654.646
 461  807.3308
 462  -1287.427
 463  -3343.027
 464  -2516.69
 465  -8.31111
 466  462.5561
 467  2399.997
 468  1049.702
 469  -760.3812
 470  -956.2391
 471  420.7058
 472  708.201
 473  -336.4455
 474  1853.396
 475  1653.05
 476  720.708
 477  -1333.483
 478  -1805.879
 479  -942.4354
 480  -1502.82
 481  -1895.63
 482  1380.219
 483  1692.566
 484  2577.468
 485  -528.2152
 486  1869.044
 487  2154.451
 488  1061.314
 489  3816.727
 490  6172.899
 491  5013.608
 492  3387.436
 493  3348.147
 494  -132.5121
 495  -2039.817
 496  -1142.384
 497  1846.798
 498  3702.906
 499  4417.151
 500  6436.811
 501  1341.566
 502  -1904.172
 503  -15.02755
 504  -2554.544
 505  -2245.854
 506  -1431.36
 507  88.70631
 508  -366.7934
 509  -2693.79
 510  -3064.953
 511  -3286.373
