# Input file       =  1195947911.114979_cleaned.dat
# Candidate        =  PSR_0332+5434
# Telescope        =  AR
# Epoch_topo       =  58085.989931886332
# Epoch_bary       =  N/A
# T_sample         =  0.002
# Data Folded      =  7340032
# Data Avg         =  0.0269919066839436
# Data StdDev      =  1.00015765790638 
# Profile Bins     =  512
# Profile Avg      =  386.957649997984 
# Profile StdDev   =  119.751913236606 
# Reduced chi-sqr  =  0.732
# Prob(Noise)      <  1   (~0.0 sigma)
# P_topo (ms)      =  714.523950388071  +/- 0.000297
# P'_topo (s/s)    =  -0                +/- 1.57e-10
# P''_topo (s/s^2) =  0                 +/- 6.93e-14
# P_bary (ms)      =  N/A
# P'_bary (s/s)    =  N/A
# P''_bary (s/s^2) =  N/A
# P_orb (s)        =  N/A
# asin(i)/c (s)    =  N/A
# eccentricity     =  N/A
# w (rad)          =  N/A
# T_peri           =  N/A
######################################################
   0  382.7256
   1  343.5926
   2  341.479
   3  289.4137
   4  351.5236
   5  399.6003
   6  400.2332
   7  388.0196
   8  287.6282
   9  343.9927
  10  364.4485
  11  432.1947
  12  369.4826
  13  424.0108
  14  497.4371
  15  376.2271
  16  454.1706
  17  456.1287
  18  392.4423
  19  383.7997
  20  337.5996
  21  404.4888
  22  424.7444
  23  408.3562
  24  394.118
  25  284.0763
  26  382.6514
  27  433.5151
  28  383.7246
  29  368.0599
  30  344.8786
  31  251.3708
  32  260.6011
  33  292.2434
  34  319.4099
  35  323.9584
  36  371.0446
  37  325.1664
  38  283.5921
  39  233.0758
  40  304.6033
  41  425.5402
  42  351.7363
  43  249.6675
  44  297.9004
  45  455.5308
  46  382.2696
  47  347.2524
  48  286.3207
  49  236.0637
  50  279.5802
  51  268.0501
  52  204.3225
  53  227.7454
  54  272.049
  55  268.7483
  56  116.8729
  57  201.2806
  58  258.7115
  59  327.3408
  60  291.9809
  61  342.3714
  62  470.2825
  63  476.4947
  64  485.2624
  65  453.5259
  66  323.2316
  67  252.8451
  68  339.1057
  69  386.1517
  70  406.4391
  71  239.3863
  72  163.3777
  73  208.8033
  74  396.3117
  75  460.5311
  76  373.6604
  77  410.2266
  78  345.3721
  79  320.2422
  80  319.0327
  81  373.9717
  82  366.5789
  83  379.0686
  84  404.6391
  85  363.5862
  86  323.0934
  87  347.3042
  88  411.3564
  89  374.3842
  90  466.7617
  91  399.9423
  92  460.4163
  93  374.1061
  94  386.7219
  95  502.4395
  96  523.6759
  97  579.2764
  98  576.3183
  99  364.1876
 100  397.7276
 101  345.802
 102  374.8788
 103  490.1224
 104  618.0156
 105  614.0609
 106  558.5089
 107  372.9318
 108  452.0346
 109  467.077
 110  472.2517
 111  413.6412
 112  429.8953
 113  416.4965
 114  338.1956
 115  347.5883
 116  307.1679
 117  354.7519
 118  445.8858
 119  468.003
 120  445.0216
 121  370.6927
 122  433.7184
 123  421.5417
 124  392.8375
 125  375.5312
 126  386.2145
 127  389.0985
 128  422.21
 129  394.8847
 130  439.0382
 131  525.3054
 132  532.4087
 133  476.6359
 134  434.8503
 135  483.1481
 136  446.5286
 137  427.3753
 138  389.4385
 139  428.4337
 140  500.4139
 141  601.3458
 142  491.9921
 143  400.7482
 144  494.9468
 145  465.1491
 146  460.2755
 147  477.0957
 148  466.9647
 149  443.8982
 150  387.6364
 151  419.3625
 152  433.1886
 153  295.6959
 154  285.7301
 155  450.0863
 156  410.9559
 157  340.8381
 158  449.5143
 159  353.7771
 160  362.1134
 161  350.7686
 162  419.7685
 163  341.4769
 164  302.7737
 165  313.1407
 166  433.5172
 167  402.9144
 168  354.0741
 169  402.3724
 170  413.2164
 171  333.4021
 172  370.8154
 173  348.6716
 174  371.587
 175  449.7927
 176  548.3223
 177  509.7806
 178  356.7856
 179  441.7381
 180  443.2457
 181  403.1445
 182  452.7375
 183  403.9081
 184  367.6276
 185  428.0104
 186  483.463
 187  363.5771
 188  286.5857
 189  348.7906
 190  446.5364
 191  498.8731
 192  436.4538
 193  444.6505
 194  531.6918
 195  416.758
 196  396.3744
 197  416.2973
 198  473.4523
 199  429.1624
 200  361.7378
 201  368.3099
 202  352.8068
 203  417.9583
 204  441.1219
 205  346.3291
 206  398.4416
 207  326.4279
 208  359.993
 209  335.4763
 210  367.7974
 211  437.8824
 212  381.3065
 213  454.9083
 214  466.7583
 215  547.6325
 216  508.1297
 217  498.5435
 218  555.5144
 219  424.9831
 220  384.5423
 221  389.365
 222  444.9898
 223  418.4956
 224  346.6236
 225  352.8985
 226  405.2132
 227  426.7996
 228  386.2155
 229  336.4825
 230  391.6831
 231  336.7942
 232  328.2969
 233  481.8128
 234  487.254
 235  576.1111
 236  580.9857
 237  492.0905
 238  394.8741
 239  354.4648
 240  412.4933
 241  395.7523
 242  349.5139
 243  325.8188
 244  316.2209
 245  243.1134
 246  299.7487
 247  392.7601
 248  461.6963
 249  449.8778
 250  425.7554
 251  401.4819
 252  367.3381
 253  188.0997
 254  343.3966
 255  439.2207
 256  409.0258
 257  363.5095
 258  418.8391
 259  448.5954
 260  332.7352
 261  371.0707
 262  508.3882
 263  413.7225
 264  381.075
 265  395.0249
 266  398.9754
 267  271.9355
 268  252.0318
 269  266.2522
 270  281.8335
 271  319.3723
 272  308.0236
 273  352.8064
 274  349.3223
 275  320.3136
 276  426.2154
 277  456.3586
 278  344.2251
 279  326.9118
 280  320.3677
 281  271.7256
 282  341.576
 283  421.5803
 284  387.5812
 285  431.0376
 286  477.9537
 287  416.872
 288  356.7096
 289  443.3695
 290  504.4081
 291  430.522
 292  421.8545
 293  351.6707
 294  350.9555
 295  414.5393
 296  421.8875
 297  420.0633
 298  361.4886
 299  399.2176
 300  388.8114
 301  422.2376
 302  360.6057
 303  352.8777
 304  464.0397
 305  361.7212
 306  461.6116
 307  500.6143
 308  463.1146
 309  470.8055
 310  451.6972
 311  508.4287
 312  455.8397
 313  399.5298
 314  419.3959
 315  449.5117
 316  497.8761
 317  443.2017
 318  501.7396
 319  418.1048
 320  413.5329
 321  444.2309
 322  436.9362
 323  436.0772
 324  384.072
 325  394.6572
 326  499.2392
 327  538.6266
 328  449.445
 329  348.9837
 330  443.7046
 331  425.7349
 332  348.0434
 333  335.296
 334  448.3685
 335  427.7979
 336  350.3507
 337  299.1922
 338  250.5149
 339  368.8173
 340  347.2097
 341  346.8302
 342  422.556
 343  465.8114
 344  428.5889
 345  434.0852
 346  403.1585
 347  486.4953
 348  464.7841
 349  378.0524
 350  429.3842
 351  482.0566
 352  356.4712
 353  375.8625
 354  298.2846
 355  312.137
 356  412.0897
 357  379.5899
 358  363.8214
 359  441.0301
 360  395.2095
 361  367.7473
 362  441.7246
 363  345.8543
 364  253.0116
 365  348.8374
 366  427.2106
 367  315.2219
 368  285.9713
 369  342.5198
 370  361.1369
 371  320.2994
 372  339.9857
 373  294.4385
 374  375.755
 375  453.3659
 376  409.8605
 377  316.9333
 378  360.0866
 379  354.8188
 380  338.6761
 381  366.6974
 382  335.6216
 383  362.4971
 384  467.4142
 385  368.4045
 386  307.6472
 387  426.8493
 388  342.1339
 389  226.1038
 390  245.244
 391  320.0675
 392  302.153
 393  438.392
 394  406.0076
 395  364.4549
 396  328.0832
 397  319.663
 398  277.5641
 399  237.1317
 400  255.6212
 401  319.7443
 402  316.221
 403  371.9669
 404  437.9232
 405  427.7064
 406  334.7843
 407  356.4076
 408  316.4088
 409  397.0508
 410  431.5233
 411  418.8528
 412  372.6735
 413  446.0342
 414  507.3543
 415  560.2939
 416  665.2591
 417  588.4277
 418  472.93
 419  474.3828
 420  327.0566
 421  330.4485
 422  284.4721
 423  293.2961
 424  320.8246
 425  299.9663
 426  443.4293
 427  390.8696
 428  414.291
 429  419.993
 430  425.7755
 431  367.5233
 432  408.2184
 433  383.8579
 434  361.7747
 435  299.1141
 436  308.3202
 437  337.0507
 438  326.3503
 439  328.5937
 440  389.308
 441  389.2798
 442  405.9755
 443  413.2704
 444  316.355
 445  276.4846
 446  295.9023
 447  321.8478
 448  398.1383
 449  342.6371
 450  357.7958
 451  268.444
 452  344.7691
 453  362.6423
 454  401.7699
 455  397.557
 456  441.4099
 457  477.396
 458  430.9619
 459  359.5637
 460  379.4559
 461  386.0039
 462  416.2727
 463  464.1208
 464  409.0379
 465  331.8374
 466  488.5674
 467  453.2211
 468  242.4853
 469  336.9637
 470  352.112
 471  453.8326
 472  351.407
 473  393.7195
 474  378.7047
 475  396.2098
 476  381.1823
 477  412.9329
 478  445.0736
 479  376.0079
 480  348.2658
 481  372.2223
 482  294.8332
 483  346.632
 484  436.1658
 485  315.016
 486  277.2269
 487  422.3819
 488  395.9315
 489  360.3072
 490  340.9498
 491  406.3724
 492  373.6577
 493  437.0309
 494  498.0526
 495  443.0994
 496  383.8691
 497  366.8835
 498  366.4323
 499  318.2894
 500  373.4329
 501  347.4162
 502  370.3336
 503  409.1261
 504  333.9492
 505  335.4794
 506  295.4578
 507  364.8081
 508  346.9743
 509  306.5145
 510  230.6857
 511  287.094
