# Input file       =  1195315227.114825_cleaned.dat
# Candidate        =  PSR_0332+5434
# Telescope        =  AR
# Epoch_topo       =  58078.667200403070
# Epoch_bary       =  N/A
# T_sample         =  0.002
# Data Folded      =  7143424
# Data Avg         =  1.30218302923652 
# Data StdDev      =  30.6661693874867 
# Profile Bins     =  512
# Profile Avg      =  18168.0958014923 
# Profile StdDev   =  3622.2445195311  
# Reduced chi-sqr  =  0.460
# Prob(Noise)      <  1   (~0.0 sigma)
# P_topo (ms)      =  714.516002677223  +/- 0.000291
# P'_topo (s/s)    =  -0                +/- 1.58e-10
# P''_topo (s/s^2) =  0                 +/- 7.16e-14
# P_bary (ms)      =  N/A
# P'_bary (s/s)    =  N/A
# P''_bary (s/s^2) =  N/A
# P_orb (s)        =  N/A
# asin(i)/c (s)    =  N/A
# eccentricity     =  N/A
# w (rad)          =  N/A
# T_peri           =  N/A
######################################################
   0  18765.88
   1  16919.24
   2  17950.74
   3  18638.94
   4  20663.74
   5  21439.18
   6  18026.38
   7  19259.38
   8  18167.57
   9  18549.27
  10  19045.67
  11  20898.18
  12  21852.23
  13  22605.3
  14  20707.31
  15  19373.81
  16  17913.89
  17  17829.21
  18  18475.92
  19  18730.7
  20  19189.75
  21  19967.29
  22  21540.58
  23  20632.37
  24  21287.64
  25  19979.26
  26  21096.55
  27  18896.53
  28  19896.25
  29  21790.97
  30  18578.52
  31  19555.89
  32  19982.5
  33  19112.39
  34  18886.37
  35  16997.98
  36  17984.54
  37  17809.38
  38  18382.81
  39  17427.51
  40  17579.2
  41  18242.81
  42  16668.72
  43  16761.61
  44  19017.96
  45  19108.33
  46  17892.36
  47  18390.88
  48  18870.14
  49  17169.82
  50  17454.7
  51  20284.18
  52  21235.23
  53  18902
  54  18903.16
  55  20894.79
  56  21202.14
  57  22751.62
  58  21820.16
  59  20146.58
  60  20489.4
  61  20216.93
  62  21962.16
  63  17458.98
  64  17973.83
  65  19710.85
  66  21088.69
  67  21390.48
  68  19290.54
  69  18020.92
  70  17035.65
  71  17885.18
  72  19955.43
  73  17885.61
  74  17897.74
  75  18253.04
  76  16091.39
  77  16931.22
  78  16340.21
  79  17386.98
  80  15208.92
  81  16219.35
  82  15268.42
  83  16639.69
  84  16362.23
  85  14405.37
  86  15991.67
  87  16239.33
  88  17032.22
  89  17873.45
  90  17096.66
  91  15870.55
  92  15234.5
  93  16388.96
  94  14909
  95  15318.38
  96  18887.94
  97  17509.98
  98  16700.07
  99  14975.5
 100  15583.72
 101  17244.05
 102  15818.44
 103  17421.45
 104  14055.41
 105  15329.18
 106  15499.32
 107  16967.57
 108  17969.14
 109  18810.73
 110  18346.42
 111  17516.72
 112  16328.8
 113  16741.01
 114  19648.76
 115  18899.93
 116  18528.71
 117  18232.27
 118  17669.85
 119  17385.54
 120  19207.69
 121  19515.31
 122  20176.55
 123  17377.99
 124  17625.4
 125  17994.85
 126  18538.28
 127  20062.39
 128  20607.14
 129  19818.15
 130  19353.54
 131  18867.78
 132  19205.64
 133  19529.16
 134  17656.71
 135  16832.12
 136  17874.78
 137  19472.1
 138  19463.86
 139  19146.01
 140  17539.35
 141  18068.74
 142  17388.47
 143  17695.36
 144  19467.83
 145  15999.78
 146  17008.63
 147  16456.41
 148  16603.5
 149  14032.68
 150  14984.48
 151  16663.38
 152  17617.98
 153  17444.18
 154  17766.94
 155  17691.31
 156  16177.23
 157  15745.35
 158  17438.34
 159  18685.08
 160  16386.88
 161  18021.98
 162  20290.79
 163  20554.31
 164  16509.48
 165  18763.25
 166  19072.03
 167  18106.46
 168  17187.58
 169  17667.37
 170  16225.91
 171  14434.19
 172  16073.93
 173  16179.91
 174  17051.04
 175  18850.93
 176  19841.62
 177  18587.66
 178  14711.89
 179  16868.52
 180  17408.01
 181  18640.12
 182  19627.99
 183  18730.55
 184  18246.13
 185  15502.19
 186  16083.35
 187  15847.13
 188  13907.69
 189  13755.1
 190  14452.93
 191  16721.96
 192  14701.72
 193  15135.41
 194  17374.84
 195  18548.49
 196  17510.83
 197  18206.57
 198  17937.25
 199  17090.99
 200  17224.61
 201  18429.7
 202  17654.85
 203  17786.54
 204  19128.93
 205  18505.35
 206  20130.47
 207  19522.27
 208  22650.41
 209  20591.26
 210  21366.56
 211  21167.19
 212  19213.34
 213  17440.19
 214  17329.9
 215  17647.01
 216  17855.04
 217  18952
 218  20929.45
 219  20327.45
 220  16954.29
 221  16657.5
 222  18977.17
 223  19713.52
 224  20195.03
 225  19749.44
 226  21116.32
 227  20126.53
 228  19144.15
 229  18253.51
 230  18278.28
 231  19224.04
 232  18867.88
 233  17957.94
 234  17247.07
 235  15774.66
 236  17737.59
 237  20729.64
 238  20146.43
 239  20058.62
 240  18184.79
 241  17877.01
 242  15898.07
 243  17311.92
 244  17110.88
 245  17709.98
 246  19030.7
 247  16394.88
 248  15621.89
 249  17682.38
 250  15511.61
 251  17811.19
 252  17544.96
 253  17879.66
 254  17943.67
 255  14329.53
 256  16126.06
 257  15056.97
 258  16154.65
 259  14511.04
 260  15138.23
 261  16550.01
 262  17658.95
 263  18217.54
 264  17574.65
 265  19033.47
 266  18323.65
 267  15946.81
 268  15991.75
 269  17112.85
 270  17966.28
 271  16541.13
 272  18324.85
 273  18430.98
 274  14051.14
 275  15635.74
 276  18647.93
 277  19944.43
 278  19491.71
 279  20402.7
 280  20385.67
 281  20064.47
 282  19895.59
 283  19890.19
 284  18398.78
 285  18151.63
 286  17450.81
 287  17303.03
 288  17454.42
 289  17804.71
 290  18214.24
 291  19715.35
 292  18118.05
 293  17621.36
 294  21509.28
 295  19165.73
 296  18478.8
 297  17780.69
 298  18503.61
 299  21866.85
 300  21451.32
 301  22441.26
 302  20309.01
 303  19178.49
 304  21125.2
 305  21996.11
 306  20900.48
 307  20891.81
 308  20244.23
 309  19368.23
 310  16341.61
 311  18721.21
 312  20158.33
 313  19718.53
 314  18477.26
 315  20394.52
 316  20636.71
 317  16556.08
 318  15851.72
 319  14907.86
 320  15953.53
 321  17007.84
 322  17299.49
 323  19519.74
 324  19039.15
 325  17855.07
 326  16893.56
 327  16898.28
 328  18162.67
 329  18197.79
 330  17871.08
 331  14082.03
 332  13710.18
 333  16924.98
 334  16151.14
 335  17901.62
 336  17567.12
 337  18728.04
 338  16553.65
 339  17445.02
 340  19415.45
 341  18183.07
 342  16584.34
 343  14530.87
 344  16502.96
 345  18113.02
 346  19582.7
 347  20753.28
 348  19133.09
 349  17200.55
 350  17116.75
 351  18856.59
 352  18714.87
 353  18260.47
 354  20033.77
 355  20073.04
 356  18852.69
 357  17487.92
 358  16980.05
 359  18724.09
 360  15483.28
 361  17743.89
 362  18813.88
 363  21088.41
 364  19878.1
 365  18610.06
 366  21045.6
 367  19818.02
 368  19249.96
 369  21720.74
 370  21811.86
 371  18948.76
 372  17885.7
 373  17913.05
 374  17607.79
 375  16434.34
 376  17060.39
 377  16118.62
 378  18363.07
 379  18868.51
 380  21846.12
 381  18858.19
 382  18495.98
 383  19238.91
 384  15827.95
 385  16432.91
 386  16001.88
 387  17813.68
 388  16916.85
 389  15695.31
 390  16735.82
 391  16058.14
 392  17953.35
 393  17438.79
 394  20930.88
 395  21330.62
 396  18824.53
 397  16877.14
 398  15052.5
 399  15318.9
 400  15422.79
 401  16149.56
 402  17362.82
 403  16463.26
 404  17167.99
 405  18424.16
 406  18694.4
 407  17566.77
 408  18558.5
 409  20987.61
 410  20176.39
 411  19329.15
 412  19273.31
 413  18348.93
 414  15754.14
 415  16517.58
 416  18338.08
 417  16465.85
 418  17062.88
 419  21835.27
 420  20387.81
 421  19414.05
 422  16604.06
 423  18565.26
 424  18763.22
 425  16750.87
 426  19556.11
 427  16111.68
 428  16134.54
 429  16125.18
 430  17217.45
 431  16733.34
 432  14930.57
 433  15523.65
 434  19120.29
 435  21839.27
 436  19207.54
 437  19274.12
 438  19282.13
 439  18816.77
 440  20670.94
 441  19830.73
 442  20458.64
 443  19949.57
 444  19907.17
 445  19622.97
 446  16441.97
 447  17636.86
 448  19988.11
 449  20458.7
 450  17750.64
 451  18481.02
 452  17226.78
 453  16918.63
 454  17413.74
 455  18082.96
 456  17953.81
 457  18107.14
 458  19861.67
 459  19791.2
 460  17216.46
 461  16694.34
 462  19500.49
 463  18197.48
 464  18412.86
 465  17932.14
 466  19632.23
 467  16374.89
 468  17745.49
 469  18808.98
 470  18003.83
 471  17000.18
 472  17435.03
 473  18853.91
 474  17710.31
 475  16661.37
 476  18195.59
 477  19222.82
 478  18065.83
 479  18875.5
 480  18775.5
 481  17236.86
 482  15634.72
 483  16711.14
 484  18884.36
 485  17276.93
 486  17461.4
 487  17379.95
 488  15689.69
 489  15959.07
 490  19531.62
 491  21557.03
 492  19472.46
 493  16779.61
 494  18036
 495  19652.09
 496  22217.38
 497  20474.83
 498  20354.93
 499  17079.57
 500  15639.9
 501  16493.45
 502  19478.14
 503  19286.48
 504  16613.98
 505  17784.12
 506  16843.84
 507  19164.59
 508  19501.47
 509  21303.49
 510  20721.7
 511  18748.48
