# Input file       =  1195947911.114979-PSRB0329-2ms-sampling-dd.dat
# Candidate        =  PSR_0332+5434
# Telescope        =  AR
# Epoch_topo       =  58085.989931886332
# Epoch_bary       =  N/A
# T_sample         =  0.002
# Data Folded      =  7340032
# Data Avg         =  4.79758493372794e-11
# Data StdDev      =  8.99193928711937 
# Profile Bins     =  512
# Profile Avg      =  0.0302199652167977
# Profile StdDev   =  1076.63219376234 
# Reduced chi-sqr  =  0.587
# Prob(Noise)      <  1   (~0.0 sigma)
# P_topo (ms)      =  714.523950388071  +/- 0.000175
# P'_topo (s/s)    =  -0                +/- 9.23e-11
# P''_topo (s/s^2) =  0                 +/- 4.08e-14
# P_bary (ms)      =  N/A
# P'_bary (s/s)    =  N/A
# P''_bary (s/s^2) =  N/A
# P_orb (s)        =  N/A
# asin(i)/c (s)    =  N/A
# eccentricity     =  N/A
# w (rad)          =  N/A
# T_peri           =  N/A
######################################################
   0  -235.5694
   1  -669.0182
   2  -1128.053
   3  -1206.328
   4  -644.8925
   5  -65.57633
   6  24.60851
   7  424.7304
   8  14.37669
   9  146.0447
  10  -254.7027
  11  -511.4714
  12  -406.1153
  13  -146.0062
  14  808.546
  15  1054.638
  16  1214.179
  17  704.2236
  18  69.8415
  19  196.334
  20  -452.2437
  21  -201.319
  22  114.0827
  23  5.939332
  24  -377.8068
  25  -1143.131
  26  -622.7814
  27  -581.0288
  28  -973.8393
  29  -888.7878
  30  -834.4087
  31  -835.0024
  32  -1310.937
  33  -1099.911
  34  -753.4024
  35  -844.612
  36  -363.9592
  37  -201.1705
  38  -356.463
  39  -896.8109
  40  -434.9924
  41  66.11506
  42  -898.7559
  43  -1024.145
  44  -755.0298
  45  357.1261
  46  18.98107
  47  -415.1671
  48  -563.2548
  49  -1232.772
  50  -1375.349
  51  -1147.894
  52  -1248.971
  53  -849.2541
  54  -722.5741
  55  -471.0719
  56  -1217.044
  57  -1392.9
  58  -1123.822
  59  -681.8784
  60  -630.2123
  61  249.7061
  62  894.9385
  63  289.295
  64  -353.3827
  65  -22.9384
  66  -431.1477
  67  -439.1116
  68  328.991
  69  629.3726
  70  230.0991
  71  -517.7587
  72  -230.2595
  73  124.3697
  74  1268.115
  75  818.325
  76  492.418
  77  594.23
  78  -316.4122
  79  -490.4315
  80  -369.3985
  81  99.76131
  82  204.0132
  83  44.67043
  84  -8.92139
  85  -789.6896
  86  -830.4257
  87  -780.991
  88  -116.2797
  89  337.9495
  90  655.3004
  91  238.9234
  92  33.80717
  93  -448.7007
  94  -144.3265
  95  824.3709
  96  829.673
  97  1327.073
  98  1480.036
  99  226.2173
 100  120.1541
 101  -55.23495
 102  3.876478
 103  371.7025
 104  846.4669
 105  1417.881
 106  1213.666
 107  227.8887
 108  689.5392
 109  662.8007
 110  860.1462
 111  790.7756
 112  1053.998
 113  1020.268
 114  -45.50811
 115  9.794528
 116  -709.1092
 117  -164.5448
 118  414.2846
 119  721.382
 120  909.3862
 121  539.1002
 122  1136.6
 123  304.6599
 124  -210.2642
 125  -693.4135
 126  0.8683138
 127  567.254
 128  88.16732
 129  667.0596
 130  669.7514
 131  783.2198
 132  247.0472
 133  371.1341
 134  1007.535
 135  868.7936
 136  708.3304
 137  847.6014
 138  672.5603
 139  500.9805
 140  661.4728
 141  1296.02
 142  1029.999
 143  624.4911
 144  664.6873
 145  361.4503
 146  -47.36008
 147  -21.72637
 148  267.9438
 149  268.361
 150  174.4425
 151  961.5546
 152  1081.318
 153  545.3893
 154  331.1961
 155  913.4046
 156  932.6351
 157  202.171
 158  615.5384
 159  173.6846
 160  12.46975
 161  -348.7367
 162  382.4465
 163  622.8657
 164  83.86067
 165  199.7714
 166  489.7536
 167  257.9622
 168  159.5222
 169  150.2085
 170  792.4057
 171  233.3958
 172  271.4103
 173  86.97884
 174  434.9299
 175  604.8878
 176  1164.901
 177  1426.627
 178  891.8773
 179  1024.724
 180  877.1959
 181  549.9594
 182  562.2321
 183  140.8636
 184  695.1493
 185  1126.576
 186  1431.614
 187  758.4274
 188  -3.809716
 189  843.6859
 190  652.6985
 191  941.3406
 192  661.5488
 193  542.8132
 194  756.574
 195  -168.5093
 196  -132.7738
 197  -83.67038
 198  326.9907
 199  367.2279
 200  -393.7528
 201  391.9177
 202  262.993
 203  1069.601
 204  1255.13
 205  403.4972
 206  818.357
 207  244.337
 208  561.443
 209  430.8639
 210  632.4379
 211  503.7513
 212  -431.0646
 213  -30.94577
 214  32.59451
 215  603.1627
 216  382.9019
 217  513.047
 218  975.2015
 219  357.3593
 220  78.22318
 221  -155.3878
 222  176.1206
 223  322.7185
 224  0.08462315
 225  -296.4613
 226  130.0684
 227  420.5875
 228  -31.29075
 229  -409.0402
 230  414.4066
 231  129.5734
 232  100.3776
 233  912.7971
 234  1285.946
 235  1227.094
 236  931.8977
 237  723.7752
 238  45.0848
 239  -513.1751
 240  -98.0364
 241  21.2898
 242  31.95864
 243  -568.9021
 244  -299.4366
 245  -884.7422
 246  -1112.342
 247  -536.4539
 248  221.6837
 249  579.2166
 250  43.24484
 251  119.0384
 252  309.2906
 253  -933.6187
 254  -274.9062
 255  195.587
 256  -60.50703
 257  -736.0528
 258  -10.97315
 259  631.9778
 260  145.184
 261  -69.82408
 262  356.6351
 263  382.4553
 264  -273.6674
 265  -312.7407
 266  25.41352
 267  -633.036
 268  -779.2571
 269  -576.0218
 270  -279.9387
 271  -571.3083
 272  -969.8467
 273  -258.4127
 274  -199.0753
 275  -100.8612
 276  344.5431
 277  517.059
 278  -561.5284
 279  -991.6179
 280  -522.1553
 281  -418.7929
 282  278.5235
 283  448.3307
 284  476.3595
 285  573.6556
 286  204.9118
 287  112.7314
 288  -18.80148
 289  169.4502
 290  604.4006
 291  864.1919
 292  688.0546
 293  -121.493
 294  -132.0898
 295  -342.558
 296  -770.2829
 297  -276.0612
 298  103.6933
 299  802.5496
 300  254.375
 301  673.3604
 302  263.6706
 303  -280.2847
 304  325.2953
 305  -39.98115
 306  579.9595
 307  742.3452
 308  436.7833
 309  653.7496
 310  308.8106
 311  727.3537
 312  534.1155
 313  523.7528
 314  784.5613
 315  1033.836
 316  1333.26
 317  884.3741
 318  685.6367
 319  489.8133
 320  261.2061
 321  677.6699
 322  117.7785
 323  13.31046
 324  -69.83688
 325  -83.64564
 326  675.9806
 327  816.2426
 328  537.8373
 329  -323.9023
 330  352.91
 331  352.0831
 332  -246.6963
 333  18.43213
 334  204.7131
 335  364.1495
 336  -511.6002
 337  -620.4463
 338  -632.2567
 339  -358.2228
 340  -336.3853
 341  -352.4357
 342  523.0012
 343  140.8375
 344  383.0191
 345  264.0049
 346  173.3573
 347  491.1059
 348  579.725
 349  250.5159
 350  169.3334
 351  666.256
 352  59.19619
 353  213.9333
 354  -165.33
 355  23.54115
 356  373.8436
 357  223.3789
 358  416.2822
 359  573.4084
 360  -49.40921
 361  -390.8463
 362  181.1785
 363  299.6957
 364  -568.0708
 365  -333.5459
 366  215.1215
 367  -717.6122
 368  -1159.727
 369  -882.0908
 370  -503.7277
 371  -448.0733
 372  -482.9775
 373  -207.7288
 374  100.1785
 375  124.8573
 376  12.80408
 377  53.29483
 378  181.1379
 379  -244.0703
 380  -0.9734704
 381  -110.8295
 382  -873.124
 383  -537.3608
 384  -104.2451
 385  -477.6271
 386  -1036.073
 387  -135.0789
 388  -536.4
 389  -1178.822
 390  -943.6348
 391  -872.8636
 392  -626.6623
 393  -104.4744
 394  -177.7168
 395  -12.8545
 396  -713.3195
 397  -779.4901
 398  -943.6808
 399  -823.7452
 400  -802.6731
 401  -689.4959
 402  19.47309
 403  170.201
 404  -151.4515
 405  -121.4215
 406  -398.467
 407  -257.235
 408  -1244.716
 409  -313.9914
 410  -141.5894
 411  -215.0021
 412  -271.8167
 413  568.5734
 414  501.2697
 415  58.70919
 416  668.2156
 417  543.2829
 418  309.0632
 419  400.6279
 420  -168.1451
 421  -649.1501
 422  -1033.107
 423  -1078.667
 424  -837.442
 425  -1370.529
 426  -713.6273
 427  -270.784
 428  327.5031
 429  145.1601
 430  12.71318
 431  -273.6338
 432  -231.1512
 433  -351.3482
 434  -445.4495
 435  -741.1367
 436  -290.6356
 437  -265.0374
 438  8.111981
 439  -185.1321
 440  -755.0298
 441  -960.9401
 442  -575.6641
 443  -297.6486
 444  -731.1428
 445  -159.0593
 446  103.5246
 447  25.82817
 448  -61.06558
 449  -482.6367
 450  -473.0798
 451  -763.2373
 452  172.0198
 453  94.84982
 454  -233.1299
 455  -208.4163
 456  -235.6957
 457  348.5832
 458  -60.11754
 459  181.7125
 460  -57.73232
 461  -76.9278
 462  404.4474
 463  -49.62526
 464  -269.0788
 465  -827.8441
 466  -16.33596
 467  39.70153
 468  -1058.933
 469  -355.0791
 470  -720.4626
 471  -292.6777
 472  -968.8165
 473  -466.0305
 474  -493.5745
 475  -648.5315
 476  37.84224
 477  132.8333
 478  170.1842
 479  -529.1813
 480  -901.5514
 481  -773.515
 482  -1249.744
 483  -695.6546
 484  -81.93927
 485  -58.66767
 486  -275.1051
 487  235.3225
 488  -44.78315
 489  -262.3241
 490  -327.243
 491  -410.8557
 492  -651.4513
 493  -171.2579
 494  148.8926
 495  20.43047
 496  -80.23521
 497  -181.4498
 498  -304.5194
 499  -1036.904
 500  -1022.961
 501  -1132.632
 502  -590.2349
 503  -278.2377
 504  -771.2504
 505  -543.9388
 506  -778.6277
 507  -582.4894
 508  -1085.341
 509  -996.6188
 510  -652.2606
 511  -728.5751
