# Input file       =  1195416006.108325_cleaned.dat
# Candidate        =  PSR_0332+5434
# Telescope        =  AR
# Epoch_topo       =  58079.833623938946
# Epoch_bary       =  N/A
# T_sample         =  0.002
# Data Folded      =  7340032
# Data Avg         =  1.45828597964802 
# Data StdDev      =  13.9503499496083 
# Profile Bins     =  256
# Profile Avg      =  41811.8065443427 
# Profile StdDev   =  2362.1860268151  
# Reduced chi-sqr  =  0.531
# Prob(Noise)      <  1   (~0.0 sigma)
# P_topo (ms)      =  714.517232422729  +/- 0.000101
# P'_topo (s/s)    =  -0                +/- 5.35e-11
# P''_topo (s/s^2) =  0                 +/- 2.36e-14
# P_bary (ms)      =  N/A
# P'_bary (s/s)    =  N/A
# P''_bary (s/s^2) =  N/A
# P_orb (s)        =  N/A
# asin(i)/c (s)    =  N/A
# eccentricity     =  N/A
# w (rad)          =  N/A
# T_peri           =  N/A
######################################################
   0  40888.86
   1  42736.5
   2  40574.91
   3  42196.21
   4  41689.91
   5  39762.3
   6  38903.15
   7  40013.22
   8  42347.6
   9  40504.64
  10  41288.18
  11  41448.43
  12  37091.91
  13  38382.02
  14  38780.58
  15  42885.83
  16  40352.73
  17  39014.14
  18  39672.46
  19  39411.43
  20  41308.98
  21  40315.05
  22  41827.43
  23  41834.51
  24  39836.68
  25  40972.11
  26  40636.48
  27  42012.36
  28  40767.05
  29  39256.04
  30  43414.6
  31  41594.02
  32  42922.36
  33  43819.76
  34  43657
  35  41855.57
  36  42919.77
  37  43756.85
  38  43248.82
  39  42974.86
  40  40021.45
  41  40569.45
  42  42140.61
  43  42332.51
  44  42202.52
  45  40441.65
  46  42059.31
  47  38896.25
  48  40575.7
  49  43417.63
  50  41377.19
  51  42279.46
  52  41366.84
  53  39745.07
  54  40723.47
  55  42524.41
  56  42467.3
  57  41623.65
  58  43748.6
  59  41346.04
  60  39697.9
  61  40154.76
  62  40811.71
  63  44859.29
  64  44205.11
  65  43670.16
  66  45243.84
  67  42534.13
  68  42938.31
  69  41334.03
  70  42842.95
  71  41251.84
  72  42817.47
  73  42565.23
  74  40917.01
  75  40513.2
  76  39530.74
  77  41475.9
  78  41306.29
  79  39906.07
  80  44724.14
  81  40392.24
  82  42438.23
  83  41429.48
  84  40675.15
  85  40608.79
  86  39549.14
  87  41997.13
  88  39734.58
  89  41378.79
  90  41195.13
  91  41449.61
  92  43044.59
  93  44529.54
  94  43965.6
  95  41703.06
  96  41494.15
  97  41814.52
  98  40963.71
  99  42284.99
 100  40439.79
 101  42261.7
 102  42681.29
 103  42058.47
 104  41622.85
 105  40638.43
 106  42274.3
 107  38819.05
 108  38863.87
 109  41152.2
 110  41514.24
 111  41746.77
 112  42266.35
 113  44366.85
 114  42565.16
 115  41709.55
 116  42753.05
 117  41563.76
 118  43071.21
 119  41470.66
 120  39397.08
 121  39883.55
 122  41417.38
 123  42027.25
 124  42130.96
 125  43214.95
 126  41449.74
 127  42963.42
 128  40582.95
 129  41126.81
 130  44515.36
 131  40587.36
 132  41956.9
 133  42040.07
 134  41610
 135  40805.95
 136  41092.02
 137  42840.12
 138  42468.34
 139  41840.95
 140  40922.36
 141  41789.21
 142  42082.39
 143  42767.84
 144  43977.06
 145  42190.86
 146  40415.09
 147  40439.99
 148  39897.61
 149  40409.44
 150  42655.65
 151  41137.41
 152  42056.89
 153  40842.57
 154  43530
 155  41093.34
 156  43969.85
 157  45138.46
 158  42698.46
 159  42107.9
 160  39065.46
 161  40019.56
 162  39451.94
 163  40310.16
 164  41522.08
 165  43054.51
 166  44067.87
 167  41221.87
 168  40197.07
 169  41208.02
 170  42043.89
 171  43143.26
 172  43385.45
 173  44311.14
 174  44588.08
 175  42291.55
 176  45376.18
 177  44849.8
 178  44387.14
 179  45900.82
 180  45727.54
 181  43387.17
 182  42244.68
 183  41080.77
 184  40594.84
 185  42229
 186  42714.11
 187  41593.25
 188  40683.32
 189  41540.98
 190  43352.05
 191  43516.45
 192  41247.53
 193  42325.78
 194  42236.29
 195  41689.63
 196  40863.63
 197  40464.64
 198  39938.23
 199  42087.41
 200  41631.67
 201  40850.86
 202  40070.35
 203  40587.86
 204  40842.67
 205  39972.64
 206  42062.16
 207  45719.89
 208  44676.8
 209  42408.96
 210  41678.53
 211  41678.82
 212  40100.67
 213  42779.42
 214  41580.13
 215  42141.02
 216  43993.42
 217  44551.13
 218  41214.66
 219  40419.66
 220  39693.32
 221  41377.26
 222  41772.21
 223  41520.71
 224  40856.04
 225  40612.9
 226  41437.28
 227  40366.31
 228  42091.51
 229  42101.54
 230  41654.25
 231  41194.98
 232  41305.81
 233  41734.31
 234  41047.23
 235  42784.48
 236  43340.1
 237  42603.98
 238  43537.54
 239  42185.65
 240  40867.45
 241  42090.66
 242  43303.53
 243  43537.31
 244  41683.99
 245  42474.38
 246  42321.38
 247  41793.05
 248  42186.81
 249  42711.55
 250  43854.6
 251  41470.92
 252  43539.42
 253  43258.02
 254  44138.75
 255  43902.67
