# Input file       =  1195674484.107206_cleaned.dat
# Candidate        =  PSR_0332+5434
# Telescope        =  AR
# Epoch_topo       =  58082.825267444518
# Epoch_bary       =  N/A
# T_sample         =  0.002
# Data Folded      =  7340032
# Data Avg         =  0.114536878845331
# Data StdDev      =  1.00032925537891 
# Profile Bins     =  512
# Profile Avg      =  1642.0072593125  
# Profile StdDev   =  119.772459123026 
# Reduced chi-sqr  =  0.774
# Prob(Noise)      <  1   (~0.0 sigma)
# P_topo (ms)      =  714.520332268371  +/- 7.44e-05
# P'_topo (s/s)    =  -0                +/- 3.92e-11
# P''_topo (s/s^2) =  0                 +/- 1.73e-14
# P_bary (ms)      =  N/A
# P'_bary (s/s)    =  N/A
# P''_bary (s/s^2) =  N/A
# P_orb (s)        =  N/A
# asin(i)/c (s)    =  N/A
# eccentricity     =  N/A
# w (rad)          =  N/A
# T_peri           =  N/A
######################################################
   0  1690.458
   1  1587.717
   2  1604.451
   3  1704.171
   4  1670.685
   5  1608.603
   6  1645.4
   7  1604.827
   8  1711.043
   9  1736.525
  10  1709.037
  11  1624.115
  12  1691.025
  13  1668.627
  14  1568.179
  15  1607.867
  16  1699.385
  17  1662.374
  18  1692.504
  19  1746.418
  20  1692.876
  21  1600.207
  22  1654.05
  23  1688.101
  24  1586.422
  25  1537.751
  26  1712.032
  27  1778.555
  28  1696.337
  29  1604.45
  30  1625.351
  31  1683.625
  32  1640.836
  33  1710.323
  34  1683.162
  35  1609.149
  36  1600.219
  37  1684.275
  38  1671.266
  39  1621.607
  40  1625.954
  41  1590.882
  42  1710.287
  43  1752.274
  44  1786.526
  45  1695.472
  46  1635.591
  47  1639.357
  48  1484.486
  49  1605.503
  50  1713.835
  51  1652.896
  52  1637.812
  53  1619.652
  54  1670.85
  55  1721.741
  56  1703.945
  57  1652.117
  58  1629.621
  59  1616.057
  60  1550.119
  61  1569.106
  62  1572.74
  63  1566.387
  64  1559.686
  65  1640.311
  66  1669.511
  67  1526.297
  68  1543.722
  69  1650.695
  70  1603.505
  71  1540.439
  72  1666.976
  73  1599.07
  74  1549.513
  75  1525.627
  76  1582.85
  77  1477.289
  78  1556.852
  79  1640.879
  80  1688.588
  81  1551.673
  82  1570.839
  83  1689.052
  84  1682.111
  85  1531.985
  86  1525.396
  87  1631.513
  88  1615.301
  89  1592.174
  90  1555.505
  91  1548.859
  92  1579.103
  93  1577.13
  94  1592.453
  95  1601.325
  96  1594.968
  97  1622.594
  98  1597.987
  99  1473.199
 100  1597.805
 101  1638.24
 102  1581.301
 103  1518.152
 104  1497.539
 105  1524.358
 106  1470.653
 107  1520.962
 108  1576.253
 109  1548.104
 110  1646.842
 111  1645.434
 112  1657.843
 113  1635.425
 114  1582.359
 115  1671.21
 116  1559.698
 117  1485.352
 118  1456.796
 119  1594.278
 120  1623.027
 121  1609.515
 122  1658.228
 123  1667.39
 124  1692.585
 125  1623.072
 126  1654.151
 127  1696.901
 128  1733.374
 129  1664.9
 130  1551.251
 131  1528.621
 132  1562.324
 133  1601.682
 134  1553.348
 135  1634.928
 136  1641.081
 137  1627.619
 138  1679.52
 139  1745.306
 140  1754.579
 141  1713.666
 142  1688.848
 143  1657.798
 144  1676.333
 145  1618.87
 146  1609.897
 147  1689.907
 148  1646.1
 149  1583.362
 150  1627.006
 151  1603.936
 152  1570.429
 153  1580.12
 154  1588.523
 155  1631.908
 156  1641.467
 157  1625.773
 158  1687.414
 159  1693.213
 160  1745.258
 161  1772.362
 162  1739.668
 163  1612.584
 164  1586.681
 165  1593.341
 166  1666.24
 167  1625.706
 168  1500.674
 169  1529.403
 170  1573.808
 171  1623.63
 172  1568.003
 173  1518.237
 174  1508.092
 175  1538.061
 176  1591.517
 177  1559.828
 178  1531.29
 179  1760.97
 180  1711.47
 181  1614.433
 182  1601.28
 183  1648.623
 184  1740.12
 185  1635.282
 186  1590.552
 187  1672.298
 188  1609.113
 189  1589.035
 190  1606.578
 191  1572.378
 192  1531.51
 193  1545.901
 194  1629.991
 195  1652.787
 196  1656.086
 197  1574.05
 198  1600.51
 199  1661.828
 200  1637.672
 201  1655.028
 202  1604.235
 203  1589.357
 204  1651.991
 205  1638.775
 206  1571.579
 207  1604.432
 208  1659.269
 209  1625.707
 210  1573.825
 211  1628.678
 212  1679.726
 213  1614.775
 214  1646.264
 215  1684.902
 216  1652.021
 217  1621.402
 218  1593.079
 219  1648.561
 220  1607.986
 221  1581.62
 222  1557.969
 223  1628.773
 224  1724.042
 225  1593.551
 226  1581.879
 227  1613.284
 228  1735.605
 229  1715.705
 230  1670.903
 231  1604.759
 232  1695.529
 233  1677.351
 234  1590.276
 235  1625.256
 236  1542.055
 237  1572.833
 238  1560.353
 239  1513.448
 240  1598.367
 241  1669.456
 242  1607.171
 243  1612.95
 244  1704.037
 245  1637.43
 246  1557.119
 247  1590.887
 248  1616.918
 249  1597.141
 250  1629.464
 251  1646.245
 252  1698.443
 253  1708.482
 254  1733.956
 255  1749.204
 256  1694.917
 257  1557.792
 258  1554.171
 259  1584.949
 260  1652.14
 261  1627.319
 262  1594.911
 263  1657.279
 264  1643.52
 265  1582.713
 266  1616.344
 267  1552.424
 268  1577.286
 269  1585.402
 270  1714.605
 271  1705.414
 272  1739.963
 273  1592.302
 274  1465.052
 275  1534.095
 276  1579.461
 277  1622.146
 278  1445.689
 279  1565.113
 280  1634.475
 281  1599.685
 282  1620.699
 283  1606.659
 284  1663.649
 285  1655.235
 286  1580.987
 287  1637.126
 288  1655.851
 289  1645.539
 290  1641.972
 291  1747.128
 292  1704.533
 293  1683.445
 294  1616.932
 295  1606.853
 296  1622.841
 297  1646.889
 298  1682.385
 299  1695.477
 300  1668.441
 301  1609.089
 302  1620.643
 303  1594.057
 304  1574.033
 305  1616.859
 306  1547.923
 307  1566.969
 308  1604.514
 309  1668.499
 310  1635.329
 311  1612.589
 312  1677.991
 313  1562.899
 314  1634.391
 315  1708.994
 316  1650.641
 317  1509.683
 318  1620.44
 319  1768.643
 320  1687.757
 321  1710.88
 322  1739.653
 323  1709.317
 324  1658.34
 325  1741.614
 326  1796.185
 327  1760.731
 328  1756.275
 329  1674.111
 330  1679.935
 331  1613.283
 332  1605.589
 333  1632.209
 334  1707.185
 335  1679.188
 336  1678.186
 337  1712.7
 338  1680.143
 339  1627.034
 340  1618.221
 341  1654.473
 342  1648.195
 343  1601.222
 344  1726.417
 345  1707.06
 346  1654.788
 347  1703.776
 348  1696.42
 349  1596.953
 350  1570.446
 351  1666.185
 352  1624.088
 353  1612.838
 354  1565.138
 355  1587.284
 356  1628.296
 357  1716.955
 358  1690.632
 359  1677.311
 360  1675.58
 361  1677.007
 362  1671.185
 363  1634.383
 364  1578.483
 365  1599.1
 366  1666.27
 367  1710.981
 368  1684.677
 369  1641.437
 370  1696.314
 371  1698.887
 372  1601.922
 373  1573.908
 374  1501.548
 375  1515.599
 376  1591.434
 377  1539.107
 378  1544.64
 379  1641.955
 380  1661.244
 381  1685.894
 382  1665.207
 383  1615.628
 384  1706.337
 385  1649.793
 386  1662.597
 387  1745.432
 388  1684.611
 389  1655.249
 390  1564.911
 391  1669.562
 392  1681.388
 393  1653.246
 394  1741.671
 395  1712.88
 396  1680.8
 397  1730.707
 398  1742.905
 399  1688.873
 400  1533.348
 401  1632.711
 402  1669.156
 403  1636.325
 404  1639.283
 405  1728.157
 406  1737.729
 407  1697.126
 408  1638.25
 409  1666.368
 410  1665.195
 411  1680.701
 412  1803.214
 413  1780.381
 414  1769.437
 415  1705.059
 416  1778.676
 417  1680.233
 418  1532.211
 419  1641.37
 420  1749.249
 421  1646.737
 422  1578.826
 423  1656.337
 424  1728.014
 425  1733.566
 426  1662.297
 427  1729.218
 428  1671.832
 429  1556.952
 430  1583.283
 431  1555.323
 432  1550.468
 433  1542.556
 434  1587.503
 435  1685.269
 436  1696.751
 437  1714.547
 438  1656.905
 439  1677.932
 440  1726.596
 441  1797.383
 442  1771.532
 443  1778.063
 444  1800.807
 445  1747.714
 446  1731.359
 447  1749.278
 448  1798.402
 449  1803.36
 450  1721.844
 451  1763.816
 452  1817.23
 453  1824.536
 454  1695.779
 455  1813.324
 456  1903.326
 457  1974.51
 458  2020.119
 459  2006.868
 460  1865.009
 461  1798.785
 462  1757.792
 463  1751.144
 464  1706.907
 465  1716.726
 466  1730.202
 467  1637.303
 468  1657.215
 469  1671.236
 470  1634.771
 471  1607.965
 472  1544.641
 473  1628.21
 474  1494.1
 475  1589.606
 476  1584.714
 477  1632.485
 478  1567.174
 479  1520.962
 480  1678.953
 481  1743.252
 482  1650.631
 483  1656.87
 484  1731.441
 485  1609.416
 486  1567.315
 487  1593.432
 488  1611.069
 489  1486.881
 490  1422.298
 491  1641.848
 492  1624.25
 493  1519.939
 494  1564.218
 495  1656.717
 496  1702.31
 497  1658.107
 498  1725.921
 499  1753.518
 500  1701.883
 501  1685.42
 502  1726.225
 503  1610.546
 504  1644.939
 505  1621.792
 506  1608.983
 507  1623.653
 508  1608.207
 509  1636.998
 510  1573.361
 511  1620.007
