# Input file       =  1195344761.110509-PSRB0329-2ms-sampling-dd.dat
# Candidate        =  PSR_0332+5434
# Telescope        =  AR
# Epoch_topo       =  58079.009029056819
# Epoch_bary       =  N/A
# T_sample         =  0.002
# Data Folded      =  7340032
# Data Avg         =  3.3858983562195e-10
# Data StdDev      =  11.5795429498916 
# Profile Bins     =  512
# Profile Avg      =  0.36010961190444 
# Profile StdDev   =  1386.4538372457  
# Reduced chi-sqr  =  0.590
# Prob(Noise)      <  1   (~0.0 sigma)
# P_topo (ms)      =  714.516718407991  +/- 0.00013
# P'_topo (s/s)    =  -0                +/- 6.88e-11
# P''_topo (s/s^2) =  0                 +/- 3.04e-14
# P_bary (ms)      =  N/A
# P'_bary (s/s)    =  N/A
# P''_bary (s/s^2) =  N/A
# P_orb (s)        =  N/A
# asin(i)/c (s)    =  N/A
# eccentricity     =  N/A
# w (rad)          =  N/A
# T_peri           =  N/A
######################################################
   0  -345.9371
   1  -173.5548
   2  -476.0023
   3  152.2115
   4  -33.85746
   5  130.098
   6  640.5815
   7  215.9648
   8  512.2141
   9  -123.7497
  10  158.7322
  11  308.2763
  12  996.6403
  13  434.5649
  14  -378.343
  15  -755.123
  16  -847.6003
  17  -446
  18  423.6681
  19  858.346
  20  495.7271
  21  -90.44723
  22  139.4139
  23  -344.3057
  24  -431.9608
  25  -443.7122
  26  377.3286
  27  673.3559
  28  936.2056
  29  1265.299
  30  757.8926
  31  125.0656
  32  -479.1763
  33  -537.7567
  34  -945.2134
  35  -565.4069
  36  118.498
  37  647.972
  38  -584.6701
  39  -1091.96
  40  -24.10634
  41  -1286.597
  42  -1111.473
  43  -487.4004
  44  407.0051
  45  686.125
  46  415.3866
  47  -24.3819
  48  -839.1097
  49  288.111
  50  390.1804
  51  541.0556
  52  483.5139
  53  195.3756
  54  213.2841
  55  -503.4616
  56  -751.8049
  57  -1300.521
  58  -981.8297
  59  -39.32817
  60  1048.889
  61  1008.585
  62  -25.77061
  63  -98.48458
  64  534.1522
  65  425.9286
  66  -192.2417
  67  -589.0593
  68  24.30564
  69  309.504
  70  -248.9304
  71  -458.5053
  72  -554.7678
  73  -323.5057
  74  -287.7691
  75  -957.6295
  76  522.584
  77  735.7413
  78  652.3639
  79  657.5707
  80  -101.6814
  81  -1996.97
  82  -2508.114
  83  -1507.329
  84  -1456.574
  85  -301.6032
  86  -199.0267
  87  -740.1013
  88  -790.5499
  89  -836.7533
  90  -900.7668
  91  -370.5479
  92  692.0375
  93  652.1243
  94  990.5743
  95  160.7899
  96  -380.0104
  97  -228.7489
  98  -258.583
  99  -396.7484
 100  -182.5476
 101  -433.2451
 102  -341.619
 103  -919.9308
 104  -1318.373
 105  -296.3754
 106  -324.4841
 107  5.367367
 108  -803.0974
 109  -538.9939
 110  -38.58603
 111  -866.005
 112  -641.5732
 113  -442.619
 114  -495.2491
 115  -192.6617
 116  -117.8742
 117  144.7293
 118  576.5383
 119  1048.348
 120  61.25261
 121  996.7074
 122  1268.821
 123  448.5865
 124  -616.3763
 125  -304.9236
 126  657.2188
 127  -64.21874
 128  -238.1503
 129  -348.2545
 130  -376.2788
 131  -467.0397
 132  -140.4733
 133  -39.26067
 134  63.62243
 135  61.42318
 136  -116.9419
 137  -601.2523
 138  -771.2639
 139  -572.701
 140  -193.0517
 141  -252.048
 142  -88.7207
 143  -5.246013
 144  573.9604
 145  375.9733
 146  113.9602
 147  -991.9362
 148  -644.7917
 149  -210.9671
 150  -131.5607
 151  859.2057
 152  -394.5468
 153  -619.2558
 154  -1575.084
 155  -1218.062
 156  -21.11681
 157  -10.33051
 158  -465.2189
 159  -752.2914
 160  -111.0463
 161  -791.4863
 162  -1268.255
 163  -1107.293
 164  -1023.45
 165  -632.4048
 166  -288.2918
 167  -780.9213
 168  -87.21127
 169  -7.090267
 170  -697.5352
 171  -884.8798
 172  -720.8796
 173  -524.9871
 174  321.6288
 175  407.2288
 176  -618.2134
 177  -1907.909
 178  -1534.638
 179  -1493.372
 180  -1167.989
 181  -803.1411
 182  -848.2913
 183  -233.7156
 184  -1046.11
 185  -1157.51
 186  -1874.35
 187  -1201.752
 188  -510.5035
 189  344.2474
 190  1008.758
 191  1217.374
 192  669.7075
 193  -171.9738
 194  -433.4774
 195  -470.9822
 196  290.9559
 197  240.3048
 198  61.30568
 199  -292.8532
 200  -608.3598
 201  -199.6419
 202  -1379.326
 203  -697.3004
 204  -1387.161
 205  -1383.234
 206  10.58038
 207  854.4337
 208  2244.192
 209  -646.1472
 210  -104.0129
 211  -63.00327
 212  293.9753
 213  400.6048
 214  1017.98
 215  699.0547
 216  619.0036
 217  284.492
 218  1049.784
 219  1049.175
 220  -16.83596
 221  -560.5309
 222  -560.1468
 223  147.3424
 224  596.0128
 225  375.8203
 226  213.5402
 227  -385.2194
 228  -155.0903
 229  -918.6214
 230  -578.5122
 231  137.7977
 232  735.7919
 233  786.0052
 234  552.6682
 235  -203.9222
 236  -1425.49
 237  -1550.344
 238  -1276.343
 239  -659.1342
 240  -300.4346
 241  851.238
 242  149.0412
 243  -360.8524
 244  -341.2233
 245  220.5234
 246  1319.991
 247  1216.031
 248  1546.227
 249  1091.226
 250  1401.492
 251  644.9918
 252  390.4088
 253  547.1962
 254  13.37523
 255  832.7736
 256  82.47437
 257  120.0557
 258  -153.3035
 259  1010.536
 260  862.9813
 261  518.8157
 262  -290.1682
 263  -645.7037
 264  336.5609
 265  397.5171
 266  2092.297
 267  536.1921
 268  195.8566
 269  268.2553
 270  -374.4799
 271  176.1255
 272  -352.3248
 273  -105.5016
 274  -582.5471
 275  29.2852
 276  -338.5152
 277  -630.6456
 278  761.9929
 279  991.8274
 280  551.8617
 281  218.0821
 282  800.7646
 283  377.6883
 284  407.1837
 285  290.9213
 286  -762.7449
 287  -1128.638
 288  -499.5405
 289  156.3629
 290  623.4479
 291  -548.7307
 292  -607.0884
 293  -436.7135
 294  -63.29306
 295  265.7429
 296  768.4559
 297  128.628
 298  -208.5568
 299  143.2303
 300  1410.372
 301  1243.656
 302  1798.026
 303  1847.182
 304  1835.952
 305  2146.893
 306  1745.226
 307  1539.778
 308  2049.448
 309  1726.827
 310  520.9339
 311  296.8603
 312  495.0132
 313  638.2606
 314  714.2859
 315  207.9486
 316  305.8094
 317  569.5653
 318  88.61642
 319  1153.146
 320  528.0925
 321  694.3374
 322  195.512
 323  167.2322
 324  -430.605
 325  -941.1137
 326  -948.2598
 327  -606.5289
 328  -25.59554
 329  351.0088
 330  403.8694
 331  22.99423
 332  -77.93494
 333  415.3834
 334  89.02567
 335  29.68019
 336  586.5607
 337  1474.376
 338  1295.8
 339  -12.55706
 340  -799.8787
 341  -786.6717
 342  -1360.335
 343  -513.8846
 344  -1160.118
 345  -1222.846
 346  -851.0027
 347  -411.3889
 348  -273.0755
 349  -1197.609
 350  -425.1182
 351  -633.0964
 352  -994.7656
 353  -945.7205
 354  218.0694
 355  -180.6943
 356  -866.7354
 357  -1195.63
 358  -1183.209
 359  -450.8375
 360  -484.9621
 361  313.5798
 362  163.0858
 363  -572.8223
 364  -683.8494
 365  -220.3832
 366  731.4451
 367  -176.8902
 368  -722.0859
 369  -859.2187
 370  -1672.066
 371  -1129.876
 372  -1114.155
 373  -874.1585
 374  -758.8918
 375  -1320.438
 376  -1180.791
 377  -1003.519
 378  -857.9211
 379  -896.4598
 380  -58.70614
 381  -19.80136
 382  510.3203
 383  620.0901
 384  600.9294
 385  1049.755
 386  929.059
 387  -55.25498
 388  510.8081
 389  941.3519
 390  892.0278
 391  1092.621
 392  614.0632
 393  446.6445
 394  691.4288
 395  300.1929
 396  -7.222649
 397  -376.7121
 398  -16.32737
 399  -164.1781
 400  115.723
 401  -251.6488
 402  -335.22
 403  159.9009
 404  585.7153
 405  -68.97567
 406  -670.1882
 407  468.8423
 408  373.4058
 409  556.1201
 410  -373.0085
 411  289.1949
 412  250.336
 413  472.0465
 414  935.6254
 415  1182.621
 416  1290.297
 417  -112.6943
 418  -307.374
 419  -56.85749
 420  791.303
 421  1390.599
 422  272.0797
 423  -391.7762
 424  -228.2147
 425  843.4641
 426  -363.4639
 427  208.4764
 428  -490.1248
 429  483.8376
 430  280.6967
 431  -220.6132
 432  570.0675
 433  208.8672
 434  19.66721
 435  -398.2773
 436  -475.5995
 437  940.4658
 438  668.7386
 439  474.8601
 440  118.1683
 441  -0.1919818
 442  -320.8089
 443  1235.22
 444  1176.71
 445  829.5215
 446  -66.24828
 447  883.2618
 448  923.2757
 449  363.5419
 450  1281.421
 451  1287.345
 452  2192.619
 453  1792.689
 454  1111.206
 455  1095.784
 456  1309.714
 457  1393.261
 458  1146.442
 459  1157.164
 460  391.2133
 461  320.8571
 462  235.1052
 463  -84.43577
 464  481.5288
 465  1009.9
 466  1664.861
 467  244.8956
 468  -753.6957
 469  -850.1972
 470  -269.941
 471  -637.7268
 472  -1304.863
 473  -1411.538
 474  -513.0058
 475  -319.6427
 476  -196.5008
 477  -1074.269
 478  -1774.095
 479  -250.6247
 480  397.3774
 481  432.9424
 482  90.24706
 483  -77.18372
 484  174.5685
 485  -870.4904
 486  -837.3846
 487  -1094.007
 488  -591.8353
 489  484.1267
 490  1101.657
 491  1124.674
 492  115.9147
 493  44.05043
 494  228.8919
 495  452.9443
 496  696.5965
 497  535.2178
 498  -532.3409
 499  -35.0409
 500  -610.4747
 501  -1244.575
 502  -1568.652
 503  -1201.52
 504  466.4951
 505  936.1792
 506  1545.798
 507  1064.682
 508  885.4437
 509  767.087
 510  583.5782
 511  217.0101
