# Input file       =  1195689392.107103-PSRB0329-2ms-sampling-dd.dat
# Candidate        =  PSR_0332+5434
# Telescope        =  AR
# Epoch_topo       =  58082.997813739617
# Epoch_bary       =  N/A
# T_sample         =  0.002
# Data Folded      =  7340032
# Data Avg         =  2.19695446016022e-09
# Data StdDev      =  19.328313998249  
# Profile Bins     =  512
# Profile Avg      =  0.215700530000989
# Profile StdDev   =  2314.2377230539  
# Reduced chi-sqr  =  0.702
# Prob(Noise)      <  1   (~0.0 sigma)
# P_topo (ms)      =  714.520849813381  +/- 5.2e-05
# P'_topo (s/s)    =  -0                +/- 2.74e-11
# P''_topo (s/s^2) =  0                 +/- 1.21e-14
# P_bary (ms)      =  N/A
# P'_bary (s/s)    =  N/A
# P''_bary (s/s^2) =  N/A
# P_orb (s)        =  N/A
# asin(i)/c (s)    =  N/A
# eccentricity     =  N/A
# w (rad)          =  N/A
# T_peri           =  N/A
######################################################
   0  1457.144
   1  1118.999
   2  1861.9
   3  171.6014
   4  -478.0742
   5  1318.353
   6  930.7999
   7  -1174.922
   8  -1681.492
   9  -580.3644
  10  -1491.909
  11  -2239.082
  12  -1529.929
  13  663.1084
  14  155.7284
  15  531.1849
  16  1693.686
  17  859.1929
  18  67.24159
  19  465.2899
  20  2069.738
  21  564.0864
  22  445.0646
  23  2136.234
  24  2444.394
  25  -164.9826
  26  -1285.11
  27  -1349.72
  28  -187.5681
  29  993.7463
  30  2025.129
  31  1046.005
  32  -119.8177
  33  -703.0279
  34  4.127573
  35  612.0396
  36  1011.585
  37  -642.0858
  38  -303.0668
  39  -1142.192
  40  -837.7408
  41  -1574.488
  42  -1935.621
  43  -1000.296
  44  -847.9162
  45  -414.2633
  46  369.4616
  47  1481.442
  48  462.6797
  49  1711.908
  50  1117.277
  51  654.9613
  52  2001.878
  53  1747.912
  54  1524.577
  55  17.48664
  56  -299.7803
  57  284.1563
  58  -45.81915
  59  -63.52278
  60  810.7769
  61  429.8969
  62  -936.6993
  63  -274.5049
  64  -1220.814
  65  -2287.464
  66  -2506.491
  67  -1085.328
  68  -1110.18
  69  -1133.391
  70  -649.5834
  71  -317.9489
  72  -1117.226
  73  -430.8615
  74  475.4044
  75  -916.8347
  76  -1685.867
  77  -1509.357
  78  -1269.073
  79  -2787.482
  80  -2354.216
  81  -442.767
  82  -573.2497
  83  108.2137
  84  165.7113
  85  -1421.323
  86  -2386.909
  87  -594.9514
  88  1008.943
  89  -32.59186
  90  -1477.883
  91  -1675.454
  92  -1090.825
  93  -2020.869
  94  621.5023
  95  1110.456
  96  105.8371
  97  -2536.25
  98  -3850.812
  99  -2336.371
 100  -656.4745
 101  -1019.741
 102  -572.0999
 103  485.5266
 104  -64.02081
 105  -1503.177
 106  488.3057
 107  848.0874
 108  -1751.436
 109  -526.6469
 110  2393.809
 111  1286.839
 112  368.7765
 113  -439.1145
 114  -508.7727
 115  -2553.772
 116  151.2094
 117  1225.987
 118  450.1223
 119  235.9416
 120  -1026.133
 121  241.9456
 122  312.1472
 123  -188.2544
 124  77.2498
 125  120.6072
 126  118.5214
 127  -26.85882
 128  384.2034
 129  -1354.475
 130  -2081.046
 131  -553.1068
 132  -1625.068
 133  -2026.943
 134  -1717.36
 135  287.6677
 136  -418.8387
 137  -867.418
 138  522.5422
 139  -1137.037
 140  -2403.452
 141  -3638.744
 142  -3921.447
 143  -3166.435
 144  -1360.506
 145  277.9881
 146  198.8372
 147  647.0139
 148  304.5342
 149  -1289.438
 150  -1252.811
 151  1575.957
 152  957.89
 153  -494.6369
 154  -1994.569
 155  -1386.628
 156  -1644.144
 157  -1133.536
 158  -1696.175
 159  -717.6451
 160  47.57476
 161  -248.1318
 162  -308.0476
 163  1450.482
 164  1645.734
 165  -1346.048
 166  -188.9939
 167  1660.45
 168  205.1622
 169  -407.3895
 170  -27.8223
 171  927.3607
 172  -363.8223
 173  -1034.457
 174  280.5757
 175  -459.84
 176  -1214.12
 177  126.7314
 178  409.4804
 179  -394.2182
 180  -228.3856
 181  1752.441
 182  -373.8262
 183  -1289.933
 184  -247.3857
 185  1092.007
 186  411.2492
 187  -1071.257
 188  855.3835
 189  1168.93
 190  -127.3658
 191  -357.0834
 192  1416.172
 193  707.1048
 194  581.8464
 195  783.1261
 196  469.2781
 197  231.97
 198  701.2659
 199  3312
 200  3099.433
 201  2154.829
 202  2830.377
 203  2468.74
 204  467.207
 205  32.27413
 206  906.1105
 207  1743.56
 208  2073.875
 209  2688.602
 210  2594.48
 211  615.3373
 212  664.5864
 213  1540.361
 214  3303.61
 215  1941.989
 216  2.340055
 217  452.86
 218  -1478.953
 219  -2385.932
 220  -800.5765
 221  601.8045
 222  225.5175
 223  -46.76291
 224  1260.835
 225  1106.094
 226  1850.931
 227  642.8544
 228  1933.453
 229  2540.303
 230  2176.88
 231  1618.93
 232  278.5227
 233  -1097.805
 234  -1416.1
 235  559.7423
 236  468.9996
 237  -2106.811
 238  -1259.285
 239  704.2947
 240  886.6635
 241  2076.027
 242  3727.81
 243  2745.993
 244  41.11252
 245  -1103.202
 246  -1730.776
 247  -842.2402
 248  -21.88007
 249  1105.678
 250  523.4415
 251  105.598
 252  -312.945
 253  -1204.295
 254  -2786.564
 255  -1478.599
 256  639.4203
 257  1926.342
 258  633.5076
 259  299.8615
 260  868.0492
 261  1145.109
 262  -509.4984
 263  -972.884
 264  -1496.699
 265  -976.0868
 266  -1283.148
 267  805.6143
 268  1831.666
 269  1882.227
 270  857.9672
 271  957.9821
 272  1124.451
 273  575.515
 274  1526.302
 275  196.576
 276  -899.4536
 277  844.803
 278  2113.327
 279  169.2543
 280  -912.9026
 281  942.2774
 282  2620.268
 283  2696.544
 284  2713.432
 285  2798.503
 286  3056.256
 287  1912.663
 288  3100.802
 289  3043.025
 290  2422.211
 291  1137.83
 292  916.5244
 293  197.8237
 294  -1194.005
 295  -960.0228
 296  1158.45
 297  -323.6166
 298  1080.515
 299  2500.346
 300  1604.274
 301  467.7567
 302  71.45361
 303  447.8884
 304  -664.507
 305  -1545.373
 306  -1985.185
 307  -2086.8
 308  -2581.15
 309  -4105.812
 310  -3913.626
 311  -2506.758
 312  -1769.005
 313  -2048.106
 314  628.566
 315  5.422713
 316  -1264.695
 317  -373.5291
 318  97.80463
 319  -1655.713
 320  -473.5663
 321  799.3839
 322  -1105.409
 323  -2507.54
 324  -1461.348
 325  -304.1584
 326  -268.4475
 327  -468.2458
 328  -1395.421
 329  -982.6534
 330  -1561.528
 331  -1467.459
 332  -1802.759
 333  -3204.121
 334  -2404.114
 335  -2166.072
 336  -1916.78
 337  -3427.875
 338  -1431.942
 339  405.9904
 340  909.5403
 341  819.3006
 342  827.3619
 343  -294.0872
 344  -731.9225
 345  -1666.253
 346  -1539.32
 347  -997.5829
 348  -1402.1
 349  -1156.84
 350  -1434.274
 351  -1214.294
 352  -1059.291
 353  -1086.986
 354  -1181.461
 355  -1137.81
 356  -837.7176
 357  -772.0645
 358  -228.1873
 359  70.95573
 360  269.3358
 361  -1386.747
 362  -1734.8
 363  -1710.917
 364  -210.9327
 365  -174.7234
 366  -581.3453
 367  357.2
 368  -163.5677
 369  -1362.954
 370  -2088.315
 371  -2023.39
 372  -2401.859
 373  -2344.255
 374  -1073.224
 375  1532.614
 376  2123.691
 377  1269.663
 378  1816.185
 379  861.9236
 380  -411.3812
 381  -2387.766
 382  23.70212
 383  753.4443
 384  321.4041
 385  557.4027
 386  -631.3172
 387  -1482.445
 388  -1303.177
 389  -481.4294
 390  -2235.648
 391  -2974.041
 392  -550.5862
 393  751.983
 394  -247.7609
 395  -1250.257
 396  -556.9764
 397  -1220.591
 398  -1175.187
 399  -87.95635
 400  609.9333
 401  -205.1126
 402  -219.8485
 403  1555.312
 404  1506.554
 405  -702.6014
 406  1378.031
 407  3019.882
 408  1301.994
 409  1066.113
 410  1289.706
 411  474.6585
 412  -1619.336
 413  -543.2626
 414  -1073.055
 415  -261.4842
 416  457.4978
 417  1027.385
 418  1057.694
 419  962.8081
 420  1223.645
 421  1945.572
 422  2530.51
 423  2206.943
 424  90.24866
 425  286.3259
 426  -1142.105
 427  162.1281
 428  -953.6672
 429  -648.7672
 430  -1086.568
 431  -1784.538
 432  778.6523
 433  -458.1689
 434  -40.68129
 435  954.1132
 436  824.6825
 437  347.4874
 438  -1044.234
 439  -570.227
 440  -311.5699
 441  272.4341
 442  88.2366
 443  -486.5077
 444  -774.4539
 445  752.527
 446  2145.772
 447  1195.163
 448  -497.9231
 449  -248.8804
 450  927.0833
 451  1051.37
 452  -22.28307
 453  697.9275
 454  2309.721
 455  -446.0619
 456  1447.816
 457  3838.792
 458  4084.952
 459  2327.26
 460  2618.44
 461  2903.166
 462  1754.05
 463  2831.924
 464  2630.503
 465  1926.975
 466  508.0879
 467  -525.4375
 468  1105.966
 469  1052.87
 470  599.2319
 471  -154.9169
 472  -1098.512
 473  45.35581
 474  1403.528
 475  2397.285
 476  736.2413
 477  640.6104
 478  941.3342
 479  1059.85
 480  1544.984
 481  2443.139
 482  214.829
 483  -1117.914
 484  -133.9331
 485  23.82478
 486  871.7662
 487  606.8695
 488  -246.9089
 489  -318.2854
 490  -1074.872
 491  -1245.518
 492  -549.058
 493  1661.526
 494  2056.261
 495  635.5679
 496  1160.629
 497  953.9167
 498  343.6295
 499  -1002.329
 500  -415.2027
 501  -119.4736
 502  -787.0474
 503  -1797.231
 504  -160.9279
 505  -546.1832
 506  -563.2524
 507  652.7802
 508  -498.3801
 509  -1072.198
 510  493.462
 511  1334.114
