# Input file       =  1195659868.110136-PSRB0329-2ms-sampling-dd.dat
# Candidate        =  PSR_0332+5434
# Telescope        =  AR
# Epoch_topo       =  58082.656100811757
# Epoch_bary       =  N/A
# T_sample         =  0.002
# Data Folded      =  7208960
# Data Avg         =  -1.99605667605854e-09
# Data StdDev      =  20.0496662133385 
# Profile Bins     =  512
# Profile Avg      =  0.470911757390446
# Profile StdDev   =  2379.07686781015 
# Reduced chi-sqr  =  0.504
# Prob(Noise)      <  1   (~0.0 sigma)
# P_topo (ms)      =  714.520133979645  +/- 0.000282
# P'_topo (s/s)    =  -0                +/- 1.52e-10
# P''_topo (s/s^2) =  0                 +/- 6.82e-14
# P_bary (ms)      =  N/A
# P'_bary (s/s)    =  N/A
# P''_bary (s/s^2) =  N/A
# P_orb (s)        =  N/A
# asin(i)/c (s)    =  N/A
# eccentricity     =  N/A
# w (rad)          =  N/A
# T_peri           =  N/A
######################################################
   0  604.4855
   1  192.5112
   2  196.9533
   3  -579.4918
   4  -150.997
   5  -478.1642
   6  -472.8182
   7  -558.7625
   8  -1987.269
   9  -3243.624
  10  -3390.672
  11  -1411.845
  12  -1259.767
  13  -1261.746
  14  -3014.326
  15  -3755.585
  16  -4054.147
  17  -2945.028
  18  -404.8215
  19  724.8624
  20  370.6843
  21  1044.896
  22  3161.052
  23  2781.877
  24  -981.1487
  25  -1412.117
  26  -1431.01
  27  -1799.854
  28  -1082.482
  29  -1163.047
  30  -697.8854
  31  -779.1651
  32  -124.7278
  33  2119.221
  34  2109.392
  35  1119.368
  36  1239.255
  37  2315.766
  38  982.0934
  39  -552.9041
  40  -2434.81
  41  -2405.641
  42  -2360.597
  43  -1220.895
  44  -889.9081
  45  -331.649
  46  385.0663
  47  231.1075
  48  -838.1158
  49  -533.5735
  50  1272.974
  51  1678.755
  52  472.1216
  53  1344.821
  54  684.8799
  55  9.329088
  56  187.8915
  57  1101.215
  58  -53.58122
  59  -632.5649
  60  1078.506
  61  1609.285
  62  2671.344
  63  2071.518
  64  2539.836
  65  3440.993
  66  2834.631
  67  991.2319
  68  1392.706
  69  2916.705
  70  859.6068
  71  33.15648
  72  -847.0992
  73  132.466
  74  926.9503
  75  494.1311
  76  610.9937
  77  1448.73
  78  561.0945
  79  563.4117
  80  1258.121
  81  -776.6071
  82  545.4731
  83  50.40763
  84  866.2811
  85  1675.075
  86  392.1009
  87  -887.1823
  88  -1483.478
  89  -273.9329
  90  921.4443
  91  1002.234
  92  991.9778
  93  1343.212
  94  980.3896
  95  665.7565
  96  686.8914
  97  1075.114
  98  736.8304
  99  -115.5288
 100  -498.3779
 101  1981.199
 102  1829.296
 103  256.8466
 104  1346.169
 105  1656.839
 106  1070.221
 107  1117.913
 108  2403.17
 109  2135.607
 110  -822.4979
 111  -1068.333
 112  -316.7005
 113  -1331.701
 114  -849.0456
 115  -227.8566
 116  1029.946
 117  59.74992
 118  157.7679
 119  124.751
 120  262.6952
 121  -94.27934
 122  -1036.046
 123  155.8808
 124  -1342.08
 125  -1017.061
 126  -1519.6
 127  -797.6555
 128  -1621.53
 129  -834.8149
 130  -914.232
 131  -156.2198
 132  -948.7979
 133  -1274.554
 134  -1389.744
 135  -720.4374
 136  788.1036
 137  1685.53
 138  70.64339
 139  -797.3936
 140  -286.5138
 141  -1320.007
 142  -2005.856
 143  -1225.231
 144  89.36148
 145  -949.9405
 146  -1607.676
 147  -460.8346
 148  1548.875
 149  357.739
 150  407.2159
 151  1097.78
 152  1146.773
 153  -923.1857
 154  -1934.875
 155  -1294.197
 156  -534.1046
 157  -1136.293
 158  -1541.839
 159  -1275.52
 160  -1721.891
 161  630.1739
 162  1766.281
 163  1335.107
 164  -845.4548
 165  -124.8578
 166  1356.706
 167  -117.196
 168  -1245.318
 169  -657.334
 170  821.3459
 171  392.5829
 172  586.2229
 173  -954.028
 174  -1500.773
 175  -1209.912
 176  303.019
 177  994.4838
 178  732.5699
 179  1146.07
 180  848.8936
 181  41.6657
 182  582.0786
 183  1020.851
 184  -298.4339
 185  -872.532
 186  -1943.655
 187  -2868.283
 188  -2766.177
 189  -1678.249
 190  -733.0657
 191  -443.3372
 192  -1147.529
 193  -824.6078
 194  25.76475
 195  244.0017
 196  -778.9731
 197  -713.4139
 198  -794.2596
 199  -1397.388
 200  -472.6215
 201  -51.07505
 202  -366.0061
 203  -2227.159
 204  -936.5961
 205  -76.03822
 206  -389.211
 207  280.5072
 208  -605.4391
 209  331.6718
 210  224.0535
 211  480.8958
 212  157.6936
 213  -1723.088
 214  -1580.737
 215  -576.8252
 216  24.3987
 217  -122.0921
 218  258.1284
 219  22.5292
 220  -876.3162
 221  -1779.883
 222  -1715.939
 223  -1489.983
 224  -1609.116
 225  -1968.837
 226  -864.6168
 227  -1459.213
 228  -1333.366
 229  -714.2791
 230  390.0508
 231  479.0974
 232  266.2377
 233  1844.052
 234  1477.293
 235  621.5303
 236  -398.3064
 237  476.8009
 238  1061.565
 239  -931.7842
 240  -830.9153
 241  85.08383
 242  -421.2773
 243  373.7949
 244  569.8946
 245  1317.961
 246  990.7075
 247  1576.548
 248  939.2064
 249  -133.5904
 250  -1244.093
 251  -1579.411
 252  -435.3447
 253  -1546.994
 254  -1646.471
 255  -92.00472
 256  -59.12835
 257  804.7615
 258  552.0045
 259  412.6073
 260  -152.026
 261  -147.366
 262  411.6849
 263  45.36591
 264  2.58951
 265  132.1647
 266  -461.5149
 267  -1549.453
 268  -1437.503
 269  1050.507
 270  1046.268
 271  545.8972
 272  -804.3221
 273  6.945162
 274  -1007.595
 275  -1611.713
 276  -1918.849
 277  -57.04816
 278  -1073.207
 279  454.5519
 280  1138.678
 281  -278.8581
 282  -1527.547
 283  -545.5058
 284  69.37743
 285  53.29758
 286  303.1096
 287  319.2579
 288  1099.609
 289  824.7567
 290  286.3223
 291  1260.807
 292  1100.518
 293  1000.988
 294  1130.205
 295  1659.735
 296  895.2068
 297  691.1435
 298  1095.784
 299  332.3288
 300  629.8583
 301  420.7392
 302  606.7888
 303  198.1474
 304  1009.887
 305  1731.816
 306  2424.63
 307  805.8906
 308  652.7358
 309  -470.1272
 310  97.59678
 311  1053.92
 312  2384.391
 313  1930.082
 314  938.9983
 315  -226.9978
 316  -1736.041
 317  -1287.286
 318  -637.8185
 319  -143.5316
 320  1207.728
 321  -995.9284
 322  -190.4612
 323  401.7851
 324  -1782.162
 325  -1901.124
 326  -681.1713
 327  1645.073
 328  1282.727
 329  1430.495
 330  1010.122
 331  -43.14323
 332  -796.3558
 333  -554.7839
 334  974.601
 335  -1207.454
 336  -1424.097
 337  -1537.723
 338  460.7423
 339  -92.3612
 340  -337.2384
 341  1423.902
 342  2655.783
 343  1774.914
 344  685.7148
 345  261.595
 346  1496.064
 347  1251.554
 348  1842.102
 349  373.3648
 350  -826.2852
 351  -442.1056
 352  -585.9973
 353  -220.832
 354  -18.91982
 355  545.0253
 356  -399.5248
 357  -279.9022
 358  175.0443
 359  1416.703
 360  1076.651
 361  -497.0103
 362  -385.4252
 363  763.7823
 364  1101.268
 365  704.3873
 366  785.7344
 367  808.4564
 368  868.3514
 369  1805.24
 370  3031.239
 371  1987.876
 372  1368.285
 373  1163.188
 374  1313.77
 375  862.9367
 376  285.8843
 377  869.954
 378  -303.4464
 379  -670.1138
 380  -1022.992
 381  -168.8501
 382  -585.1068
 383  -68.98972
 384  1360.183
 385  1075.392
 386  826.407
 387  651.3669
 388  1220.303
 389  1516.448
 390  -489.9498
 391  1209.553
 392  480.0631
 393  -698.7667
 394  -426.3866
 395  -713.4058
 396  -1477.174
 397  -0.7944162
 398  1057.102
 399  659.0421
 400  -1288.145
 401  -199.4081
 402  278.1365
 403  856.1097
 404  1907.907
 405  3758.504
 406  1831.716
 407  74.67572
 408  -78.83772
 409  1839.606
 410  3181.96
 411  2091.319
 412  1439.901
 413  1235.738
 414  -370.7196
 415  -991.2009
 416  -341.4841
 417  405.3377
 418  334.4214
 419  266.3462
 420  1597.315
 421  1160.85
 422  -868.4341
 423  -1094.09
 424  -444.6584
 425  -824.03
 426  256.5973
 427  421.6495
 428  6.041628
 429  576.7269
 430  -265.3022
 431  -520.7407
 432  376.7919
 433  773.8201
 434  1089.86
 435  723.4576
 436  -71.42177
 437  -684.6327
 438  -819.235
 439  -339.3645
 440  -327.9384
 441  408.9833
 442  490.5448
 443  -441.1523
 444  -1195.633
 445  -865.2715
 446  -575.3727
 447  1123.021
 448  1427.71
 449  2538.073
 450  500.7685
 451  -85.04612
 452  845.5713
 453  1693.236
 454  2171.435
 455  1343.208
 456  1616.891
 457  1456.158
 458  1300.304
 459  472.4568
 460  -4.462985
 461  181.6992
 462  843.4786
 463  1059.005
 464  -1496.459
 465  -2255.005
 466  -2078.959
 467  -622.8752
 468  -1185.285
 469  -74.97169
 470  332.5623
 471  -464.5323
 472  -781.405
 473  -1188.564
 474  -109.9609
 475  140.5876
 476  -328.9086
 477  210.8448
 478  -1350.179
 479  -1974.685
 480  -374.6056
 481  616.6899
 482  -357.3457
 483  -696.5863
 484  -732.491
 485  -855.8464
 486  -966.1038
 487  -854.6602
 488  -486.3182
 489  -695.6683
 490  202.8275
 491  751.4843
 492  -713.7828
 493  -1835.51
 494  -1451.46
 495  -2439.947
 496  -2206.039
 497  -2454.755
 498  -3085.235
 499  -2675.466
 500  -3675.578
 501  -3221.507
 502  -1747.931
 503  240.5399
 504  259.3809
 505  -652.521
 506  -144.6672
 507  -1085.137
 508  -1161.899
 509  -438.6129
 510  219.7355
 511  -461.1503
