# Input file       =  1195517101.114235_cleaned.dat
# Candidate        =  PSR_0332+5434
# Telescope        =  AR
# Epoch_topo       =  58081.003705025869
# Epoch_bary       =  N/A
# T_sample         =  0.002
# Data Folded      =  7340032
# Data Avg         =  0.188998384439661
# Data StdDev      =  4.56230092643915 
# Profile Bins     =  256
# Profile Avg      =  5418.93875446384 
# Profile StdDev   =  772.525674086245 
# Reduced chi-sqr  =  0.834
# Prob(Noise)      <  0.975   (~0.0 sigma)
# P_topo (ms)      =  714.518783605178  +/- 0.000419
# P'_topo (s/s)    =  -0                +/- 2.21e-10
# P''_topo (s/s^2) =  0                 +/- 9.77e-14
# P_bary (ms)      =  N/A
# P'_bary (s/s)    =  N/A
# P''_bary (s/s^2) =  N/A
# P_orb (s)        =  N/A
# asin(i)/c (s)    =  N/A
# eccentricity     =  N/A
# w (rad)          =  N/A
# T_peri           =  N/A
######################################################
   0  6328.727
   1  5520.697
   2  5565.527
   3  5929.553
   4  5827.423
   5  5713.936
   6  5182.285
   7  5335.058
   8  5745.384
   9  6500.211
  10  6539.946
  11  5867.777
  12  4960.856
  13  5980.918
  14  5729.863
  15  5569.708
  16  4895.991
  17  4259.71
  18  5169.812
  19  5810.844
  20  5089.847
  21  4684.964
  22  5197.042
  23  5496.253
  24  5143.753
  25  5357.317
  26  5385.842
  27  5479.412
  28  5421.134
  29  6180.091
  30  5803.125
  31  6506.925
  32  5217.085
  33  5485.394
  34  4840.447
  35  4758.915
  36  5446.317
  37  5291.869
  38  5058.978
  39  5359.849
  40  5507.646
  41  6037.155
  42  5482.067
  43  6384.223
  44  6180.323
  45  5960.162
  46  5726.901
  47  6050.02
  48  5655.982
  49  5259.204
  50  5556.811
  51  4791.058
  52  5148.981
  53  4716.989
  54  4569.335
  55  4675.924
  56  5470.746
  57  4835.566
  58  5296.843
  59  5677.897
  60  4840.389
  61  5399.901
  62  5929.335
  63  5633.681
  64  4921.307
  65  5454.015
  66  6354.147
  67  6293.954
  68  5032.583
  69  4918.467
  70  5444.265
  71  5148.801
  72  5148.942
  73  5421.231
  74  5833.031
  75  6257.006
  76  5677.514
  77  5687.355
  78  6055.244
  79  6271.281
  80  5855.559
  81  5155.579
  82  5371.299
  83  5433.187
  84  4351.807
  85  4553.14
  86  5460.637
  87  5307.684
  88  5546.184
  89  4494.593
  90  4705.779
  91  5518.031
  92  5724.036
  93  5865.244
  94  4969.29
  95  6630.789
  96  5938.82
  97  6107.369
  98  5682.287
  99  6377.699
 100  5760.7
 101  5677.665
 102  5463.445
 103  5476.188
 104  5181.359
 105  4890.485
 106  4955.861
 107  6256.962
 108  6571.027
 109  6302.901
 110  6170.575
 111  6136.214
 112  5562.541
 113  5052.082
 114  4909.509
 115  5567.055
 116  5566.66
 117  5489.275
 118  4506.995
 119  5241.443
 120  5227.58
 121  5413.832
 122  5464.627
 123  5078.883
 124  5413.721
 125  5465.099
 126  5180.375
 127  4647.625
 128  5399.087
 129  5439.069
 130  4571.137
 131  4178.868
 132  5096.502
 133  5901.754
 134  5222.869
 135  4780.808
 136  5624.279
 137  5899.388
 138  6059.904
 139  5373.968
 140  5596.397
 141  5713.37
 142  5379.705
 143  5980.474
 144  5489.014
 145  5420.47
 146  5281.991
 147  5457.197
 148  5134.734
 149  5018.696
 150  4876.052
 151  5554.933
 152  5719.763
 153  5795.817
 154  6808.814
 155  7076.12
 156  8074.551
 157  8545.925
 158  7740.62
 159  5880.399
 160  5082.208
 161  5531.977
 162  5016.131
 163  5230.82
 164  4874.291
 165  5729.785
 166  5657.806
 167  5052.874
 168  4791.368
 169  5192.61
 170  4966.471
 171  4485.58
 172  5195.747
 173  4776.074
 174  5346.629
 175  4934.939
 176  5171.298
 177  5031.754
 178  5298.156
 179  5716.095
 180  4947.494
 181  5256.555
 182  4893.573
 183  6146.741
 184  5693.417
 185  5352.46
 186  4715.079
 187  5096.682
 188  4906.294
 189  4955.924
 190  6164.39
 191  5601.192
 192  5390.351
 193  5991.357
 194  5829.359
 195  5525.603
 196  3605.916
 197  5434.692
 198  5431.79
 199  5298.63
 200  5498.785
 201  5750.206
 202  5652.443
 203  5891.379
 204  6327.505
 205  5614.497
 206  4512.531
 207  4577.193
 208  5004.251
 209  4482.901
 210  5617.321
 211  5543.579
 212  6047.855
 213  5428.483
 214  5578.729
 215  5818.648
 216  4810.417
 217  5253.409
 218  5418.47
 219  5149.273
 220  4516.958
 221  4884.448
 222  4624.626
 223  4440.445
 224  3894.545
 225  4859.828
 226  4571.43
 227  4367.719
 228  5283.688
 229  5263.755
 230  4847.215
 231  4395.729
 232  5958.303
 233  4864.183
 234  4560.523
 235  4761.105
 236  4514.792
 237  5150.557
 238  5396.428
 239  5751.3
 240  5885.788
 241  5607.353
 242  5667.211
 243  6017.13
 244  4963.679
 245  4785.983
 246  5358.244
 247  5587.115
 248  4869.199
 249  5604.404
 250  5609.352
 251  5033.993
 252  5206.961
 253  5750.329
 254  5839.217
 255  5139.363
