# Input file       =  1195258620.102966_cleaned.dat
# Candidate        =  PSR_0332+5434
# Telescope        =  AR
# Epoch_topo       =  58078.012026654702
# Epoch_bary       =  N/A
# T_sample         =  0.002
# Data Folded      =  7340032
# Data Avg         =  0.253929056712617
# Data StdDev      =  14.3385925744931 
# Profile Bins     =  512
# Profile Avg      =  3640.4527388873  
# Profile StdDev   =  1716.80322631341 
# Reduced chi-sqr  =  0.415
# Prob(Noise)      <  1   (~0.0 sigma)
# P_topo (ms)      =  714.515689210422  +/- 5e-05
# P'_topo (s/s)    =  -0                +/- 2.64e-11
# P''_topo (s/s^2) =  0                 +/- 1.17e-14
# P_bary (ms)      =  N/A
# P'_bary (s/s)    =  N/A
# P''_bary (s/s^2) =  N/A
# P_orb (s)        =  N/A
# asin(i)/c (s)    =  N/A
# eccentricity     =  N/A
# w (rad)          =  N/A
# T_peri           =  N/A
######################################################
   0  3435.788
   1  4677.884
   2  4732.408
   3  3915.384
   4  4364.562
   5  4103.026
   6  3427.504
   7  3417.473
   8  4461.13
   9  4675.396
  10  4649.589
  11  4671.675
  12  3785.895
  13  3888.919
  14  3646.756
  15  4276.449
  16  4220.095
  17  4055.801
  18  3487.885
  19  2809.975
  20  3230.18
  21  3814.872
  22  2775.42
  23  2672.929
  24  3089.76
  25  3133.915
  26  3330.647
  27  4097.752
  28  3407.631
  29  3902.023
  30  3828.15
  31  2402.414
  32  2149.863
  33  2864.674
  34  1878.4
  35  1584.803
  36  2494.333
  37  4146.655
  38  2608.861
  39  2838.908
  40  3811.306
  41  4149.954
  42  3873.093
  43  4442.906
  44  5488.55
  45  3777.437
  46  2995.036
  47  3832.396
  48  3610.247
  49  3447.268
  50  3872.233
  51  5249.778
  52  4853.927
  53  4380.341
  54  4510.128
  55  3709.644
  56  3646.382
  57  3628.784
  58  4750.633
  59  4182.149
  60  2979.596
  61  3582.837
  62  4076.957
  63  3935.68
  64  2719.35
  65  2985.189
  66  3011.797
  67  2241.925
  68  3440.424
  69  4143.148
  70  3821.892
  71  2907.579
  72  3692.773
  73  2865.057
  74  2052.079
  75  3632.501
  76  3907.347
  77  2817.802
  78  3590.085
  79  3391.644
  80  3719.148
  81  2057.31
  82  2369.986
  83  2582.558
  84  2495.033
  85  2129.996
  86  2730.185
  87  3261.277
  88  2744.573
  89  3117.754
  90  3617.904
  91  3850.189
  92  2851.073
  93  3492.277
  94  4534.08
  95  4514.787
  96  2987.125
  97  3541.058
  98  4269.015
  99  3190.69
 100  3366.588
 101  3580.542
 102  3699.441
 103  2821.663
 104  3376.239
 105  3502.65
 106  3252.51
 107  3335.057
 108  3668.879
 109  2871.506
 110  2779.841
 111  3188.245
 112  3499.441
 113  3706.454
 114  4185.172
 115  4542.304
 116  4995.593
 117  3639.696
 118  3577.453
 119  5074.647
 120  4624.841
 121  4401.154
 122  4222.173
 123  5231.661
 124  4365.709
 125  4426.767
 126  4902.854
 127  4387.208
 128  3127.505
 129  3358.427
 130  3574.582
 131  3732.196
 132  2763.8
 133  3110.329
 134  3244.17
 135  2798.496
 136  3959.927
 137  4277.269
 138  5100.092
 139  5450.503
 140  6204.989
 141  4978.601
 142  5272.433
 143  5138.976
 144  4574.614
 145  4634.279
 146  3813.337
 147  4344.216
 148  3429.273
 149  3489.426
 150  3940.184
 151  3717.92
 152  3700.303
 153  2844.717
 154  3268.567
 155  2804.715
 156  2111.343
 157  2321.094
 158  3309.27
 159  2653.725
 160  2694.852
 161  3565.68
 162  4446.307
 163  2925.517
 164  2552.948
 165  2927.284
 166  4327.043
 167  3032.22
 168  3640.367
 169  4245.769
 170  4087.84
 171  3322.549
 172  3158.298
 173  3591.942
 174  2689.227
 175  2934.43
 176  3541.521
 177  3121.837
 178  2631.714
 179  3378.095
 180  4251.129
 181  3993.224
 182  2773.502
 183  3346.892
 184  3651.051
 185  2922.888
 186  2156.141
 187  2872.913
 188  2937.681
 189  2078.422
 190  2470.876
 191  2849.319
 192  3000.593
 193  3170.907
 194  3340.11
 195  3965.125
 196  2793.673
 197  3146.092
 198  3639.955
 199  3400.298
 200  4402.91
 201  5121.341
 202  5252.782
 203  4425.475
 204  4367.776
 205  4256.273
 206  3479.129
 207  3850.888
 208  4828.999
 209  4814.167
 210  4386.986
 211  4270.606
 212  4860.267
 213  5606.455
 214  5022.317
 215  4115.637
 216  3329.865
 217  3688.918
 218  4843.88
 219  5178.3
 220  4262.158
 221  3921.433
 222  3109.894
 223  3545.167
 224  3742.021
 225  3388.143
 226  3634.78
 227  5181.679
 228  5003.691
 229  4038.788
 230  4581.274
 231  5390.134
 232  4836.136
 233  5150.242
 234  4697.159
 235  4790.456
 236  4857.599
 237  5124.407
 238  4846.874
 239  3095.046
 240  3599.194
 241  3374.719
 242  2996.104
 243  2708.512
 244  2474.372
 245  3125.045
 246  2647.942
 247  3184.051
 248  4083.07
 249  3227.787
 250  4117.577
 251  3620.88
 252  3794.528
 253  3654.059
 254  3359.118
 255  3711.237
 256  2595.524
 257  2797.316
 258  3856.704
 259  3893.252
 260  3293.325
 261  1905.28
 262  3874.991
 263  2892.673
 264  2667.727
 265  2917.962
 266  3730.397
 267  3812.804
 268  2585.54
 269  4851.734
 270  4257.042
 271  3303.714
 272  3276.887
 273  4482.728
 274  4404.824
 275  3135.065
 276  2827.722
 277  3548.226
 278  3723.142
 279  3701.83
 280  3741.484
 281  3734.918
 282  2890.289
 283  2486.988
 284  2280.223
 285  2113.602
 286  2713.647
 287  3665.349
 288  3902.971
 289  4006.611
 290  3762.908
 291  4499.146
 292  4281.512
 293  3738.721
 294  3747.45
 295  4400.819
 296  3094.228
 297  3234.236
 298  4062.355
 299  3895.476
 300  2926.957
 301  1723.28
 302  2176.648
 303  2801.429
 304  3620.823
 305  3929.85
 306  3535.899
 307  3488.513
 308  3461.611
 309  2982.17
 310  3480.606
 311  3650.133
 312  4671.672
 313  5216.571
 314  4495.446
 315  3173.668
 316  3823.612
 317  4460.164
 318  3504.481
 319  2518.546
 320  3047.382
 321  2433.048
 322  2271.062
 323  2592.951
 324  3223.341
 325  2528.052
 326  3304.05
 327  3913.47
 328  3463.592
 329  2440.462
 330  2846.568
 331  2515.762
 332  1103.466
 333  2602.659
 334  4123.622
 335  2805.566
 336  3275.271
 337  2575.029
 338  3216.834
 339  3059.725
 340  3929.003
 341  4075.969
 342  3440.111
 343  3042.962
 344  3303.709
 345  3652.831
 346  4148.278
 347  3810.036
 348  4513.89
 349  3237.178
 350  2814.873
 351  3598.844
 352  3857.616
 353  4102.946
 354  4188.813
 355  5022.897
 356  4350.566
 357  4398.089
 358  4801.613
 359  4000.129
 360  5189.312
 361  4086.365
 362  4394.544
 363  4940.979
 364  4063.804
 365  3517.522
 366  3654.844
 367  3588.906
 368  3410.35
 369  4116.914
 370  5346.313
 371  4450.17
 372  3469.61
 373  4994.778
 374  4651.054
 375  3869.864
 376  4077.719
 377  4198.482
 378  3624.033
 379  2747.063
 380  3806.647
 381  3059.095
 382  1495.424
 383  2397.366
 384  3189.39
 385  2798.759
 386  2811.082
 387  3461.197
 388  2817.056
 389  2694.293
 390  4041.317
 391  4040.679
 392  4834.662
 393  4069.193
 394  3794.365
 395  3360.658
 396  3341.778
 397  2335.773
 398  2752.121
 399  3531.667
 400  3108.495
 401  1930.095
 402  1843.321
 403  2500.963
 404  1718.242
 405  2669.699
 406  2326.75
 407  2315.322
 408  3508.417
 409  3150.15
 410  3290.54
 411  3332.763
 412  3282.608
 413  3979.5
 414  3312.61
 415  3954.898
 416  4662.953
 417  5312.671
 418  4814.755
 419  3492.905
 420  4125.44
 421  3887.514
 422  4250.27
 423  4310.262
 424  4217.868
 425  4156.769
 426  4986.582
 427  5093.579
 428  3712.356
 429  2692.915
 430  3008.486
 431  4226.175
 432  4229.062
 433  3991.06
 434  4193.072
 435  4006.506
 436  3205.919
 437  3927.872
 438  4064.273
 439  4377.433
 440  2604.68
 441  3791.336
 442  4358.493
 443  3985.394
 444  3780.211
 445  3421.313
 446  3094.912
 447  3078.057
 448  3881.346
 449  3916.678
 450  3035.671
 451  3081.985
 452  3155.714
 453  3583.513
 454  3129.928
 455  3936.331
 456  4540.496
 457  3174.446
 458  2965.137
 459  4250.525
 460  4354.266
 461  3566.939
 462  3447.053
 463  3635.16
 464  3280.652
 465  3494.581
 466  3614.68
 467  3223.009
 468  3494.318
 469  3512.867
 470  4082.611
 471  3158.439
 472  2575.319
 473  4175.669
 474  4894.871
 475  5535.138
 476  4394.505
 477  5244.037
 478  4389.438
 479  3751.387
 480  4241.214
 481  3952.565
 482  3422.888
 483  3172.177
 484  2917.552
 485  2859.224
 486  3347.852
 487  2914.868
 488  3012.344
 489  3944.692
 490  3342.558
 491  3561.689
 492  3627.569
 493  3635.658
 494  3795.532
 495  4719.094
 496  5020.828
 497  4506.623
 498  4509.036
 499  4788.642
 500  3586.402
 501  3472.382
 502  3319.852
 503  4354.21
 504  4754.995
 505  4610.512
 506  5457.335
 507  4231.552
 508  3126.742
 509  2875.628
 510  3390.965
 511  2937.912
