# Input file       =  1195086376.112684-PSRB0329-2ms-sampling-dd.dat
# Candidate        =  PSR_0332+5434
# Telescope        =  AR
# Epoch_topo       =  58076.018461952364
# Epoch_bary       =  N/A
# T_sample         =  0.002
# Data Folded      =  7340032
# Data Avg         =  3.33573728897875e-09
# Data StdDev      =  49.1930990233916 
# Profile Bins     =  512
# Profile Avg      =  0.062524999623481
# Profile StdDev   =  5890.0391148536  
# Reduced chi-sqr  =  0.401
# Prob(Noise)      <  1   (~0.0 sigma)
# P_topo (ms)      =  714.513639188262  +/- 7.26e-05
# P'_topo (s/s)    =  -0                +/- 3.83e-11
# P''_topo (s/s^2) =  0                 +/- 1.69e-14
# P_bary (ms)      =  N/A
# P'_bary (s/s)    =  N/A
# P''_bary (s/s^2) =  N/A
# P_orb (s)        =  N/A
# asin(i)/c (s)    =  N/A
# eccentricity     =  N/A
# w (rad)          =  N/A
# T_peri           =  N/A
######################################################
   0  684.325
   1  -1279.854
   2  -829.1603
   3  2444.898
   4  588.2538
   5  -762.3477
   6  -936.6841
   7  -3401.766
   8  -1404.318
   9  -575.2273
  10  423.5915
  11  -1604.677
  12  -3867.642
  13  -1608.499
  14  2627.604
  15  914.8087
  16  1677.225
  17  2460.5
  18  472.4715
  19  -195.2062
  20  333.6662
  21  -160.3352
  22  -1080.907
  23  1937.315
  24  1493.828
  25  2888.057
  26  1034.941
  27  2541.468
  28  5124.298
  29  2348.925
  30  3031.046
  31  1431.731
  32  1733.875
  33  3127.29
  34  1458.087
  35  -819.0399
  36  911.6985
  37  -1490.303
  38  3104.009
  39  1732.975
  40  379.2729
  41  2952.954
  42  3238.398
  43  -674.308
  44  -901.0397
  45  504.9028
  46  3702.087
  47  1955.905
  48  -1202.133
  49  997.281
  50  215.9941
  51  -1116.682
  52  -741.5552
  53  3204.252
  54  557.2427
  55  -6104.472
  56  -1761.659
  57  2542.312
  58  1460.896
  59  1899.536
  60  5200.802
  61  2648.944
  62  918.5685
  63  1263.8
  64  1397.87
  65  -1603.029
  66  1322.891
  67  -1724.672
  68  -2225.176
  69  -902.7062
  70  2613.363
  71  4399.817
  72  4773.228
  73  4981.906
  74  2016.893
  75  2857.93
  76  91.65327
  77  -1124.225
  78  1064.745
  79  101.4504
  80  -961.3121
  81  226.0357
  82  847.9321
  83  -3355.003
  84  -2236.061
  85  -1914.531
  86  2179.489
  87  1966.146
  88  2933.479
  89  3335.327
  90  2450.472
  91  49.0368
  92  -1172.702
  93  1156.357
  94  3410.095
  95  3357.777
  96  -1155.112
  97  -5239.833
  98  -6360.366
  99  -50.25761
 100  3304.214
 101  1611
 102  2811.423
 103  2750.112
 104  2052.431
 105  2051.516
 106  -1928.687
 107  -1835.391
 108  -33.63294
 109  6334.952
 110  3427.303
 111  2673.78
 112  -1357.205
 113  -295.9527
 114  113.6972
 115  -534.9525
 116  -3606.21
 117  -3780.231
 118  3157.717
 119  2902.162
 120  2798.367
 121  697.3135
 122  1422.796
 123  -3899.18
 124  -1450.741
 125  -48.88875
 126  805.2239
 127  -2342.937
 128  -4146.077
 129  799.3256
 130  2512.578
 131  -2391.973
 132  -600.8618
 133  3322.514
 134  2093.546
 135  2932.929
 136  -517.8646
 137  1404.319
 138  -2833.306
 139  -378.0537
 140  -3854.457
 141  -6267.783
 142  -1738.751
 143  -1953.047
 144  -413.6304
 145  -1391.311
 146  -1177.908
 147  -1947.723
 148  -798.5
 149  -2363.271
 150  -1653.82
 151  -194.681
 152  5508.508
 153  3455.837
 154  -241.6229
 155  -3758.464
 156  -7644.538
 157  -4414.444
 158  -1101.256
 159  -2603.574
 160  -2119.641
 161  4423.734
 162  1525.499
 163  196.252
 164  3731.536
 165  3181.46
 166  923.1331
 167  -2543.796
 168  -4622.997
 169  -3015.551
 170  -2849.439
 171  -470.1754
 172  -930.2332
 173  -3495.729
 174  -3940.543
 175  -2460.55
 176  2620.394
 177  901.1587
 178  879.4532
 179  2080.214
 180  2729.785
 181  1785.924
 182  930.9199
 183  -1758.649
 184  -4495.451
 185  -1149.658
 186  1067.285
 187  -2784.075
 188  -4025.58
 189  491.7784
 190  -1239.216
 191  -2522.959
 192  -4954.486
 193  -3625.096
 194  -5838.14
 195  -23.38369
 196  2188.842
 197  -1085.757
 198  -4092.486
 199  -1020.101
 200  3460.242
 201  453.5698
 202  -2975.306
 203  -4022.319
 204  165.4716
 205  1565.17
 206  266.0005
 207  -1484.689
 208  -1342.434
 209  -893.2959
 210  1666.193
 211  1965.267
 212  1391.696
 213  -414.5434
 214  -1020.921
 215  -347.912
 216  -1348.972
 217  2908.263
 218  3872.538
 219  4314.713
 220  2607.516
 221  7659.358
 222  4864.507
 223  2883.021
 224  2948.365
 225  3477.734
 226  204.4775
 227  -799.3405
 228  -447.396
 229  4853.163
 230  2641.454
 231  1146.557
 232  475.6982
 233  1940.491
 234  -678.3431
 235  -38.24055
 236  -215.8611
 237  -1663.924
 238  2798.965
 239  4399.419
 240  5441.526
 241  2662.995
 242  1263.55
 243  3180.42
 244  2019.632
 245  979.5496
 246  2345.255
 247  4217.486
 248  1352.38
 249  666.0612
 250  7279.123
 251  7149.637
 252  10110.03
 253  7356.715
 254  3068.043
 255  844.7134
 256  -5345.144
 257  -688.0651
 258  2214.427
 259  -944.5355
 260  1409.135
 261  3968.836
 262  1074.326
 263  775.5845
 264  -2266.508
 265  2009.699
 266  1909.106
 267  -2668.361
 268  2185.557
 269  -2236.938
 270  -2640.537
 271  -1116.601
 272  -795.3216
 273  39.6329
 274  -5519.79
 275  -516.2236
 276  4541.615
 277  1697.74
 278  -713.1643
 279  -2546.385
 280  -3387.896
 281  -1427.951
 282  424.0238
 283  -1546.921
 284  -3820.223
 285  -1743.556
 286  -713.9707
 287  340.3203
 288  -2115.544
 289  -2735.325
 290  2664.077
 291  3359.199
 292  181.9592
 293  -3755.937
 294  -4187.121
 295  -3621.189
 296  -2512.245
 297  407.7519
 298  3106.748
 299  1332.917
 300  4239.719
 301  2335.867
 302  1117.053
 303  2182.673
 304  2441.778
 305  -1450.66
 306  -2288.91
 307  -2810.793
 308  -4736.132
 309  -3875.303
 310  -2504.799
 311  1176.408
 312  -400.5029
 313  -2527.716
 314  -1568.021
 315  -4215.152
 316  -5414.422
 317  -6147.015
 318  -3072.205
 319  -296.5295
 320  -484.4161
 321  215.2314
 322  -776.747
 323  -4430.964
 324  -3403.224
 325  -2889.897
 326  -3068.275
 327  -2905.108
 328  -2009.995
 329  539.8848
 330  -1098.727
 331  -4516.688
 332  -5482.224
 333  411.1671
 334  -450.2372
 335  -2779.536
 336  2306.367
 337  298.6403
 338  -794.0651
 339  1363.656
 340  1242.231
 341  -1045.878
 342  -1977.141
 343  -2168.48
 344  -3851.914
 345  -5439.999
 346  -1561.879
 347  1473.875
 348  1869.674
 349  2157.951
 350  -2801.866
 351  -5363.067
 352  -3852.313
 353  72.0676
 354  2368.198
 355  -66.76152
 356  -557.5811
 357  3077.231
 358  2337.39
 359  -449.3628
 360  -1540.563
 361  1319.045
 362  3741.069
 363  7019.195
 364  7523.212
 365  7607.552
 366  3139.646
 367  4492.142
 368  5467.505
 369  -0.6104949
 370  -1555.75
 371  -627.8545
 372  4727.021
 373  3090.663
 374  2191.405
 375  -620.4285
 376  1488.344
 377  4309.467
 378  2023.651
 379  2162.504
 380  1271.258
 381  1235.575
 382  -3103.244
 383  -3047.309
 384  -1031.675
 385  -2512.491
 386  -2751.71
 387  104.2588
 388  649.5178
 389  249.6479
 390  -106.4284
 391  -3012.193
 392  -3073.311
 393  1277.624
 394  -2200.082
 395  -4175.814
 396  -1117.692
 397  3298.473
 398  808.2596
 399  165.5164
 400  1593.077
 401  -468.1335
 402  -2826.591
 403  -4032.506
 404  -2674.482
 405  -1494.105
 406  -31.99643
 407  -1952.231
 408  -6340.603
 409  -5495.929
 410  -1330.888
 411  -1526.474
 412  -2526.965
 413  -460.7145
 414  2461.657
 415  1910.486
 416  -467.7646
 417  345.2212
 418  4219.75
 419  1580.673
 420  -1319.628
 421  103.9216
 422  1142.313
 423  -1884.735
 424  1131.292
 425  2220.72
 426  3489.242
 427  -2282.859
 428  -2757.525
 429  -2087.322
 430  520.6654
 431  -125.4303
 432  887.4958
 433  -986.1022
 434  -470.8123
 435  -1025.545
 436  -1608.045
 437  -4607.469
 438  -827.9855
 439  2566.602
 440  367.6333
 441  -1644.854
 442  1048.419
 443  1360.565
 444  193.2784
 445  -2320.113
 446  -2352.799
 447  -2580.882
 448  -6062.579
 449  -2670.586
 450  -2818.264
 451  -4171.924
 452  -4944.734
 453  -2766.33
 454  -883.8251
 455  -1203.655
 456  -2890.304
 457  -1782.66
 458  -1629.14
 459  -2878.347
 460  -1215.149
 461  -1076.605
 462  -1053.05
 463  -1346.137
 464  -2990.229
 465  -2173.415
 466  -2371.105
 467  -1085.253
 468  4314.498
 469  4159.331
 470  -4777.631
 471  -909.0461
 472  2576.266
 473  6257.187
 474  2203.952
 475  -2490.757
 476  -2426.519
 477  837.1378
 478  3973.07
 479  1039.961
 480  -1653.148
 481  -60.57722
 482  59.77604
 483  -504.5083
 484  -718.0602
 485  -834.639
 486  121.9813
 487  2061.7
 488  4255.211
 489  4397.796
 490  3771.155
 491  -262.1679
 492  -414.5448
 493  -1527.68
 494  766.2514
 495  -1145.309
 496  -297.0651
 497  1450.199
 498  1972.479
 499  -732.139
 500  -565.0465
 501  3063.507
 502  414.8295
 503  100.4336
 504  -1891.628
 505  -1564.612
 506  -1139.054
 507  -1113.249
 508  -1175.167
 509  -2627.2
 510  -2061.868
 511  1482.614
