# Input file       =  1195603227.108312-PSRB0329-2ms-sampling-dd.dat
# Candidate        =  PSR_0332+5434
# Telescope        =  AR
# Epoch_topo       =  58082.000533661019
# Epoch_bary       =  N/A
# T_sample         =  0.002
# Data Folded      =  7340032
# Data Avg         =  1.71588918768681e-10
# Data StdDev      =  15.881280148321  
# Profile Bins     =  512
# Profile Avg      =  0.126710126673797
# Profile StdDev   =  1901.51389370854 
# Reduced chi-sqr  =  0.782
# Prob(Noise)      <  1   (~0.0 sigma)
# P_topo (ms)      =  714.519815916777  +/- 5.74e-05
# P'_topo (s/s)    =  -0                +/- 3.03e-11
# P''_topo (s/s^2) =  0                 +/- 1.34e-14
# P_bary (ms)      =  N/A
# P'_bary (s/s)    =  N/A
# P''_bary (s/s^2) =  N/A
# P_orb (s)        =  N/A
# asin(i)/c (s)    =  N/A
# eccentricity     =  N/A
# w (rad)          =  N/A
# T_peri           =  N/A
######################################################
   0  335.7382
   1  -734.3903
   2  -777.2405
   3  -1649.556
   4  -1672.41
   5  -335.7062
   6  1251.976
   7  1920.699
   8  2233.891
   9  2214.566
  10  2306.444
  11  1205.651
  12  68.64573
  13  -258.0019
  14  -786.0029
  15  -483.2562
  16  -43.16539
  17  869.9031
  18  565.6835
  19  1446.927
  20  969.8474
  21  595.1524
  22  1533.652
  23  2524.609
  24  3466.1
  25  2702.321
  26  1031.411
  27  839.6348
  28  487.7638
  29  -301.6832
  30  -618.6981
  31  940.0754
  32  725.8292
  33  175.6727
  34  1276.341
  35  2049.469
  36  1598.733
  37  2387.788
  38  2173.18
  39  333.8867
  40  -1591.754
  41  -930.7493
  42  -452.9626
  43  -489.7523
  44  -688.1732
  45  -106.809
  46  -1270.185
  47  -2248.966
  48  -360.4117
  49  1047.421
  50  964.1187
  51  -1274.831
  52  -677.3948
  53  950.8406
  54  951.1477
  55  -1453.071
  56  -926.3321
  57  -579.5728
  58  -513.3279
  59  54.52783
  60  -1097.361
  61  -1703.245
  62  -2809.219
  63  -1513.983
  64  -486.2478
  65  -991.8839
  66  -840.082
  67  -165.5375
  68  992.8474
  69  803.9403
  70  876.0793
  71  -688.4557
  72  -154.7971
  73  -294.936
  74  592.259
  75  -231.5279
  76  -1100.466
  77  60.36476
  78  -67.394
  79  -709.0894
  80  -1261.072
  81  -739.2454
  82  178.4151
  83  -297.7615
  84  -1111.774
  85  -1873.566
  86  -1616.745
  87  -1273.164
  88  -461.7769
  89  -946.0171
  90  -2268.08
  91  -1752.817
  92  -447.3761
  93  -1349.539
  94  -2306.977
  95  -1795.474
  96  -1005.517
  97  -1008.468
  98  -1204.774
  99  -157.697
 100  206.0604
 101  97.92844
 102  -907.4587
 103  819.8096
 104  453.4527
 105  -705.8326
 106  -337.8883
 107  1362.124
 108  190.0111
 109  281.6151
 110  1088.29
 111  582.4356
 112  173.6392
 113  -122.8816
 114  -1019.693
 115  -306.8981
 116  -527.3152
 117  1313.069
 118  1498.081
 119  33.16624
 120  -1060.4
 121  61.73753
 122  221.1261
 123  16.0191
 124  643.4501
 125  -502.0814
 126  -2795.013
 127  -2258.773
 128  -1301.101
 129  -1797.475
 130  -826.9506
 131  152.3778
 132  -112.8643
 133  -333.28
 134  -1274.23
 135  -590.7451
 136  44.45427
 137  279.1751
 138  1197.731
 139  960.3578
 140  211.2983
 141  -1215.256
 142  -975.8503
 143  -201.2237
 144  83.49799
 145  20.77705
 146  180.7178
 147  410.8584
 148  -319.8232
 149  -804.8499
 150  130.1516
 151  1030.288
 152  1970.756
 153  2158.443
 154  2134.519
 155  1663.94
 156  794.2505
 157  -83.50554
 158  -509.4357
 159  -1577.959
 160  -403.3655
 161  -978.722
 162  -192.2518
 163  471.213
 164  2685.947
 165  1396.208
 166  1086.908
 167  1479.862
 168  513.7598
 169  -1268.801
 170  -1430.555
 171  -300.4556
 172  40.77163
 173  -155.0931
 174  374.9549
 175  605.3548
 176  767.5353
 177  1011.657
 178  1825.093
 179  1333.524
 180  1340.62
 181  -568.8629
 182  -338.7414
 183  -22.37881
 184  -934.6282
 185  -197.8075
 186  -741.0924
 187  -869.9465
 188  -1000.012
 189  -549.9552
 190  -713.295
 191  -1208.309
 192  -1012.815
 193  -533.9779
 194  -1389.99
 195  -1092.255
 196  195.0628
 197  260.9261
 198  986.8801
 199  805.0925
 200  908.9229
 201  289.2815
 202  873.5699
 203  697.6829
 204  -694.0146
 205  -382.543
 206  120.9077
 207  1237.69
 208  -455.1897
 209  296.6985
 210  -974.5005
 211  -997.1768
 212  -1025.936
 213  663.278
 214  149.4189
 215  388.3037
 216  1185.626
 217  1374.136
 218  1533.272
 219  452.1792
 220  543.3735
 221  1085.923
 222  91.44843
 223  -766.4722
 224  -674.5526
 225  -371.8922
 226  -1695.318
 227  -945.3802
 228  252.2008
 229  -448.7997
 230  -1177.288
 231  -925.4851
 232  72.47665
 233  439.8713
 234  310.2317
 235  948.4256
 236  940.2999
 237  -97.07266
 238  930.6578
 239  2010.899
 240  1319.528
 241  -589.7684
 242  304.9804
 243  -255.5246
 244  -1694.022
 245  -2024.546
 246  -523.7413
 247  -1145.838
 248  -986.7788
 249  -875.5766
 250  -777.0485
 251  -1807.026
 252  -1275.76
 253  -601.1321
 254  269.2675
 255  -441.3573
 256  -260.4186
 257  438.6064
 258  694.538
 259  -118.7235
 260  307.0591
 261  1187.604
 262  13.9869
 263  -173.0982
 264  1493.702
 265  650.0156
 266  -708.6721
 267  -769.8414
 268  637.6541
 269  501.3875
 270  913.6329
 271  1584.71
 272  1298.989
 273  1204.907
 274  3120.937
 275  1715.819
 276  -845.6108
 277  -1613.869
 278  -1629.846
 279  -1550.84
 280  -2075.652
 281  244.5841
 282  595.2182
 283  1328.553
 284  184.5995
 285  681.9382
 286  -251.7868
 287  -160.8719
 288  719.8108
 289  1563.184
 290  2379.415
 291  2710.83
 292  3945.175
 293  3144.788
 294  1910.01
 295  1689.271
 296  3283.617
 297  3808.326
 298  2511.285
 299  1281.895
 300  418.9568
 301  -939.6471
 302  -505.6239
 303  786.5721
 304  1174.249
 305  1154.497
 306  779.1535
 307  617.6512
 308  -754.5636
 309  -2304.39
 310  284.2724
 311  1287.981
 312  342.9953
 313  -1623.022
 314  -1297.027
 315  -1200.922
 316  -11.54589
 317  1554.592
 318  2344.038
 319  945.6501
 320  425.1635
 321  60.91004
 322  342.4324
 323  -456.0488
 324  398.15
 325  860.1609
 326  1224.414
 327  848.0059
 328  1357.178
 329  367.4558
 330  459.4265
 331  1006.234
 332  2120.914
 333  635.0071
 334  -800.8912
 335  -181.1954
 336  395.0004
 337  -116.3119
 338  -716.6047
 339  559.5939
 340  120.6104
 341  -1011.78
 342  30.73145
 343  -43.29598
 344  -712.2687
 345  -1153.207
 346  520.0199
 347  -511.5455
 348  -1780.035
 349  -1164.572
 350  -477.6205
 351  -656.4311
 352  -1195.6
 353  -560.8365
 354  -1227.343
 355  -2031.887
 356  -1580.123
 357  -924.2628
 358  -881.7271
 359  -349.871
 360  944.1238
 361  905.09
 362  -327.2762
 363  -797.0861
 364  1471.17
 365  1217.053
 366  -1745.263
 367  -2139.01
 368  -1528.641
 369  -2092.155
 370  -2381.427
 371  -1772.212
 372  -2333.984
 373  -2612.211
 374  -2055.227
 375  -264.4037
 376  -2040.232
 377  -2121.011
 378  -86.76941
 379  -62.72163
 380  -1287.48
 381  -1998.547
 382  -2375.609
 383  -2957.376
 384  -2249.429
 385  -541.5146
 386  171.5866
 387  -251.7845
 388  509.1802
 389  559.7371
 390  -345.3186
 391  -1229.527
 392  -2235.145
 393  -989.6406
 394  -507.9875
 395  -609.1139
 396  -473.6505
 397  -476.1009
 398  -1149.957
 399  -1499.642
 400  -1405.654
 401  -997.3944
 402  -1569.963
 403  91.90901
 404  760.6549
 405  -659.1168
 406  -1474.076
 407  -898.0287
 408  -428.7219
 409  -1382.684
 410  -1181.135
 411  -1122.217
 412  -957.1857
 413  -249.1069
 414  797.7164
 415  488.4529
 416  -1276.896
 417  -666.0062
 418  177.4388
 419  -316.0072
 420  -704.079
 421  -310.5396
 422  1167.717
 423  245.8299
 424  -1936.666
 425  -2026.847
 426  -1864.002
 427  -952.0958
 428  -188.7315
 429  -198.1243
 430  -1110.634
 431  -1141.77
 432  -1381.218
 433  -606.7109
 434  -644.3442
 435  -1059.809
 436  -1318.478
 437  -1753.889
 438  -3014.72
 439  -1857.108
 440  -968.0257
 441  -424.4576
 442  868.5853
 443  2041.55
 444  1095.29
 445  -42.21559
 446  1244.81
 447  1775.904
 448  1346.701
 449  2118.691
 450  987.5478
 451  661.7103
 452  287.0607
 453  408.7815
 454  -491.1086
 455  -236.5527
 456  1538.351
 457  2334.788
 458  1144.777
 459  -156.1014
 460  394.003
 461  935.2295
 462  612.6009
 463  339.1678
 464  1054.818
 465  690.7008
 466  -1073.036
 467  -733.9053
 468  -539.0151
 469  281.7197
 470  1956.224
 471  2588.467
 472  2399.756
 473  670.0703
 474  84.79103
 475  379.5496
 476  469.8848
 477  -371.9224
 478  166.3879
 479  164.6624
 480  -460.5478
 481  -1012.155
 482  -1552.281
 483  -1368.909
 484  -162.0304
 485  1350.35
 486  1820.5
 487  1006.618
 488  1300.458
 489  1229.986
 490  1064.966
 491  1751.038
 492  1299.898
 493  1539.937
 494  -110.7041
 495  -207.8539
 496  315.5715
 497  601.6076
 498  -241.3971
 499  -1233.754
 500  -200.2365
 501  273.2764
 502  224.3844
 503  2022.393
 504  2533.403
 505  2286.464
 506  2175.33
 507  3622.13
 508  3333.655
 509  967.1776
 510  934.5619
 511  717.1404
