# Input file       =  1195156967.112164-PSRB0329-2ms-sampling-dd.dat
# Candidate        =  PSR_0332+5434
# Telescope        =  AR
# Epoch_topo       =  58076.835487409306
# Epoch_bary       =  N/A
# T_sample         =  0.002
# Data Folded      =  7340032
# Data Avg         =  2.85216726676144e-09
# Data StdDev      =  20.333890585774  
# Profile Bins     =  512
# Profile Avg      =  0.97615573747999 
# Profile StdDev   =  2434.63846118766 
# Reduced chi-sqr  =  0.418
# Prob(Noise)      <  1   (~0.0 sigma)
# P_topo (ms)      =  714.514129287381  +/- 0.00108
# P'_topo (s/s)    =  -0                +/- 5.68e-10
# P''_topo (s/s^2) =  0                 +/- 2.51e-13
# P_bary (ms)      =  N/A
# P'_bary (s/s)    =  N/A
# P''_bary (s/s^2) =  N/A
# P_orb (s)        =  N/A
# asin(i)/c (s)    =  N/A
# eccentricity     =  N/A
# w (rad)          =  N/A
# T_peri           =  N/A
######################################################
   0  -87.15894
   1  -102.956
   2  -173.0353
   3  -826.287
   4  366.9069
   5  -530.6604
   6  -205.3964
   7  -1051.511
   8  -1158.759
   9  371.0951
  10  -1026.606
  11  1035.955
  12  246.9688
  13  -781.6794
  14  460.3115
  15  460.0148
  16  471.2679
  17  171.0552
  18  -86.683
  19  954.3706
  20  -92.64039
  21  -531.5847
  22  -76.35389
  23  -503.8676
  24  -965.1876
  25  -1746.964
  26  -557.1414
  27  -1266.583
  28  -1371.9
  29  956.1998
  30  1474.096
  31  1603.249
  32  -41.79839
  33  528.7939
  34  2424.998
  35  1894.221
  36  1159.572
  37  1243.479
  38  391.7717
  39  -1633.958
  40  -1861.513
  41  -1156.879
  42  258.0046
  43  1341.828
  44  675.7034
  45  1447.268
  46  228.6168
  47  -695.7993
  48  -816.8931
  49  508.1642
  50  386.1501
  51  1354.777
  52  1965.211
  53  13.12988
  54  -1758.09
  55  899.6125
  56  1220.607
  57  933.168
  58  2617.365
  59  1586.459
  60  187.6961
  61  48.22497
  62  32.00634
  63  -1299.325
  64  -1139.301
  65  748.8814
  66  -448.8932
  67  -542.0401
  68  -41.84077
  69  -824.1276
  70  -1898.216
  71  -389.2961
  72  -1633.633
  73  -1325.555
  74  -666.8533
  75  -1731.998
  76  -1089.537
  77  -806.9403
  78  -2297.937
  79  -2160.263
  80  -1964.671
  81  -1733.985
  82  -2301.368
  83  -1784.793
  84  -672.9519
  85  -1350.739
  86  -936.9025
  87  -1125.04
  88  649.6728
  89  -74.07954
  90  1065.137
  91  779.2385
  92  1933.991
  93  -167.0868
  94  35.53662
  95  -289.8621
  96  -526.0913
  97  -943.6632
  98  1488.529
  99  852.4442
 100  -1743.046
 101  -1396.311
 102  -1492.153
 103  84.99426
 104  664.3195
 105  549.6198
 106  849.8687
 107  -1308.069
 108  -1527.88
 109  -1885.003
 110  -1015.975
 111  353.8144
 112  -160.9305
 113  -83.1614
 114  -712.3878
 115  -1241.787
 116  -2102.198
 117  -1106.627
 118  -464.8771
 119  -847.6984
 120  -1094.202
 121  -1773.379
 122  -1815.199
 123  -712.613
 124  217.4324
 125  117.4447
 126  -306.313
 127  -2755.011
 128  -1072.194
 129  -2334.882
 130  -382.1321
 131  52.04811
 132  -722.6747
 133  -133.8514
 134  -245.5706
 135  750.1199
 136  424.5778
 137  1050.564
 138  1045.125
 139  -464.6157
 140  -207.4833
 141  415.1534
 142  -850.5451
 143  -1934.216
 144  522.1326
 145  378.4281
 146  489.5017
 147  -459.2989
 148  -27.05227
 149  -101.6853
 150  -534.0321
 151  -346.3719
 152  -157.2942
 153  -2514.139
 154  -2794.144
 155  -1154.535
 156  -348.0635
 157  -1028.6
 158  -785.0808
 159  -511.8177
 160  30.26987
 161  277.2085
 162  1879.239
 163  986.0897
 164  840.9252
 165  713.8725
 166  1377.763
 167  1167.582
 168  596.6658
 169  826.7517
 170  1388.318
 171  1455.188
 172  1523.735
 173  2680.841
 174  1455.932
 175  958.155
 176  1561.539
 177  1242.122
 178  2178.946
 179  831.9064
 180  1366.591
 181  -998.9454
 182  -813.2846
 183  -37.0807
 184  -733.4962
 185  -771.3929
 186  -1074.241
 187  397.6292
 188  -94.42831
 189  -505.7825
 190  450.3132
 191  -1166.984
 192  342.7734
 193  1564.023
 194  2204.832
 195  140.4444
 196  88.51939
 197  -54.26869
 198  -350.466
 199  -287.7899
 200  128.1526
 201  1741.512
 202  1581.147
 203  784.5002
 204  -619.2745
 205  -1482.385
 206  -1100.646
 207  268.0671
 208  1158.385
 209  1078.327
 210  1346.159
 211  686.8699
 212  781.9659
 213  719.0236
 214  -263.0176
 215  -149.4807
 216  -1295.278
 217  -973.5745
 218  -1298.391
 219  723.2595
 220  1910.657
 221  828.4495
 222  1878.132
 223  1399.708
 224  1376.244
 225  -1178.473
 226  -2226.881
 227  -1057.23
 228  387.7861
 229  1458.408
 230  655.4146
 231  517.6339
 232  -685.6805
 233  -438.2791
 234  -1092.952
 235  266.7391
 236  1065.943
 237  2067.28
 238  1394.581
 239  -130.9799
 240  -1480.743
 241  -1944.385
 242  386.9357
 243  632.3407
 244  1102.235
 245  309.3023
 246  50.72477
 247  -647.5516
 248  1285.635
 249  2833.289
 250  1743.101
 251  1701.445
 252  899.795
 253  2013.042
 254  -76.93369
 255  1291.222
 256  1505.084
 257  608.1351
 258  138.3976
 259  -502.3884
 260  1063.992
 261  499.6535
 262  -159.2318
 263  580.9594
 264  -82.03838
 265  1342.761
 266  210.3473
 267  1670.542
 268  109.7627
 269  -440.1884
 270  1522.542
 271  542.2325
 272  -1264.317
 273  -1094.611
 274  -368.969
 275  1253.74
 276  1221.411
 277  939.3853
 278  181.0797
 279  198.6913
 280  1079.251
 281  1500.518
 282  811.5333
 283  -581.9896
 284  -429.7576
 285  1359.758
 286  357.2629
 287  838.0402
 288  -985.0732
 289  -917.9103
 290  -762.5002
 291  -78.95331
 292  -160.6221
 293  -693.2423
 294  16.78542
 295  862.1495
 296  -262.9431
 297  -972.5231
 298  1326.136
 299  2450.155
 300  1635.743
 301  1416.953
 302  1031.969
 303  7.102942
 304  -939.4774
 305  28.45794
 306  464.198
 307  25.56825
 308  221.2929
 309  96.89632
 310  797.0724
 311  246.5257
 312  667.7448
 313  696.1414
 314  247.6383
 315  1229.66
 316  956.0629
 317  1910.512
 318  579.2404
 319  150.3754
 320  1265.152
 321  3394.89
 322  3148.515
 323  3977.53
 324  2151.503
 325  -542.3012
 326  -2336.796
 327  188.3117
 328  2545.82
 329  1945.834
 330  1366.368
 331  228.9904
 332  -1104.191
 333  -1437.937
 334  -521.324
 335  765.4678
 336  631.0986
 337  1537.692
 338  835.7541
 339  339.0876
 340  -776.6176
 341  -821.2812
 342  320.6049
 343  1410.574
 344  -1255.272
 345  -959.3199
 346  425.0663
 347  -1183.272
 348  -14.39081
 349  -755.0493
 350  -971.838
 351  -878.3282
 352  62.18346
 353  833.6588
 354  -1112.654
 355  -2186.048
 356  -1623.637
 357  -1751.05
 358  -2796.931
 359  316.4344
 360  798.2008
 361  -121.6778
 362  -354.5925
 363  1079.792
 364  1503.836
 365  -1270.369
 366  -688.7409
 367  -1085.289
 368  -2059.597
 369  -1252.454
 370  -1216.679
 371  -1441.15
 372  -920.5109
 373  294.9057
 374  -1850.496
 375  -308.7195
 376  190.8643
 377  -605.8203
 378  -1163.925
 379  -1989.335
 380  -746.5493
 381  -240.5011
 382  -651.4987
 383  -1480.366
 384  -1792.072
 385  -684.6226
 386  509.127
 387  403.7861
 388  37.5695
 389  1197.793
 390  -1264.136
 391  -23.1434
 392  1293.357
 393  756.6944
 394  56.91462
 395  -1107.581
 396  -78.441
 397  -699.1806
 398  -715.0106
 399  -627.6835
 400  1170.632
 401  96.50056
 402  1076.671
 403  859.9194
 404  -219.7941
 405  1148.946
 406  1795.773
 407  1940.776
 408  749.1307
 409  1616.454
 410  1703.343
 411  1833.461
 412  1909.294
 413  930.2802
 414  1010.763
 415  -397.0121
 416  348.9816
 417  695.3748
 418  -354.2853
 419  -524.3203
 420  -736.2364
 421  -1680.458
 422  -1574.137
 423  -1083.579
 424  -350.793
 425  -154.4624
 426  -179.3021
 427  -1814.265
 428  -1096.961
 429  -715.2194
 430  732.1334
 431  51.29517
 432  179.6961
 433  643.3625
 434  -620.4524
 435  -860.8588
 436  -1120.334
 437  -1164.059
 438  -1470.254
 439  -735.6184
 440  -301.6928
 441  512.3268
 442  1532.457
 443  1491.317
 444  314.9633
 445  -565.0872
 446  116.7141
 447  -569.4196
 448  629.8505
 449  -28.25965
 450  1053.705
 451  224.2096
 452  -704.7042
 453  -71.55584
 454  -1941.062
 455  -1524.996
 456  -827.0637
 457  1321.339
 458  288.1774
 459  -466.0448
 460  -482.5919
 461  386.6411
 462  504.7917
 463  1081.357
 464  1658.783
 465  3198.116
 466  3488.411
 467  1552.024
 468  123.0392
 469  -735.7037
 470  -309.2836
 471  1425.854
 472  462.6286
 473  85.61797
 474  -315.9585
 475  287.0712
 476  -893.9793
 477  -1091.488
 478  -1066.806
 479  309.4515
 480  441.2845
 481  700.1854
 482  -637.9849
 483  -1067.933
 484  -749.8788
 485  -367.1984
 486  625.1042
 487  329.3717
 488  -327.784
 489  -172.4234
 490  -451.941
 491  -769.3591
 492  -1081.7
 493  278.1434
 494  -155.0201
 495  74.91517
 496  -525.5017
 497  -802.6182
 498  -419.8223
 499  -631.2566
 500  -1127.337
 501  -2660.527
 502  -2431.397
 503  -1553.06
 504  -1377.344
 505  -2332.086
 506  -2117.349
 507  -987.8225
 508  -1176.67
 509  -124.3587
 510  524.0571
 511  75.63452
