# Input file       =  1195416006.108325_cleaned.dat
# Candidate        =  PSR_0332+5434
# Telescope        =  AR
# Epoch_topo       =  58079.833623938946
# Epoch_bary       =  N/A
# T_sample         =  0.002
# Data Folded      =  7340032
# Data Avg         =  1.45828597964802 
# Data StdDev      =  13.9503499496083 
# Profile Bins     =  512
# Profile Avg      =  20905.9032721713 
# Profile StdDev   =  1670.31775798507 
# Reduced chi-sqr  =  0.468
# Prob(Noise)      <  1   (~0.0 sigma)
# P_topo (ms)      =  714.517232422729  +/- 7.85e-05
# P'_topo (s/s)    =  -0                +/- 4.14e-11
# P''_topo (s/s^2) =  0                 +/- 1.83e-14
# P_bary (ms)      =  N/A
# P'_bary (s/s)    =  N/A
# P''_bary (s/s^2) =  N/A
# P_orb (s)        =  N/A
# asin(i)/c (s)    =  N/A
# eccentricity     =  N/A
# w (rad)          =  N/A
# T_peri           =  N/A
######################################################
   0  20637.21
   1  20251.65
   2  20983.42
   3  21753.08
   4  20684.11
   5  19890.8
   6  20551.65
   7  21644.56
   8  20713.96
   9  20975.96
  10  20355.23
  11  19407.07
  12  19418.99
  13  19484.15
  14  19487.68
  15  20525.54
  16  20871.95
  17  21475.65
  18  20165.02
  19  20339.62
  20  20133.04
  21  21155.14
  22  21221.39
  23  20227.04
  24  18733.55
  25  18358.36
  26  19327.99
  27  19054.04
  28  18660.34
  29  20120.23
  30  20820.3
  31  22065.53
  32  21422.03
  33  18930.7
  34  19100.33
  35  19913.81
  36  20469.71
  37  19202.75
  38  19419.37
  39  19992.06
  40  20557.32
  41  20751.66
  42  19802.44
  43  20512.62
  44  21030.12
  45  20797.31
  46  21094.9
  47  20739.61
  48  20184.38
  49  19652.29
  50  20699.02
  51  20273.08
  52  20079.63
  53  20556.85
  54  21432.86
  55  20579.5
  56  20192.02
  57  20575.02
  58  19334.14
  59  19921.9
  60  21109
  61  22305.6
  62  20977.56
  63  20616.45
  64  20694.8
  65  22227.55
  66  22076.25
  67  21743.52
  68  22140.03
  69  21516.97
  70  21490.5
  71  20365.07
  72  21452.43
  73  21467.34
  74  21485.67
  75  22271.18
  76  21999.5
  77  21249.32
  78  21511.59
  79  21463.27
  80  20740.87
  81  19280.57
  82  19779.16
  83  20790.28
  84  21081.62
  85  21058.99
  86  21253.51
  87  21079
  88  21390.97
  89  20811.55
  90  20631.88
  91  19809.77
  92  21091
  93  20968.3
  94  19484.73
  95  19411.53
  96  19435.09
  97  21140.61
  98  22251.22
  99  21166.41
 100  20805.38
 101  20571.81
 102  20976.52
 103  21302.94
 104  20642.69
 105  20724.15
 106  19724.62
 107  20020.44
 108  19835.68
 109  20887.78
 110  21203.62
 111  21320.78
 112  21263.79
 113  21203.51
 114  20735.48
 115  20888.17
 116  21448.6
 117  22300
 118  21058.86
 119  20287.18
 120  19886.71
 121  19811.19
 122  20243.24
 123  19911.53
 124  19658.77
 125  21152.94
 126  21850.72
 127  23008.57
 128  21714.75
 129  22490.36
 130  21715.1
 131  21955.07
 132  22987.29
 133  22256.56
 134  21219.14
 135  21314.99
 136  21873.39
 137  21064.93
 138  20644.92
 139  20689.11
 140  21185.04
 141  21657.91
 142  20990.11
 143  20261.73
 144  21040.12
 145  21777.35
 146  21167.16
 147  21398.07
 148  20391.4
 149  20525.61
 150  20340.13
 151  20173.08
 152  19887.61
 153  19643.13
 154  20761.6
 155  20714.3
 156  20720.88
 157  20585.41
 158  20288.22
 159  19617.85
 160  22214.65
 161  22509.48
 162  20134.52
 163  20257.73
 164  21605.27
 165  20832.96
 166  20826.26
 167  20603.22
 168  21082.39
 169  19592.76
 170  20779.77
 171  19829.02
 172  19645.56
 173  19903.59
 174  20974.69
 175  21022.44
 176  20201.3
 177  19533.29
 178  20256.97
 179  21121.82
 180  20843.75
 181  20351.38
 182  20470.53
 183  20979.08
 184  21328.83
 185  21715.75
 186  22175.26
 187  22354.27
 188  22458.3
 189  21507.3
 190  21040.14
 191  20662.92
 192  20305.01
 193  21189.14
 194  21199.57
 195  20614.95
 196  20311.08
 197  20652.63
 198  21120.24
 199  21164.75
 200  20689.17
 201  19750.62
 202  20760.96
 203  21500.75
 204  21487.02
 205  21194.26
 206  20570.28
 207  21488.19
 208  20909.51
 209  20713.33
 210  19467.15
 211  21171.28
 212  20904.71
 213  21369.59
 214  20256.3
 215  18562.75
 216  18812.76
 217  20051.11
 218  20752.54
 219  20399.65
 220  20642.29
 221  20871.95
 222  21277
 223  20469.78
 224  21047.83
 225  21218.52
 226  21594.89
 227  22771.96
 228  21297.16
 229  21268
 230  21124.45
 231  20585.1
 232  20829.8
 233  21923.24
 234  20943.34
 235  20620.42
 236  21655.83
 237  21415.39
 238  21303.13
 239  20167.52
 240  19486.44
 241  19910.64
 242  19878.76
 243  20004.79
 244  20622.17
 245  20795.21
 246  21241.15
 247  20786.1
 248  20759.21
 249  21371.76
 250  22416.23
 251  20798.71
 252  20352.4
 253  21097.34
 254  21812.44
 255  21150.98
 256  20632.15
 257  19950.8
 258  20431.52
 259  20695.29
 260  22244.43
 261  22270.93
 262  20615.88
 263  19971.47
 264  20659.46
 265  21297.43
 266  20680.37
 267  21359.71
 268  20963.13
 269  20646.87
 270  20860.37
 271  19945.58
 272  20483.98
 273  20608.04
 274  21206
 275  21634.12
 276  21226.68
 277  21241.66
 278  21113.89
 279  20727.06
 280  20217.47
 281  20704.89
 282  20749.13
 283  21040.08
 284  20389.88
 285  21692.51
 286  21371.18
 287  21396.66
 288  21432.92
 289  22544.14
 290  21928.01
 291  20262.85
 292  20086.23
 293  20328.86
 294  20063.72
 295  20376.27
 296  19791.35
 297  20106.26
 298  20229.72
 299  20179.72
 300  20885.3
 301  21770.35
 302  20692.47
 303  20444.93
 304  21442.75
 305  20614.14
 306  19819.21
 307  21023.35
 308  22306.44
 309  21223.56
 310  20196.14
 311  20897.21
 312  21569.7
 313  22400.15
 314  22438.44
 315  22700.03
 316  21792.63
 317  20905.83
 318  20656.61
 319  21451.29
 320  19811.03
 321  19254.44
 322  19682.19
 323  20337.37
 324  19841.42
 325  19610.52
 326  19861.74
 327  20448.42
 328  20333.3
 329  21188.78
 330  21348.25
 331  21706.26
 332  22014.21
 333  22053.65
 334  20749.75
 335  20472.12
 336  20054.89
 337  20142.17
 338  20575.87
 339  20632.15
 340  21013.87
 341  21030.02
 342  21473.97
 343  21669.29
 344  21949.85
 345  21435.6
 346  21887.52
 347  22423.62
 348  22944.87
 349  21643.21
 350  20773.33
 351  21518.22
 352  22574.35
 353  22801.83
 354  22506.59
 355  22343.21
 356  22003.66
 357  22383.49
 358  22937.26
 359  22963.55
 360  22716.84
 361  23010.71
 362  22255
 363  21132.17
 364  20553.33
 365  21691.35
 366  20661.14
 367  20419.64
 368  20092.36
 369  20502.47
 370  20940.69
 371  21288.31
 372  21916.97
 373  20797.15
 374  20385.6
 375  21207.65
 376  20531.64
 377  20151.68
 378  20416.69
 379  21124.29
 380  21518.87
 381  21833.19
 382  21543.85
 383  21972.6
 384  20590
 385  20657.53
 386  21236.88
 387  21088.9
 388  21218.87
 389  21017.42
 390  20706.75
 391  20982.88
 392  20660.74
 393  20202.9
 394  20462.47
 395  20002.18
 396  20036.01
 397  19902.21
 398  20651.4
 399  21436.01
 400  20738.36
 401  20893.31
 402  20162.14
 403  20688.72
 404  20821.56
 405  19248.79
 406  19742.32
 407  20845.53
 408  20596.95
 409  20245.72
 410  19748.14
 411  20224.51
 412  21213.64
 413  20848.53
 414  22635.8
 415  23084.09
 416  23052.29
 417  21624.51
 418  21634.63
 419  20774.33
 420  20731.87
 421  20946.66
 422  20979.79
 423  20699.03
 424  20557.36
 425  19543.31
 426  21516.92
 427  21262.5
 428  20787.94
 429  20792.2
 430  21023.77
 431  21117.25
 432  21088.31
 433  22905.11
 434  23060.34
 435  21490.79
 436  20387.54
 437  20827.11
 438  20503.57
 439  19916.1
 440  19566.51
 441  20126.81
 442  20531.2
 443  20846.07
 444  21439.07
 445  20333.13
 446  20374.84
 447  21145.87
 448  20747.91
 449  20108.12
 450  19431.75
 451  21181.15
 452  20798.4
 453  20638.88
 454  20523.77
 455  19842.54
 456  20608.25
 457  21483.26
 458  21531.08
 459  20570.46
 460  20591.06
 461  21063.19
 462  20930.88
 463  20264.1
 464  20438.95
 465  20866.87
 466  20668.63
 467  21065.68
 468  20022.34
 469  21024.89
 470  21188.46
 471  21596.03
 472  22125.93
 473  21214.17
 474  21298.15
 475  21305.83
 476  21580.86
 477  21956.69
 478  21337.28
 479  20848.37
 480  20339.05
 481  20528.39
 482  20825.79
 483  21264.86
 484  20687.94
 485  22615.59
 486  22054.83
 487  21482.49
 488  20590.38
 489  21093.61
 490  21581.66
 491  20892.72
 492  21037.73
 493  21283.65
 494  21094.89
 495  20698.15
 496  21575.76
 497  20611.05
 498  21376.41
 499  21335.14
 500  22004.38
 501  21850.22
 502  20846.23
 503  20624.69
 504  21193.8
 505  22345.62
 506  22079.78
 507  21178.25
 508  22580.55
 509  21558.2
 510  22122.4
 511  21780.28
