# Input file       =  1195603227.108312_cleaned.dat
# Candidate        =  PSR_0332+5434
# Telescope        =  AR
# Epoch_topo       =  58082.000533661019
# Epoch_bary       =  N/A
# T_sample         =  0.002
# Data Folded      =  7340032
# Data Avg         =  1.43736878731579 
# Data StdDev      =  12.8462569283401 
# Profile Bins     =  512
# Profile Avg      =  20606.166519013  
# Profile StdDev   =  1538.12134810623 
# Reduced chi-sqr  =  0.940
# Prob(Noise)      <  0.829   (~0.0 sigma)
# P_topo (ms)      =  714.519815916777  +/- 3.66e-05
# P'_topo (s/s)    =  -0                +/- 1.93e-11
# P''_topo (s/s^2) =  0                 +/- 8.53e-15
# P_bary (ms)      =  N/A
# P'_bary (s/s)    =  N/A
# P''_bary (s/s^2) =  N/A
# P_orb (s)        =  N/A
# asin(i)/c (s)    =  N/A
# eccentricity     =  N/A
# w (rad)          =  N/A
# T_peri           =  N/A
######################################################
   0  21627.98
   1  20913.08
   2  20466.38
   3  19995.07
   4  20193.47
   5  20777.07
   6  21108.35
   7  21323.24
   8  21414.25
   9  23231.57
  10  23241.05
  11  22566.88
  12  21685.42
  13  21044.48
  14  20351.68
  15  20283.64
  16  21572.73
  17  22162.44
  18  21032.87
  19  21292.59
  20  21461.19
  21  20841.29
  22  21251.66
  23  22687.73
  24  22631.85
  25  22075.54
  26  20955.66
  27  21217.69
  28  21318.53
  29  20188.96
  30  20221.64
  31  22231.64
  32  21016.43
  33  20284.49
  34  21857.72
  35  22559.71
  36  21700.13
  37  21520.86
  38  22295.9
  39  21216.24
  40  19870.34
  41  20367.79
  42  20856.4
  43  19854.13
  44  19909.21
  45  20662.04
  46  20153.34
  47  18526.68
  48  19945.97
  49  21367.25
  50  21203.12
  51  18836.78
  52  19422.37
  53  21089.56
  54  21695.08
  55  19896.98
  56  20332.62
  57  20634.62
  58  20383.5
  59  21053.96
  60  20283.42
  61  18712.74
  62  18440.76
  63  19611.73
  64  19905.31
  65  19430.66
  66  19972.91
  67  20642.97
  68  22130.78
  69  20882.48
  70  21887.34
  71  20710.45
  72  20407.58
  73  19878.33
  74  20732.76
  75  19991.4
  76  19016.03
  77  19727.68
  78  20530.13
  79  19472.18
  80  19510.99
  81  19663.19
  82  20210.72
  83  19352.31
  84  18465.96
  85  19195.38
  86  19998.17
  87  19539.82
  88  20104.02
  89  20648.31
  90  18661.54
  91  19961.75
  92  21143.3
  93  20099.49
  94  18710.14
  95  19645.42
  96  20628.55
  97  19919.67
  98  19705
  99  20688.8
 100  20860.56
 101  20846.23
 102  20589.1
 103  21673.97
 104  21236.69
 105  20241.72
 106  20685.04
 107  22105.32
 108  21387.42
 109  21072.43
 110  21023.46
 111  20823.66
 112  20168.59
 113  20484.6
 114  20559.45
 115  20912.38
 116  20305.27
 117  21527.77
 118  22171.29
 119  20018.32
 120  19022.38
 121  21104.57
 122  20851.14
 123  20108.73
 124  21286.77
 125  20987.89
 126  19029
 127  18090.49
 128  18662.51
 129  18184.93
 130  19287.02
 131  20163.72
 132  19717.76
 133  19076.18
 134  18811.56
 135  20242.1
 136  19674.85
 137  18834.21
 138  20978.9
 139  21854.96
 140  21218.58
 141  19186.03
 142  19969.59
 143  20187.92
 144  20235.17
 145  20469.12
 146  20937.97
 147  20404.71
 148  19317.19
 149  19611.48
 150  21199.55
 151  21377.86
 152  21422.97
 153  21125.03
 154  22131.9
 155  21761.17
 156  21283.62
 157  20381.23
 158  20133.86
 159  19051.57
 160  19275.55
 161  19653.2
 162  19172.32
 163  19330.65
 164  22205.79
 165  21476.24
 166  21145.79
 167  21529.47
 168  20018.75
 169  19363.06
 170  19753.03
 171  20731.11
 172  21605.78
 173  21236.58
 174  20825.52
 175  21685.11
 176  20175.5
 177  20858.85
 178  21978.59
 179  21948.42
 180  21816.47
 181  21236.46
 182  21413.9
 183  20075.34
 184  19118.46
 185  19599.22
 186  19103.88
 187  19827.46
 188  19602.24
 189  19787.47
 190  19294.6
 191  18419.62
 192  18881.64
 193  19973.01
 194  20333.63
 195  20370.35
 196  20547.96
 197  20393.21
 198  20670.16
 199  20439.14
 200  20760.42
 201  20411.47
 202  20284.98
 203  19676.57
 204  19298.96
 205  20081.74
 206  21033.98
 207  21831.42
 208  20405.42
 209  20496.63
 210  20338.07
 211  18698
 212  18472.56
 213  20663.83
 214  21607.45
 215  21018.48
 216  21463.32
 217  20802.43
 218  21493.92
 219  20489.82
 220  20825.95
 221  21101.01
 222  19993.33
 223  19243.78
 224  19220.45
 225  19631.44
 226  19169.02
 227  19470.5
 228  20253.61
 229  20154.73
 230  19385
 231  19675.07
 232  20533.45
 233  19980.14
 234  19910.53
 235  21376.06
 236  21588.98
 237  20095.18
 238  20507.03
 239  20798.21
 240  21192.55
 241  20157.37
 242  21606.94
 243  20554.82
 244  18959.68
 245  19181.93
 246  19852.13
 247  19236.16
 248  18482.28
 249  19915.83
 250  21017.05
 251  19902.65
 252  18586.75
 253  19655.21
 254  20874.21
 255  19837.98
 256  20501.72
 257  21243.65
 258  20537.85
 259  19696.64
 260  20056.8
 261  21468.99
 262  20376.77
 263  21274.9
 264  21981.72
 265  21219.79
 266  19950.73
 267  20266.66
 268  20992.37
 269  20745.24
 270  21052.59
 271  21467.6
 272  21444.64
 273  20568.26
 274  21727.09
 275  20430.71
 276  19593.91
 277  19862.82
 278  19746.62
 279  19429.21
 280  19603.07
 281  20724.26
 282  21041.24
 283  21354.26
 284  19972.94
 285  20586.25
 286  19890.56
 287  20290.57
 288  21377.04
 289  21238.42
 290  21858.04
 291  22084.93
 292  22183.58
 293  21764.75
 294  21811.65
 295  21151.77
 296  23414.83
 297  23452.74
 298  22642.21
 299  22151.75
 300  21509.64
 301  20751.27
 302  20381.11
 303  20897.32
 304  21133.68
 305  20596.36
 306  21335.67
 307  21457.48
 308  20727.11
 309  18967.38
 310  21160.23
 311  21966.61
 312  20065.21
 313  17975.65
 314  19374.54
 315  19567.26
 316  20192.48
 317  21243.9
 318  22619.83
 319  21743.91
 320  21169.69
 321  20806.7
 322  21297.89
 323  19871.19
 324  19913.89
 325  20494.04
 326  21309.64
 327  21652.17
 328  22307.49
 329  21490.55
 330  20963.13
 331  21416.31
 332  22963.3
 333  22328.86
 334  19482.26
 335  20895.84
 336  22022.1
 337  20412.7
 338  20277.91
 339  20862.89
 340  20895.82
 341  19916.11
 342  21338.79
 343  21883.67
 344  20366.15
 345  20345.08
 346  21277.28
 347  20811.09
 348  20236.51
 349  20196.5
 350  20944.8
 351  19650.51
 352  19475.04
 353  19978.1
 354  19654.64
 355  19176.29
 356  19472.26
 357  20191.29
 358  20352.83
 359  20990.41
 360  21982.3
 361  21911.23
 362  20673.12
 363  19743.92
 364  21644.86
 365  21420.95
 366  18532.48
 367  18450.54
 368  18520.03
 369  18586.49
 370  18678.68
 371  19275.78
 372  19637.38
 373  18767.68
 374  19339
 375  21646.12
 376  20477.75
 377  20201.52
 378  21640.63
 379  21224.43
 380  19458.07
 381  19154.15
 382  19247.25
 383  18951.99
 384  19050.77
 385  20219.78
 386  19791.31
 387  18547.83
 388  20192.19
 389  20500.87
 390  20701.23
 391  20621.93
 392  20467.19
 393  20688.43
 394  20015.1
 395  19806.86
 396  19960.21
 397  20302.1
 398  19673.78
 399  19293.48
 400  20377.83
 401  20585.09
 402  20028.71
 403  20855.72
 404  21378.18
 405  19664.76
 406  20257.88
 407  19591.36
 408  20013.33
 409  18892.82
 410  19661.11
 411  19330.43
 412  19334.1
 413  19729.02
 414  21369.31
 415  21475.31
 416  19909.47
 417  20563.06
 418  21186.08
 419  20301.78
 420  19323.51
 421  20155.08
 422  21406.34
 423  19889.36
 424  19333.94
 425  19751.71
 426  20139
 427  19940.82
 428  21155.7
 429  21631.18
 430  20698.19
 431  21093.85
 432  19671.83
 433  19705.87
 434  19590.01
 435  20076.14
 436  20175.88
 437  19643.06
 438  18737
 439  19690.65
 440  20645.89
 441  21025.01
 442  21819.16
 443  23193.88
 444  22242.47
 445  21659.89
 446  22939.89
 447  23166.92
 448  22174.5
 449  23291.88
 450  23014.99
 451  23617.27
 452  22096.67
 453  21030.17
 454  20402.4
 455  20776.62
 456  21557.07
 457  22208.56
 458  21576.68
 459  20491.59
 460  21217.58
 461  21251.36
 462  21364.86
 463  21484.19
 464  21860.75
 465  22102.95
 466  20492.92
 467  20831.9
 468  19968.15
 469  20180.8
 470  21740.31
 471  22181.21
 472  23154.96
 473  22291.14
 474  21669.12
 475  21601.76
 476  21349.12
 477  20733.58
 478  22406.21
 479  21435.2
 480  19356.2
 481  18993.02
 482  19483.27
 483  18844.89
 484  19695.59
 485  21203.95
 486  22309.73
 487  21912.39
 488  20987.28
 489  21904.75
 490  21681.74
 491  22028.91
 492  21901.15
 493  21627.03
 494  21040.62
 495  19996.87
 496  20142.58
 497  19652.25
 498  19777.9
 499  19514.83
 500  21073.33
 501  21158.71
 502  21332.09
 503  22687.74
 504  23086.02
 505  22634.11
 506  22524.15
 507  24391.15
 508  23707.17
 509  20351.09
 510  20663.91
 511  21838.39
