# Input file       =  1195689392.107103_cleaned.dat
# Candidate        =  PSR_0332+5434
# Telescope        =  AR
# Epoch_topo       =  58082.997813739617
# Epoch_bary       =  N/A
# T_sample         =  0.002
# Data Folded      =  7340032
# Data Avg         =  1.80426106673777 
# Data StdDev      =  16.6433367070033 
# Profile Bins     =  256
# Profile Avg      =  51732.2841900889 
# Profile StdDev   =  2818.18431443478 
# Reduced chi-sqr  =  0.791
# Prob(Noise)      <  0.994   (~0.0 sigma)
# P_topo (ms)      =  714.520849828139  +/- 7.35e-05
# P'_topo (s/s)    =  -0                +/- 3.88e-11
# P''_topo (s/s^2) =  0                 +/- 1.71e-14
# P_bary (ms)      =  N/A
# P'_bary (s/s)    =  N/A
# P''_bary (s/s^2) =  N/A
# P_orb (s)        =  N/A
# asin(i)/c (s)    =  N/A
# eccentricity     =  N/A
# w (rad)          =  N/A
# T_peri           =  N/A
######################################################
   0  50717.75
   1  50999.13
   2  55250.08
   3  52161.28
   4  51236.32
   5  51779.95
   6  53986.79
   7  52461.5
   8  51863.57
   9  49833.21
  10  49235.58
  11  50805.46
  12  52744.29
  13  52921.68
  14  53943.95
  15  55195.3
  16  54899.7
  17  51732.51
  18  52094.06
  19  49809.22
  20  50146.93
  21  52762.61
  22  54356.55
  23  54225.47
  24  53066.26
  25  54853.08
  26  53370.64
  27  53884.48
  28  50725.96
  29  52481.1
  30  55389.38
  31  53117.58
  32  54405.94
  33  49506
  34  50386.44
  35  50615.25
  36  51983.09
  37  51670.76
  38  53099.61
  39  53463.39
  40  54114.84
  41  56333.21
  42  54663.77
  43  53058.93
  44  53648.73
  45  51567.13
  46  49673.21
  47  49441.54
  48  50931.64
  49  49623.89
  50  52416.04
  51  50038.34
  52  52725.04
  53  48472.49
  54  49564.32
  55  49512.85
  56  52073.8
  57  51577.24
  58  46890.71
  59  50945.64
  60  49550.93
  61  49376.37
  62  52735.43
  63  49819.98
  64  47418.64
  65  51559.95
  66  51369.05
  67  50522.5
  68  52398.21
  69  51692.82
  70  55487.66
  71  52354.93
  72  50950.37
  73  53067.98
  74  53202.04
  75  51150.28
  76  50917.66
  77  53222.23
  78  49896.61
  79  52350.39
  80  49774.82
  81  49435.91
  82  49626.95
  83  48247.36
  84  50775.66
  85  45091.59
  86  46367.33
  87  49266.99
  88  51868.36
  89  49737.81
  90  50052.37
  91  51752.33
  92  50499.08
  93  50496.38
  94  49306.48
  95  50853.59
  96  51628.19
  97  54625.12
  98  52343.81
  99  50983.95
 100  49899.42
 101  52039.54
 102  53444.71
 103  50276.91
 104  53527.91
 105  52530.22
 106  51767.36
 107  50524.13
 108  50747.95
 109  52223.37
 110  51698.18
 111  51936.08
 112  53798.15
 113  53853.71
 114  53460.81
 115  57397.35
 116  56499.71
 117  53468.92
 118  54647.4
 119  55389.93
 120  54821.99
 121  51667
 122  57131.09
 123  52628.52
 124  50723.58
 125  51501.35
 126  51637.45
 127  53803.44
 128  50907.32
 129  53806.26
 130  53536.25
 131  50215.95
 132  49081.99
 133  49468.41
 134  50841.75
 135  52473.18
 136  56255.5
 137  51247.29
 138  48070.41
 139  50032.6
 140  50991.73
 141  50221.23
 142  48458.32
 143  53794.07
 144  49950.55
 145  53089.85
 146  51424.15
 147  51460.48
 148  49643.5
 149  52661.3
 150  51618.02
 151  53354.68
 152  51567.89
 153  51528.9
 154  52815.89
 155  50982.9
 156  55039.29
 157  54704.31
 158  54612.05
 159  57138.88
 160  54003.79
 161  52102.65
 162  50101.65
 163  54217.94
 164  51974.57
 165  53664.38
 166  50758.69
 167  49717.74
 168  48575.75
 169  45500.97
 170  46958.38
 171  49999.43
 172  52717.5
 173  50040.44
 174  50373.81
 175  50755.72
 176  49558.25
 177  51100.62
 178  51326.59
 179  47827.77
 180  49611.54
 181  48288.92
 182  47028.91
 183  50245.77
 184  49345.11
 185  49993.45
 186  51666.83
 187  50599.85
 188  50310.4
 189  47674.38
 190  48857.6
 191  50983.67
 192  50497.75
 193  49089.75
 194  51273.19
 195  50580.63
 196  49276.48
 197  51541.33
 198  48512.11
 199  50268.08
 200  49659.16
 201  49411.48
 202  48932.93
 203  52070.36
 204  53419.36
 205  48914.92
 206  51433.16
 207  52513.13
 208  49285.41
 209  49804.9
 210  49063.34
 211  52781.88
 212  51414.07
 213  53427.77
 214  50879.51
 215  50696.77
 216  50975.23
 217  52941.8
 218  53820.85
 219  53104.88
 220  54091.97
 221  50454.01
 222  53190.34
 223  53472.57
 224  53309.31
 225  52794.85
 226  54059.93
 227  52061.13
 228  51551.97
 229  51992.22
 230  50001.43
 231  54626.28
 232  51110.78
 233  51497.95
 234  50500.27
 235  51760.31
 236  52763.49
 237  50730.31
 238  53178.55
 239  51211.61
 240  54236.67
 241  51459.68
 242  53028.05
 243  55613.77
 244  57590.16
 245  57456.92
 246  54329.12
 247  55515.93
 248  52986.35
 249  53550.87
 250  52208.12
 251  53310.1
 252  54921.8
 253  53749.33
 254  53424.57
 255  53976.36
