# Input file       =  1195229060.104711-PSRB0329-2ms-sampling-dd.dat
# Candidate        =  PSR_0332+5434
# Telescope        =  AR
# Epoch_topo       =  58077.669897045263
# Epoch_bary       =  N/A
# T_sample         =  0.002
# Data Folded      =  7208960
# Data Avg         =  -1.41298683632031e-09
# Data StdDev      =  56.0811228524052 
# Profile Bins     =  512
# Profile Avg      =  -0.247934570269689
# Profile StdDev   =  6654.53981524214 
# Reduced chi-sqr  =  0.531
# Prob(Noise)      <  1   (~0.0 sigma)
# P_topo (ms)      =  714.514973231662  +/- 3.58e-05
# P'_topo (s/s)    =  -0                +/- 1.92e-11
# P''_topo (s/s^2) =  0                 +/- 8.63e-15
# P_bary (ms)      =  N/A
# P'_bary (s/s)    =  N/A
# P''_bary (s/s^2) =  N/A
# P_orb (s)        =  N/A
# asin(i)/c (s)    =  N/A
# eccentricity     =  N/A
# w (rad)          =  N/A
# T_peri           =  N/A
######################################################
   0  -2998.894
   1  -670.624
   2  -2317.365
   3  1986.37
   4  6609.635
   5  7603.828
   6  -4547.605
   7  -2017.706
   8  1292.524
   9  1289.226
  10  -2547.881
  11  1392.644
  12  -2015.369
  13  -3161.97
  14  -2493.677
  15  -3901.817
  16  -3926.073
  17  -8270.386
  18  -6995.372
  19  -7124.554
  20  -5300.197
  21  -8142.049
  22  -2704.759
  23  -91.31136
  24  -7160.864
  25  -2917.628
  26  2791.831
  27  4386.361
  28  -1084.556
  29  -3265.712
  30  -3507.246
  31  -4279.45
  32  355.6302
  33  2477.36
  34  2487.537
  35  -1607.031
  36  1606.666
  37  2830.494
  38  1909.812
  39  1744.412
  40  623.2609
  41  5680.113
  42  2012.55
  43  -2150.726
  44  -1285.459
  45  -1188.525
  46  -623.0544
  47  3726.37
  48  6770.093
  49  5550.215
  50  213.1386
  51  2661.139
  52  3806.006
  53  -1826.903
  54  1330.717
  55  3020.963
  56  1150.733
  57  -1039.711
  58  5096.298
  59  8238.002
  60  5345.545
  61  4637.325
  62  5612.902
  63  -284.8774
  64  -4728.416
  65  -955.503
  66  -89.57838
  67  112.6642
  68  1.715634
  69  676.425
  70  480.8554
  71  -1309.69
  72  -316.5385
  73  -406.3602
  74  -295.6507
  75  3233.043
  76  -532.4024
  77  1544.648
  78  -739.6943
  79  3120.138
  80  5511.751
  81  -2210.005
  82  -1854.888
  83  1225.835
  84  1119.526
  85  -2354.313
  86  -2365.619
  87  449.4741
  88  -768.7464
  89  -2834.333
  90  2269.09
  91  5435.413
  92  201.5768
  93  -1543.1
  94  3619.417
  95  -231.0766
  96  -3639.811
  97  599.2869
  98  2683.127
  99  1360.833
 100  -3372.028
 101  -525.0448
 102  -1210.88
 103  -7957.828
 104  -864.3091
 105  -1037.531
 106  -237.0793
 107  -4743.395
 108  -4952.089
 109  -3285.743
 110  -1141.151
 111  -1678.11
 112  -2029.236
 113  1219.25
 114  -1892.867
 115  -2577.967
 116  1137.491
 117  5959.634
 118  4498.907
 119  4482.359
 120  4923.715
 121  -4922.41
 122  -1372.906
 123  6652.478
 124  2018.231
 125  1075.596
 126  2710.001
 127  -1336.567
 128  -5746.112
 129  -4659.21
 130  -4690.411
 131  -143.4555
 132  -2573.128
 133  975.1852
 134  3525.602
 135  2673.914
 136  2693.011
 137  583.8498
 138  -2105.718
 139  -1515.754
 140  4209.195
 141  6352.72
 142  2918.632
 143  -681.3328
 144  3027.834
 145  4686.962
 146  -2116.298
 147  2535.053
 148  3880.454
 149  -2001.893
 150  -5154.247
 151  459.8383
 152  1074.17
 153  951.6762
 154  3324.338
 155  1386.245
 156  -773.7458
 157  -3240.706
 158  -5836.421
 159  -1327.712
 160  515.9271
 161  907.6456
 162  1046.07
 163  -1499.44
 164  -2293.233
 165  433.7021
 166  1855.642
 167  1314.712
 168  558.0107
 169  -996.3875
 170  -1590.102
 171  -3651.265
 172  -4438.738
 173  -2608.296
 174  -3139.189
 175  -1808.767
 176  1244.4
 177  -2762.744
 178  -9883.445
 179  -5740.055
 180  -1602.23
 181  -2154.18
 182  -7818.668
 183  -2667.068
 184  -1512.483
 185  -3014.066
 186  -1696.135
 187  -3913.902
 188  -21.66365
 189  2716.069
 190  1784.199
 191  92.61093
 192  -17.43764
 193  -1775.862
 194  -2257.984
 195  -797.4172
 196  -700.2909
 197  1682.417
 198  1669.929
 199  1793.545
 200  2604.137
 201  3726.705
 202  5288.813
 203  1648.18
 204  8225.444
 205  9602.936
 206  3958.065
 207  3351.363
 208  4378.406
 209  6325.263
 210  -758.3301
 211  -4478.225
 212  -5718.151
 213  -540.9666
 214  2477.864
 215  1063.061
 216  4204.566
 217  4081.016
 218  4960.919
 219  8592.299
 220  8322.081
 221  1127.744
 222  3186.432
 223  5463.502
 224  464.8528
 225  -2521.086
 226  2030.938
 227  8739.175
 228  2974
 229  587.9224
 230  321.9589
 231  1012.802
 232  -3231.451
 233  314.7637
 234  686.869
 235  809.4714
 236  808.5005
 237  434.7299
 238  -450.8625
 239  -4366.27
 240  -1070.983
 241  3604.478
 242  -1790.912
 243  -5472.861
 244  -4480.196
 245  780.6664
 246  1287.748
 247  989.6161
 248  1377.998
 249  -1604.217
 250  -8940.728
 251  -7012.114
 252  -3274.888
 253  -5684.815
 254  -5749.542
 255  -625.0646
 256  4047.493
 257  3014.302
 258  4913.488
 259  3733.882
 260  -1090.97
 261  -4370.508
 262  3336.316
 263  2144.694
 264  2814.49
 265  5260.808
 266  4846.252
 267  3394.683
 268  4838.861
 269  4138.004
 270  4557.168
 271  -443.7847
 272  289.9653
 273  7486.488
 274  5183.407
 275  4760.978
 276  5059.01
 277  4260.405
 278  1906.151
 279  2230.712
 280  6083.095
 281  442.5363
 282  -1795.533
 283  -2774.552
 284  -573.1762
 285  -1256.804
 286  909.5369
 287  1670.698
 288  -446.6852
 289  -1297.991
 290  1046.69
 291  3458.752
 292  1604.568
 293  360.7901
 294  4312.325
 295  4165.053
 296  -2180.172
 297  510.3069
 298  2663.176
 299  3456.294
 300  3409.702
 301  3381.608
 302  5351.357
 303  1406.62
 304  -1237.193
 305  3300.611
 306  1749.698
 307  -2345.643
 308  2601.731
 309  5147.597
 310  -411.2771
 311  -778.8275
 312  2680.168
 313  8333.488
 314  2401.514
 315  -665.5457
 316  -194.3289
 317  3192.595
 318  -1194.434
 319  5000.686
 320  2852.621
 321  8.777234
 322  954.8948
 323  3357.565
 324  2216.657
 325  -1256.729
 326  723.8244
 327  -1572.789
 328  -2685.518
 329  -2759.298
 330  832.4222
 331  323.9135
 332  295.2382
 333  4025.722
 334  2636.442
 335  -6585.186
 336  -11675.09
 337  -5368.171
 338  515.405
 339  700.1771
 340  2484.736
 341  4295.907
 342  45.66436
 343  -3794.562
 344  -5923.46
 345  -1728.661
 346  -840.4283
 347  -238.2886
 348  -1166.273
 349  1609.614
 350  985.2988
 351  362.4522
 352  648.8843
 353  -1926.876
 354  3892.588
 355  3003.023
 356  2485.511
 357  111.2134
 358  4775.436
 359  5504.454
 360  7549.092
 361  4116.369
 362  2192.615
 363  1316.771
 364  533.9559
 365  -1132.279
 366  528.9727
 367  4771.397
 368  5762.153
 369  2580.022
 370  2930.723
 371  36.93722
 372  -3875.305
 373  -2351.598
 374  1852.946
 375  -1458.559
 376  -1646.57
 377  -2250.706
 378  1312.263
 379  1881.63
 380  2806.861
 381  1031.389
 382  875.778
 383  -1711.952
 384  -31.37884
 385  -507.7436
 386  -2985.686
 387  -2314.183
 388  -4558.568
 389  -6018.974
 390  -6309.952
 391  -315.7653
 392  -2846.744
 393  -6271.521
 394  -1896.722
 395  -3092.457
 396  -5486.333
 397  -5607.021
 398  -3547.591
 399  -5765.239
 400  -8756.319
 401  -7600.292
 402  -6169.512
 403  -2116.919
 404  -6211.18
 405  -4782.73
 406  -1134.264
 407  -4872.084
 408  -5040.938
 409  -2969.531
 410  -5268.184
 411  -7432.653
 412  -1553.872
 413  1429.031
 414  -244.9073
 415  -8.030835
 416  -1294.318
 417  2901.334
 418  450.4325
 419  4829.049
 420  5165.58
 421  -3754.536
 422  -3991.244
 423  521.7651
 424  1334.936
 425  -3230.006
 426  -2672.073
 427  2982.281
 428  958.8141
 429  -2033.714
 430  522.7551
 431  3176.678
 432  -556.3627
 433  1379.567
 434  3322.029
 435  -468.846
 436  -7278.22
 437  -3114.551
 438  -3508.84
 439  -4511.657
 440  -4717.581
 441  1365.873
 442  448.7187
 443  -4013.847
 444  -5095.345
 445  -2449.78
 446  -3497.845
 447  -8205.404
 448  -5458.079
 449  -1048.878
 450  -6614.999
 451  -1194.325
 452  1416.149
 453  375.9062
 454  -3294.159
 455  1585.814
 456  2203.939
 457  -2478.04
 458  -2445.766
 459  1724.381
 460  3377.488
 461  -3820.598
 462  1683.538
 463  5308.787
 464  4382.98
 465  1035.941
 466  -435.8562
 467  1274.724
 468  -9.050796
 469  2117.907
 470  882.9907
 471  1582.034
 472  2996.362
 473  3229.504
 474  4430.867
 475  597.3337
 476  980.2509
 477  612.2039
 478  -2101.632
 479  -4737.637
 480  5341.902
 481  7648.102
 482  621.1987
 483  -4936.775
 484  -3661.145
 485  776.3411
 486  -2058.073
 487  1278.762
 488  -308.7659
 489  -1245.512
 490  -8062.133
 491  -7396.776
 492  574.6871
 493  1251.189
 494  1464.279
 495  636.7413
 496  2222.071
 497  -3719.696
 498  -2167.815
 499  -1507.344
 500  -1152.104
 501  1666.108
 502  -56.00028
 503  -3690.016
 504  -7332.382
 505  -4639.618
 506  133.8849
 507  -1560.495
 508  -3545.642
 509  2571.905
 510  6289.84
 511  1227.583
