# Input file       =  1195416006.108325_cleaned.dat
# Candidate        =  PSR_0332+5434
# Telescope        =  AR
# Epoch_topo       =  58079.833623938946
# Epoch_bary       =  N/A
# T_sample         =  0.002
# Data Folded      =  7340032
# Data Avg         =  0.112581910932039
# Data StdDev      =  1.00030286633317 
# Profile Bins     =  512
# Profile Avg      =  1613.95653559819 
# Profile StdDev   =  119.769299482452 
# Reduced chi-sqr  =  0.579
# Prob(Noise)      <  1   (~0.0 sigma)
# P_topo (ms)      =  714.517232279611  +/- 6.32e-05
# P'_topo (s/s)    =  -0                +/- 3.33e-11
# P''_topo (s/s^2) =  0                 +/- 1.47e-14
# P_bary (ms)      =  N/A
# P'_bary (s/s)    =  N/A
# P''_bary (s/s^2) =  N/A
# P_orb (s)        =  N/A
# asin(i)/c (s)    =  N/A
# eccentricity     =  N/A
# w (rad)          =  N/A
# T_peri           =  N/A
######################################################
   0  1682.255
   1  1676.255
   2  1680.336
   3  1616.771
   4  1650.727
   5  1576.425
   6  1549.425
   7  1581.993
   8  1633.904
   9  1535.689
  10  1519.592
  11  1596.133
  12  1591.881
  13  1524.611
  14  1537.047
  15  1560.967
  16  1590.281
  17  1611.405
  18  1617.3
  19  1636.287
  20  1602.859
  21  1678.992
  22  1682.547
  23  1606.076
  24  1580.94
  25  1646.883
  26  1676.386
  27  1640.905
  28  1690.756
  29  1660.003
  30  1561.799
  31  1521.073
  32  1549.032
  33  1602.446
  34  1586.923
  35  1688.509
  36  1693.744
  37  1632.484
  38  1597.33
  39  1572.049
  40  1588.914
  41  1560.899
  42  1506.551
  43  1613.87
  44  1622.327
  45  1585.646
  46  1587.637
  47  1525.12
  48  1591.576
  49  1620.087
  50  1670.682
  51  1733.741
  52  1666.13
  53  1664.979
  54  1607.741
  55  1605.622
  56  1594.942
  57  1689.261
  58  1628.558
  59  1589.507
  60  1625.893
  61  1614.753
  62  1605.345
  63  1697.855
  64  1663.33
  65  1653.565
  66  1595.616
  67  1525.343
  68  1632.389
  69  1685.868
  70  1729.474
  71  1651.484
  72  1627.239
  73  1618.921
  74  1552.715
  75  1600.08
  76  1568.585
  77  1623.747
  78  1598.932
  79  1680.755
  80  1621.409
  81  1571.312
  82  1527.273
  83  1526.554
  84  1595.353
  85  1589.766
  86  1555.334
  87  1611.811
  88  1596.232
  89  1630.83
  90  1610.983
  91  1548.242
  92  1564.836
  93  1650.462
  94  1641.036
  95  1572.188
  96  1524.571
  97  1554.627
  98  1583.12
  99  1595.654
 100  1606.286
 101  1521.528
 102  1544.247
 103  1621.639
 104  1710.678
 105  1585.77
 106  1638.839
 107  1674.307
 108  1730.192
 109  1703.31
 110  1666.878
 111  1692.607
 112  1646.579
 113  1630.583
 114  1681.406
 115  1661.32
 116  1536.897
 117  1546.083
 118  1651.075
 119  1643.724
 120  1608.691
 121  1634.957
 122  1735.941
 123  1640.746
 124  1483.188
 125  1479.482
 126  1598.738
 127  1631.62
 128  1640.031
 129  1667.22
 130  1664.784
 131  1577.44
 132  1623.771
 133  1657.949
 134  1597.675
 135  1633.809
 136  1650.43
 137  1620.878
 138  1537.604
 139  1602.673
 140  1593.434
 141  1623.011
 142  1642.035
 143  1651.832
 144  1652.695
 145  1707.094
 146  1661.284
 147  1683.505
 148  1668.614
 149  1583.104
 150  1710.181
 151  1759.87
 152  1620.404
 153  1558.118
 154  1603.31
 155  1710.591
 156  1653.887
 157  1646.52
 158  1683.582
 159  1569.591
 160  1549.509
 161  1615.795
 162  1631.731
 163  1628.468
 164  1654.189
 165  1680.682
 166  1614.827
 167  1547.834
 168  1572.433
 169  1551.418
 170  1661.461
 171  1607.025
 172  1517.032
 173  1452.089
 174  1434.004
 175  1505.935
 176  1427.538
 177  1523.373
 178  1665.526
 179  1675.96
 180  1653.895
 181  1556.607
 182  1502.842
 183  1459.208
 184  1544.523
 185  1467.062
 186  1485.726
 187  1511.927
 188  1622.126
 189  1652.179
 190  1633.744
 191  1559.076
 192  1564.875
 193  1655.581
 194  1601.705
 195  1519.997
 196  1526.554
 197  1602.831
 198  1620.111
 199  1567.895
 200  1578.663
 201  1613.76
 202  1603.678
 203  1567.841
 204  1652.582
 205  1671.967
 206  1589.433
 207  1626.89
 208  1658.377
 209  1678.887
 210  1657.196
 211  1609.788
 212  1563.819
 213  1609.019
 214  1677.722
 215  1676.2
 216  1680.776
 217  1650.985
 218  1696.28
 219  1607.155
 220  1614.436
 221  1639.391
 222  1652.532
 223  1639.917
 224  1672.404
 225  1605.634
 226  1634.108
 227  1628.594
 228  1678.755
 229  1597.674
 230  1520.672
 231  1613.512
 232  1649.555
 233  1641.085
 234  1615.089
 235  1586.008
 236  1709.122
 237  1737.442
 238  1648.517
 239  1536.84
 240  1547.736
 241  1612.755
 242  1507.923
 243  1475.481
 244  1513.556
 245  1589.564
 246  1668.143
 247  1714.995
 248  1613.474
 249  1665.822
 250  1634.931
 251  1750.161
 252  1736.993
 253  1607.546
 254  1630.874
 255  1498.239
 256  1529.933
 257  1565.072
 258  1712.251
 259  1668.428
 260  1598.733
 261  1687.392
 262  1672.682
 263  1688.348
 264  1624.28
 265  1687.057
 266  1696.214
 267  1606.379
 268  1603.891
 269  1553.08
 270  1544.196
 271  1618.75
 272  1630.593
 273  1588.073
 274  1563.771
 275  1734.067
 276  1754.287
 277  1564.616
 278  1652.662
 279  1675.969
 280  1675.483
 281  1611.855
 282  1579.759
 283  1616.634
 284  1617.31
 285  1633.938
 286  1603.687
 287  1564.325
 288  1526.866
 289  1616.193
 290  1665.485
 291  1575.755
 292  1545.502
 293  1707.723
 294  1708.098
 295  1640.226
 296  1602.034
 297  1661.812
 298  1674.193
 299  1568.039
 300  1537.229
 301  1580.384
 302  1550.929
 303  1558.357
 304  1618.232
 305  1598.886
 306  1592.683
 307  1499.238
 308  1573.408
 309  1714.962
 310  1596.551
 311  1574.303
 312  1553.83
 313  1538.369
 314  1543.166
 315  1567.261
 316  1592.668
 317  1553.005
 318  1550.942
 319  1637.401
 320  1525.975
 321  1450.932
 322  1596.176
 323  1665.292
 324  1553.308
 325  1475.441
 326  1509.285
 327  1560.12
 328  1561.776
 329  1581.462
 330  1567.887
 331  1529.227
 332  1545.01
 333  1675.348
 334  1706.968
 335  1675.549
 336  1742.258
 337  1766.836
 338  1638.279
 339  1520.721
 340  1517.785
 341  1546.009
 342  1560.341
 343  1619.081
 344  1645.24
 345  1623.987
 346  1576.509
 347  1559.973
 348  1518.992
 349  1521.152
 350  1467.79
 351  1621.175
 352  1723.426
 353  1683.785
 354  1668.604
 355  1648.745
 356  1605.607
 357  1576.216
 358  1576.041
 359  1535.36
 360  1584.59
 361  1612.313
 362  1649.221
 363  1463.818
 364  1361.191
 365  1558.546
 366  1611.416
 367  1535.563
 368  1611.731
 369  1609.157
 370  1618.487
 371  1549.333
 372  1619.621
 373  1685.302
 374  1694.266
 375  1712.085
 376  1773.298
 377  1653.878
 378  1581.784
 379  1632.088
 380  1654.268
 381  1706.645
 382  1644.057
 383  1669.059
 384  1715.311
 385  1727.192
 386  1694.828
 387  1604.777
 388  1557.233
 389  1540.295
 390  1655.016
 391  1585.176
 392  1554.147
 393  1555.218
 394  1595.592
 395  1504.097
 396  1524.26
 397  1583.899
 398  1655.143
 399  1677.082
 400  1582.687
 401  1635.41
 402  1627.555
 403  1685.44
 404  1663.525
 405  1605.967
 406  1547.981
 407  1564.79
 408  1643.496
 409  1714.229
 410  1560.85
 411  1546.918
 412  1490.451
 413  1642.003
 414  1577.829
 415  1663.843
 416  1695.819
 417  1619.921
 418  1622.317
 419  1615.399
 420  1578.135
 421  1544.072
 422  1523.338
 423  1651.719
 424  1644.579
 425  1592.658
 426  1640.149
 427  1636.16
 428  1560.497
 429  1596.143
 430  1599.693
 431  1659.486
 432  1573.293
 433  1614.513
 434  1680.678
 435  1664.348
 436  1662.762
 437  1654.452
 438  1738.671
 439  1613.065
 440  1581.683
 441  1620.188
 442  1607.179
 443  1617.717
 444  1597.788
 445  1570.175
 446  1592.683
 447  1528.207
 448  1566.457
 449  1590.873
 450  1606.606
 451  1640.931
 452  1611.549
 453  1568.765
 454  1506.416
 455  1494.226
 456  1620.171
 457  1631.656
 458  1574.191
 459  1603.667
 460  1674.596
 461  1810.416
 462  1882.104
 463  1851.965
 464  1787.64
 465  1737.19
 466  1646.813
 467  1638.289
 468  1598.931
 469  1533.293
 470  1539.658
 471  1554.948
 472  1554.828
 473  1537.636
 474  1564.843
 475  1558.878
 476  1637.503
 477  1604.116
 478  1634.778
 479  1612.331
 480  1711.805
 481  1755.996
 482  1679.226
 483  1627.51
 484  1496.057
 485  1534.823
 486  1609.406
 487  1661.673
 488  1578.906
 489  1584.641
 490  1626.234
 491  1635.169
 492  1560.606
 493  1596.815
 494  1647.771
 495  1681.298
 496  1680.882
 497  1650.873
 498  1615.046
 499  1551.408
 500  1606.44
 501  1689.736
 502  1690.664
 503  1705.443
 504  1738.068
 505  1689.901
 506  1720.954
 507  1702.029
 508  1689.218
 509  1669.032
 510  1729.489
 511  1721.493
