# Input file       =  1195947911.114979_cleaned.dat
# Candidate        =  PSR_0332+5434
# Telescope        =  AR
# Epoch_topo       =  58085.989931886332
# Epoch_bary       =  N/A
# T_sample         =  0.002
# Data Folded      =  7340032
# Data Avg         =  0.0269919066839436
# Data StdDev      =  1.00015765790638 
# Profile Bins     =  512
# Profile Avg      =  386.957675983364 
# Profile StdDev   =  119.751913236606 
# Reduced chi-sqr  =  0.733
# Prob(Noise)      <  1   (~0.0 sigma)
# P_topo (ms)      =  714.523949091397  +/- 0.000288
# P'_topo (s/s)    =  -0                +/- 1.52e-10
# P''_topo (s/s^2) =  0                 +/- 6.71e-14
# P_bary (ms)      =  N/A
# P'_bary (s/s)    =  N/A
# P''_bary (s/s^2) =  N/A
# P_orb (s)        =  N/A
# asin(i)/c (s)    =  N/A
# eccentricity     =  N/A
# w (rad)          =  N/A
# T_peri           =  N/A
######################################################
   0  638.0403
   1  663.17
   2  480.5654
   3  502.7768
   4  362.5192
   5  328.6326
   6  300.0601
   7  286.8125
   8  322.9225
   9  285.5721
  10  389.8862
  11  428.3141
  12  394.3457
  13  414.0312
  14  427.5417
  15  400.8174
  16  385.7487
  17  390.4793
  18  371.8831
  19  330.5101
  20  305.8884
  21  314.6603
  22  330.6948
  23  330.2851
  24  366.0656
  25  396.3048
  26  382.6765
  27  435.2692
  28  360.1431
  29  269.162
  30  284.692
  31  308.9481
  32  378.1919
  33  364.8724
  34  356.4904
  35  300.2943
  36  310.7322
  37  358.8697
  38  367.6454
  39  422.0633
  40  401.7181
  41  480.7112
  42  458.1615
  43  374.4493
  44  384.57
  45  370.8854
  46  412.5645
  47  428.3328
  48  459.915
  49  325.0316
  50  427.7833
  51  506.7162
  52  311.198
  53  275.134
  54  361.231
  55  425.6901
  56  390.1155
  57  364.0808
  58  393.3677
  59  381.3235
  60  384.269
  61  402.9538
  62  433.5872
  63  426.2481
  64  321.7781
  65  387.1025
  66  330.4918
  67  307.222
  68  402.6305
  69  383.9287
  70  261.2373
  71  376.2954
  72  405.1242
  73  386.5892
  74  329.974
  75  396.7093
  76  384.2337
  77  389.3269
  78  507.4586
  79  454.4876
  80  413.3377
  81  354.8801
  82  394.8646
  83  318.5692
  84  351.6228
  85  366.2866
  86  336.5557
  87  418.6443
  88  357.831
  89  343.7545
  90  306.5258
  91  317.9883
  92  363.497
  93  329.2548
  94  259.411
  95  238.1895
  96  366.3307
  97  362.8114
  98  360.1778
  99  274.0907
 100  333.998
 101  382.2336
 102  419.3613
 103  381.5648
 104  331.9573
 105  309.8995
 106  369.3199
 107  401.2216
 108  395.6396
 109  395.8016
 110  479.5287
 111  429.8507
 112  384.9113
 113  497.7868
 114  409.2109
 115  370.6341
 116  363.5462
 117  360.3533
 118  439.8311
 119  410.5666
 120  405.2013
 121  327.7381
 122  313.3797
 123  438.784
 124  401.923
 125  379.1328
 126  346.1811
 127  282.8386
 128  253.6982
 129  293.4347
 130  307.6661
 131  309.2361
 132  357.1313
 133  349.1156
 134  312.3564
 135  247.2907
 136  256.2307
 137  392.6445
 138  384.7648
 139  288.9044
 140  255.8378
 141  416.8007
 142  421.9744
 143  350.6286
 144  314.709
 145  254.859
 146  234.2962
 147  304.0328
 148  225.9387
 149  224.241
 150  227.4243
 151  298.8894
 152  166.7606
 153  146.3661
 154  239.9751
 155  295.9295
 156  333.712
 157  293.1689
 158  429.5615
 159  487.3225
 160  477.7687
 161  492.3579
 162  359.5702
 163  268.3076
 164  296.5533
 165  366.5892
 166  402.6341
 167  334.5005
 168  178.1968
 169  177.3014
 170  295.8135
 171  473.319
 172  404.7006
 173  397.6202
 174  378.9154
 175  324.2928
 176  311.6258
 177  350.7944
 178  376.1761
 179  372.746
 180  400.3703
 181  374.9176
 182  332.4653
 183  331.7185
 184  408.7259
 185  356.7395
 186  453.0885
 187  423.5281
 188  442.9431
 189  414.9676
 190  354.1855
 191  463.5903
 192  536.1323
 193  519.5257
 194  632.2995
 195  427.4637
 196  380.7845
 197  366.3302
 198  335.1465
 199  450.0279
 200  581.963
 201  620.4282
 202  612.1808
 203  417.1819
 204  415.7657
 205  461.3939
 206  487.5911
 207  426.8766
 208  412.9347
 209  424.0278
 210  372.4771
 211  341.4849
 212  321.3947
 213  326.4615
 214  404.2777
 215  475.1959
 216  460.8577
 217  397.4941
 218  400.425
 219  443.4135
 220  393.0466
 221  370.3211
 222  390.4077
 223  381.7433
 224  408.2362
 225  417.9727
 226  397.9351
 227  520.7022
 228  524.9944
 229  504.9601
 230  428.8674
 231  476.2088
 232  456.1613
 233  448.2173
 234  394.3266
 235  411.1177
 236  452.2054
 237  574.3222
 238  570.3218
 239  398.5997
 240  464.8696
 241  483.9336
 242  462.3246
 243  474.1775
 244  461.1271
 245  465.2734
 246  405.4207
 247  401.7308
 248  434.7174
 249  361.2336
 250  256.7695
 251  382.3275
 252  467.7438
 253  336.7271
 254  425.0074
 255  382.2005
 256  356.8674
 257  347.1544
 258  401.4191
 259  395.209
 260  288.4774
 261  328.5255
 262  354.5877
 263  454.6794
 264  344.7843
 265  390.9757
 266  420.0663
 267  356.3158
 268  358.0135
 269  361.7688
 270  360.2767
 271  405.2903
 272  507.6306
 273  556.5479
 274  394.7574
 275  392.4052
 276  469.9211
 277  417.2832
 278  426.4127
 279  433.594
 280  361.7027
 281  401.9717
 282  477.3835
 283  428.5312
 284  286.7903
 285  331.6591
 286  396.1371
 287  487.4218
 288  478.746
 289  407.6379
 290  536.5992
 291  452.1186
 292  404.5619
 293  404.6757
 294  453.528
 295  445.6865
 296  377.3856
 297  365.8119
 298  351.4093
 299  388.4091
 300  445.9273
 301  387.281
 302  374.0567
 303  359.1759
 304  339.1239
 305  355.8914
 306  340.8271
 307  420.1143
 308  399.9583
 309  421.767
 310  458.6241
 311  515.8808
 312  539.9228
 313  489.5614
 314  536.538
 315  498.5585
 316  369.9746
 317  398.0414
 318  405.7412
 319  463.2477
 320  357.9068
 321  351.6437
 322  364.4827
 323  437.7337
 324  415.5111
 325  338.7707
 326  366.1684
 327  380.9496
 328  307.5992
 329  428.6601
 330  481.7662
 331  529.341
 332  609.2153
 333  524.5191
 334  434.9773
 335  349.5732
 336  385.4365
 337  421.9447
 338  360.2177
 339  337.5364
 340  331.9002
 341  262.8436
 342  258.5746
 343  359.5898
 344  438.1714
 345  465.6323
 346  420.3903
 347  419.436
 348  412.9753
 349  236.6362
 350  252.7334
 351  432.7145
 352  419.8033
 353  370.135
 354  382.1578
 355  464.9249
 356  381.7771
 357  314.2428
 358  475.6892
 359  468.8045
 360  378.0262
 361  379.5491
 362  407.695
 363  338.3136
 364  245.618
 365  260.4189
 366  269.7734
 367  320.7938
 368  312.5932
 369  328.5046
 370  346.7457
 371  339.3441
 372  360.802
 373  477.4947
 374  385.7899
 375  311.2526
 376  345.1101
 377  272.3487
 378  306.7747
 379  401.0266
 380  405.9781
 381  393.9162
 382  480.1628
 383  446.9907
 384  379.8297
 385  378.8213
 386  517.0507
 387  449.3985
 388  418.0399
 389  388.3079
 390  342.1674
 391  381.2448
 392  424.1028
 393  430.7397
 394  391.9382
 395  383.5712
 396  369.2435
 397  420.6219
 398  401.8822
 399  333.3981
 400  425.1746
 401  404.7004
 402  408.6067
 403  499.6346
 404  470.1448
 405  466.8138
 406  457.279
 407  496.1769
 408  477.4013
 409  419.4914
 410  422.6308
 411  408.0796
 412  503.769
 413  445.8596
 414  491.0316
 415  477.9249
 416  371.3922
 417  463.0721
 418  419.7506
 419  463.6049
 420  381.8815
 421  383.1383
 422  454.3653
 423  545.458
 424  483.2275
 425  385.1169
 426  395.8779
 427  454.2032
 428  383.565
 429  305.5609
 430  418.7344
 431  441.2266
 432  382.8104
 433  324.0094
 434  246.9207
 435  321.067
 436  365.6825
 437  349.4019
 438  376.3546
 439  461.4169
 440  429.9953
 441  445.111
 442  414.4069
 443  432.9725
 444  510.2348
 445  405.6953
 446  390.6743
 447  479.5748
 448  402.9586
 449  376.575
 450  330.9996
 451  274.0465
 452  374.7377
 453  429.852
 454  338.1766
 455  413.2076
 456  428.9216
 457  362.0747
 458  429.9074
 459  387.397
 460  272.3196
 461  286.2595
 462  432.6723
 463  370.6007
 464  276.5298
 465  333.1272
 466  354.2122
 467  332.1674
 468  342.7631
 469  294.3058
 470  344.5844
 471  408.9558
 472  470.7963
 473  313.8113
 474  355.9604
 475  349.146
 476  357.7184
 477  349.6017
 478  359.8603
 479  328.6427
 480  438.8248
 481  427.7608
 482  292.2287
 483  387.1048
 484  411.9841
 485  259.454
 486  203.0479
 487  316.8641
 488  292.7001
 489  394.7533
 490  416.6425
 491  380.1806
 492  346.8421
 493  327.9556
 494  294.5376
 495  243.3545
 496  251.2481
 497  290.7012
 498  320.5732
 499  342.562
 500  409.1263
 501  471.5903
 502  334.5585
 503  379.7764
 504  303.4423
 505  371.7726
 506  409.0787
 507  430.4636
 508  397.3734
 509  382.2521
 510  502.1991
 511  527.5173
