# Input file       =  1196176904.130603-PSRB0329-2ms-sampling-dd.dat
# Candidate        =  PSR_0332+5434
# Telescope        =  AR
# Epoch_topo       =  58088.640314011609
# Epoch_bary       =  N/A
# T_sample         =  0.002
# Data Folded      =  7208960
# Data Avg         =  7.66586153146646e-10
# Data StdDev      =  35.2530815212845 
# Profile Bins     =  512
# Profile Avg      =  -0.0614216081608876
# Profile StdDev   =  4183.10159749776 
# Reduced chi-sqr  =  1.203
# Prob(Noise)      <  0.0011   (~3.1 sigma)
# P_topo (ms)      =  714.526323855019  +/- 0.000173
# P'_topo (s/s)    =  -0                +/- 9.3e-11
# P''_topo (s/s^2) =  0                 +/- 4.18e-14
# P_bary (ms)      =  N/A
# P'_bary (s/s)    =  N/A
# P''_bary (s/s^2) =  N/A
# P_orb (s)        =  N/A
# asin(i)/c (s)    =  N/A
# eccentricity     =  N/A
# w (rad)          =  N/A
# T_peri           =  N/A
######################################################
   0  -1956.023
   1  -2037.406
   2  -2310.797
   3  -2825.099
   4  -2461.645
   5  -326.1642
   6  101.1657
   7  -419.0431
   8  369.9699
   9  -257.6913
  10  -1756.465
  11  -2852.544
  12  303.5931
  13  638.8948
  14  272.4763
  15  -653.7919
  16  -1142.741
  17  -1995.514
  18  -2235.191
  19  -1237.693
  20  -1603.351
  21  -2364.32
  22  -2044.48
  23  -2164.889
  24  -3309.742
  25  -2744.773
  26  -2380.193
  27  -2211.904
  28  -2007.08
  29  -1393.097
  30  -1294.556
  31  -2036.268
  32  -1672.218
  33  -1389.038
  34  -653.7092
  35  -1138.482
  36  173.0589
  37  921.14
  38  -454.8146
  39  -1353.509
  40  -1159.2
  41  138.5204
  42  -1307.34
  43  -1064.605
  44  -604.7122
  45  -1644.783
  46  -1943.819
  47  -1575.075
  48  -420.2604
  49  -481.2507
  50  140.048
  51  881.7528
  52  -85.33787
  53  -1852.487
  54  -3390.937
  55  1066.854
  56  2711.627
  57  3702.375
  58  3812.469
  59  866.1166
  60  -1324.564
  61  -2348.028
  62  778.3264
  63  1445.94
  64  935.1096
  65  1119.103
  66  -84.41048
  67  -1407.386
  68  -982.9587
  69  36.49717
  70  1131.257
  71  1001.177
  72  559.2947
  73  88.6304
  74  -2236.701
  75  -2981.217
  76  -347.2497
  77  2459.297
  78  3300.099
  79  2884.78
  80  2211.695
  81  -1305.312
  82  -3333.63
  83  -2484.087
  84  460.8487
  85  495.4562
  86  343.3644
  87  275.5876
  88  -2256.232
  89  -2861.616
  90  -2328.887
  91  -443.8839
  92  870.0529
  93  1919.427
  94  2838.966
  95  1696.718
  96  -759.8875
  97  -1353.622
  98  6049.969
  99  14666.99
 100  16767.92
 101  17499.26
 102  16825.24
 103  8015.91
 104  545.329
 105  8757.98
 106  16224.43
 107  20415.4
 108  21207.21
 109  14614.04
 110  7499.359
 111  -2399.874
 112  784.2426
 113  2447.333
 114  3248.254
 115  4748.674
 116  4627.11
 117  2417.954
 118  1006.25
 119  1313.166
 120  1944.945
 121  1207.942
 122  3965.204
 123  5256.741
 124  3794.748
 125  1797.37
 126  1386.819
 127  1833.823
 128  1984.282
 129  2094.456
 130  1253.095
 131  837.4075
 132  502.2868
 133  111.4485
 134  -512.3712
 135  -1739.594
 136  -953.3098
 137  869.9182
 138  400.5992
 139  -929.2301
 140  -1588.433
 141  302.9739
 142  -314.7839
 143  -759.9771
 144  -306.4208
 145  -1270.567
 146  -2547.085
 147  -2424.331
 148  -1403.117
 149  -1668.542
 150  -1883.376
 151  -1674.846
 152  -1289.581
 153  -1669.714
 154  -1916.752
 155  -995.6106
 156  -851.3674
 157  -256.2382
 158  -762.6457
 159  -458.9409
 160  -1240.648
 161  -679.1843
 162  -469.6494
 163  -1053.179
 164  -2162.293
 165  -2866.642
 166  -2314.071
 167  -2334.269
 168  -3081.654
 169  -1378.224
 170  -298.7584
 171  -686.8918
 172  -1222.032
 173  -870.7332
 174  -1042.243
 175  -1660.223
 176  -1254.726
 177  -743.7213
 178  -181.535
 179  -1017.747
 180  229.4844
 181  -243.7822
 182  -477.4221
 183  -909.4412
 184  661.6323
 185  1207.511
 186  727.4316
 187  160.9595
 188  -986.9603
 189  -1108.03
 190  -870.4222
 191  124.377
 192  -396.5815
 193  -1190.819
 194  -991.3512
 195  -1044.723
 196  -832.6247
 197  -1054.143
 198  -654.4222
 199  -1366.493
 200  -1269.365
 201  -544.9955
 202  -80.28424
 203  -454.1626
 204  -680.2209
 205  -608.0549
 206  -1381.183
 207  -2085.926
 208  -2316.198
 209  -1437.621
 210  -2046.841
 211  -1910.512
 212  -1780.046
 213  -1355.128
 214  -767.5183
 215  -1577.271
 216  -714.7621
 217  -260.9528
 218  -1755.288
 219  -1740.306
 220  -1768.181
 221  -1357.592
 222  -1142.837
 223  -428.2229
 224  -393.7052
 225  -1883.743
 226  -1889.882
 227  -1182.155
 228  -1609.169
 229  -2161.514
 230  -1649.961
 231  -1352.849
 232  -2006.453
 233  -1918.491
 234  -1055.162
 235  -1280.556
 236  -2275.618
 237  -2342.272
 238  -1352.378
 239  -1318.498
 240  -1664.403
 241  -1315.717
 242  -1604.063
 243  -1820.196
 244  -1947.032
 245  -1967.118
 246  -2373.002
 247  -1940.408
 248  -406.2566
 249  -138.8035
 250  -310.1436
 251  -758.2675
 252  -545.2117
 253  -1191.89
 254  -1447.417
 255  -720.1729
 256  585.3434
 257  78.15913
 258  -433.6217
 259  -823.0627
 260  -1052.085
 261  -720.2152
 262  -638.6205
 263  -162.3554
 264  641.1824
 265  -502.6923
 266  -1153.89
 267  -1732.462
 268  -1906.54
 269  -1277.172
 270  -61.96841
 271  -408.048
 272  -1057.785
 273  -1497.456
 274  -1849.018
 275  -2127.133
 276  -2284.69
 277  -1454.005
 278  -2116.848
 279  -2579.375
 280  -2350.691
 281  -2788.921
 282  -2276.825
 283  -589.773
 284  2521.169
 285  3149.56
 286  3394.88
 287  2739.438
 288  -775.579
 289  -2481.865
 290  4145.413
 291  6676.108
 292  7363.925
 293  6250.257
 294  1394.324
 295  -38.73035
 296  -1861.8
 297  -1907.725
 298  -1562.437
 299  -595.4445
 300  968.7748
 301  662.9485
 302  665.1688
 303  -450.6266
 304  -2193.058
 305  -2128.391
 306  -1556.886
 307  -2110.626
 308  -2488.597
 309  -1823.199
 310  -2174.577
 311  -3423.844
 312  -3056.744
 313  -1855.714
 314  -1572.121
 315  -2004.99
 316  -2124.222
 317  -1137.745
 318  -1607.295
 319  -660.264
 320  -305.5912
 321  -1205.655
 322  -1385.786
 323  -34.33796
 324  71.61096
 325  -1076.298
 326  -1088.794
 327  658.4741
 328  6139.237
 329  10360
 330  11993.47
 331  13618.8
 332  10467.57
 333  925.2171
 334  3123.134
 335  8852.317
 336  16641.4
 337  17424.01
 338  14352.64
 339  9703.188
 340  -2345.134
 341  -1137.318
 342  813.5675
 343  -50.75528
 344  780.0703
 345  435.6596
 346  -572.0568
 347  -813.0779
 348  -207.1749
 349  973.3591
 350  1032.563
 351  1300.883
 352  1885.833
 353  1280.495
 354  -602.6338
 355  -1272.007
 356  139.186
 357  -237.3225
 358  340.5566
 359  632.5238
 360  1252.346
 361  1514.156
 362  2098.701
 363  2391.642
 364  2086.38
 365  551.7523
 366  1875.231
 367  2065.529
 368  2410.593
 369  1176.528
 370  1486.361
 371  523.8446
 372  -456.9449
 373  -149.0469
 374  96.16301
 375  746.5147
 376  675.433
 377  1918.279
 378  1030.269
 379  206.5639
 380  -3.250562
 381  1343.054
 382  518.4241
 383  527.7217
 384  1478.822
 385  1579.078
 386  956.5476
 387  593.7638
 388  754.3148
 389  -178.3962
 390  -516.1003
 391  -418.3209
 392  -426.6727
 393  -517.8654
 394  -1132.665
 395  243.2267
 396  -33.36235
 397  -842.2531
 398  -1539.385
 399  -18.78549
 400  493.2391
 401  598.02
 402  830.9975
 403  69.58681
 404  -1148.671
 405  -1038.902
 406  -945.3121
 407  -1516.9
 408  -543.0315
 409  -425.8675
 410  -102.1201
 411  -439.3903
 412  93.26554
 413  1342.793
 414  1825.375
 415  3245.028
 416  3292.242
 417  2521.9
 418  655.5076
 419  1892.998
 420  2111.791
 421  434.7936
 422  855.4479
 423  1944.099
 424  1337.367
 425  144.6471
 426  -630.0264
 427  -1095.313
 428  -1988.127
 429  -1651.08
 430  -920.1648
 431  -402.0293
 432  -1109.866
 433  -1631.336
 434  -1447.287
 435  -2456.665
 436  -2286.753
 437  -1706.765
 438  -813.0917
 439  -1334.603
 440  -2044.49
 441  -1382.279
 442  -1248.7
 443  -1552.52
 444  -1380.52
 445  -384.6777
 446  -449.9478
 447  -988.6215
 448  -1209.67
 449  -917.1774
 450  -1435.588
 451  -1782.649
 452  -1482.116
 453  -1227.572
 454  -2211.313
 455  -1947.706
 456  -1430.658
 457  -1947.136
 458  -2357.049
 459  -1693.325
 460  -1144.006
 461  -1886.275
 462  -2069.323
 463  -2413.693
 464  -3228.095
 465  -3368.653
 466  -2696.348
 467  -1279.847
 468  -961.0388
 469  -1351.256
 470  -715.6187
 471  -1173.675
 472  -2790.539
 473  -2285.871
 474  -434.3024
 475  -454.2287
 476  -411.9919
 477  -469.5237
 478  -685.7603
 479  -2135.603
 480  -2750.49
 481  -2098.31
 482  -2517.312
 483  -2491.784
 484  -2773.79
 485  -3205.991
 486  -3203.95
 487  -3144.745
 488  -2324.951
 489  -2913.511
 490  -2830.936
 491  -2279.509
 492  -1993.706
 493  -2500.451
 494  -1814.177
 495  -1322.791
 496  -1079.755
 497  -1873.559
 498  -2699.257
 499  -1994.768
 500  -2269.618
 501  -1860.28
 502  -1092.61
 503  -1434.655
 504  -2190.131
 505  -2800.689
 506  -1910.459
 507  -2400.246
 508  -2637.13
 509  -1910.923
 510  -803.6446
 511  -899.7973
