# Input file       =  1196019175.113502_cleaned.dat
# Candidate        =  PSR_0332+5434
# Telescope        =  AR
# Epoch_topo       =  58086.814746684053
# Epoch_bary       =  N/A
# T_sample         =  0.002
# Data Folded      =  7340032
# Data Avg         =  0.175979493408314
# Data StdDev      =  4.224871556026   
# Profile Bins     =  512
# Profile Avg      =  2523.08731108753 
# Profile StdDev   =  505.856699704826 
# Reduced chi-sqr  =  0.547
# Prob(Noise)      <  1   (~0.0 sigma)
# P_topo (ms)      =  714.524464594569  +/- 0.000357
# P'_topo (s/s)    =  -0                +/- 1.88e-10
# P''_topo (s/s^2) =  0                 +/- 8.32e-14
# P_bary (ms)      =  N/A
# P'_bary (s/s)    =  N/A
# P''_bary (s/s^2) =  N/A
# P_orb (s)        =  N/A
# asin(i)/c (s)    =  N/A
# eccentricity     =  N/A
# w (rad)          =  N/A
# T_peri           =  N/A
######################################################
   0  3081.772
   1  2609.821
   2  2650.7
   3  2702.917
   4  2666.597
   5  2318.552
   6  2198.198
   7  2209.814
   8  2130.932
   9  2397.211
  10  2555.281
  11  2805.479
  12  3142.677
  13  2597.9
  14  2345.904
  15  2581.971
  16  2962.431
  17  2929.366
  18  2724.775
  19  2862.117
  20  2868.585
  21  2641.503
  22  2700.153
  23  2871.47
  24  2870.165
  25  2671.219
  26  2221.327
  27  2400.543
  28  2593.169
  29  2751.017
  30  2547.136
  31  2805.814
  32  2992.688
  33  2840.49
  34  2672.686
  35  2481.658
  36  2391.987
  37  1916.013
  38  2067.566
  39  2135.394
  40  2055.742
  41  2237.303
  42  2243.696
  43  2280.103
  44  2544.546
  45  2295.246
  46  2541.918
  47  2380.403
  48  2501.125
  49  2145.914
  50  2509.006
  51  2590.045
  52  3067.147
  53  3276.235
  54  3008.431
  55  2857.792
  56  2745.729
  57  2740.391
  58  2756.073
  59  2672.074
  60  2531.839
  61  2746.253
  62  2742.889
  63  2810.69
  64  2402.534
  65  2575.261
  66  2698.801
  67  2484.094
  68  2502.859
  69  2382.523
  70  2671.522
  71  2448.917
  72  2471.746
  73  2529.704
  74  2610.796
  75  2821.752
  76  2822.367
  77  2432.439
  78  1908.708
  79  2124.923
  80  2334.872
  81  2463.676
  82  2587.147
  83  2393.906
  84  2572.767
  85  2694.55
  86  2241.967
  87  2018.967
  88  2252.547
  89  2414.979
  90  2230.744
  91  2583.585
  92  3132.506
  93  2751.028
  94  2597.699
  95  2774.944
  96  2759.971
  97  2839.026
  98  2967.212
  99  2612.68
 100  2409.924
 101  2509.618
 102  2002.785
 103  2375.305
 104  2408.812
 105  2527.584
 106  2345.886
 107  2332.366
 108  2313.786
 109  1939.278
 110  2221.95
 111  2480.277
 112  2604.168
 113  2603.916
 114  2300.75
 115  2462.222
 116  2483.161
 117  2223.519
 118  2465.344
 119  2618.717
 120  2363.737
 121  1969.2
 122  1863.108
 123  1975.375
 124  2111.469
 125  2333.519
 126  2446.342
 127  2507.943
 128  2278.611
 129  2299.995
 130  2433.79
 131  2213.958
 132  2454.5
 133  2491.867
 134  2473.404
 135  2570.781
 136  2453.889
 137  2249.389
 138  2172.194
 139  2097.666
 140  1727.556
 141  1883.697
 142  1834.239
 143  2371.79
 144  2361.776
 145  2222.512
 146  2481.135
 147  2567.892
 148  2651.75
 149  2577.858
 150  2750.883
 151  2970.222
 152  2974.365
 153  2882.578
 154  2651.705
 155  2617.16
 156  2871.365
 157  2474.506
 158  2162.761
 159  2339.928
 160  2912.398
 161  3166.484
 162  2830.534
 163  2876.786
 164  2764.468
 165  2181.995
 166  2296.55
 167  2773.352
 168  2925.38
 169  2843.341
 170  2778.392
 171  2537.491
 172  2348.927
 173  2428.8
 174  2298.527
 175  2487.123
 176  2450.252
 177  2626.701
 178  2661.883
 179  2620.086
 180  2543.596
 181  2149.518
 182  2399.223
 183  2545.304
 184  2553.753
 185  2736.687
 186  2582.259
 187  2665.171
 188  2660.222
 189  2621.909
 190  2677.455
 191  2772.374
 192  2671.184
 193  2557.591
 194  2828.248
 195  2581.952
 196  2379.28
 197  2098.471
 198  1995.901
 199  2262.691
 200  2217.293
 201  1962.17
 202  2213.148
 203  2079.746
 204  2275.151
 205  2241.523
 206  2409.624
 207  2584.52
 208  2325.556
 209  2652.07
 210  2606.919
 211  2483.608
 212  2403.799
 213  2306.021
 214  2452.244
 215  2742.089
 216  2685.967
 217  2605.313
 218  2171.618
 219  2208.926
 220  2358.19
 221  2468.714
 222  2677.912
 223  2555.312
 224  2595.122
 225  2393.359
 226  2375.963
 227  3046.694
 228  3291.72
 229  2686.508
 230  2539.284
 231  2692.21
 232  2695.527
 233  2288.187
 234  2412.241
 235  2553.554
 236  2646.232
 237  2328.325
 238  2057.161
 239  2486.4
 240  2577.796
 241  2497.478
 242  2442.186
 243  2800.351
 244  2694.209
 245  2436.794
 246  2385.718
 247  2721.138
 248  2657.869
 249  2653.099
 250  2102.6
 251  2377.777
 252  2260.938
 253  1967.858
 254  2034.878
 255  2138.633
 256  2658.585
 257  2885.896
 258  2527.069
 259  2199.468
 260  2599.895
 261  3050.399
 262  2918.099
 263  2887.266
 264  2584.934
 265  2371.09
 266  2180.748
 267  2168.881
 268  2609.231
 269  2451.456
 270  2519.393
 271  2695.959
 272  3032.283
 273  3054.753
 274  3114.679
 275  3319.663
 276  3392.021
 277  3162.437
 278  2936.166
 279  2711.023
 280  2999.414
 281  2514.646
 282  2622.57
 283  2599.383
 284  2253.787
 285  2375.488
 286  2550.229
 287  2845.385
 288  2972.927
 289  2836.365
 290  2825.254
 291  2674.063
 292  2499.176
 293  2808.983
 294  2490.412
 295  2636.75
 296  2519.933
 297  2286.754
 298  2565.233
 299  2482.421
 300  2733.009
 301  2994.333
 302  2910.06
 303  2581.063
 304  2622.519
 305  2770.643
 306  2599.305
 307  2397.071
 308  2597.132
 309  2514.022
 310  2633.062
 311  2257.503
 312  2564.218
 313  2697.321
 314  3007.713
 315  2571.124
 316  2405.015
 317  2263.711
 318  1990.897
 319  2051.711
 320  2175.921
 321  2759.619
 322  2725.467
 323  2860.478
 324  2570.28
 325  2150.454
 326  1966.862
 327  2415.413
 328  2718.232
 329  2706.869
 330  2432.215
 331  2568.254
 332  2501.47
 333  2358.368
 334  2443.046
 335  2450.839
 336  2740.917
 337  2375.336
 338  2280.757
 339  2385.717
 340  2732.984
 341  2583.297
 342  2273.589
 343  2589.601
 344  2463.841
 345  2371.196
 346  2347.742
 347  2680.151
 348  2747.04
 349  2696.084
 350  2856.258
 351  2558.857
 352  2105.562
 353  1968.594
 354  2315.876
 355  2241.372
 356  2534.82
 357  2771.605
 358  2539.569
 359  2356.158
 360  2493.782
 361  2481.765
 362  2419.8
 363  2432.75
 364  2583.251
 365  2740.741
 366  2659.99
 367  2591.057
 368  2836.694
 369  2696.765
 370  2028.876
 371  2093.246
 372  2534.3
 373  2925.745
 374  2506.634
 375  2462.081
 376  2747.975
 377  2592.619
 378  2588.38
 379  2875.782
 380  2861.416
 381  2582.948
 382  2151.34
 383  2503.361
 384  3026.836
 385  2780.521
 386  3014.639
 387  2842.707
 388  2702.663
 389  2499.74
 390  2337.466
 391  2266.215
 392  2296.485
 393  2621.989
 394  2382.2
 395  2248.076
 396  2624.318
 397  2943.047
 398  2685.46
 399  2449.703
 400  2438.863
 401  2406.699
 402  2363.325
 403  2580.748
 404  2415.069
 405  2569.856
 406  2564.248
 407  2473.988
 408  2287.368
 409  2174.302
 410  2112.733
 411  2100.313
 412  2152.087
 413  2261.222
 414  2264.737
 415  2382.413
 416  2296.88
 417  2298.103
 418  2315.782
 419  2315.003
 420  2141.74
 421  2298.597
 422  2470.485
 423  2565.632
 424  2331.306
 425  2327.551
 426  2243.866
 427  2701.169
 428  2927.948
 429  2818.618
 430  3032.609
 431  2658.866
 432  2589.696
 433  2534.691
 434  2344.792
 435  2417.308
 436  2825.715
 437  2862.295
 438  2674.999
 439  2622.122
 440  2749.1
 441  2772.611
 442  2406.439
 443  2550.902
 444  2441.093
 445  2449.803
 446  2265.134
 447  2332.063
 448  2579.268
 449  2211.625
 450  2321.536
 451  2550.349
 452  2574.36
 453  2802.3
 454  3036.329
 455  2886.513
 456  2666.332
 457  2493.64
 458  2596.963
 459  2471.565
 460  2624.616
 461  2463.485
 462  2617.091
 463  2625.381
 464  2617.443
 465  2403.697
 466  2456.629
 467  2665.544
 468  2470.875
 469  2884.495
 470  2831.097
 471  2975.219
 472  3081.645
 473  2484.761
 474  2788.173
 475  3159.978
 476  2762.248
 477  2474.855
 478  2431.176
 479  2599.914
 480  2457.499
 481  2455.309
 482  2353.384
 483  2073.881
 484  2231.921
 485  1895.888
 486  2013.698
 487  2358.165
 488  2589.19
 489  2875.176
 490  2472.959
 491  2288.368
 492  2307.15
 493  2457.864
 494  2343.098
 495  2552.52
 496  2646.309
 497  2115.574
 498  2190.918
 499  2237.314
 500  2511.639
 501  2331.564
 502  2082.203
 503  2570.243
 504  2680.002
 505  2439.144
 506  2494.626
 507  2743.953
 508  2752.065
 509  2219.19
 510  2035.05
 511  2626.187
