# Input file       =  1196105373.116092-PSRB0329-2ms-sampling-dd.dat
# Candidate        =  PSR_0332+5434
# Telescope        =  AR
# Epoch_topo       =  58087.812408751066
# Epoch_bary       =  N/A
# T_sample         =  0.002
# Data Folded      =  7340032
# Data Avg         =  -7.80432732792376e-10
# Data StdDev      =  14.2236390949484 
# Profile Bins     =  512
# Profile Avg      =  0.00439570368565062
# Profile StdDev   =  1703.03949716546 
# Reduced chi-sqr  =  0.910
# Prob(Noise)      <  0.929   (~0.0 sigma)
# P_topo (ms)      =  714.525495038232  +/- 0.00558
# P'_topo (s/s)    =  -0                +/- 2.94e-09
# P''_topo (s/s^2) =  0                 +/- 1.3e-12
# P_bary (ms)      =  N/A
# P'_bary (s/s)    =  N/A
# P''_bary (s/s^2) =  N/A
# P_orb (s)        =  N/A
# asin(i)/c (s)    =  N/A
# eccentricity     =  N/A
# w (rad)          =  N/A
# T_peri           =  N/A
######################################################
   0  -232.8365
   1  -181.4531
   2  61.43595
   3  -269.6736
   4  -109.2484
   5  -189.1857
   6  -248.5359
   7  -574.7076
   8  -363.8338
   9  -517.0284
  10  -620.3746
  11  -682.6846
  12  -1178.416
  13  -1090.956
  14  -680.2013
  15  -834.411
  16  -457.2961
  17  -407.9861
  18  -401.7903
  19  -715.5087
  20  -633.9998
  21  -427.9406
  22  -597.3004
  23  -695.3209
  24  -350.7282
  25  -186.5816
  26  -100.4674
  27  -18.48637
  28  -9.453164
  29  1.352929
  30  -129.0055
  31  -139.3796
  32  -181.5828
  33  157.7683
  34  46.43837
  35  -5.786273
  36  7.317555
  37  -100.7195
  38  -103.5303
  39  82.53461
  40  257.5961
  41  74.34493
  42  -36.42596
  43  -194.2102
  44  -268.663
  45  -530.258
  46  -572.5836
  47  -332.1196
  48  -243.0456
  49  -331.9717
  50  -596.4446
  51  -624.5444
  52  -676.2411
  53  -460.7779
  54  -231.4007
  55  -153.6717
  56  67.91208
  57  -137.1365
  58  -445.1218
  59  -666.733
  60  -560.863
  61  -117.1051
  62  -22.04927
  63  -112.8244
  64  -320.6839
  65  -534.6404
  66  -418.3618
  67  -319.2277
  68  -497.6473
  69  -325.8416
  70  21.06299
  71  -293.768
  72  -714.451
  73  -777.5012
  74  -366.6263
  75  -188.852
  76  -538.205
  77  -892.2153
  78  -810.9232
  79  -640.3074
  80  -551.6087
  81  -622.6667
  82  -924.6366
  83  -873.1172
  84  -783.6816
  85  -632.2529
  86  -602.5937
  87  -582.9565
  88  -635.9199
  89  -843.739
  90  -841.0281
  91  -826.7216
  92  -669.5073
  93  -540.3246
  94  -492.2018
  95  -388.4567
  96  -384.0746
  97  -541.9636
  98  -680.4105
  99  -836.2949
 100  -745.0734
 101  -427.711
 102  -92.94962
 103  92.89649
 104  -86.26455
 105  -511.1598
 106  -723.8311
 107  -457.778
 108  181.0716
 109  152.3567
 110  -21.44069
 111  45.26624
 112  -235.1462
 113  -530.1733
 114  -476.7361
 115  -239.3459
 116  -214.6719
 117  -103.7263
 118  -119.7532
 119  -4.510972
 120  -38.34856
 121  -430.0433
 122  -158.9045
 123  118.2805
 124  -64.52949
 125  -291.4806
 126  -256.8227
 127  -177.1736
 128  121.7422
 129  -39.01981
 130  -130.0883
 131  -11.96133
 132  105.8037
 133  187.9071
 134  120.804
 135  52.91737
 136  -122.8813
 137  -210.1322
 138  -182.0799
 139  -201.5118
 140  -309.9962
 141  17.07811
 142  264.8419
 143  34.99711
 144  -441.5408
 145  -655.1356
 146  -454.9016
 147  -51.60684
 148  155.6527
 149  6.347061
 150  2.016387
 151  -176.532
 152  -84.26715
 153  -395.6129
 154  -180.0317
 155  -151.9175
 156  -418.4282
 157  -167.5834
 158  -112.2311
 159  -425.4101
 160  169.2276
 161  150.0717
 162  318.6646
 163  352.6061
 164  429.2072
 165  574.3452
 166  898.7984
 167  1019.793
 168  798.3019
 169  376.3181
 170  -124.0146
 171  -349.5603
 172  -579.7686
 173  -249.2118
 174  -220.9109
 175  -248.9263
 176  -479.199
 177  -438.0268
 178  -696.1221
 179  -749.8292
 180  -738.1628
 181  -398.0709
 182  -403.1446
 183  -236.7172
 184  145.7101
 185  6.528501
 186  -242.972
 187  -173.8446
 188  4.427227
 189  174.3148
 190  531.3416
 191  345.0737
 192  108.5461
 193  -157.7559
 194  45.34344
 195  -371.8589
 196  326.5443
 197  397.001
 198  118.6164
 199  291.8962
 200  -52.5124
 201  44.60355
 202  -55.61049
 203  537.7242
 204  692.417
 205  821.0743
 206  741.5673
 207  246.4783
 208  111.3498
 209  -282.4157
 210  303.7213
 211  587.2642
 212  633.0928
 213  659.7214
 214  87.29668
 215  65.32224
 216  194.5256
 217  355.554
 218  190.6546
 219  -315.7269
 220  -200.6831
 221  -236.9555
 222  -234.6487
 223  609.4224
 224  519.3508
 225  18.58959
 226  -279.7905
 227  -288.5445
 228  -254.4603
 229  -283.55
 230  -406.1754
 231  -57.46178
 232  -124.9057
 233  6.96386
 234  -239.4662
 235  -494.239
 236  -162.8855
 237  203.4123
 238  -39.73594
 239  -301.1349
 240  -47.87395
 241  -472.1713
 242  -658.0513
 243  -517.8167
 244  -52.90923
 245  -135.8214
 246  -250.7927
 247  -133.2572
 248  -371.7493
 249  -235.4608
 250  -709.9556
 251  -685.4262
 252  -757.6755
 253  -717.4516
 254  -151.6284
 255  -155.0038
 256  -818.9011
 257  -197.3163
 258  -76.4128
 259  -1131.872
 260  -194.9511
 261  -51.41449
 262  -772.3904
 263  839.6068
 264  445.3599
 265  -875.0432
 266  1774.957
 267  110.3769
 268  -1392.997
 269  3245.385
 270  -1727.546
 271  262.4872
 272  14477.32
 273  17069.96
 274  9059.943
 275  -5092.257
 276  2127.01
 277  427.2385
 278  -1576.721
 279  1577.44
 280  -183.6054
 281  -555.6149
 282  1329.068
 283  -28.03722
 284  6.833963
 285  782.059
 286  -585.4473
 287  17.20205
 288  335.719
 289  -389.1265
 290  72.13693
 291  205.0399
 292  -333.3011
 293  417.3929
 294  222.5872
 295  -110.3383
 296  397.0746
 297  578.4211
 298  387.4706
 299  516.3233
 300  552.1432
 301  388.4223
 302  216.6988
 303  273.1476
 304  356.09
 305  -12.21892
 306  -248.8885
 307  -375.6428
 308  6.400578
 309  117.7521
 310  293.3349
 311  336.2444
 312  316.1035
 313  171.6044
 314  101.8845
 315  168.3974
 316  322.9275
 317  406.5629
 318  272.7535
 319  637.0984
 320  462.5336
 321  -139.3867
 322  -286.2994
 323  186.0037
 324  89.22134
 325  -289.4189
 326  -221.5218
 327  52.59405
 328  -104.57
 329  84.62814
 330  26.61286
 331  424.0035
 332  195.4095
 333  153.1827
 334  -202.1252
 335  -90.50499
 336  66.66477
 337  99.25067
 338  228.0428
 339  1.951603
 340  -11.99617
 341  -74.34116
 342  -161.6469
 343  -34.19942
 344  200.8581
 345  311.1743
 346  75.20373
 347  42.99143
 348  -12.6254
 349  -309.5462
 350  -324.4804
 351  132.0495
 352  172.6509
 353  131.4005
 354  409.561
 355  72.67852
 356  -64.70211
 357  -351.9101
 358  -95.82444
 359  -155.1171
 360  -197.9381
 361  111.9457
 362  134.6237
 363  -98.13348
 364  -131.9339
 365  132.4734
 366  121.159
 367  7.224997
 368  -2.377635
 369  4.309524
 370  -66.09401
 371  69.92031
 372  205.8933
 373  -129.429
 374  -137.606
 375  -173.09
 376  -106.3823
 377  -124.3488
 378  14.67674
 379  64.90256
 380  -9.578637
 381  -92.22875
 382  50.7504
 383  238.1776
 384  382.1476
 385  872.5494
 386  428.4087
 387  66.96921
 388  388.5196
 389  684.442
 390  195.2884
 391  544.3941
 392  449.7634
 393  117.5442
 394  229.9112
 395  476.2963
 396  454.078
 397  482.6964
 398  663.2316
 399  224.5087
 400  -44.52017
 401  -95.81371
 402  427.4883
 403  720.1754
 404  839.8148
 405  1160.896
 406  1189.144
 407  803.668
 408  560.4902
 409  218.1982
 410  179.0079
 411  -154.1397
 412  53.89004
 413  343.6815
 414  -13.86539
 415  -228.9167
 416  -395.9195
 417  -57.38848
 418  216.7848
 419  95.81506
 420  332.2354
 421  179.161
 422  40.30219
 423  -102.8302
 424  -91.62151
 425  29.88585
 426  758.698
 427  996.1974
 428  670.9875
 429  356.0101
 430  71.22608
 431  5.5903
 432  -28.775
 433  206.2575
 434  -97.63682
 435  -208.7886
 436  -428.6072
 437  220.7448
 438  386.1655
 439  149.8974
 440  677.8426
 441  667.869
 442  570.4757
 443  158.4035
 444  184.7825
 445  226.1994
 446  287.7625
 447  87.00751
 448  -166.8906
 449  -9.370641
 450  -13.63901
 451  118.5278
 452  -48.94571
 453  165.7103
 454  87.84826
 455  -7.560659
 456  185.9848
 457  -242.2493
 458  -474.7795
 459  -305.0367
 460  -313.4039
 461  -96.95228
 462  -127.345
 463  -357.6671
 464  -143.6533
 465  -172.3619
 466  -162.4317
 467  -380.5478
 468  -217.5148
 469  -59.18538
 470  73.97895
 471  107.9858
 472  -173.4032
 473  -208.3998
 474  -180.2946
 475  -43.80676
 476  -284.3874
 477  -420.3977
 478  -233.9893
 479  -429.1236
 480  -247.1299
 481  -41.03352
 482  -41.00225
 483  -165.2715
 484  -97.82012
 485  -138.8676
 486  -599.132
 487  -524.6019
 488  -199.6403
 489  -201.6999
 490  -252.7983
 491  -271.8462
 492  -397.5944
 493  -81.61736
 494  -141.1076
 495  -316.7209
 496  -246.187
 497  -173.6137
 498  316.0434
 499  616.4918
 500  -96.11301
 501  -646.7708
 502  -708.0548
 503  -341.1664
 504  -231.0426
 505  -153.9669
 506  -271.2931
 507  -491.9261
 508  -268.6315
 509  -262.8579
 510  -373.391
 511  -120.0895
