# Input file       =  1196263036.115612_cleaned.dat
# Candidate        =  PSR_0332+5434
# Telescope        =  AR
# Epoch_topo       =  58089.637211986250
# Epoch_bary       =  N/A
# T_sample         =  0.002
# Data Folded      =  7208960
# Data Avg         =  0.110192647617639
# Data StdDev      =  1.00127291561002 
# Profile Bins     =  512
# Profile Avg      =  1551.50871641033 
# Profile StdDev   =  118.81021891067  
# Reduced chi-sqr  =  0.870
# Prob(Noise)      <  0.984   (~0.0 sigma)
# P_topo (ms)      =  714.52734928584   +/- 2.63e-05
# P'_topo (s/s)    =  -0                +/- 1.41e-11
# P''_topo (s/s^2) =  0                 +/- 6.36e-15
# P_bary (ms)      =  N/A
# P'_bary (s/s)    =  N/A
# P''_bary (s/s^2) =  N/A
# P_orb (s)        =  N/A
# asin(i)/c (s)    =  N/A
# eccentricity     =  N/A
# w (rad)          =  N/A
# T_peri           =  N/A
######################################################
   0  1747.369
   1  1639.868
   2  1507.215
   3  1581.887
   4  1635.371
   5  1535.971
   6  1559.696
   7  1613.295
   8  1515.63
   9  1539.78
  10  1621.241
  11  1699.765
  12  1675.42
  13  1741.003
  14  1630.486
  15  1497.196
  16  1543.769
  17  1636.479
  18  1621.628
  19  1453.628
  20  1628.481
  21  1613.234
  22  1580.779
  23  1584.593
  24  1679.452
  25  1662.34
  26  1636.402
  27  1630.869
  28  1619.046
  29  1599.85
  30  1511.423
  31  1557.077
  32  1598.164
  33  1547.34
  34  1484.622
  35  1461.082
  36  1500.384
  37  1463.448
  38  1525.281
  39  1466.65
  40  1471.8
  41  1492.516
  42  1584.865
  43  1588.001
  44  1452.926
  45  1496.952
  46  1616.368
  47  1623.667
  48  1481.258
  49  1585.842
  50  1544.212
  51  1401.388
  52  1538.129
  53  1510.861
  54  1387.417
  55  1347.841
  56  1475.321
  57  1571.424
  58  1596.243
  59  1533.925
  60  1518.901
  61  1520.286
  62  1454.439
  63  1387.965
  64  1517.365
  65  1487.853
  66  1519.795
  67  1554.979
  68  1548.215
  69  1506.127
  70  1531.341
  71  1618.768
  72  1554.227
  73  1506.068
  74  1657.117
  75  1565.562
  76  1469.964
  77  1476.582
  78  1478.604
  79  1432.258
  80  1429.167
  81  1533.409
  82  1558.875
  83  1568.572
  84  1489.247
  85  1487.41
  86  1534.762
  87  1501.29
  88  1507.15
  89  1557.478
  90  1536.846
  91  1477.1
  92  1594.955
  93  1470.793
  94  1390.729
  95  1552.948
  96  1656.702
  97  1525.266
  98  1418.048
  99  1542.639
 100  1581.869
 101  1544.298
 102  1472.906
 103  1521.965
 104  1483.73
 105  1575.785
 106  1669.43
 107  1556.651
 108  1494.233
 109  1496.999
 110  1655.107
 111  1739.433
 112  1699.098
 113  1656.527
 114  1720.729
 115  1768.083
 116  1746.799
 117  1699.071
 118  1588.636
 119  1665.091
 120  1593.651
 121  1598.971
 122  1424.886
 123  1385.131
 124  1633.961
 125  1696.299
 126  1522.598
 127  1319.372
 128  1419.978
 129  1603.713
 130  1501.388
 131  1515.549
 132  1548.998
 133  1421.552
 134  1378.292
 135  1515.392
 136  1603.896
 137  1491.855
 138  1504.919
 139  1622.325
 140  1644.211
 141  1620.487
 142  1509.192
 143  1618.912
 144  1615.712
 145  1508.595
 146  1578.397
 147  1509.387
 148  1488.895
 149  1509.826
 150  1541.025
 151  1513.578
 152  1605.814
 153  1571.026
 154  1611.436
 155  1567.679
 156  1513.783
 157  1631.824
 158  1614.512
 159  1518.539
 160  1579.32
 161  1578.966
 162  1504.559
 163  1502.25
 164  1585.619
 165  1469.858
 166  1482.403
 167  1507.754
 168  1532.391
 169  1515.912
 170  1554.143
 171  1543.395
 172  1466.161
 173  1350.002
 174  1473.659
 175  1552.109
 176  1533.047
 177  1562.842
 178  1642.333
 179  1550.213
 180  1363.521
 181  1399.995
 182  1584.308
 183  1585.909
 184  1577.772
 185  1632.941
 186  1619.831
 187  1512.829
 188  1500.811
 189  1580.555
 190  1751.059
 191  1624.497
 192  1581.43
 193  1689.699
 194  1539.053
 195  1526.259
 196  1531.776
 197  1552.733
 198  1571.675
 199  1509.001
 200  1543.702
 201  1426.249
 202  1428.185
 203  1625.973
 204  1498.769
 205  1478.564
 206  1421.599
 207  1481.204
 208  1423.357
 209  1445.365
 210  1595.193
 211  1589.904
 212  1548.378
 213  1481.581
 214  1507.295
 215  1485.024
 216  1374.17
 217  1395.593
 218  1538.961
 219  1509.063
 220  1514.603
 221  1561.801
 222  1607.816
 223  1451.004
 224  1513.055
 225  1564.643
 226  1514.863
 227  1518.172
 228  1634.534
 229  1638.104
 230  1523.357
 231  1502.483
 232  1600.096
 233  1510.41
 234  1551.189
 235  1562.579
 236  1653.439
 237  1599.515
 238  1495.976
 239  1529.916
 240  1507.942
 241  1402.312
 242  1353.665
 243  1569.433
 244  1601.775
 245  1469.606
 246  1420.985
 247  1413.993
 248  1406.756
 249  1345.382
 250  1431.931
 251  1530.73
 252  1581.958
 253  1637.419
 254  1657.062
 255  1512.212
 256  1472.416
 257  1600.608
 258  1547.024
 259  1518.926
 260  1578.645
 261  1572.092
 262  1544.04
 263  1560.128
 264  1625.174
 265  1619.719
 266  1612.352
 267  1588.376
 268  1524.086
 269  1540.841
 270  1442.542
 271  1594.796
 272  1701.456
 273  1443.43
 274  1458.124
 275  1560.88
 276  1686.026
 277  1598.048
 278  1592.341
 279  1601.201
 280  1583.622
 281  1623.557
 282  1588.838
 283  1594.661
 284  1600.797
 285  1533.304
 286  1581.046
 287  1551.406
 288  1458.82
 289  1584.037
 290  1513.794
 291  1475.406
 292  1629.499
 293  1602.467
 294  1507.737
 295  1463.316
 296  1634.429
 297  1659.891
 298  1417.438
 299  1486.652
 300  1661.156
 301  1640.373
 302  1432.139
 303  1467.098
 304  1600.203
 305  1612.725
 306  1507.308
 307  1567.297
 308  1611.973
 309  1540.402
 310  1579.379
 311  1753.802
 312  1631.651
 313  1480.727
 314  1443.579
 315  1467.885
 316  1396.194
 317  1423.036
 318  1557.555
 319  1597.821
 320  1493.676
 321  1632.807
 322  1675.073
 323  1658.366
 324  1474.005
 325  1531.355
 326  1614.707
 327  1577.658
 328  1682.2
 329  1530.665
 330  1508.3
 331  1474.346
 332  1601.513
 333  1589.49
 334  1481.915
 335  1496.081
 336  1623.731
 337  1507.18
 338  1505.692
 339  1609.858
 340  1636.425
 341  1545.924
 342  1606.994
 343  1691.098
 344  1589.922
 345  1483.829
 346  1468.427
 347  1506.37
 348  1539.239
 349  1530.169
 350  1545.059
 351  1535.526
 352  1427.996
 353  1444.208
 354  1514.404
 355  1519.043
 356  1488.493
 357  1500.133
 358  1635.995
 359  1593.698
 360  1492.992
 361  1518.768
 362  1498.666
 363  1530.988
 364  1579.156
 365  1543.454
 366  1455.635
 367  1443.867
 368  1502.805
 369  1515.204
 370  1501.357
 371  1494.621
 372  1470.893
 373  1556.125
 374  1480.075
 375  1536.318
 376  1487.677
 377  1470.815
 378  1517.846
 379  1574.279
 380  1504.169
 381  1487.112
 382  1608.915
 383  1588.146
 384  1597.592
 385  1575.259
 386  1555.875
 387  1610.415
 388  1673.104
 389  1622.135
 390  1537.845
 391  1474.326
 392  1513.512
 393  1597.093
 394  1561.919
 395  1534.505
 396  1569.944
 397  1682.277
 398  1783.902
 399  1688.225
 400  1634.029
 401  1614.811
 402  1586.321
 403  1673.27
 404  1693.537
 405  1548.289
 406  1513.07
 407  1668.073
 408  1701.144
 409  1597.322
 410  1471.496
 411  1603.652
 412  1506.383
 413  1529.703
 414  1585.53
 415  1710.391
 416  1613.456
 417  1602.333
 418  1728.703
 419  1662.056
 420  1433.591
 421  1450.807
 422  1561.876
 423  1538.824
 424  1568.83
 425  1568.952
 426  1625.547
 427  1492.181
 428  1392.206
 429  1502.035
 430  1508.177
 431  1398.693
 432  1510.783
 433  1650.707
 434  1557.612
 435  1504.085
 436  1518.457
 437  1593.921
 438  1510.98
 439  1520.292
 440  1439.378
 441  1534.278
 442  1577.794
 443  1605.714
 444  1632.345
 445  1547.402
 446  1512.349
 447  1601.006
 448  1511.153
 449  1479.765
 450  1389.202
 451  1404.723
 452  1550.895
 453  1511.04
 454  1590.623
 455  1549.057
 456  1530.449
 457  1485.964
 458  1583.709
 459  1525.341
 460  1549.52
 461  1713.112
 462  1585.884
 463  1508.784
 464  1524.429
 465  1561.339
 466  1579.382
 467  1556.445
 468  1523.617
 469  1534.874
 470  1498.51
 471  1508.258
 472  1606.124
 473  1666.309
 474  1653.746
 475  1680.881
 476  1805.346
 477  1632.248
 478  1553.228
 479  1609.044
 480  1635.009
 481  1599.284
 482  1447.489
 483  1585.005
 484  1618.252
 485  1448.563
 486  1492.806
 487  1596.87
 488  1544.486
 489  1585.572
 490  1632.135
 491  1616.84
 492  1543.005
 493  1592.359
 494  1594.031
 495  1446.772
 496  1548.88
 497  1747.909
 498  1653.551
 499  1536.448
 500  1624.855
 501  1555.207
 502  1464.02
 503  1603.902
 504  1707.846
 505  1762.849
 506  1634.487
 507  1615.233
 508  1682.333
 509  1666.08
 510  1595.575
 511  1642.34
