# Input file       =  1196034081.122101_cleaned.dat
# Candidate        =  PSR_0332+5434
# Telescope        =  AR
# Epoch_topo       =  58086.987269931727
# Epoch_bary       =  N/A
# T_sample         =  0.002
# Data Folded      =  7340032
# Data Avg         =  0.0299252083944562
# Data StdDev      =  0.999994573590065
# Profile Bins     =  512
# Profile Avg      =  429.026894702029 
# Profile StdDev   =  119.732386656228 
# Reduced chi-sqr  =  1.000
# Prob(Noise)      <  0.493   (~0.0 sigma)
# P_topo (ms)      =  714.524980475135  +/- 4.97e-05
# P'_topo (s/s)    =  -0                +/- 2.62e-11
# P''_topo (s/s^2) =  0                 +/- 1.16e-14
# P_bary (ms)      =  N/A
# P'_bary (s/s)    =  N/A
# P''_bary (s/s^2) =  N/A
# P_orb (s)        =  N/A
# asin(i)/c (s)    =  N/A
# eccentricity     =  N/A
# w (rad)          =  N/A
# T_peri           =  N/A
######################################################
   0  908.7849
   1  871.5823
   2  687.3293
   3  579.5342
   4  567.8785
   5  484.938
   6  406.8967
   7  343.5864
   8  409.9458
   9  421.9214
  10  436.9773
  11  440.6903
  12  486.5614
  13  544.1752
  14  437.1923
  15  511.2194
  16  438.0032
  17  342.2105
  18  370.8654
  19  430.1251
  20  470.057
  21  448.7059
  22  479.7387
  23  520.5966
  24  477.5233
  25  370.4854
  26  336.2235
  27  272.2371
  28  368.6549
  29  362.0007
  30  389.4937
  31  343.9742
  32  292.7186
  33  379.8955
  34  442.6377
  35  447.2213
  36  423.9919
  37  571.8196
  38  518.6979
  39  450.6389
  40  458.9427
  41  460.7809
  42  391.4731
  43  340.4984
  44  380.3727
  45  512.8411
  46  425.9987
  47  451.8051
  48  428.1313
  49  397.9257
  50  345.2455
  51  403.6627
  52  524.9354
  53  526.3505
  54  534.4468
  55  460.8048
  56  454.6004
  57  532.0892
  58  539.1301
  59  482.7837
  60  329.1397
  61  298.2179
  62  413.6804
  63  405.8362
  64  365.7526
  65  401.0522
  66  463.2163
  67  448.3969
  68  318.7866
  69  339.355
  70  387.865
  71  271.1013
  72  300.3958
  73  421.0256
  74  482.1089
  75  399.8255
  76  490.438
  77  398.8083
  78  463.5267
  79  410.5356
  80  402.2701
  81  401.0331
  82  397.9908
  83  389.8803
  84  325.4926
  85  329.0887
  86  344.5944
  87  444.9331
  88  457.5591
  89  405.2642
  90  433.4837
  91  423.891
  92  396.8052
  93  471.3248
  94  625.2377
  95  615.8638
  96  558.0271
  97  546.6536
  98  482.7561
  99  455.9776
 100  430.2176
 101  449.2891
 102  471.1003
 103  408.1745
 104  345.0356
 105  413.7256
 106  368.0817
 107  411.1879
 108  391.1641
 109  458.024
 110  393.9418
 111  522.7249
 112  417.8324
 113  405.7496
 114  324.8433
 115  418.6451
 116  440.8656
 117  423.0266
 118  248.7771
 119  345.7121
 120  377.7
 121  452.447
 122  479.6043
 123  430.3442
 124  398.7437
 125  370.0149
 126  486.0299
 127  499.6133
 128  389.61
 129  406.6188
 130  483.8265
 131  451.1117
 132  371.1574
 133  410.427
 134  448.2409
 135  391.847
 136  360.801
 137  375.1298
 138  481.0699
 139  551.8412
 140  468.5907
 141  470.583
 142  469.1598
 143  420.7488
 144  437.1959
 145  471.2108
 146  412.9448
 147  381.1069
 148  486.8649
 149  506.0833
 150  376.2559
 151  327.8852
 152  379.5008
 153  344.9924
 154  285.2963
 155  420.991
 156  439.6169
 157  406.8687
 158  338.143
 159  389.8469
 160  377.2811
 161  310.3885
 162  377.4522
 163  274.1692
 164  265.1847
 165  335.3779
 166  490.6328
 167  517.2717
 168  457.5687
 169  461.723
 170  318.9765
 171  278.5569
 172  390.4713
 173  432.8744
 174  460.044
 175  328.9611
 176  371.432
 177  411.5342
 178  543.9182
 179  420.6545
 180  385.1379
 181  422.7311
 182  368.8358
 183  187.965
 184  233.0194
 185  247.8235
 186  358.8105
 187  384.1023
 188  413.5391
 189  418.3416
 190  362.9588
 191  358.1983
 192  316.3594
 193  484.4401
 194  479.4615
 195  441.0178
 196  305.2068
 197  334.7691
 198  354.8676
 199  322.4691
 200  351.5033
 201  430.944
 202  464.4182
 203  395.1815
 204  402.7317
 205  514.9623
 206  385.8049
 207  402.9695
 208  483.5895
 209  406.0825
 210  283.7647
 211  292.9306
 212  337.1795
 213  474.8558
 214  329.8339
 215  244.1552
 216  326.786
 217  336.8896
 218  301.1744
 219  247.0803
 220  304.8121
 221  322.097
 222  309.7127
 223  274.1835
 224  281.1611
 225  347.4857
 226  356.0216
 227  403.0395
 228  339.9233
 229  373.3159
 230  485.8903
 231  505.0848
 232  455.3928
 233  400.1894
 234  484.8417
 235  269.2318
 236  232.3311
 237  350.1279
 238  394.1941
 239  325.4176
 240  349.3234
 241  356.4742
 242  367.7459
 243  373.4759
 244  353.1903
 245  353.9931
 246  302.8137
 247  302.1921
 248  395.8444
 249  350.489
 250  346.1108
 251  433.3217
 252  548.7999
 253  395.6336
 254  246.8104
 255  345.3845
 256  395.3659
 257  296.6119
 258  319.1251
 259  441.7148
 260  481.7038
 261  334.2612
 262  418.3116
 263  398.8161
 264  441.5792
 265  435.7382
 266  520.1599
 267  458.1109
 268  366.2737
 269  379.6079
 270  300.9165
 271  345.2433
 272  338.0246
 273  379.053
 274  317.2604
 275  364.2362
 276  411.5389
 277  432.5608
 278  346.8297
 279  353.2657
 280  426.0612
 281  458.7518
 282  492.322
 283  454.1259
 284  413.3289
 285  357.5939
 286  475.1986
 287  421.1768
 288  418.2361
 289  361.569
 290  393.7139
 291  516.2532
 292  350.1447
 293  310.9535
 294  392.0858
 295  375.2791
 296  304.4549
 297  310.2077
 298  425.5416
 299  334.4368
 300  267.0636
 301  465.6132
 302  391.7139
 303  344.5767
 304  348.9836
 305  467.9771
 306  520.7226
 307  433.9774
 308  408.8474
 309  444.6029
 310  426.6287
 311  472.3867
 312  557.6938
 313  472.5113
 314  353.2385
 315  338.841
 316  430.7715
 317  464.3752
 318  412.6867
 319  475.4809
 320  417.3849
 321  389.3852
 322  489.726
 323  534.0573
 324  524.6126
 325  448.0742
 326  369.1109
 327  444.6382
 328  394.8229
 329  329.0664
 330  396.6303
 331  468.256
 332  373.3438
 333  376.7837
 334  415.6576
 335  396.5347
 336  373.5236
 337  419.414
 338  377.409
 339  413.1361
 340  373.3595
 341  435.5104
 342  407.001
 343  393
 344  459.9394
 345  440.3689
 346  492.1926
 347  418.9831
 348  423.9867
 349  414.5016
 350  385.291
 351  459.4442
 352  604.0867
 353  618.5278
 354  555.0348
 355  487.4988
 356  443.1426
 357  386.2471
 358  428.2326
 359  586.2045
 360  502.7283
 361  435.9259
 362  309.0697
 363  348.1364
 364  449.9018
 365  499.0777
 366  511.904
 367  353.0139
 368  365.482
 369  391.5582
 370  421.6178
 371  449.2018
 372  435.6687
 373  503.9553
 374  502.1954
 375  452.4756
 376  389.7975
 377  459.7901
 378  442.1664
 379  406.8664
 380  535.495
 381  653.4666
 382  643.9899
 383  460.089
 384  407.7731
 385  456.8761
 386  381.587
 387  495.4777
 388  541.1122
 389  494.6964
 390  389.3757
 391  510.6093
 392  407.764
 393  370.2757
 394  354.731
 395  421.6781
 396  387.0852
 397  360.8896
 398  485.1267
 399  372.4301
 400  332.5416
 401  498.3916
 402  496.2178
 403  442.7969
 404  344.0637
 405  369.9572
 406  413.5729
 407  364.7254
 408  410.519
 409  473.0402
 410  453.3439
 411  492.3079
 412  526.8776
 413  531.2349
 414  447.7751
 415  447.7166
 416  553.949
 417  537.3697
 418  472.6544
 419  368.1996
 420  457.8658
 421  334.0072
 422  300.4411
 423  460.3429
 424  460.7736
 425  550.2993
 426  497.8465
 427  556.9822
 428  564.2487
 429  415.3569
 430  438.3357
 431  476.2872
 432  599.6171
 433  565.0733
 434  447.2017
 435  409.0258
 436  396.2988
 437  493.3723
 438  570.4656
 439  457.3018
 440  343.5744
 441  438.8296
 442  523.2023
 443  576.194
 444  486.4285
 445  477.9847
 446  487.4954
 447  513.8097
 448  525.7178
 449  466.7177
 450  443.3194
 451  437.5575
 452  447.0406
 453  437.295
 454  392.2191
 455  446.0418
 456  479.6207
 457  425.9113
 458  492.3716
 459  532.0621
 460  493.7999
 461  459.3792
 462  400.3611
 463  538.696
 464  482.8471
 465  399.7183
 466  483.2248
 467  428.8257
 468  456.6081
 469  502.344
 470  507.2613
 471  569.2955
 472  454.9183
 473  528.5807
 474  574.0349
 475  641.624
 476  593.1806
 477  578.7006
 478  580.5357
 479  467.7641
 480  457.2567
 481  357.7692
 482  426.6302
 483  384.7542
 484  428.1715
 485  530.8779
 486  515.5067
 487  511.2048
 488  425.5785
 489  401.8199
 490  489.9314
 491  526.9338
 492  511.1153
 493  362.8452
 494  468.8121
 495  523.4237
 496  475.1928
 497  467.2586
 498  474.7649
 499  517.3467
 500  465.0322
 501  416.2664
 502  515.4418
 503  385.515
 504  467.8758
 505  477.8034
 506  543.165
 507  564.834
 508  591.2456
 509  729.023
 510  767.4613
 511  796.4556
