# Input file       =  1196521562.110791-PSRB0329-2ms-sampling-dd.dat
# Candidate        =  PSR_0332+5434
# Telescope        =  AR
# Epoch_topo       =  58092.629411004527
# Epoch_bary       =  N/A
# T_sample         =  0.002
# Data Folded      =  7208960
# Data Avg         =  1.33697377787995e-09
# Data StdDev      =  6.67446977649066 
# Profile Bins     =  512
# Profile Avg      =  -0.0645307053545377
# Profile StdDev   =  791.987082537213 
# Reduced chi-sqr  =  0.446
# Prob(Noise)      <  1   (~0.0 sigma)
# P_topo (ms)      =  714.530420499261  +/- 0.00454
# P'_topo (s/s)    =  -0                +/- 2.44e-09
# P''_topo (s/s^2) =  0                 +/- 1.1e-12
# P_bary (ms)      =  N/A
# P'_bary (s/s)    =  N/A
# P''_bary (s/s^2) =  N/A
# P_orb (s)        =  N/A
# asin(i)/c (s)    =  N/A
# eccentricity     =  N/A
# w (rad)          =  N/A
# T_peri           =  N/A
######################################################
   0  -100.924
   1  261.9283
   2  130.4562
   3  -71.03311
   4  -112.3158
   5  13.4902
   6  -632.0018
   7  -798.9139
   8  -287.6943
   9  -255.2847
  10  109.2104
  11  -23.94154
  12  259.6132
  13  -179.9395
  14  -147.5605
  15  -114.8295
  16  60.4818
  17  3.001575
  18  78.29623
  19  51.02247
  20  -301.834
  21  -462.0733
  22  -644.0811
  23  -837.5594
  24  -693.0997
  25  -93.17129
  26  109.8604
  27  -85.67979
  28  519.2686
  29  216.5252
  30  22.17702
  31  -651.3469
  32  -647.5176
  33  -834.143
  34  -631.0229
  35  -646.56
  36  -1208.015
  37  -400.6975
  38  -339.0648
  39  -407.967
  40  -74.52351
  41  -639.4642
  42  -616.9343
  43  -433.2985
  44  -384.9623
  45  -264.0623
  46  -222.2109
  47  -398.0638
  48  45.06545
  49  -107.0353
  50  -87.89731
  51  -392.0314
  52  -135.2713
  53  329.5871
  54  133.8616
  55  -68.76293
  56  -188.5871
  57  139.8589
  58  114.4398
  59  -172.6575
  60  48.39984
  61  480.1044
  62  539.6219
  63  -515.9915
  64  -253.9453
  65  -432.7641
  66  -808.6702
  67  -699.9246
  68  -506.1266
  69  -181.8047
  70  -309.0194
  71  -332.4667
  72  54.50048
  73  176.5978
  74  -153.013
  75  -276.3718
  76  -631.3782
  77  -57.79515
  78  0.6256285
  79  317.3957
  80  179.0383
  81  -392.4881
  82  -560.0344
  83  -616.568
  84  -533.762
  85  -123.8045
  86  290.3381
  87  175.4703
  88  -339.9623
  89  -498.9583
  90  -493.0391
  91  -294.6579
  92  -160.1584
  93  498.0955
  94  331.6293
  95  437.2809
  96  97.82257
  97  435.7985
  98  70.54155
  99  -488.2683
 100  -265.6994
 101  -296.617
 102  -234.0311
 103  28.71263
 104  -121.7627
 105  -836.8208
 106  -256.9454
 107  -89.82227
 108  -119.8379
 109  204.346
 110  -239.1312
 111  189.4271
 112  290.7448
 113  687.4294
 114  294.5492
 115  156.9243
 116  436.8748
 117  688.2168
 118  258.7587
 119  323.4648
 120  324.7763
 121  5.431954
 122  308.5536
 123  367.0392
 124  306.4886
 125  314.222
 126  968.6624
 127  1016.191
 128  259.6886
 129  217.0215
 130  203.7285
 131  302.5709
 132  190.5732
 133  -58.90526
 134  -15.01722
 135  -276.3896
 136  -228.2917
 137  -86.46872
 138  286.1384
 139  -169.7611
 140  -277.6339
 141  -46.32135
 142  -80.58624
 143  199.5777
 144  518.2556
 145  843.4809
 146  1057.255
 147  1058.364
 148  688.676
 149  274.4857
 150  -262.5039
 151  111.1577
 152  150.8381
 153  -101.8902
 154  -12.19644
 155  147.8504
 156  49.55951
 157  4.458827
 158  190.9653
 159  467.5338
 160  494.4619
 161  391.3814
 162  383.0313
 163  297.1607
 164  -32.76257
 165  435.7405
 166  231.8536
 167  668.7543
 168  -54.53445
 169  708.6714
 170  319.2595
 171  -24.86778
 172  -130.5389
 173  -263.6017
 174  -6.865784
 175  570.7059
 176  758.5512
 177  610.3666
 178  301.0569
 179  253.945
 180  239.3402
 181  73.48203
 182  -254.7871
 183  -18.19296
 184  436.7178
 185  233.4129
 186  -10.43838
 187  570.7277
 188  244.5699
 189  40.14722
 190  197.4988
 191  483.8427
 192  429.2964
 193  406.3219
 194  419.0872
 195  -138.5318
 196  -124.5889
 197  791.2131
 198  822.3353
 199  169.6842
 200  -391.6313
 201  304.8231
 202  -57.05292
 203  -383.5808
 204  -453.6469
 205  18.13823
 206  63.58685
 207  -143.516
 208  -418.4451
 209  -451.2728
 210  -56.87873
 211  5.276864
 212  1133.653
 213  1.187466
 214  133.1272
 215  -249.5562
 216  241.9986
 217  -83.05262
 218  39.23427
 219  390.8492
 220  276.9938
 221  377.5284
 222  -43.69269
 223  386.8914
 224  48.73673
 225  -363.9499
 226  199.6988
 227  464.609
 228  233.9522
 229  242.8877
 230  494.8982
 231  379.779
 232  -105.4741
 233  -46.43018
 234  -134.7369
 235  73.28204
 236  -85.30389
 237  -85.15365
 238  407.208
 239  138.0041
 240  327.4947
 241  611.0285
 242  440.3018
 243  198.0494
 244  -0.3033003
 245  -101.795
 246  -113.3786
 247  29.92299
 248  -4.529558
 249  -172.6847
 250  -389.1858
 251  -216.3134
 252  181.0612
 253  -42.03978
 254  -139.4563
 255  83.02499
 256  -178.7961
 257  411.3776
 258  382.9084
 259  640.8915
 260  806.1593
 261  667.5849
 262  862.2891
 263  935.2855
 264  633.9384
 265  504.2224
 266  456.6338
 267  289.3139
 268  -197.0633
 269  -19.27571
 270  -104.8416
 271  -193.1788
 272  43.88293
 273  -124.2872
 274  -207.7656
 275  -613.9143
 276  -191.75
 277  52.65504
 278  238.3534
 279  356.4281
 280  -388.2313
 281  70.53765
 282  -187.708
 283  196.8804
 284  842.2944
 285  345.753
 286  -34.5041
 287  3.734988
 288  422.6794
 289  -323.2864
 290  -512.1758
 291  -41.63454
 292  -5.033506
 293  51.34801
 294  -30.13393
 295  201.5446
 296  118.362
 297  333.559
 298  -122.6691
 299  -623.2334
 300  -423.4988
 301  -143.3818
 302  177.6185
 303  174.853
 304  675.4316
 305  57.72961
 306  76.35915
 307  -110.2122
 308  38.39141
 309  369.0798
 310  -104.4727
 311  -32.8196
 312  -278.7511
 313  15.66818
 314  -184.4972
 315  321.8122
 316  215.3253
 317  -11.17545
 318  122.8524
 319  130.6734
 320  432.6485
 321  275.2926
 322  259.6543
 323  -48.31107
 324  8.839773
 325  -538.1006
 326  -641.2516
 327  -461.947
 328  -763.0791
 329  -246.7244
 330  -247.9366
 331  10.51471
 332  -425.8843
 333  -641.7464
 334  -746.7186
 335  -410.0637
 336  -308.7392
 337  -3.261561
 338  600.6823
 339  -135.6202
 340  -740.5609
 341  -631.0424
 342  -284.9925
 343  47.89941
 344  -500.7947
 345  -171.2424
 346  -265.6237
 347  -463.8369
 348  -736.066
 349  -402.466
 350  -176.5338
 351  341.3962
 352  24.25674
 353  76.89169
 354  -128.1817
 355  -42.79903
 356  24.47654
 357  -0.7309336
 358  450.1953
 359  126.2004
 360  116.7185
 361  -25.16349
 362  204.2555
 363  -89.68928
 364  -501.5236
 365  -287.4205
 366  277.4853
 367  167.9899
 368  -613.473
 369  -475.5659
 370  -963.3316
 371  -628.056
 372  -264.7798
 373  417.2136
 374  205.7293
 375  30.38146
 376  -248.9219
 377  -917.1368
 378  -689.5627
 379  -330.4967
 380  -117.1967
 381  198.6337
 382  247.7726
 383  96.56345
 384  206.6018
 385  -26.60555
 386  -219.8128
 387  213.1103
 388  -104.3258
 389  47.6231
 390  104.9739
 391  177.6188
 392  721.556
 393  760.8499
 394  924.8022
 395  650.9849
 396  496.1785
 397  155.9225
 398  561.0412
 399  430.5024
 400  -42.23014
 401  197.1186
 402  -380.5273
 403  -713.7979
 404  -457.3607
 405  44.97414
 406  -55.41164
 407  -148.9136
 408  153.6332
 409  348.7935
 410  206.8653
 411  -87.96191
 412  19.47989
 413  -301.0273
 414  -29.66495
 415  639.1896
 416  713.8738
 417  1144.752
 418  264.3648
 419  327.584
 420  215.1583
 421  -193.0345
 422  -73.20094
 423  56.04621
 424  755.9152
 425  618.4857
 426  58.66351
 427  586.683
 428  48.10571
 429  -532.718
 430  -348.0724
 431  -266.2757
 432  174.8991
 433  202.9755
 434  -76.63626
 435  -757.6719
 436  -80.29469
 437  157.2643
 438  -163.7315
 439  -285.9299
 440  -41.46891
 441  283.9583
 442  123
 443  168.0705
 444  86.37775
 445  -10.53418
 446  12.42032
 447  -200.9627
 448  46.85467
 449  78.72784
 450  -546.8525
 451  -429.6958
 452  -471.9094
 453  -478.4469
 454  -517.3344
 455  -168.3421
 456  8.523932
 457  146.1245
 458  281.5682
 459  -49.34276
 460  -202.925
 461  -349.7284
 462  -131.0824
 463  96.23949
 464  -5.563808
 465  -213.1224
 466  -291.1876
 467  -27.54483
 468  -112.5372
 469  -621.0237
 470  -47.33917
 471  -523.4904
 472  -267.3195
 473  -6.722399
 474  -153.267
 475  -362.9515
 476  -946.8723
 477  -465.9918
 478  -8.563564
 479  59.50899
 480  489.0695
 481  -348.1823
 482  -478.4687
 483  -611.5438
 484  -359.362
 485  -602.1555
 486  -441.5258
 487  -209.8584
 488  488.7469
 489  99.90948
 490  133.2831
 491  -30.69866
 492  -256.2055
 493  -351.1275
 494  -529.6063
 495  -158.2109
 496  -89.59584
 497  -561.7921
 498  158.8451
 499  551.5925
 500  -54.25557
 501  -283.1807
 502  -422.7034
 503  -554.4615
 504  -47.15622
 505  -277.5777
 506  316.3051
 507  723.9683
 508  534.7667
 509  218.7965
 510  666.049
 511  581.5894
