# Input file       =  1196966586.130779_cleaned.dat
# Candidate        =  PSR_0332+5434
# Telescope        =  AR
# Epoch_topo       =  58097.780151976607
# Epoch_bary       =  N/A
# T_sample         =  0.002
# Data Folded      =  7340032
# Data Avg         =  0.40710038404255 
# Data StdDev      =  5.67735116923216 
# Profile Bins     =  1024
# Profile Avg      =  2919.09489771346 
# Profile StdDev   =  480.667497579842 
# Reduced chi-sqr  =  0.457
# Prob(Noise)      <  1   (~0.0 sigma)
# P_topo (ms)      =  714.535691126685  +/- 0.000818
# P'_topo (s/s)    =  -0                +/- 4.31e-10
# P''_topo (s/s^2) =  0                 +/- 1.9e-13
# P_bary (ms)      =  N/A
# P'_bary (s/s)    =  N/A
# P''_bary (s/s^2) =  N/A
# P_orb (s)        =  N/A
# asin(i)/c (s)    =  N/A
# eccentricity     =  N/A
# w (rad)          =  N/A
# T_peri           =  N/A
######################################################
   0  3181.362
   1  2953.487
   2  2834.967
   3  2961.26
   4  3039.303
   5  3082.281
   6  3047.332
   7  3061.178
   8  3099.621
   9  3010.797
  10  3049.518
  11  3079.999
  12  3153.709
  13  3087.728
  14  3071.834
  15  3098.508
  16  3072.635
  17  3092.129
  18  3186.736
  19  3172.615
  20  3071.027
  21  2959.016
  22  2867.926
  23  2867.033
  24  2762.206
  25  2634.139
  26  2616.826
  27  2668.377
  28  2764.465
  29  2781.756
  30  2740.848
  31  2794.554
  32  2793.789
  33  2880.754
  34  3005.045
  35  2984.073
  36  2991.051
  37  2893.331
  38  2818.641
  39  2663.144
  40  2549.094
  41  2606.429
  42  2771.652
  43  3011.26
  44  2956.534
  45  2852.911
  46  2715.254
  47  2892.724
  48  2992.115
  49  2953.97
  50  2794.681
  51  2621.302
  52  2505.039
  53  2565.987
  54  2644.152
  55  2853.063
  56  2788.518
  57  2864.763
  58  2862.813
  59  2824.592
  60  2832.137
  61  2560.553
  62  2582.859
  63  2634.802
  64  2771.308
  65  2881.187
  66  2962.774
  67  3177.612
  68  3195.781
  69  3159.24
  70  3102.294
  71  3221.721
  72  3195.248
  73  3102.733
  74  2935.692
  75  2834.802
  76  2880.089
  77  2880.17
  78  3065.545
  79  3140.058
  80  3135.373
  81  3156.26
  82  3035.501
  83  3130.271
  84  3201.347
  85  3094.217
  86  2938.323
  87  2799.423
  88  2935.725
  89  3011.434
  90  2939.755
  91  2904.426
  92  2977.684
  93  3117.9
  94  3026.545
  95  2898.218
  96  2764.388
  97  2813.599
  98  2803.592
  99  2919.606
 100  2855.075
 101  2831.458
 102  2753.762
 103  2792.746
 104  2792.009
 105  2824.534
 106  2811.848
 107  2727.66
 108  2642.643
 109  2662.449
 110  2690
 111  2562.703
 112  2591.588
 113  2679.105
 114  2823.183
 115  2880.847
 116  2846.247
 117  2975.167
 118  2899.185
 119  2938.878
 120  2953.868
 121  2816.056
 122  2735.241
 123  2668.284
 124  2630.965
 125  2859.806
 126  2759.129
 127  2752.814
 128  2855.158
 129  3092.701
 130  3219.61
 131  2992.441
 132  2776.113
 133  2812.16
 134  2870.811
 135  2973.767
 136  2920.666
 137  2825.386
 138  2893.711
 139  2780.711
 140  2726.526
 141  2788.935
 142  2736.247
 143  2918.578
 144  2865.18
 145  3008.72
 146  3111.306
 147  3094.869
 148  3149.741
 149  3147.829
 150  3049.331
 151  2967.14
 152  2803.497
 153  2892.058
 154  2985.663
 155  2975.852
 156  3060.8
 157  2985.286
 158  3032.591
 159  3020.395
 160  2929.021
 161  2864.627
 162  2846.134
 163  2994.624
 164  3017.177
 165  2992.237
 166  2805.283
 167  2862.778
 168  2870.475
 169  2909.686
 170  2912.393
 171  2915.094
 172  2818.678
 173  2814.164
 174  2866.287
 175  2955.906
 176  2840.974
 177  2917.879
 178  2972.47
 179  2816.494
 180  2724.142
 181  2698.355
 182  2825.636
 183  2729.92
 184  2699.635
 185  2879.82
 186  3026.99
 187  3175.651
 188  3088.957
 189  2970.941
 190  2819.913
 191  2879.962
 192  2829.399
 193  2709.095
 194  2566.208
 195  2517.533
 196  2525.908
 197  2527.993
 198  2661.987
 199  2717.354
 200  2851.994
 201  3009.932
 202  3182.788
 203  3214.813
 204  3047.47
 205  2944.546
 206  2972.948
 207  2973.984
 208  2876.335
 209  2808.974
 210  2883.74
 211  3048.483
 212  2996.692
 213  2948.645
 214  3006.636
 215  3086.459
 216  3179.592
 217  3201.171
 218  3009.006
 219  2842.433
 220  2638.56
 221  2666.985
 222  2687.453
 223  2715.34
 224  2786.615
 225  2800.648
 226  2753.509
 227  2772.014
 228  2820.349
 229  2968.809
 230  2962.716
 231  2912
 232  2878.664
 233  2735.79
 234  2791.035
 235  2897.09
 236  2901.483
 237  2831.958
 238  2896.337
 239  2956.422
 240  3026.806
 241  2885.894
 242  2860.911
 243  2880.239
 244  2961.892
 245  2994.559
 246  2950.649
 247  2943.837
 248  2973.684
 249  2911.846
 250  2954.133
 251  3092.215
 252  3126.51
 253  3026.898
 254  2814.825
 255  2851.427
 256  2974.312
 257  2970.557
 258  3027.91
 259  2900.273
 260  2845.605
 261  2795.844
 262  2817.755
 263  2896.853
 264  2866.516
 265  2960.81
 266  2879.681
 267  2772.907
 268  2710.166
 269  2710.704
 270  2903.968
 271  2939.528
 272  2972.104
 273  2925.764
 274  2840.683
 275  2840.293
 276  2807.16
 277  2869.753
 278  2765.26
 279  2773.907
 280  2778.044
 281  2865.521
 282  2878.31
 283  2806.004
 284  2805.916
 285  2628.327
 286  2789.614
 287  2734.578
 288  2767.055
 289  2783.038
 290  2817.499
 291  2833.513
 292  2931.668
 293  2826.22
 294  2867.649
 295  2816.479
 296  2742.663
 297  2768.245
 298  2746.975
 299  2860.206
 300  3000.571
 301  2946.983
 302  2920.483
 303  2757.341
 304  2796.055
 305  2929.008
 306  2838.77
 307  2768.511
 308  2729.716
 309  2697.393
 310  2656.457
 311  2520.899
 312  2570.884
 313  2842.513
 314  2974.286
 315  2945.997
 316  2854.65
 317  2748.436
 318  2919.694
 319  2903.367
 320  3045.717
 321  3016.625
 322  2946.428
 323  2834.371
 324  2690.742
 325  2810.775
 326  2820.53
 327  2811.715
 328  2797.629
 329  2947.166
 330  2898.705
 331  2836.87
 332  2694.298
 333  2724.138
 334  2794.041
 335  2825.009
 336  2820.408
 337  2904.763
 338  2978.883
 339  3105.078
 340  3070.431
 341  3072.375
 342  2921.023
 343  2847.511
 344  2848.131
 345  2779.166
 346  2809.844
 347  2742.569
 348  2693.278
 349  2773.23
 350  2888.414
 351  2958.213
 352  2769.057
 353  2634.015
 354  2672.288
 355  2591.846
 356  2579.731
 357  2561.24
 358  2602.68
 359  2517.347
 360  2483.579
 361  2506.555
 362  2600.208
 363  2623.529
 364  2763.471
 365  2846.619
 366  2764.421
 367  2617.067
 368  2575.785
 369  2603.852
 370  2680.123
 371  2714.077
 372  2769.025
 373  2825.959
 374  2855.02
 375  2929.985
 376  2820.67
 377  2833.394
 378  2903.738
 379  2922.895
 380  2793.35
 381  2619.011
 382  2487.625
 383  2479.309
 384  2499.875
 385  2751.421
 386  2822.032
 387  2786.055
 388  2775.933
 389  2875.078
 390  2775.685
 391  2813.329
 392  2896.334
 393  2954.022
 394  2845.771
 395  2715.593
 396  2717.772
 397  2600.842
 398  2590.814
 399  2697.183
 400  2813.864
 401  2931.671
 402  2952.958
 403  2940.073
 404  3010.387
 405  2938.046
 406  2966.966
 407  2967.344
 408  2944.37
 409  2883.494
 410  2834.767
 411  2914.412
 412  2967.418
 413  2920.373
 414  3026.044
 415  3095.387
 416  3100.51
 417  2987.079
 418  2940.797
 419  2974.973
 420  3110.097
 421  3153.746
 422  3344.127
 423  3297.674
 424  3222.944
 425  3102.28
 426  3115.641
 427  3209.77
 428  3026.702
 429  2848.095
 430  2849.861
 431  2988.542
 432  3155.789
 433  3351.943
 434  3356.459
 435  3319.714
 436  3194.933
 437  3160.896
 438  3010.644
 439  2972.851
 440  3020.169
 441  2891.301
 442  2864.958
 443  2887.876
 444  2984.36
 445  2867.94
 446  2854.887
 447  2904.067
 448  2988.757
 449  3105.664
 450  3264.891
 451  3379.01
 452  3303.412
 453  3127.353
 454  3024.044
 455  2927.842
 456  2890.654
 457  2919.929
 458  3028.047
 459  3043.902
 460  2911.344
 461  2889.123
 462  2850.521
 463  2976.808
 464  3085.881
 465  2984.175
 466  2890.328
 467  2737.188
 468  2875.783
 469  2990.501
 470  2954.011
 471  2942.644
 472  3152.627
 473  3264.719
 474  3306.735
 475  3156.545
 476  3162.91
 477  3149.761
 478  3112.755
 479  3195.104
 480  3289.461
 481  3267.173
 482  3215.139
 483  3178.322
 484  3272.756
 485  3313.07
 486  3307.331
 487  3391.036
 488  3379.7
 489  3318.313
 490  3332.764
 491  3285.985
 492  3257.263
 493  3173.468
 494  3133.818
 495  3108.399
 496  2970.904
 497  3061.312
 498  2976.159
 499  3024.255
 500  3146.181
 501  3275.6
 502  3196.959
 503  3021.352
 504  2928.159
 505  3015.599
 506  3037.315
 507  3020.883
 508  3038.283
 509  2890.748
 510  2705.562
 511  2731.708
 512  2724.708
 513  2816.783
 514  2759.376
 515  2818.114
 516  2942.048
 517  2971.125
 518  2968.298
 519  2963.785
 520  3024.4
 521  3140.347
 522  3168.388
 523  3068.501
 524  2934.762
 525  2866.799
 526  2908.351
 527  2899.493
 528  2719.114
 529  2699.971
 530  2820.569
 531  3004.958
 532  3049.283
 533  3036.953
 534  3033.877
 535  3088.283
 536  3017.987
 537  2983.75
 538  2866.808
 539  2959.76
 540  2975.868
 541  3022.994
 542  3050.632
 543  2945.34
 544  2946.449
 545  2766.067
 546  2785.715
 547  2913.331
 548  2972.278
 549  2936.843
 550  2964.871
 551  2971.519
 552  2906.978
 553  2649.959
 554  2645.964
 555  2747.142
 556  2919.797
 557  3009.187
 558  2981.717
 559  2809.852
 560  2818.539
 561  2852.06
 562  2885.434
 563  2966.821
 564  2842.728
 565  2836.293
 566  2874.251
 567  2944.889
 568  2911.592
 569  2801.031
 570  2780.685
 571  2887.238
 572  2924.073
 573  3018.054
 574  2944.128
 575  2778.227
 576  2876.363
 577  2942.809
 578  3006.574
 579  3067.667
 580  3226.737
 581  3350.227
 582  3194.114
 583  3171.341
 584  3129.665
 585  3092.324
 586  3046.043
 587  2953.498
 588  2795.448
 589  2645.844
 590  2659.238
 591  2795.304
 592  2983.418
 593  2947.117
 594  3004.207
 595  3027.56
 596  3059.752
 597  3005.217
 598  2838.992
 599  2830.579
 600  2960.695
 601  3220.99
 602  3305.781
 603  3156.772
 604  2974.71
 605  2986.302
 606  3164.571
 607  3231.876
 608  3242.537
 609  3189.418
 610  3040.214
 611  2957.785
 612  2797.711
 613  2805.278
 614  2938.007
 615  3069.684
 616  3066.298
 617  2951.14
 618  2979.581
 619  3052.532
 620  3116.671
 621  3116.665
 622  3235.36
 623  3433.117
 624  3530.569
 625  3731.313
 626  3769.087
 627  3743.046
 628  3547.063
 629  3384.917
 630  3431.589
 631  3393.092
 632  3272.436
 633  3184.838
 634  3018.014
 635  2886.897
 636  2897.129
 637  3103.92
 638  3172.32
 639  3057.606
 640  2888.527
 641  2872.058
 642  2777.112
 643  2806.517
 644  2905.13
 645  2930.532
 646  2915.67
 647  2846.83
 648  2806.017
 649  2836.949
 650  2764.148
 651  2856.927
 652  2813.351
 653  2745.299
 654  2700.365
 655  2672.302
 656  2737.739
 657  2781.601
 658  2877.887
 659  3028.174
 660  3012.829
 661  2994.01
 662  2943.993
 663  2891.697
 664  3053.562
 665  3032.311
 666  3114.016
 667  2990.965
 668  3035.077
 669  2993.686
 670  3134.46
 671  3054.226
 672  3068.991
 673  2972.764
 674  2885.107
 675  2892.752
 676  2940.679
 677  2913.379
 678  2933.495
 679  2904.282
 680  3149.972
 681  3207.985
 682  3312.618
 683  3277.692
 684  3118.275
 685  2890.541
 686  2852.718
 687  2874.127
 688  2864.723
 689  2799.458
 690  2892.727
 691  3071.47
 692  3138.397
 693  3230.851
 694  3290.935
 695  3216.687
 696  3090.233
 697  2917.232
 698  2893.643
 699  2911.13
 700  3040.693
 701  3052.475
 702  3078.872
 703  3063.939
 704  3098.24
 705  3033.147
 706  3044.737
 707  2950.84
 708  2891.41
 709  2763.802
 710  2487.261
 711  2565.481
 712  2630.017
 713  2789.81
 714  2800.082
 715  2807.401
 716  2860.499
 717  2907.036
 718  2930.332
 719  2962.323
 720  2820.862
 721  2918.115
 722  3060.934
 723  3093.417
 724  2998.864
 725  2822.202
 726  2750.091
 727  2678.346
 728  2675.963
 729  2873.957
 730  3066.191
 731  3038.6
 732  2961.499
 733  2871.167
 734  2946.14
 735  3095.83
 736  3213.343
 737  3158.313
 738  3005.501
 739  2935.585
 740  3064.914
 741  2941.36
 742  2798.27
 743  2788.818
 744  2739.863
 745  2782.293
 746  2658.384
 747  2742.636
 748  2869.397
 749  2865.63
 750  2963.442
 751  2944.027
 752  2933.904
 753  2829.518
 754  2899.883
 755  3063.349
 756  3101.669
 757  2987.551
 758  2852.747
 759  2848.784
 760  2612.241
 761  2574.565
 762  2587.99
 763  2728.079
 764  2700.212
 765  2775.572
 766  2843.897
 767  2804.03
 768  2678.289
 769  2766.052
 770  2813.757
 771  2794.922
 772  2750.136
 773  2735.783
 774  2760.432
 775  2813.143
 776  2811.577
 777  2846.544
 778  2694.052
 779  2753.692
 780  2743.723
 781  2737.439
 782  2460.755
 783  2583.125
 784  2664.352
 785  2784.766
 786  2668.694
 787  2768.156
 788  2669.371
 789  2731.49
 790  2694.024
 791  2691.938
 792  2643.978
 793  2750.728
 794  2741.727
 795  2887.071
 796  2906.406
 797  3056.929
 798  2879.106
 799  2811.684
 800  2922.155
 801  2969.358
 802  2931.089
 803  2819.894
 804  2891.318
 805  3034.332
 806  3039.197
 807  3161.41
 808  3323.616
 809  3280.701
 810  3264.237
 811  3108.686
 812  3001.143
 813  2785.321
 814  2785.409
 815  2807.178
 816  2795.432
 817  2842.084
 818  2985.178
 819  3007.918
 820  2972.065
 821  2845.612
 822  2824.602
 823  2747.337
 824  2728.258
 825  2777.455
 826  2973.651
 827  3113.873
 828  3155.425
 829  3180.095
 830  3035.812
 831  2960.972
 832  2899.703
 833  3004.533
 834  3102.048
 835  2985.147
 836  3123.986
 837  2988.357
 838  2953.276
 839  2858.706
 840  2909.38
 841  2869.797
 842  2784.526
 843  2841.349
 844  2983.02
 845  3028.502
 846  2918.872
 847  2813.47
 848  2926.709
 849  3056.842
 850  3097.782
 851  2920.089
 852  2913.978
 853  2947.775
 854  2968.213
 855  3069.725
 856  2954.331
 857  3042.728
 858  2997.181
 859  3010.444
 860  2925.28
 861  2732.08
 862  2595.812
 863  2712.666
 864  2802.863
 865  2903.029
 866  2856.795
 867  2831.696
 868  2801.131
 869  2781.262
 870  2896.375
 871  2933.21
 872  2955.514
 873  2975.041
 874  2859.288
 875  2897.295
 876  2751.464
 877  2786.131
 878  2889.757
 879  2924.854
 880  2926.619
 881  2813.608
 882  2816.925
 883  2851.156
 884  2695.211
 885  2752.908
 886  2691.92
 887  2814.081
 888  2785.58
 889  2950.808
 890  3050.212
 891  3014.659
 892  2932.266
 893  3021.831
 894  3150.139
 895  3085.906
 896  3111.519
 897  3045.468
 898  2930.786
 899  2738.689
 900  2590.695
 901  2636.737
 902  2740.882
 903  2677.859
 904  2713.518
 905  2697.882
 906  2756.607
 907  2804.089
 908  2713.523
 909  2758.675
 910  2706.545
 911  2678.45
 912  2853.368
 913  2881.392
 914  2968.675
 915  2904.868
 916  2818.236
 917  2868.743
 918  2793.539
 919  2815.48
 920  2876.475
 921  2827.627
 922  2775.229
 923  2774.155
 924  2746.5
 925  2699.318
 926  2591.222
 927  2611.269
 928  2613.559
 929  2624.67
 930  2797.835
 931  2970.657
 932  3026.917
 933  3036.41
 934  2860.719
 935  2905.29
 936  3015.609
 937  3171.051
 938  3227.942
 939  3153.717
 940  3057.827
 941  3031.717
 942  2985.473
 943  2890.578
 944  2866.379
 945  2988.869
 946  3152.037
 947  3012.542
 948  3084.119
 949  3102.136
 950  3182.988
 951  3058.524
 952  2938.639
 953  2874.197
 954  2746.246
 955  2625.748
 956  2559.297
 957  2590.337
 958  2689.895
 959  2683.388
 960  2529.892
 961  2654.512
 962  2780.922
 963  2925.143
 964  2949.177
 965  2925.135
 966  3059.432
 967  3190.683
 968  3133.848
 969  2923.563
 970  2734.109
 971  2755.25
 972  2850.543
 973  2826.968
 974  3135.418
 975  3102.652
 976  3072.286
 977  2999.481
 978  3140.042
 979  3194.517
 980  3033.159
 981  2945.939
 982  2964.515
 983  2913.249
 984  2903.7
 985  2982.433
 986  2920.705
 987  2988.858
 988  2997.902
 989  2982.79
 990  2947.699
 991  2921.018
 992  2914.395
 993  2915.695
 994  2974.728
 995  3219.792
 996  3267.143
 997  3112.205
 998  3101.844
 999  3058.788
1000  3193.407
1001  3139.396
1002  3013.51
1003  3021.613
1004  2952.137
1005  2988.299
1006  3071.857
1007  3012.98
1008  3043.667
1009  2985.252
1010  2937.562
1011  2964.516
1012  2876.736
1013  2813.323
1014  2729.018
1015  2668.47
1016  2887.136
1017  3030.964
1018  3099.924
1019  3105.812
1020  3132.813
1021  3209.852
1022  3285.103
1023  3224.105
