# Input file       =  1196435398.113372_cleaned.dat
# Candidate        =  PSR_0332+5434
# Telescope        =  AR
# Epoch_topo       =  58091.632142515882
# Epoch_bary       =  N/A
# T_sample         =  0.002
# Data Folded      =  7208960
# Data Avg         =  0.549157490345269
# Data StdDev      =  6.70053028016113 
# Profile Bins     =  1024
# Profile Avg      =  3865.862959206   
# Profile StdDev   =  562.206035621201 
# Reduced chi-sqr  =  0.533
# Prob(Noise)      <  1   (~0.0 sigma)
# P_topo (ms)      =  714.529398707629  +/- 0.000148
# P'_topo (s/s)    =  -0                +/- 7.95e-11
# P''_topo (s/s^2) =  0                 +/- 3.58e-14
# P_bary (ms)      =  N/A
# P'_bary (s/s)    =  N/A
# P''_bary (s/s^2) =  N/A
# P_orb (s)        =  N/A
# asin(i)/c (s)    =  N/A
# eccentricity     =  N/A
# w (rad)          =  N/A
# T_peri           =  N/A
######################################################
   0  3996.243
   1  4017.025
   2  3901.79
   3  4021.563
   4  4047.215
   5  4092.299
   6  3925.65
   7  3765.008
   8  3857.757
   9  3847.555
  10  3839.804
  11  3857.423
  12  3957.729
  13  3904.094
  14  3827.528
  15  3636.451
  16  3603.538
  17  3698.697
  18  3807.822
  19  3922.444
  20  3877.52
  21  3877.031
  22  4046.772
  23  3951.883
  24  3639.962
  25  3402.74
  26  3272.661
  27  3479.999
  28  3357.02
  29  3451.81
  30  3531.85
  31  3495.303
  32  3492.672
  33  3731.711
  34  3883.947
  35  4098.985
  36  4161.619
  37  4300.636
  38  4301.053
  39  4064.151
  40  3922.211
  41  3849.283
  42  3875.061
  43  3886.406
  44  3733.965
  45  3600.973
  46  3789.185
  47  4030.515
  48  3881.47
  49  3817.983
  50  3954.584
  51  4367.909
  52  4079.471
  53  3789.885
  54  3993.026
  55  4138.153
  56  4126.465
  57  3812.935
  58  3833.214
  59  4098.227
  60  4128.961
  61  3985.832
  62  3801.084
  63  3704.35
  64  3831.57
  65  3879.824
  66  3872.777
  67  3855.499
  68  3875.426
  69  3792.061
  70  3798.041
  71  3780.902
  72  3793.056
  73  3763.385
  74  3790.438
  75  3793.967
  76  3909.68
  77  3801.23
  78  3849.365
  79  3856.908
  80  3976.937
  81  3879.041
  82  3907.381
  83  3963.916
  84  3997.599
  85  3826.105
  86  3908.009
  87  4136.509
  88  4187.121
  89  4087.539
  90  3989.139
  91  3909.038
  92  3977.3
  93  3925.36
  94  4018.822
  95  3901.803
  96  3899.259
  97  4045.876
  98  4214.698
  99  4103.99
 100  3762.179
 101  3790.917
 102  3976.302
 103  4017.265
 104  3792.364
 105  3903.66
 106  4003.841
 107  4009.552
 108  4107.656
 109  4219.511
 110  4089.795
 111  4052.609
 112  3937.385
 113  4055.069
 114  3828.082
 115  3784.213
 116  3858.827
 117  3877.843
 118  3985.292
 119  4042.153
 120  4042.63
 121  4157.589
 122  4065.448
 123  4081.676
 124  4099.017
 125  3981.529
 126  3901.051
 127  3904.144
 128  3815.669
 129  3864.181
 130  3715.73
 131  3725.655
 132  3682.687
 133  3742.659
 134  3871.518
 135  3723.495
 136  3856.77
 137  4205.124
 138  4239.754
 139  3948.766
 140  3923.751
 141  4032.233
 142  4074.027
 143  3966.584
 144  4116.47
 145  3968.812
 146  3691.078
 147  3491.039
 148  3717.587
 149  3625.717
 150  3707.396
 151  3873.981
 152  4228.337
 153  4314.392
 154  4016.218
 155  3791.598
 156  3592.879
 157  3577.512
 158  3595.101
 159  3702.158
 160  3707.752
 161  3612.456
 162  3487.487
 163  3308.057
 164  3133.633
 165  3362.04
 166  3607.297
 167  3733.896
 168  3480.199
 169  3648.022
 170  3924.32
 171  3849.583
 172  3677.974
 173  3655.25
 174  3550.647
 175  3438.878
 176  3569.27
 177  3776.9
 178  3822.579
 179  3699.83
 180  3878.811
 181  4070.446
 182  3939.312
 183  4153.341
 184  4373.902
 185  4416.438
 186  4205.417
 187  4154.484
 188  4088.846
 189  3929.406
 190  3729.195
 191  3870.375
 192  3811.741
 193  3883.286
 194  4127.79
 195  4227.173
 196  4037.835
 197  3930.251
 198  3805.477
 199  3815.156
 200  3787.496
 201  4022.612
 202  4107.11
 203  3757.855
 204  3574.257
 205  3625.832
 206  3787.241
 207  3987.741
 208  4020.81
 209  4086.85
 210  4012.815
 211  3890.067
 212  3720.839
 213  3595.834
 214  3300.812
 215  3466.117
 216  3634.304
 217  3612.816
 218  3584.791
 219  3514.182
 220  3694.235
 221  3713.677
 222  3676.336
 223  3930.118
 224  3796.764
 225  3685.171
 226  3573.045
 227  3659.733
 228  3709.299
 229  3608.753
 230  3779.618
 231  3917.548
 232  3762.493
 233  3449.563
 234  3530.811
 235  3679.209
 236  3904.13
 237  4016.186
 238  4023.041
 239  3974.263
 240  3963.097
 241  3871.82
 242  3658.979
 243  3388.78
 244  3573.009
 245  3750.51
 246  3565.225
 247  3324.761
 248  3343.385
 249  3436.921
 250  3553.766
 251  3629.488
 252  3961.294
 253  3894.196
 254  3849.921
 255  3820.558
 256  3925.735
 257  3771.914
 258  3691.357
 259  3669.478
 260  3723.504
 261  3663.413
 262  3773.258
 263  3605.512
 264  3608.546
 265  3612.559
 266  3755.206
 267  3751.876
 268  3554.25
 269  3740.071
 270  3922.997
 271  3974.714
 272  3812.55
 273  3923.655
 274  3805.166
 275  3912.325
 276  4007.338
 277  4150.174
 278  3976.514
 279  3765.233
 280  3937.29
 281  3763.607
 282  3519.549
 283  3572.597
 284  3756.172
 285  3912.597
 286  3843.75
 287  3747.745
 288  3725.805
 289  3658.02
 290  3746.95
 291  3934.741
 292  3721.466
 293  3665.962
 294  3507.987
 295  3448.634
 296  3414.645
 297  3202.831
 298  3361.261
 299  3431.011
 300  3602.3
 301  3669.461
 302  3680.937
 303  3668.418
 304  3810.133
 305  3905.302
 306  3956.917
 307  3916.135
 308  4097.264
 309  4182.291
 310  4096.637
 311  3824.822
 312  3910.841
 313  3827.788
 314  3787.784
 315  3610.974
 316  3783.924
 317  4054.843
 318  4173.454
 319  4330.355
 320  4358.475
 321  4057.31
 322  4012.396
 323  3973.024
 324  3934.23
 325  3675.361
 326  3693.686
 327  3849.522
 328  4062.634
 329  3981.931
 330  3932.025
 331  3804.802
 332  3892.742
 333  3930.21
 334  4054.172
 335  3986.841
 336  3798.611
 337  3770.795
 338  3942.058
 339  3924.448
 340  3790.887
 341  3905.681
 342  4171.028
 343  4123.644
 344  3938.734
 345  3954.46
 346  3993.009
 347  4004.899
 348  3754.369
 349  3676.346
 350  3696.727
 351  3788.073
 352  3991.895
 353  4080.564
 354  3973.099
 355  4086.188
 356  4190.82
 357  4255.832
 358  4263.926
 359  4183.126
 360  4066.741
 361  3816.139
 362  3649.038
 363  3758.186
 364  3625.868
 365  3528.553
 366  3752.558
 367  3801.549
 368  3726.636
 369  3755.507
 370  3934.604
 371  4266.442
 372  4124.322
 373  4241.964
 374  4203.565
 375  3953.936
 376  3677.863
 377  3614.916
 378  3650.423
 379  3722.153
 380  3658.957
 381  3858.191
 382  4001.448
 383  4009.543
 384  4080.226
 385  4079.501
 386  3907.165
 387  3896.97
 388  3806.869
 389  3595.881
 390  3625.375
 391  3870.392
 392  4165.139
 393  4025.528
 394  3754.774
 395  3893.239
 396  3908.815
 397  4060.549
 398  3988.974
 399  3939.448
 400  3983.587
 401  3914.717
 402  3988.599
 403  4041.233
 404  3959.212
 405  3923.608
 406  3994.446
 407  3788.406
 408  3487.344
 409  3376.591
 410  3416.952
 411  3607.587
 412  3724.882
 413  3890.001
 414  3942.661
 415  3982.505
 416  3979.129
 417  3920.024
 418  3833.381
 419  3864.341
 420  4016.589
 421  4096.506
 422  4019.848
 423  4040.118
 424  4134.286
 425  4176.685
 426  3864.834
 427  3748.957
 428  3849.781
 429  3744.249
 430  3685.726
 431  3611.389
 432  3642.536
 433  3750.302
 434  3825.831
 435  4077.037
 436  4156.41
 437  4215.361
 438  4454.134
 439  4661.565
 440  4460.063
 441  4164.699
 442  3955.542
 443  3989.993
 444  3849.206
 445  3777.921
 446  3853.839
 447  4042.822
 448  4006.807
 449  4021.031
 450  3726.097
 451  3813.755
 452  4085.364
 453  4196.816
 454  4045.422
 455  4042.492
 456  4011.711
 457  3998.088
 458  3732.896
 459  3860.762
 460  3838.591
 461  3772.033
 462  3785.004
 463  3931.061
 464  3900.577
 465  4059.668
 466  4083.634
 467  4220.354
 468  4260.336
 469  4151.972
 470  4154.396
 471  3987.526
 472  3779.374
 473  3642.374
 474  3626.358
 475  3760.844
 476  3771.734
 477  3923.785
 478  4068.957
 479  4133.282
 480  4111.591
 481  4284.25
 482  4134.332
 483  3870.701
 484  3930.147
 485  4032.181
 486  3919.108
 487  3712.799
 488  3637.268
 489  3660.688
 490  3550.15
 491  3351.396
 492  3565.267
 493  3685.317
 494  3755.911
 495  3670.929
 496  3670.61
 497  3725.317
 498  3739.945
 499  3662.659
 500  3596.852
 501  3558.658
 502  3713.226
 503  3850.874
 504  3730.195
 505  3605.846
 506  3617.473
 507  3790.697
 508  3905.778
 509  3882.709
 510  3760.504
 511  3691.088
 512  3503.431
 513  3397.908
 514  3502.656
 515  3530.817
 516  3773.567
 517  3969.58
 518  3981.707
 519  3913.248
 520  3858.088
 521  3918.041
 522  3841.293
 523  3878.221
 524  3972.214
 525  4050.094
 526  3738.458
 527  3801.708
 528  3733.776
 529  3827.902
 530  3747.259
 531  3731.119
 532  3810.359
 533  3904.365
 534  3901.153
 535  3976.174
 536  3947.04
 537  3905.48
 538  4138.64
 539  4177.491
 540  4192.313
 541  4139.98
 542  4103.457
 543  4102.27
 544  3866.225
 545  3730.503
 546  3704.643
 547  3776.1
 548  3952.234
 549  4088.234
 550  3957.914
 551  3761.794
 552  3711.109
 553  3979.806
 554  4153.764
 555  3961.447
 556  3866.343
 557  4025.746
 558  4074.199
 559  4057.712
 560  4091.265
 561  3897.73
 562  4000.806
 563  4044.074
 564  4067.573
 565  3706.697
 566  3802.136
 567  4118.847
 568  4120.194
 569  3997.393
 570  3990.51
 571  3992.094
 572  4051.798
 573  3845.989
 574  3962.181
 575  3883.846
 576  3895.895
 577  3926.19
 578  3897.57
 579  3583.233
 580  3411.859
 581  3584.101
 582  3775.632
 583  3697.872
 584  3816.006
 585  3855.901
 586  3864.033
 587  3632.888
 588  3754.893
 589  3951.35
 590  4009.337
 591  4000.533
 592  3816.614
 593  3615.617
 594  3491.537
 595  3362.647
 596  3504.103
 597  3448.331
 598  3533.299
 599  3743.857
 600  3960.364
 601  3908.354
 602  3706.604
 603  3733.729
 604  3741.335
 605  3881.074
 606  3573.297
 607  3468.5
 608  3515.051
 609  3688.615
 610  3788.128
 611  3856.179
 612  3676.657
 613  3740.624
 614  3782.682
 615  3812.32
 616  3874.04
 617  3788.734
 618  3974.915
 619  4078.457
 620  4037.538
 621  4245.79
 622  4194.145
 623  4255.273
 624  4387.52
 625  4506.857
 626  4566.607
 627  4595.439
 628  4507.36
 629  4327.314
 630  4126.762
 631  4196.569
 632  4342.907
 633  4294.46
 634  4259.943
 635  4277.401
 636  4115.342
 637  4061.696
 638  3972.657
 639  4152.904
 640  4075.389
 641  4149.75
 642  4041.78
 643  4112.228
 644  3997.801
 645  4147.066
 646  4276.063
 647  4072.451
 648  4033.71
 649  3971.979
 650  3970.937
 651  3681.453
 652  3533.312
 653  3552.778
 654  3554.234
 655  3583.686
 656  3955.581
 657  4087.219
 658  4102.113
 659  3759.857
 660  3794.408
 661  3759.084
 662  3743.476
 663  3555.01
 664  3764.696
 665  3722.983
 666  3683.945
 667  3650.092
 668  3828.788
 669  3883.077
 670  3861.748
 671  3724.432
 672  3716.894
 673  3911.207
 674  4404.094
 675  4388.418
 676  4059.166
 677  3940.36
 678  4254.151
 679  4381.539
 680  4329.961
 681  4268.299
 682  4249.856
 683  4202.847
 684  4071.681
 685  4148.825
 686  4111.615
 687  3944.461
 688  4070.368
 689  4133.621
 690  3974.032
 691  3732.415
 692  3707.166
 693  3760.062
 694  3728.296
 695  3765.918
 696  3895.072
 697  4098.866
 698  3989.933
 699  3961.161
 700  3926.605
 701  3919.209
 702  3989.113
 703  3984.654
 704  3812.333
 705  3904.965
 706  3987.769
 707  4275.619
 708  3977.865
 709  3750.712
 710  3870.598
 711  3952.48
 712  3896.555
 713  3946.492
 714  3978.658
 715  4148.537
 716  3814.218
 717  3896.844
 718  4017.128
 719  4202.62
 720  4116.75
 721  3847.499
 722  3608.473
 723  3770.241
 724  3806.392
 725  3690.908
 726  3628.828
 727  3649.108
 728  3862.088
 729  4009.113
 730  4037.316
 731  4089.451
 732  3990.926
 733  3978.946
 734  3975.581
 735  4037.514
 736  4208.878
 737  4213.318
 738  4284.609
 739  4390.202
 740  4142.132
 741  4007.013
 742  4071.263
 743  4251.461
 744  4179.942
 745  4236.767
 746  4318.371
 747  4422.683
 748  4232.471
 749  4000.97
 750  4019.946
 751  3849.196
 752  3945.412
 753  3999.881
 754  3832.914
 755  3855.538
 756  4007.094
 757  4205.059
 758  4025.488
 759  3786.208
 760  4075.622
 761  4078.675
 762  3967.872
 763  3745.508
 764  3878.383
 765  3860.058
 766  3788.48
 767  3781.57
 768  3734.77
 769  3765.852
 770  3800.016
 771  3968.823
 772  4037.325
 773  3916.079
 774  3974.233
 775  4216.055
 776  4170.281
 777  3996.493
 778  3721.102
 779  3746.026
 780  3768.141
 781  3948.656
 782  4165.584
 783  4208.13
 784  4312.569
 785  4344.351
 786  4251.542
 787  4019.785
 788  3973.022
 789  4112.004
 790  4093.719
 791  3853.596
 792  3821.369
 793  3992.122
 794  3983.41
 795  3744.906
 796  3896.65
 797  3983.839
 798  3770.985
 799  3702.79
 800  3766.323
 801  3950.509
 802  4031.838
 803  4101.476
 804  4219.913
 805  4026.643
 806  4073.2
 807  4292.003
 808  3981.546
 809  3667.721
 810  3352.201
 811  3306.534
 812  3532.411
 813  3524.166
 814  3622.015
 815  3547.327
 816  3521.071
 817  3693.455
 818  3797.691
 819  3645.707
 820  3702.945
 821  3741.544
 822  3810.021
 823  3848.513
 824  3953.129
 825  4342.384
 826  4146.298
 827  3964.711
 828  3919.56
 829  3802.537
 830  3804.263
 831  3729.843
 832  3735.688
 833  3858.475
 834  3985.644
 835  4083.715
 836  4047.74
 837  3649.577
 838  3481.557
 839  3610.821
 840  3665.295
 841  3647.339
 842  3378.732
 843  3590.312
 844  3726.745
 845  3933.009
 846  4087.355
 847  4028.731
 848  3878.2
 849  3753.301
 850  3697.301
 851  3764.243
 852  3728.696
 853  3821.502
 854  3671.545
 855  3697.83
 856  3699.675
 857  3797.271
 858  3904.674
 859  3827.958
 860  3745.686
 861  3704.278
 862  3769.246
 863  3669.601
 864  3493.87
 865  3345.914
 866  3415.218
 867  3487.362
 868  3545.475
 869  3559.352
 870  3452.058
 871  3705.286
 872  3910.169
 873  3821.269
 874  3591.772
 875  3551.491
 876  3436.16
 877  3446.156
 878  3639.636
 879  3855.025
 880  3585.489
 881  3373.744
 882  3594.542
 883  3743.204
 884  3686.492
 885  3581.71
 886  3594.224
 887  3638.033
 888  3672.537
 889  3908.967
 890  3932.643
 891  3779.527
 892  3749.73
 893  3949.961
 894  3773.208
 895  3559.914
 896  3606.761
 897  3675.681
 898  3868.461
 899  3633.882
 900  3730.649
 901  3589.182
 902  3428.284
 903  3746.139
 904  3878.754
 905  3980.453
 906  3896.804
 907  4005.009
 908  4144.32
 909  3924.982
 910  3683.485
 911  3873.101
 912  3908.467
 913  3795.805
 914  3616.29
 915  3398.011
 916  3254.016
 917  3275.264
 918  3513.294
 919  3743.423
 920  3520.436
 921  3428.159
 922  3650.507
 923  3774.972
 924  3903.913
 925  3799.517
 926  3700.821
 927  3687.581
 928  3613.113
 929  3700.652
 930  3543.363
 931  3545.666
 932  3576.045
 933  3729.276
 934  3554.008
 935  3683.067
 936  3839.688
 937  4021.795
 938  3833.906
 939  3694.687
 940  3870.99
 941  3849.624
 942  3631.341
 943  3595.321
 944  3634.655
 945  3780.32
 946  3848.637
 947  4031.672
 948  3884.233
 949  3842.371
 950  4031.719
 951  4190.502
 952  3943.176
 953  3807.712
 954  3841.434
 955  4018.841
 956  3939.7
 957  3963.856
 958  3798.727
 959  3671.266
 960  3773.543
 961  4034.35
 962  4106.11
 963  4225.311
 964  4240.022
 965  4358.571
 966  4142.104
 967  4185.023
 968  4318.532
 969  4326.64
 970  4252.236
 971  4174.915
 972  4173.638
 973  4249.995
 974  4128.737
 975  4037.431
 976  4130.392
 977  4052.43
 978  3841.97
 979  3778.614
 980  3840.923
 981  3819.148
 982  3828.189
 983  4064.851
 984  4051.916
 985  3659.957
 986  3553.227
 987  3579.521
 988  3693.602
 989  3969.696
 990  3935.677
 991  3794.385
 992  3635.904
 993  3730.802
 994  3721.585
 995  3762.875
 996  3772.505
 997  3885.988
 998  3786.142
 999  3659.538
1000  3668.385
1001  3664.471
1002  3630.459
1003  3560.75
1004  3543.131
1005  3827.707
1006  3903.526
1007  4009.281
1008  3970.829
1009  3848.666
1010  3933.039
1011  3872.639
1012  3667.593
1013  3551.919
1014  3499.565
1015  3581.414
1016  3451.678
1017  3409.833
1018  3791.664
1019  4056.222
1020  4290.588
1021  4052.917
1022  3993.959
1023  3999.336
