# Input file       =  1196794206.116471_cleaned.dat
# Candidate        =  PSR_0332+5434
# Telescope        =  AR
# Epoch_topo       =  58095.785012922119
# Epoch_bary       =  N/A
# T_sample         =  0.002
# Data Folded      =  7340032
# Data Avg         =  0.025765148169693
# Data StdDev      =  0.999985018906787
# Profile Bins     =  512
# Profile Avg      =  369.376053879593 
# Profile StdDev   =  119.731242644988 
# Reduced chi-sqr  =  1.032
# Prob(Noise)      <  0.298   (~0.5 sigma)
# P_topo (ms)      =  714.533660711544  +/- 0.000316
# P'_topo (s/s)    =  -0                +/- 1.67e-10
# P''_topo (s/s^2) =  0                 +/- 7.36e-14
# P_bary (ms)      =  N/A
# P'_bary (s/s)    =  N/A
# P''_bary (s/s^2) =  N/A
# P_orb (s)        =  N/A
# asin(i)/c (s)    =  N/A
# eccentricity     =  N/A
# w (rad)          =  N/A
# T_peri           =  N/A
######################################################
   0  880.4579
   1  713.9105
   2  540.8837
   3  421.1766
   4  428.5293
   5  502.1324
   6  332.0019
   7  160.8783
   8  310.2472
   9  454.7049
  10  514.4473
  11  369.6291
  12  426.7097
  13  451.4816
  14  543.6018
  15  485.5885
  16  324.7128
  17  362.9528
  18  341.2469
  19  277.2719
  20  236.6633
  21  302.8761
  22  352.1439
  23  408.8069
  24  328.4908
  25  299.3083
  26  423.3439
  27  330.2716
  28  331.2934
  29  295.1493
  30  258.3319
  31  265.5149
  32  350.9133
  33  321.0814
  34  329.0468
  35  272.3455
  36  327.3289
  37  449.6604
  38  412.9536
  39  446.1124
  40  439.4918
  41  337.5905
  42  202.8788
  43  214.3089
  44  294.9225
  45  403.1902
  46  489.8857
  47  546.7363
  48  454.1046
  49  388.5693
  50  389.2747
  51  465.8282
  52  478.6592
  53  464.5979
  54  473.1077
  55  443.7055
  56  330.868
  57  366.9975
  58  441.5363
  59  499.0535
  60  393.3019
  61  280.4789
  62  301.2153
  63  285.5432
  64  308.3812
  65  362.1696
  66  346.7499
  67  396.8918
  68  452.6587
  69  359.9635
  70  355.8968
  71  429.8277
  72  365.6566
  73  292.0257
  74  271.7553
  75  333.6498
  76  483.9619
  77  510.2126
  78  424.4228
  79  267.3735
  80  299.1305
  81  329.8446
  82  506.4647
  83  382.7656
  84  409.6497
  85  294.5064
  86  300.3214
  87  303.2382
  88  238.6635
  89  220.4526
  90  287.0832
  91  381.7319
  92  357.5659
  93  357.2685
  94  429.6766
  95  463.476
  96  344.2336
  97  281.7227
  98  368.7068
  99  394.0042
 100  390.5477
 101  393.3892
 102  379.6132
 103  322.3448
 104  270.5438
 105  427.8203
 106  515.0911
 107  523.9543
 108  481.3646
 109  387.2066
 110  365.9772
 111  407.5595
 112  445.3199
 113  395.0819
 114  283.9023
 115  285.6476
 116  283.3169
 117  389.2715
 118  439.0402
 119  496.7092
 120  463.9556
 121  377.0997
 122  463.4062
 123  391.7157
 124  375.854
 125  370.5634
 126  318.3115
 127  416.6869
 128  336.0141
 129  359.5761
 130  306.6943
 131  396.8398
 132  340.0026
 133  438.7752
 134  310.3199
 135  267.67
 136  437.7998
 137  427.2981
 138  303.9187
 139  311.8074
 140  402.0337
 141  390.6585
 142  150.9208
 143  196.0787
 144  218.2883
 145  276.4748
 146  359.5353
 147  351.876
 148  358.2864
 149  405.1516
 150  434.9574
 151  345.1236
 152  343.6538
 153  405.4801
 154  339.6732
 155  368.4915
 156  290.3396
 157  279.6296
 158  123.6615
 159  240.7428
 160  375.3994
 161  346.0765
 162  357.3728
 163  363.7656
 164  384.3371
 165  299.6447
 166  284.1725
 167  363.0177
 168  367.0744
 169  341.9077
 170  465.6174
 171  514.5212
 172  500.8064
 173  385.6824
 174  330.6459
 175  340.8364
 176  371.2239
 177  319.7285
 178  215.5891
 179  244.303
 180  412.0437
 181  462.0625
 182  334.6388
 183  276.2863
 184  361.8574
 185  335.2332
 186  370.1118
 187  251.2032
 188  235.4056
 189  398.4211
 190  503.5593
 191  382.7247
 192  291.5405
 193  372.5796
 194  426.1876
 195  373.3768
 196  287.5884
 197  298.1274
 198  244.9456
 199  384.7695
 200  284.5679
 201  235.2128
 202  354.7252
 203  394.4828
 204  272.9084
 205  236.502
 206  249.3736
 207  335.7751
 208  375.2181
 209  356.5992
 210  391.8602
 211  439.394
 212  474.8084
 213  495.5129
 214  399.0576
 215  366.2087
 216  319.3662
 217  333.8909
 218  299.4696
 219  244.4855
 220  331.8531
 221  384.3345
 222  500.4038
 223  438.3535
 224  267.8602
 225  298.2174
 226  346.4282
 227  391.4422
 228  324.3159
 229  289.8208
 230  256.2065
 231  362.8384
 232  423.1389
 233  452.9198
 234  418.6547
 235  429.8459
 236  371.7585
 237  356.5887
 238  343.8648
 239  295.9995
 240  311.291
 241  321.7841
 242  302.2057
 243  333.3636
 244  438.6075
 245  371.3539
 246  184.8738
 247  291.8201
 248  485.3934
 249  403.5496
 250  403.8493
 251  337.7692
 252  343.0227
 253  237.1847
 254  413.2516
 255  449.0919
 256  438.339
 257  448.7492
 258  229.6325
 259  216.5207
 260  295.1519
 261  293.8192
 262  369.3571
 263  348.6506
 264  374.4435
 265  299.1163
 266  307.4908
 267  304.6539
 268  417.7356
 269  443.23
 270  419.5837
 271  443.6996
 272  493.148
 273  399.2948
 274  319.0591
 275  291.1662
 276  284.689
 277  219.1258
 278  261.5686
 279  410.1874
 280  411.4892
 281  380.3765
 282  409.0664
 283  397.3073
 284  326.4923
 285  306.8115
 286  342.2191
 287  445.2091
 288  357.4067
 289  389.0531
 290  285.246
 291  237.1453
 292  311.747
 293  444.8092
 294  418.4691
 295  392.3149
 296  421.4481
 297  344.3888
 298  367.1584
 299  440.7473
 300  476.0879
 301  407.8977
 302  287.2293
 303  304.6037
 304  355.9549
 305  338.9886
 306  356.9859
 307  416.8372
 308  401.7627
 309  220.9162
 310  183.6594
 311  328.077
 312  408.1136
 313  428.6782
 314  464.0755
 315  382.2275
 316  311.2871
 317  338.7558
 318  358.4185
 319  447.2491
 320  643.411
 321  485.6044
 322  336.2166
 323  394.4731
 324  452.4958
 325  522.0815
 326  442.1082
 327  418.2327
 328  441.7329
 329  366.056
 330  320.3206
 331  384.5549
 332  287.8452
 333  365.8504
 334  521.9827
 335  512.9419
 336  300.4223
 337  353.5244
 338  394.2403
 339  279.9066
 340  397.817
 341  446.4133
 342  381.3195
 343  278.377
 344  436.6201
 345  526.0154
 346  382.3356
 347  301.0381
 348  299.7725
 349  331.031
 350  224.4482
 351  290.5828
 352  309.0337
 353  325.6121
 354  337.0177
 355  335.1487
 356  450.5299
 357  385.3944
 358  344.1836
 359  256.7362
 360  218.502
 361  400.5833
 362  492.6593
 363  501.2422
 364  457.4363
 365  423.2894
 366  388.9855
 367  413.8864
 368  481.1347
 369  372.4206
 370  370.4329
 371  378.4192
 372  427.8932
 373  413.102
 374  368.8896
 375  238.0343
 376  272.3487
 377  343.5641
 378  423.2992
 379  507.2251
 380  343.9445
 381  280.972
 382  275.7154
 383  296.0638
 384  399.7968
 385  373.6247
 386  450.5874
 387  447.4709
 388  396.5986
 389  322.4109
 390  321.2036
 391  332.4717
 392  361.3245
 393  425.3051
 394  408.1802
 395  398.8813
 396  337.765
 397  419.0653
 398  408.241
 399  384.2586
 400  434.3902
 401  432.9403
 402  352.8363
 403  296.213
 404  244.2345
 405  276.0621
 406  305.3353
 407  398.1118
 408  311.6124
 409  273.43
 410  221.8387
 411  238.2366
 412  258.3662
 413  299.1569
 414  325.4017
 415  304.4512
 416  406.8067
 417  382.9871
 418  382.343
 419  425.0764
 420  423.8383
 421  457.9774
 422  478.0419
 423  437.4607
 424  485.2349
 425  353.3409
 426  266.6789
 427  418.7972
 428  462.8604
 429  383.7729
 430  438.2515
 431  365.3918
 432  553.9908
 433  563.1424
 434  480.6497
 435  387.9641
 436  350.6125
 437  373.764
 438  304.7043
 439  290.831
 440  355.3695
 441  412.3475
 442  334.0576
 443  301.9538
 444  357.7184
 445  381.277
 446  328.8734
 447  290.1651
 448  316.4085
 449  320.4351
 450  338.228
 451  343.6579
 452  420.1134
 453  411.5012
 454  484.4501
 455  488.0714
 456  356.0711
 457  270.4493
 458  215.9626
 459  268.4335
 460  280.3984
 461  300.1802
 462  308.6691
 463  297.7709
 464  241.444
 465  311.6644
 466  325.1747
 467  259.1827
 468  306.2729
 469  290.6268
 470  224.6083
 471  274.0627
 472  333.1913
 473  273.3884
 474  369.3923
 475  476.9279
 476  322.3925
 477  307.082
 478  334.2901
 479  317.8218
 480  419.3762
 481  409.7014
 482  384.2262
 483  384.4765
 484  383.7374
 485  331.8809
 486  370.0109
 487  459.3048
 488  405.0023
 489  251.7945
 490  218.0494
 491  302.0718
 492  474.1426
 493  470.7901
 494  426.7179
 495  432.6139
 496  495.2487
 497  500.0819
 498  451.5585
 499  466.4933
 500  455.7448
 501  371.4094
 502  406.3259
 503  381.8036
 504  419.5178
 505  388.5514
 506  539.0142
 507  455.1191
 508  459.6323
 509  678.1614
 510  731.5919
 511  875.1032
