# Input file       =  1196880352.139073-PSRB0329-2ms-sampling-dd.dat
# Candidate        =  PSR_0332+5434
# Telescope        =  AR
# Epoch_topo       =  58096.782073368900
# Epoch_bary       =  N/A
# T_sample         =  0.002
# Data Folded      =  7340032
# Data Avg         =  -6.86195457375239e-10
# Data StdDev      =  5.0163369840303  
# Profile Bins     =  512
# Profile Avg      =  5.99954193630299 
# Profile StdDev   =  600.621258587017 
# Reduced chi-sqr  =  0.351
# Prob(Noise)      <  1   (~0.0 sigma)
# P_topo (ms)      =  714.534676649354  +/- 0.00345
# P'_topo (s/s)    =  -0                +/- 1.82e-09
# P''_topo (s/s^2) =  0                 +/- 8.04e-13
# P_bary (ms)      =  N/A
# P'_bary (s/s)    =  N/A
# P''_bary (s/s^2) =  N/A
# P_orb (s)        =  N/A
# asin(i)/c (s)    =  N/A
# eccentricity     =  N/A
# w (rad)          =  N/A
# T_peri           =  N/A
######################################################
   0  -253.1077
   1  -333.8166
   2  -384.8038
   3  -200.3842
   4  57.79073
   5  -164.947
   6  -119.6006
   7  -487.2407
   8  -117.3819
   9  -242.8648
  10  -227.5423
  11  246.6319
  12  -207.8898
  13  12.49267
  14  -342.7727
  15  -402.6414
  16  -371.0681
  17  -249.8287
  18  -203.2081
  19  -283.8456
  20  -274.1992
  21  -168.7412
  22  -34.2762
  23  -112.8923
  24  -192.8885
  25  -334.5979
  26  -14.13752
  27  64.28064
  28  -101.7531
  29  -104.2794
  30  -176.2328
  31  -291.727
  32  -282.7009
  33  -318.6497
  34  -440.365
  35  -288.7101
  36  -299.2216
  37  -336.7707
  38  -109.7853
  39  -176.8331
  40  25.55993
  41  -146.2823
  42  -185.4901
  43  -9.366329
  44  -95.84547
  45  -164.7681
  46  111.3474
  47  169.5432
  48  -205.0076
  49  91.90633
  50  191.7697
  51  -53.90815
  52  37.98684
  53  57.70894
  54  -129.9503
  55  -82.25459
  56  132.8734
  57  102.7183
  58  -71.11567
  59  -59.37155
  60  -196.1668
  61  -214.7132
  62  -61.98
  63  -73.56169
  64  58.02518
  65  185.5151
  66  198.5036
  67  -230.5358
  68  -416.001
  69  -329.196
  70  -341.9576
  71  82.82086
  72  215.7738
  73  43.04599
  74  -5.579043
  75  11.90742
  76  53.96292
  77  -72.30257
  78  -166.3488
  79  -171.3917
  80  -269.5488
  81  -100.7589
  82  -177.3931
  83  -133.8689
  84  -177.5395
  85  -59.38049
  86  86.77222
  87  174.4052
  88  -113.774
  89  -234.55
  90  -362.9019
  91  -386.9361
  92  -551.402
  93  -312.993
  94  -181.0171
  95  -312.6947
  96  259.2112
  97  191.1284
  98  -9.943537
  99  49.53432
 100  -275.0385
 101  -262.6983
 102  -385.2372
 103  70.28049
 104  431.9626
 105  267.3811
 106  340.6864
 107  357.2585
 108  106.4509
 109  106.2373
 110  271.0834
 111  331.0773
 112  234.5032
 113  218.1529
 114  24.94455
 115  226.2232
 116  153.7179
 117  -234.4031
 118  -175.635
 119  264.4472
 120  369.5798
 121  23.86053
 122  -120.0221
 123  27.52161
 124  44.0009
 125  3.020606
 126  -24.97187
 127  71.86005
 128  173.949
 129  172.9693
 130  197.7645
 131  6.611949
 132  74.17431
 133  -464.5667
 134  -392.1908
 135  -171.9685
 136  -132.3958
 137  -328.6536
 138  -227.6877
 139  -278.5493
 140  -118.0312
 141  -385.7854
 142  -559.2254
 143  -352.132
 144  -138.8689
 145  -578.8027
 146  -173.2166
 147  -122.6807
 148  -69.79588
 149  -529.0319
 150  -659.506
 151  -376.1724
 152  -348.2005
 153  -174.6614
 154  -189.6881
 155  -238.3325
 156  -389.2998
 157  -667.0774
 158  -690.374
 159  -438.153
 160  -399.0065
 161  -435.0616
 162  -241.5915
 163  -184.611
 164  -160.0748
 165  -240.1646
 166  -292.6635
 167  -266.1461
 168  -214.8378
 169  -117.7384
 170  -276.5979
 171  -87.19604
 172  168.9177
 173  317.2955
 174  117.0499
 175  108.8076
 176  2.400814
 177  -179.3253
 178  -402.6393
 179  -312.3022
 180  -129.7054
 181  -19.97961
 182  -135.827
 183  -271.0592
 184  -360.2354
 185  135.239
 186  292.2807
 187  192.2238
 188  -143.8677
 189  -194.3669
 190  -175.7974
 191  -353.9922
 192  -61.42104
 193  -64.8698
 194  -109.1937
 195  -304.7139
 196  -254.4641
 197  -7.165321
 198  -318.6766
 199  -481.3026
 200  225.8634
 201  65.94544
 202  -258.8242
 203  -358.0414
 204  -222.0914
 205  79.99386
 206  43.06237
 207  105.4371
 208  -124.6817
 209  -4.072471
 210  494.8735
 211  111.5487
 212  -169.1924
 213  -187.8836
 214  -165.4422
 215  141.1753
 216  357.0764
 217  487.3609
 218  429.0211
 219  -44.14542
 220  -179.014
 221  -5.930615
 222  -53.17332
 223  -234.0816
 224  285.3574
 225  736.9849
 226  660.7905
 227  429.3263
 228  -15.44011
 229  260.8456
 230  -24.82272
 231  -51.0564
 232  -171.4201
 233  191.8502
 234  362.6877
 235  283.393
 236  76.88961
 237  -57.7188
 238  -363.5222
 239  -480.095
 240  -475.9052
 241  -211.0063
 242  -6.428062
 243  366.7912
 244  39.42091
 245  -286.3085
 246  -131.0974
 247  -78.49116
 248  256.623
 249  339.6184
 250  168.7292
 251  71.90548
 252  368.4518
 253  337.0535
 254  275.349
 255  88.10434
 256  119.8285
 257  272.885
 258  60.37277
 259  257.1805
 260  292.8712
 261  221.2536
 262  44.85998
 263  -186.4277
 264  -137.2468
 265  -44.02572
 266  53.58207
 267  422.0862
 268  408.7137
 269  72.73545
 270  -65.32744
 271  21.63185
 272  164.054
 273  295.9066
 274  478.1383
 275  262.6194
 276  161.9518
 277  24.48649
 278  284.6188
 279  572.6031
 280  375.9031
 281  242.5646
 282  457.1816
 283  187.5564
 284  17.86391
 285  393.5083
 286  203.2643
 287  -78.85574
 288  -288.1809
 289  -209.0702
 290  -211.0311
 291  330.3272
 292  684.381
 293  355.8714
 294  92.05574
 295  449.693
 296  374.3316
 297  211.1158
 298  655.2914
 299  506.9228
 300  265.4316
 301  -10.82796
 302  34.73737
 303  -242.7446
 304  -197.8603
 305  25.58159
 306  39.10114
 307  120.7627
 308  -37.95674
 309  -125.2438
 310  -106.1671
 311  156.9022
 312  347.8723
 313  -130.8229
 314  -144.142
 315  218.4968
 316  308.4748
 317  277.6122
 318  15.42499
 319  -77.16419
 320  -159.3205
 321  -117.2241
 322  -120.5571
 323  -242.8387
 324  20.9158
 325  284.2997
 326  -53.78519
 327  -254.8111
 328  -439.1731
 329  -330.1201
 330  -40.62964
 331  41.88976
 332  -272.5689
 333  -263.0367
 334  -203.7366
 335  -315.8299
 336  -312.5022
 337  -211.9836
 338  -268.6124
 339  -81.16367
 340  72.14339
 341  7.298755
 342  -28.27054
 343  -251.3434
 344  -14.72007
 345  3.569556
 346  320.6924
 347  117.0043
 348  364.6674
 349  71.22318
 350  -39.00936
 351  113.0075
 352  303.3833
 353  439.5629
 354  787.9379
 355  868.765
 356  1152.471
 357  941.6124
 358  775.8826
 359  27.51499
 360  -71.3227
 361  -64.4492
 362  38.30221
 363  201.0735
 364  98.77708
 365  -26.02356
 366  79.61225
 367  204.6422
 368  -67.04877
 369  103.2165
 370  -41.38731
 371  -190.8855
 372  -147.1695
 373  -427.6449
 374  -254.0604
 375  -96.87059
 376  -2.34614
 377  176.2541
 378  133.0201
 379  -58.89251
 380  -7.359166
 381  226.6039
 382  399.0838
 383  109.7408
 384  168.8267
 385  -163.7994
 386  156.8795
 387  187.2677
 388  47.06574
 389  174.8563
 390  232.681
 391  381.6175
 392  429.0944
 393  26.22625
 394  46.61339
 395  193.0225
 396  13.28929
 397  -229.045
 398  -46.80471
 399  202.06
 400  130.6654
 401  -19.74907
 402  -105.2671
 403  -57.52966
 404  436.1252
 405  519.1094
 406  582.4822
 407  527.2878
 408  244.7091
 409  -93.92598
 410  41.82673
 411  395.8146
 412  128.0541
 413  33.40233
 414  444.2278
 415  447.8932
 416  297.0196
 417  -34.84878
 418  125.583
 419  159.7794
 420  146.2796
 421  -182.3022
 422  322.272
 423  569.4665
 424  287.5986
 425  -32.31463
 426  -340.2087
 427  26.90687
 428  400.2415
 429  -59.47832
 430  25.06327
 431  13.1113
 432  284.4938
 433  448.5108
 434  200.447
 435  123.882
 436  100.0583
 437  74.52376
 438  245.9464
 439  73.79122
 440  -35.3365
 441  -66.10706
 442  -120.5049
 443  -38.93829
 444  21.30961
 445  -58.70792
 446  -20.53535
 447  21.61713
 448  -66.14323
 449  328.7019
 450  319.4922
 451  105.3897
 452  308.6207
 453  311.2737
 454  112.9805
 455  100.4594
 456  76.44279
 457  380.3781
 458  41.56152
 459  -27.09063
 460  189.9025
 461  232.1443
 462  192.002
 463  -144.9559
 464  -236.7468
 465  -202.6148
 466  38.01392
 467  -112.9288
 468  -313.8485
 469  131.9789
 470  -129.9307
 471  -161.201
 472  4.313519
 473  62.4978
 474  269.9165
 475  112.7094
 476  -157.1254
 477  -296.2077
 478  -68.44645
 479  -217.2815
 480  -14.25879
 481  121.7634
 482  -100.7181
 483  21.32542
 484  177.0965
 485  1.514919
 486  -99.78635
 487  74.16
 488  -202.6627
 489  -103.9777
 490  -96.93408
 491  -261.8079
 492  94.39902
 493  93.04964
 494  86.99099
 495  0.07618713
 496  70.9272
 497  178.9439
 498  208.0127
 499  213.657
 500  226.8337
 501  56.57301
 502  138.7005
 503  75.58692
 504  284.5356
 505  267.9534
 506  148.9903
 507  140.1892
 508  -2.232668
 509  -166.2161
 510  -98.78628
 511  135.3827
