# Input file       =  1196349189.112123_cleaned.dat
# Candidate        =  PSR_0332+5434
# Telescope        =  AR
# Epoch_topo       =  58090.634353149573
# Epoch_bary       =  N/A
# T_sample         =  0.002
# Data Folded      =  7208960
# Data Avg         =  0.169549195689615
# Data StdDev      =  6.23368567257702 
# Profile Bins     =  256
# Profile Avg      =  4774.54464963169 
# Profile StdDev   =  1046.07115041764 
# Reduced chi-sqr  =  0.732
# Prob(Noise)      <  1   (~0.0 sigma)
# P_topo (ms)      =  714.528375396269  +/- 8.85e-05
# P'_topo (s/s)    =  -0                +/- 4.75e-11
# P''_topo (s/s^2) =  0                 +/- 2.14e-14
# P_bary (ms)      =  N/A
# P'_bary (s/s)    =  N/A
# P''_bary (s/s^2) =  N/A
# P_orb (s)        =  N/A
# asin(i)/c (s)    =  N/A
# eccentricity     =  N/A
# w (rad)          =  N/A
# T_peri           =  N/A
######################################################
   0  4194.132
   1  3590.234
   2  6322.779
   3  4789.893
   4  3518.046
   5  3607.397
   6  5991.588
   7  5674.051
   8  4401.107
   9  4193.755
  10  4799.741
  11  4813.888
  12  3771.498
  13  4455.974
  14  4962.43
  15  4400.072
  16  5070.565
  17  5578.883
  18  5006.167
  19  5437.667
  20  5800.694
  21  4274.398
  22  4686.739
  23  4685.568
  24  4909.006
  25  3915.628
  26  4305.042
  27  5822.808
  28  5445.095
  29  4057.231
  30  3956.915
  31  5463.276
  32  4012.464
  33  3547.523
  34  3703.875
  35  4002.905
  36  4592.011
  37  3178.975
  38  3670.48
  39  4269.462
  40  5257.615
  41  4295.755
  42  4293.072
  43  4902.531
  44  5509.62
  45  5022.937
  46  3395.186
  47  4205.271
  48  4748.808
  49  5181.254
  50  4952.194
  51  5150.166
  52  5513.26
  53  4519.37
  54  4799.252
  55  3777.399
  56  5610.259
  57  3829.469
  58  3045.34
  59  5011.838
  60  3836.337
  61  4610.804
  62  3778.531
  63  3293.555
  64  4617.122
  65  4262.688
  66  4402.059
  67  4850.909
  68  5298.665
  69  5584.208
  70  3622.323
  71  3459.543
  72  5053.197
  73  5181.11
  74  4779.029
  75  4555.613
  76  4408.147
  77  4577.348
  78  4272.55
  79  4228.985
  80  3701.225
  81  3946.716
  82  3439.605
  83  3321.64
  84  3637.945
  85  4244.193
  86  3805.332
  87  3643.236
  88  4010.638
  89  4714.732
  90  5104.753
  91  4599.074
  92  4137.291
  93  4843.267
  94  4696.408
  95  4890.438
  96  4266.328
  97  4558.553
  98  4715.267
  99  4512.511
 100  4179.123
 101  3227.98
 102  3673.207
 103  4554.064
 104  4639.009
 105  3798.063
 106  4963.947
 107  3855.796
 108  4293.2
 109  4741.237
 110  4305.907
 111  4278.515
 112  5809.605
 113  5784.01
 114  4744.767
 115  4709.48
 116  4534.358
 117  5087.423
 118  4478.048
 119  4892.8
 120  4885.481
 121  4254.217
 122  4992.754
 123  4035.4
 124  4276.018
 125  4247.824
 126  5441.468
 127  5669.924
 128  5324.943
 129  4387.756
 130  4311.284
 131  4778.428
 132  5136.563
 133  4622.662
 134  5469.946
 135  5718.979
 136  5074.176
 137  4996.511
 138  5147.261
 139  4646.128
 140  5058.613
 141  5421.61
 142  4742.192
 143  5080.573
 144  5551.5
 145  4990.736
 146  4735.691
 147  5105.042
 148  4983.805
 149  4453.241
 150  4459.33
 151  5878.694
 152  6178.575
 153  4713.098
 154  5028.374
 155  6026.468
 156  6648.482
 157  7132.155
 158  5608.503
 159  4607.287
 160  5243.628
 161  5732.896
 162  5919.82
 163  5884.462
 164  5791.606
 165  5093.703
 166  4318.941
 167  4663.23
 168  5068.822
 169  4413.461
 170  3883.784
 171  5212.171
 172  5523.117
 173  4671.086
 174  3697.851
 175  3851.541
 176  5082.527
 177  4798.552
 178  4885.044
 179  3620.352
 180  3741.803
 181  3706.278
 182  4203.252
 183  4767.793
 184  4939.909
 185  4776.532
 186  4554.783
 187  4950.056
 188  5347.64
 189  4972.47
 190  4411.582
 191  5410.783
 192  5476.622
 193  3919.211
 194  3231.092
 195  3719.284
 196  4297.693
 197  4767.75
 198  3592.75
 199  4332.093
 200  4352.168
 201  4649.488
 202  5980.856
 203  5695.784
 204  4866.523
 205  6198.858
 206  6054.791
 207  4501.014
 208  5033.616
 209  6636.476
 210  6058.757
 211  4331.557
 212  5771.325
 213  6027.853
 214  6013.563
 215  4997.339
 216  5685.087
 217  5977.263
 218  5995.869
 219  5654.977
 220  4659.911
 221  5350.808
 222  4979.689
 223  4406.962
 224  4855.401
 225  4188.563
 226  3989.016
 227  4783.771
 228  5002.475
 229  4056.447
 230  4417.842
 231  4980.013
 232  4313.082
 233  4674.388
 234  6072.485
 235  5130.001
 236  3371.804
 237  4869.861
 238  6089.816
 239  6243.634
 240  4346.937
 241  5093.391
 242  6712.217
 243  5676.818
 244  4043.867
 245  5305.317
 246  6058.303
 247  4748.43
 248  4211.899
 249  4609.077
 250  4440.009
 251  5591.141
 252  5233.386
 253  6552.777
 254  5973.451
 255  6556.646
