# Input file       =  1196378798.121901_cleaned.dat
# Candidate        =  PSR_0332+5434
# Telescope        =  AR
# Epoch_topo       =  58090.977050022004
# Epoch_bary       =  N/A
# T_sample         =  0.002
# Data Folded      =  7340032
# Data Avg         =  0.0261466134326476
# Data StdDev      =  1.00010889707388 
# Profile Bins     =  512
# Profile Avg      =  374.822592514648 
# Profile StdDev   =  119.746074954074 
# Reduced chi-sqr  =  0.796
# Prob(Noise)      <  1   (~0.0 sigma)
# P_topo (ms)      =  714.529090222812  +/- 0.000998
# P'_topo (s/s)    =  -0                +/- 5.26e-10
# P''_topo (s/s^2) =  0                 +/- 2.32e-13
# P_bary (ms)      =  N/A
# P'_bary (s/s)    =  N/A
# P''_bary (s/s^2) =  N/A
# P_orb (s)        =  N/A
# asin(i)/c (s)    =  N/A
# eccentricity     =  N/A
# w (rad)          =  N/A
# T_peri           =  N/A
######################################################
   0  733.7381
   1  612.0745
   2  515.2726
   3  468.359
   4  422.0339
   5  362.0407
   6  395.1532
   7  469.2126
   8  484.7802
   9  446.773
  10  278.8009
  11  281.1702
  12  388.0239
  13  340.8453
  14  255.9675
  15  431.1718
  16  464.5033
  17  476.556
  18  414.0869
  19  423.6354
  20  323.5615
  21  268.2663
  22  194.3752
  23  174.2233
  24  335.7626
  25  359.4897
  26  220.8835
  27  343.273
  28  380.4702
  29  361.2423
  30  297.8867
  31  254.4966
  32  335.061
  33  361.128
  34  343.585
  35  305.6398
  36  280.3649
  37  281.379
  38  377.4087
  39  354.9271
  40  299.7962
  41  346.1379
  42  371.7567
  43  368.7561
  44  366.3526
  45  390.5773
  46  384.8647
  47  380.1496
  48  386.2882
  49  418.9919
  50  412.1616
  51  425.8265
  52  401.1346
  53  382.3279
  54  364.1655
  55  427.1031
  56  400.2727
  57  325.3242
  58  428.1073
  59  412.2172
  60  395.8181
  61  330.9491
  62  246.2043
  63  244.8184
  64  238.8302
  65  144.9681
  66  243.3781
  67  360.1694
  68  436.7556
  69  493.1921
  70  210.877
  71  218.9648
  72  279.3323
  73  238.6038
  74  282.4792
  75  378.4686
  76  424.5002
  77  324.1704
  78  267.1367
  79  318.4384
  80  292.2615
  81  287.4565
  82  350.6819
  83  436.1768
  84  370.1942
  85  405.2039
  86  369.4823
  87  440.1313
  88  457.011
  89  413.7023
  90  363.9962
  91  393.0783
  92  483.4632
  93  455.1638
  94  346.3918
  95  317.3626
  96  469.5466
  97  442.5495
  98  481.6032
  99  552.875
 100  529.766
 101  498.2
 102  481.917
 103  504.058
 104  457.8843
 105  362.4621
 106  421.2032
 107  430.2778
 108  405.999
 109  374.9702
 110  437.0282
 111  427.9734
 112  401.5463
 113  333.44
 114  269.4361
 115  287.1599
 116  311.9875
 117  337.5925
 118  404.9764
 119  360.6328
 120  347.3031
 121  382.2002
 122  386.636
 123  404.13
 124  419.6155
 125  451.9368
 126  427.4086
 127  357.2542
 128  486.1264
 129  490.6136
 130  413.7063
 131  353.9731
 132  331.5847
 133  355.5514
 134  289.9452
 135  276.1389
 136  242.6687
 137  328.0636
 138  378.9791
 139  305.9966
 140  411.064
 141  467.8087
 142  451.3971
 143  418.4027
 144  360.7899
 145  283.3433
 146  334.5077
 147  347.2094
 148  357.7657
 149  357.3039
 150  296.1801
 151  298.0231
 152  351.8579
 153  363.2051
 154  320.7251
 155  277.109
 156  355.9414
 157  370.7501
 158  311.5024
 159  395.8099
 160  512.1188
 161  550.9388
 162  453.0116
 163  464.6333
 164  445.5544
 165  438.2531
 166  346.2522
 167  281.2616
 168  378.7759
 169  411.1219
 170  343.5649
 171  389.3193
 172  361.5171
 173  360.4666
 174  347.1742
 175  237.8967
 176  225.0049
 177  307.3656
 178  366.349
 179  379.9861
 180  396.3849
 181  424.3162
 182  386.6836
 183  413.6383
 184  449.2954
 185  404.904
 186  339.8799
 187  453.1848
 188  454.6935
 189  462.9211
 190  371.062
 191  429.4981
 192  431.7115
 193  320.2115
 194  277.2114
 195  381.0183
 196  401.6276
 197  410.9032
 198  368.2926
 199  263.1145
 200  263.3612
 201  362.0785
 202  368.1051
 203  317.6688
 204  290.3185
 205  382.3779
 206  380.0864
 207  294.2244
 208  262.8394
 209  312.5304
 210  349.0917
 211  352.9203
 212  227.7345
 213  217.7826
 214  314.3413
 215  289.1297
 216  180.709
 217  268.8269
 218  255.5097
 219  251.1123
 220  256.8048
 221  303.0561
 222  413.0125
 223  352.5685
 224  367.0516
 225  364.2289
 226  272.4439
 227  288.8141
 228  456.5875
 229  431.6715
 230  382.9828
 231  378.1147
 232  322.8213
 233  402.167
 234  297.5615
 235  354.5681
 236  429.0466
 237  334.8847
 238  379.0407
 239  387.5326
 240  365.4737
 241  365.1847
 242  317.966
 243  382.3842
 244  380.8371
 245  356.9474
 246  314.9337
 247  389.8448
 248  370.5341
 249  302.5853
 250  374.4039
 251  303.4058
 252  187.977
 253  303.3472
 254  422.4345
 255  426.6485
 256  434.4791
 257  412.5259
 258  272.1709
 259  311.6218
 260  416.9572
 261  421.335
 262  216.0319
 263  325.9193
 264  321.0796
 265  257.1447
 266  307.1608
 267  286.5408
 268  250.6338
 269  251.6299
 270  294.2774
 271  393.8436
 272  312.2999
 273  294.4005
 274  318.2711
 275  250.2316
 276  298.2499
 277  469.9356
 278  444.2976
 279  385.304
 280  421.786
 281  361.8126
 282  275.6204
 283  367.5628
 284  419.4894
 285  362.9525
 286  345.9824
 287  291.413
 288  298.7014
 289  306.0126
 290  302.8712
 291  456.9217
 292  459.7675
 293  455.3478
 294  415.2737
 295  451.5312
 296  526.2803
 297  327.9908
 298  259.9257
 299  324.4331
 300  362.9356
 301  226.362
 302  182.5255
 303  225.2231
 304  307.7166
 305  332.534
 306  359.2547
 307  309.1741
 308  297.2494
 309  314.3152
 310  402.2089
 311  439.2455
 312  540.8243
 313  499.7874
 314  500.0807
 315  346.1111
 316  264.5915
 317  421.2424
 318  378.2675
 319  359.7224
 320  428.0049
 321  363.2863
 322  342.9607
 323  318.3348
 324  346.8974
 325  356.4778
 326  333.3214
 327  374.226
 328  402.5333
 329  340.5078
 330  307.5193
 331  416.3199
 332  404.5449
 333  495.4481
 334  455.5129
 335  478.3099
 336  446.1444
 337  432.6528
 338  411.8971
 339  375.4245
 340  372.1164
 341  305.3562
 342  453.4109
 343  433.9286
 344  417.8174
 345  452.8688
 346  496.5565
 347  470.4158
 348  424.0242
 349  342.9528
 350  404.7016
 351  401.6518
 352  385.113
 353  395.2348
 354  364.7402
 355  383.5662
 356  465.3295
 357  474.447
 358  421.7536
 359  450.1928
 360  407.7807
 361  296.3223
 362  345.5311
 363  455.8921
 364  422.1441
 365  412.9293
 366  483.5018
 367  407.3182
 368  406.5981
 369  521.2153
 370  443.0553
 371  435.3962
 372  440.0107
 373  388.4725
 374  352.8036
 375  335.8858
 376  399.7106
 377  337.6314
 378  383.5086
 379  448.5288
 380  370.5534
 381  407.1905
 382  312.0654
 383  269.9867
 384  407.7034
 385  482.2957
 386  486.7668
 387  268.374
 388  330.3307
 389  431.5903
 390  382.9436
 391  355.3282
 392  362.9815
 393  368.0233
 394  372.4012
 395  405.8139
 396  408.174
 397  417.1613
 398  336.1207
 399  328.5187
 400  483.7494
 401  400.2466
 402  309.5353
 403  378.6294
 404  356.8137
 405  399.3304
 406  338.2505
 407  284.5242
 408  242.7421
 409  351.5489
 410  532.7606
 411  447.1528
 412  368.2528
 413  397.5565
 414  379.1225
 415  366.2486
 416  341.4541
 417  353.7059
 418  374.5332
 419  374.1699
 420  392.9317
 421  365.1292
 422  222.8167
 423  311.4497
 424  443.158
 425  479.0323
 426  374.28
 427  357.7913
 428  502.8546
 429  338.638
 430  274.8083
 431  267.3896
 432  453.5792
 433  474.2033
 434  362.4637
 435  481.1718
 436  500.9749
 437  387.0698
 438  355.8897
 439  477.6915
 440  448.9578
 441  401.1484
 442  367.3535
 443  461.6367
 444  379.3817
 445  430.3449
 446  448.4434
 447  401.3597
 448  446.8061
 449  442.3869
 450  413.3554
 451  381.1529
 452  339.8519
 453  287.9906
 454  374.5446
 455  395.7122
 456  406.7704
 457  269.7444
 458  332.0361
 459  217.1023
 460  357.1365
 461  327.7338
 462  344.2401
 463  436.9386
 464  341.7363
 465  327.3162
 466  285.9388
 467  299.6517
 468  352.3548
 469  309.0613
 470  343.1191
 471  453.8395
 472  447.7141
 473  415.6083
 474  432.4994
 475  418.668
 476  266.1682
 477  233.456
 478  295.5127
 479  322.7411
 480  258.1355
 481  298.7399
 482  450.2602
 483  485.5653
 484  440.3209
 485  453.5518
 486  406.0865
 487  374.6851
 488  394.2634
 489  424.5778
 490  406.9271
 491  498.4132
 492  439.1802
 493  399.9012
 494  449.5309
 495  554.1867
 496  455.9867
 497  420.5422
 498  499.4654
 499  534.4332
 500  447.5016
 501  437.934
 502  397.1068
 503  395.8979
 504  505.169
 505  480.86
 506  368.3777
 507  397.2485
 508  510.6129
 509  455.2552
 510  544.533
 511  703.2059
