# Input file       =  1196349189.112123_cleaned.dat
# Candidate        =  PSR_0332+5434
# Telescope        =  AR
# Epoch_topo       =  58090.634353149573
# Epoch_bary       =  N/A
# T_sample         =  0.002
# Data Folded      =  7208960
# Data Avg         =  0.0293390432217528
# Data StdDev      =  1.00011182291953 
# Profile Bins     =  512
# Profile Avg      =  413.099530911282 
# Profile StdDev   =  118.672444608997 
# Reduced chi-sqr  =  0.896
# Prob(Noise)      <  0.956   (~0.0 sigma)
# P_topo (ms)      =  714.528374309276  +/- 0.000138
# P'_topo (s/s)    =  -0                +/- 7.39e-11
# P''_topo (s/s^2) =  0                 +/- 3.32e-14
# P_bary (ms)      =  N/A
# P'_bary (s/s)    =  N/A
# P''_bary (s/s^2) =  N/A
# P_orb (s)        =  N/A
# asin(i)/c (s)    =  N/A
# eccentricity     =  N/A
# w (rad)          =  N/A
# T_peri           =  N/A
######################################################
   0  786.9411
   1  781.517
   2  674.9705
   3  472.4538
   4  417.5698
   5  371.9598
   6  502.8455
   7  464.4841
   8  546.0008
   9  535.9636
  10  476.0558
  11  543.1178
  12  543.4457
  13  553.2175
  14  481.4717
  15  509.7439
  16  426.8652
  17  461.9788
  18  443.0885
  19  361.2857
  20  454.9458
  21  281.1161
  22  378.1586
  23  366.8195
  24  384.4477
  25  282.5851
  26  316.2424
  27  382.5814
  28  420.6979
  29  476.0438
  30  470.887
  31  456.4477
  32  437.9368
  33  425.7661
  34  272.3269
  35  342.6558
  36  357.4656
  37  336.4071
  38  440.6451
  39  406.3154
  40  347.2298
  41  441.8508
  42  544.259
  43  427.9175
  44  354.3448
  45  376.3782
  46  365.0797
  47  306.2554
  48  295.7913
  49  315.7168
  50  296.6107
  51  426.5566
  52  395.4214
  53  450.1792
  54  412.325
  55  326.5537
  56  397.4321
  57  338.7545
  58  434.047
  59  437.7611
  60  497.4336
  61  406.9255
  62  363.1237
  63  388.0469
  64  417.8549
  65  463.946
  66  383.9511
  67  374.6554
  68  424.6383
  69  401.1976
  70  465.5947
  71  452.9475
  72  307.0097
  73  295.1274
  74  363.5121
  75  276.6656
  76  380.4041
  77  417.9742
  78  364.0231
  79  382.612
  80  405.9499
  81  426.2078
  82  248.971
  83  342.3316
  84  427.4971
  85  393.2936
  86  331.657
  87  363.5731
  88  374.1506
  89  373.5887
  90  537.8043
  91  560.8099
  92  530.2269
  93  468.2411
  94  375.2787
  95  485.3786
  96  495.3827
  97  520.0435
  98  454.582
  99  445.0007
 100  395.2016
 101  328.636
 102  236.5188
 103  448.183
 104  526.6667
 105  478.4545
 106  486.8683
 107  332.8468
 108  294.536
 109  344.9807
 110  384.8499
 111  545.533
 112  532.7434
 113  464.149
 114  451.7058
 115  496.1515
 116  423.4969
 117  323.1605
 118  414.5259
 119  518.5594
 120  430.8291
 121  449.1298
 122  472.5219
 123  464.9751
 124  513.8685
 125  497.1501
 126  446.5641
 127  364.4954
 128  514.5927
 129  457.2967
 130  445.2158
 131  465.2446
 132  471.9641
 133  466.0345
 134  456.3946
 135  430.8335
 136  433.781
 137  338.9612
 138  362.6647
 139  323.9554
 140  350.0785
 141  435.7003
 142  461.9884
 143  496.0514
 144  414.6726
 145  360.6148
 146  416.5969
 147  375.7816
 148  485.5198
 149  547.4776
 150  430.7985
 151  381.818
 152  357.6098
 153  394.0317
 154  506.2289
 155  494.2813
 156  468.4256
 157  355.3105
 158  288.4036
 159  284.5792
 160  334.6012
 161  415.1282
 162  452.533
 163  540.4216
 164  540.5591
 165  541.6048
 166  359.1854
 167  448.5469
 168  418.452
 169  452.1418
 170  534.8813
 171  630.0173
 172  512.6856
 173  487.0952
 174  421.9872
 175  314.5378
 176  346.6202
 177  434.8678
 178  474.3592
 179  439.1139
 180  449.954
 181  446.6017
 182  376.1805
 183  416.5662
 184  408.7223
 185  406.7543
 186  308.3192
 187  346.2768
 188  498.8759
 189  463.6915
 190  454.2918
 191  419.7052
 192  571.453
 193  565.0304
 194  444.7718
 195  507.4637
 196  497.8806
 197  511.4247
 198  460.244
 199  325.3304
 200  294.2465
 201  268.5923
 202  440.2972
 203  595.2805
 204  466.8284
 205  432.0021
 206  418.7656
 207  349.2362
 208  360.3444
 209  332.6422
 210  518.6202
 211  502.7124
 212  534.025
 213  431.3031
 214  399.3389
 215  305.7964
 216  227.9309
 217  421.7721
 218  359.3546
 219  424.1353
 220  418.0927
 221  418.1959
 222  363.7971
 223  244.4213
 224  462.3112
 225  372.2972
 226  395.3771
 227  430.2792
 228  387.6106
 229  400.0635
 230  365.8607
 231  414.6257
 232  434.7409
 233  424.0928
 234  378.9637
 235  393.9182
 236  455.8906
 237  460.2979
 238  449.9827
 239  485.5834
 240  392.2799
 241  374.8376
 242  359.9823
 243  398.8492
 244  364.5071
 245  436.9961
 246  490.1083
 247  379.1677
 248  325.0534
 249  418.8619
 250  419.7222
 251  294.3117
 252  368.3237
 253  446.0833
 254  436.3062
 255  444.6968
 256  381.8653
 257  225.7106
 258  268.563
 259  318.7457
 260  482.9299
 261  442.1781
 262  373.3383
 263  378.3975
 264  281.9328
 265  317.4109
 266  339.949
 267  316.5234
 268  303.3161
 269  333.0662
 270  337.3416
 271  400.2525
 272  214.4909
 273  287.5122
 274  371.7509
 275  293.8988
 276  359.896
 277  403.912
 278  407.5186
 279  452.6063
 280  451.6229
 281  414.1063
 282  433.65
 283  364.0619
 284  351.6746
 285  446.8579
 286  501.4265
 287  576.0946
 288  516.481
 289  470.7
 290  321.0354
 291  243.8617
 292  287.0349
 293  295.2305
 294  404.403
 295  417.0188
 296  458.4488
 297  420.5143
 298  455.9842
 299  321.2696
 300  435.4016
 301  361.2227
 302  376.2899
 303  556.7053
 304  364.2748
 305  312.8013
 306  404.7672
 307  366.2588
 308  191.9837
 309  208.9293
 310  486.6543
 311  498
 312  354.9135
 313  302.2124
 314  288.309
 315  280.5924
 316  433.5648
 317  401.3386
 318  327.1321
 319  263.9005
 320  423.3195
 321  400.8016
 322  301.515
 323  315.8038
 324  296.6932
 325  343.9165
 326  456.8378
 327  406.3618
 328  401.4698
 329  377.689
 330  409.1204
 331  450.8476
 332  461.7719
 333  487.7874
 334  442.932
 335  445.8051
 336  505.7249
 337  460.1685
 338  379.7455
 339  311.4693
 340  336.9198
 341  376.477
 342  458.1421
 343  410.3466
 344  483.6682
 345  490.0118
 346  517.8489
 347  389.0083
 348  378.9206
 349  294.9143
 350  287.9772
 351  324.246
 352  432.221
 353  448.7666
 354  395.5897
 355  346.3989
 356  391.0511
 357  371.3976
 358  267.312
 359  364.3075
 360  391.841
 361  363.5864
 362  340.8398
 363  298.7936
 364  308.2049
 365  351.7046
 366  227.698
 367  390.7646
 368  371.3826
 369  356.1541
 370  388.1986
 371  362.3751
 372  418.9228
 373  303.8426
 374  314.1806
 375  424.8027
 376  325.0223
 377  419.1129
 378  466.219
 379  433.7507
 380  445.735
 381  379.7171
 382  315.1552
 383  317.8623
 384  363.189
 385  379.5289
 386  373.5263
 387  341.2088
 388  318.6499
 389  479.2389
 390  358.0976
 391  381.4281
 392  400.2617
 393  366.1504
 394  414.4427
 395  379.9865
 396  487.8891
 397  366.5183
 398  346.1234
 399  402.1855
 400  274.2386
 401  249.2284
 402  307.9439
 403  300.9648
 404  396.0467
 405  505.3651
 406  482.9377
 407  474.1157
 408  377.5081
 409  328.0971
 410  317.8828
 411  484.3248
 412  409.5569
 413  265.9255
 414  376.1879
 415  385.4102
 416  486.0919
 417  461.1663
 418  410.2291
 419  308.9019
 420  347.3395
 421  413.3344
 422  419.1989
 423  559.6919
 424  532.4597
 425  496.7139
 426  373.1367
 427  446.4131
 428  511.4865
 429  449.1047
 430  399.7108
 431  403.8098
 432  508.3436
 433  393.5085
 434  323.0816
 435  314.5876
 436  421.8103
 437  433.5274
 438  417.7038
 439  455.5105
 440  405.1224
 441  375.4388
 442  410.2804
 443  494.0916
 444  309.602
 445  330.3276
 446  447.8413
 447  368.1259
 448  377.1943
 449  409.1327
 450  455.5245
 451  454.5291
 452  475.3605
 453  554.54
 454  529.6824
 455  469.6689
 456  349.3847
 457  355.4849
 458  408.5114
 459  330.4717
 460  376.1173
 461  348.8138
 462  459.6106
 463  494.5885
 464  420.7495
 465  353.7226
 466  469.3583
 467  522.3375
 468  559.3467
 469  536.6179
 470  540.4543
 471  494.9912
 472  476.6057
 473  445.322
 474  437.101
 475  478.1561
 476  441.722
 477  396.9964
 478  403.1683
 479  425.2175
 480  523.5513
 481  463.1658
 482  474.6192
 483  343.4954
 484  350.6216
 485  397.672
 486  511.3927
 487  568.8104
 488  501.5406
 489  517.9826
 490  437.0653
 491  422.5874
 492  445.5484
 493  437.3168
 494  404.2499
 495  403.3588
 496  462.727
 497  404.1783
 498  393.645
 499  456.0247
 500  445.0023
 501  542.1686
 502  552.2643
 503  505.6985
 504  458.7996
 505  488.8304
 506  502.4964
 507  475.7568
 508  427.0498
 509  593.8152
 510  618.4891
 511  751.3479
