# Input file       =  1196292583.114135_cleaned.dat
# Candidate        =  PSR_0332+5434
# Telescope        =  AR
# Epoch_topo       =  58089.979191135819
# Epoch_bary       =  N/A
# T_sample         =  0.002
# Data Folded      =  7340032
# Data Avg         =  0.518788279808566
# Data StdDev      =  6.67248369220408 
# Profile Bins     =  1024
# Profile Avg      =  3718.669205217   
# Profile StdDev   =  564.919439254593 
# Reduced chi-sqr  =  0.501
# Prob(Noise)      <  1   (~0.0 sigma)
# P_topo (ms)      =  714.528065147879  +/- 0.000585
# P'_topo (s/s)    =  -0                +/- 3.09e-10
# P''_topo (s/s^2) =  0                 +/- 1.36e-13
# P_bary (ms)      =  N/A
# P'_bary (s/s)    =  N/A
# P''_bary (s/s^2) =  N/A
# P_orb (s)        =  N/A
# asin(i)/c (s)    =  N/A
# eccentricity     =  N/A
# w (rad)          =  N/A
# T_peri           =  N/A
######################################################
   0  3683.316
   1  3818.072
   2  3716.555
   3  3703.979
   4  3688.793
   5  3491.398
   6  3581.828
   7  3333.071
   8  3578.248
   9  3532.553
  10  3509.39
  11  3523.721
  12  3434.234
  13  3629.114
  14  3811.229
  15  3716.692
  16  3640.879
  17  3716.814
  18  3699.045
  19  3630.137
  20  3200.43
  21  3186.172
  22  3487.611
  23  3494.779
  24  3654.671
  25  3638.868
  26  3701.514
  27  3735.78
  28  3659.193
  29  3551.1
  30  3525.362
  31  3365.893
  32  3658.287
  33  3685.533
  34  3671.011
  35  3663.278
  36  3707.837
  37  3729.09
  38  3755.271
  39  3680.933
  40  3714.111
  41  3624.295
  42  3510.35
  43  3546.688
  44  3598.819
  45  3647.119
  46  3599.486
  47  3301.491
  48  3164.336
  49  3224.017
  50  3473.398
  51  3805.763
  52  3882.811
  53  3917.027
  54  3791.568
  55  3597.452
  56  3408.095
  57  3527.365
  58  3762.303
  59  3778.593
  60  3927.872
  61  3995.937
  62  3993.86
  63  3764.533
  64  3807.174
  65  4084.648
  66  4059.208
  67  3942.114
  68  3823.908
  69  3764.499
  70  3635.346
  71  3724.107
  72  3819.922
  73  4081.153
  74  4018.613
  75  4017.551
  76  3933.812
  77  3618.838
  78  3646.79
  79  3936.64
  80  4024.181
  81  4125.744
  82  4057.823
  83  4134.225
  84  3992.067
  85  3715.049
  86  3807.701
  87  3936.987
  88  3862.553
  89  3955.64
  90  3951.448
  91  3984.336
  92  3920.589
  93  3864.619
  94  4024.26
  95  4096.5
  96  3740.556
  97  3714.366
  98  3547.139
  99  3882.212
 100  4079.548
 101  4091.059
 102  4037.313
 103  3949.276
 104  3912.174
 105  3836.928
 106  3796.228
 107  3885.621
 108  3897.367
 109  3752.872
 110  3762.486
 111  3721.752
 112  3665.175
 113  3580.885
 114  3515.082
 115  3595.048
 116  3650.974
 117  3674.663
 118  3734.496
 119  3816.191
 120  3711.509
 121  3531.158
 122  3535.979
 123  3615.528
 124  3701.18
 125  3689.421
 126  3696.856
 127  3588.986
 128  3522.852
 129  3629.479
 130  3608.186
 131  3675.742
 132  3864.698
 133  3841.441
 134  3894.624
 135  3630.422
 136  3630.569
 137  3655.465
 138  3650.446
 139  3554.239
 140  3677.898
 141  3666.839
 142  3643.893
 143  3772.431
 144  4052.979
 145  3980.463
 146  3642.005
 147  3506.938
 148  3626.572
 149  3514.657
 150  3365.883
 151  3428.142
 152  3346.708
 153  3351.517
 154  3459.99
 155  3450.831
 156  3462.038
 157  3310.393
 158  3480.144
 159  3671.197
 160  3889.588
 161  3814.209
 162  3867.027
 163  3575.398
 164  3583.658
 165  3688.15
 166  3683.448
 167  3811.335
 168  3636.003
 169  3760.525
 170  3935.401
 171  3905.438
 172  4075.007
 173  3992.067
 174  3672.414
 175  3590.877
 176  3450.758
 177  3662.016
 178  3815.426
 179  3725.686
 180  3922.603
 181  4009.182
 182  3971.837
 183  3992.081
 184  3960.731
 185  4019.248
 186  4093.655
 187  4115.343
 188  4226.664
 189  4191.977
 190  3969.306
 191  4008.487
 192  3853.409
 193  3952.453
 194  4138.817
 195  3937.46
 196  3805.621
 197  3775.178
 198  3661.637
 199  3728.673
 200  3541.563
 201  3608.872
 202  3728.716
 203  3585.396
 204  3826.431
 205  3774.127
 206  3676.945
 207  3541.561
 208  3665.696
 209  4016.667
 210  4152.088
 211  4099.166
 212  4049.281
 213  3990.655
 214  3971.545
 215  4035.135
 216  4066.114
 217  3940.863
 218  4008.341
 219  3950.052
 220  3918.882
 221  3876.949
 222  3796.455
 223  3728.386
 224  3664.217
 225  3746.556
 226  3887.838
 227  3945.286
 228  4005.236
 229  4070.037
 230  3949.347
 231  3684.415
 232  3492.155
 233  3326.709
 234  3161.439
 235  3169.158
 236  3181.662
 237  3425.644
 238  3537.449
 239  3682.572
 240  3769.976
 241  3681.156
 242  3789.494
 243  3794.602
 244  3772.403
 245  3824.08
 246  4013.804
 247  4096.507
 248  3970.847
 249  3542.616
 250  3595.763
 251  3624.81
 252  3522.646
 253  3559.685
 254  3416.358
 255  3463.963
 256  3567.496
 257  3594.161
 258  3803.699
 259  3978.9
 260  3945.984
 261  3924.971
 262  3795.097
 263  3797.85
 264  3775.282
 265  3514.351
 266  3579.257
 267  3680.444
 268  3683.458
 269  3802.87
 270  3506.965
 271  3593.372
 272  3533.768
 273  3425.277
 274  3461.265
 275  3578.585
 276  3662.743
 277  3566.44
 278  3204.42
 279  3212.767
 280  3433.187
 281  3408.925
 282  3482.017
 283  3512.592
 284  3435.256
 285  3477.64
 286  3325.256
 287  3437.925
 288  3486.245
 289  3410.38
 290  3451.936
 291  3362.953
 292  3179.169
 293  3136.154
 294  3358.385
 295  3576.61
 296  3670.445
 297  3445.731
 298  3669.772
 299  3828.801
 300  3925.229
 301  3817.661
 302  3750.967
 303  3607.816
 304  3633.178
 305  3525.68
 306  3493.584
 307  3363.131
 308  3498.599
 309  3660.606
 310  3691.828
 311  3590.487
 312  3673.509
 313  3619.644
 314  3493.591
 315  3420.974
 316  3467.449
 317  3470.326
 318  3558.69
 319  3556.992
 320  3569.339
 321  3405.956
 322  3392.211
 323  3621.822
 324  3753.045
 325  3598.99
 326  3440.495
 327  3558.313
 328  3819.286
 329  3895.558
 330  3712.036
 331  3791.572
 332  3961.126
 333  4077.325
 334  4056.708
 335  3628.524
 336  3589.967
 337  3722.322
 338  3729.853
 339  3868.116
 340  3846.274
 341  3798.107
 342  3772.619
 343  3640.743
 344  3818.246
 345  4109.777
 346  3931.726
 347  4016.905
 348  3982.873
 349  4004.384
 350  4017.479
 351  3671.258
 352  3946.48
 353  4176.195
 354  4173.782
 355  4005.694
 356  3618.35
 357  3588.039
 358  3782.577
 359  3824.108
 360  3888.022
 361  3908.492
 362  3866.156
 363  3999.273
 364  3818.564
 365  3781.91
 366  3700.52
 367  3564.246
 368  3685.275
 369  3687.782
 370  3727.571
 371  3797.141
 372  3873.242
 373  4086.543
 374  4197.828
 375  3960.496
 376  3702.632
 377  3534.023
 378  3378.225
 379  3620.457
 380  3703.599
 381  3691.765
 382  3586.11
 383  3583.619
 384  3734.9
 385  3738.375
 386  3700.995
 387  3813.99
 388  3834.711
 389  3891.239
 390  4002.796
 391  3772.193
 392  3602.968
 393  3444.858
 394  3527.128
 395  3521.973
 396  3566.293
 397  3624.779
 398  3770.212
 399  3529.873
 400  3273.733
 401  3461.199
 402  3639.252
 403  3570.503
 404  3626.774
 405  3675.348
 406  3707.773
 407  3424.957
 408  3301.734
 409  3605.367
 410  3660.777
 411  3716.343
 412  3624.347
 413  3418.493
 414  3401.093
 415  3563.2
 416  3644.169
 417  3748.983
 418  3680.015
 419  3540.323
 420  3504.183
 421  3145.45
 422  3295.061
 423  3290.61
 424  3199.617
 425  3303.572
 426  3348.271
 427  3448.91
 428  3408.77
 429  3306.134
 430  3482.279
 431  3556.92
 432  3402.531
 433  3484.564
 434  3546.09
 435  3527.899
 436  3552.901
 437  3505.795
 438  3744.46
 439  3619.699
 440  3475.597
 441  3615.024
 442  3642.578
 443  3836.501
 444  3900.777
 445  3756.728
 446  3749.844
 447  3610.927
 448  3462.277
 449  3270.561
 450  3121.894
 451  3288.366
 452  3724.55
 453  3820.367
 454  3790.614
 455  3762.012
 456  3791.877
 457  4074.403
 458  3848.707
 459  3968.771
 460  3850.02
 461  3836.565
 462  4078.2
 463  3992.632
 464  3951.103
 465  3795.957
 466  3963.344
 467  3960.001
 468  3966.756
 469  3910.369
 470  4076.075
 471  3894.317
 472  3894.891
 473  4013.519
 474  4189.511
 475  4226.499
 476  4282.789
 477  4187.716
 478  4089.822
 479  3983.487
 480  4006.718
 481  3996.861
 482  3938.416
 483  3874.746
 484  3657.89
 485  3661.498
 486  3643.272
 487  4011.11
 488  4103.497
 489  3893.443
 490  3845
 491  3891.079
 492  4070.968
 493  3998.488
 494  3855.548
 495  3945.93
 496  3906.18
 497  3620.213
 498  3756.261
 499  3717.362
 500  3819.172
 501  3706.837
 502  3750.079
 503  3779.308
 504  3848.422
 505  3999.592
 506  4171.309
 507  3847.203
 508  3981.663
 509  4006.874
 510  3893.389
 511  3952.034
 512  3978.509
 513  4017.671
 514  3701.02
 515  3383.132
 516  3398.901
 517  3599.231
 518  3667.444
 519  3748.211
 520  3649.706
 521  3650.85
 522  3800.317
 523  3876.445
 524  4069.005
 525  4147.329
 526  3902.503
 527  3770.567
 528  3423.317
 529  3505.148
 530  3695.833
 531  3600.375
 532  3514.645
 533  3492.646
 534  3360.18
 535  3555.776
 536  3605.865
 537  3779.873
 538  3984.845
 539  3906.766
 540  4124.652
 541  4088.528
 542  3983.199
 543  3842.872
 544  3701.815
 545  3793.411
 546  3770.695
 547  3653.748
 548  3637.094
 549  3583.305
 550  3672.252
 551  3769.517
 552  3705.672
 553  3707.746
 554  3847.236
 555  3779.848
 556  3718.476
 557  3737.838
 558  3757.164
 559  3802.718
 560  3583.038
 561  3659.707
 562  3679.468
 563  3587.283
 564  3440.17
 565  3424.435
 566  3561.678
 567  3542.925
 568  3604.406
 569  3579.052
 570  3677.619
 571  3668.311
 572  3632.898
 573  3710.04
 574  3491.733
 575  3346.075
 576  3246.849
 577  3462.911
 578  3530.993
 579  3423.553
 580  3443.135
 581  3788.065
 582  3907.6
 583  3703.854
 584  3711.105
 585  3736.39
 586  3648.693
 587  3705.705
 588  3610.546
 589  3825.748
 590  3704.188
 591  3698.13
 592  3681.504
 593  3598.871
 594  3835.5
 595  4047.794
 596  4010.689
 597  4104.713
 598  3947.759
 599  3888.752
 600  3840.25
 601  3746.339
 602  3788.171
 603  3891.412
 604  3891.377
 605  3985.01
 606  3847.249
 607  3763.153
 608  3633.772
 609  3429.398
 610  3597.365
 611  3869.867
 612  3744.753
 613  3881.97
 614  3625.873
 615  3631.05
 616  3602.779
 617  3585.558
 618  3697.04
 619  3876.041
 620  3877.333
 621  3896.302
 622  3660.044
 623  3659.008
 624  3975.111
 625  3924.415
 626  4121.289
 627  4124.823
 628  4181.375
 629  4169.943
 630  4016.145
 631  3911.262
 632  3833.282
 633  3758.793
 634  3732.522
 635  3661.949
 636  3634.603
 637  3647.161
 638  3703.145
 639  3661.18
 640  3843.956
 641  3826.243
 642  3775.51
 643  3649.639
 644  3490.888
 645  3371.833
 646  3240.047
 647  3351.603
 648  3551.961
 649  3595.395
 650  3391.269
 651  3349.303
 652  3450.995
 653  3719.802
 654  3817.815
 655  3731.016
 656  3913.172
 657  3933.167
 658  3805.212
 659  3766.055
 660  3747.371
 661  3733.597
 662  3801.963
 663  3844.552
 664  3798.983
 665  3536.942
 666  3615.925
 667  3867.096
 668  3921.685
 669  3701.831
 670  3841.833
 671  3880.539
 672  4010.486
 673  3867.485
 674  3801.309
 675  3822.627
 676  3716.354
 677  3690.613
 678  3678.418
 679  3450.764
 680  3578.666
 681  3811.146
 682  3649.019
 683  3608.771
 684  3415.173
 685  3391.245
 686  3511.196
 687  3428.962
 688  3629.177
 689  3588.705
 690  3373.325
 691  3672.638
 692  3622.818
 693  3542.091
 694  3674.97
 695  3708.61
 696  3892.526
 697  3761.512
 698  3816.819
 699  3905.469
 700  3809.382
 701  3792.627
 702  3830.667
 703  3783.095
 704  3896.062
 705  3912.195
 706  3890.344
 707  3716.135
 708  3426.616
 709  3535.804
 710  3697.717
 711  3609.83
 712  3660.962
 713  3796.92
 714  3948.959
 715  3940.88
 716  3820.043
 717  3814.965
 718  3707.397
 719  3517.851
 720  3505.249
 721  3528.197
 722  3530.46
 723  3419.987
 724  3337.466
 725  3519.515
 726  3718.775
 727  3616.162
 728  3609.398
 729  3526.232
 730  3647.737
 731  3611.775
 732  3648.864
 733  3538.998
 734  3664.681
 735  3559.002
 736  3431.37
 737  3386.024
 738  3588.146
 739  3687.527
 740  3503.561
 741  3563.129
 742  3780.772
 743  3692.636
 744  3534.476
 745  3514.173
 746  3513.158
 747  3476.327
 748  3559.148
 749  3626.622
 750  3720.882
 751  3827.749
 752  3781.148
 753  3879.646
 754  3762.35
 755  3658.146
 756  3609.516
 757  3494.485
 758  3499.574
 759  3551.927
 760  3614.474
 761  3828.98
 762  3693.371
 763  3660.795
 764  3645.528
 765  3605.09
 766  3625.156
 767  3772.857
 768  3590.208
 769  3584.115
 770  3534.781
 771  3707.727
 772  3800.882
 773  3597.854
 774  3815.173
 775  4001.01
 776  3907.332
 777  3823.206
 778  3841.169
 779  4139.626
 780  4292.844
 781  4115.443
 782  4215.979
 783  4215.82
 784  4088.712
 785  4198.647
 786  3966.429
 787  3744.848
 788  3777.787
 789  3896.172
 790  4084.027
 791  4060.295
 792  3977.824
 793  4025.24
 794  3887.93
 795  3906.426
 796  4025.016
 797  3883.469
 798  4083.189
 799  4163.731
 800  4207.95
 801  4053.39
 802  3934.978
 803  4092.888
 804  4203.375
 805  3983.458
 806  3834.143
 807  3924.569
 808  3959.993
 809  4006.809
 810  3902.56
 811  3865.306
 812  3964.715
 813  3799.526
 814  3819.605
 815  3754.941
 816  3901.58
 817  4211.202
 818  4261.164
 819  4209.996
 820  3996.737
 821  3933.172
 822  3885.336
 823  3974.177
 824  3854.358
 825  3891.459
 826  3866.192
 827  3891.418
 828  3737.413
 829  3632.596
 830  3552.907
 831  3632.991
 832  3510.098
 833  3394.237
 834  3425.284
 835  3593.338
 836  3813.737
 837  3662.158
 838  3523.683
 839  3478.733
 840  3485.86
 841  3304.602
 842  3272.193
 843  3241.56
 844  3427.784
 845  3581.091
 846  3583.576
 847  3612.016
 848  3641.624
 849  3677.523
 850  3893.029
 851  3870.278
 852  4113.408
 853  4071.044
 854  3679.985
 855  3683.292
 856  3639.152
 857  3782.387
 858  3773.52
 859  3544.88
 860  3771.219
 861  3759.903
 862  3747.188
 863  3757.271
 864  3765.753
 865  3836.166
 866  3832.012
 867  3683.307
 868  3755.905
 869  3823.873
 870  3831.336
 871  3873.534
 872  3748.718
 873  3745.825
 874  3868.332
 875  3559.211
 876  3662.992
 877  3726.469
 878  3817.233
 879  3592.965
 880  3412.758
 881  3608.386
 882  3730.035
 883  3534.688
 884  3665.001
 885  3802.948
 886  3909.989
 887  3827.098
 888  3849.573
 889  3801.198
 890  3672.66
 891  3432.885
 892  3462.293
 893  3492.401
 894  3522.865
 895  3514.463
 896  3528.754
 897  3473.89
 898  3757.54
 899  3831.478
 900  3833.81
 901  3603.685
 902  3536.612
 903  3743.531
 904  3868.118
 905  3865.271
 906  3967.383
 907  4018.346
 908  4162.551
 909  4393.717
 910  4359.896
 911  4329.002
 912  4243.509
 913  4166.399
 914  3970.872
 915  3806.722
 916  3751.357
 917  3922.458
 918  3817.637
 919  3873.849
 920  3849.278
 921  3862.856
 922  3848.73
 923  3829.013
 924  3746.569
 925  3762.526
 926  3716.131
 927  3601.661
 928  3612.772
 929  3649.061
 930  3770.644
 931  3904.807
 932  3826.188
 933  3871.454
 934  3927.502
 935  4032.219
 936  4174.228
 937  3941.036
 938  3989.251
 939  4034.172
 940  3833.815
 941  3861.903
 942  3753.663
 943  3808.014
 944  3736.208
 945  3482.471
 946  3748.319
 947  3805.393
 948  3718.484
 949  3700.762
 950  3600.251
 951  3735.822
 952  3811.656
 953  3673.092
 954  3654.74
 955  3639.98
 956  3539.075
 957  3474.184
 958  3276.098
 959  3347.875
 960  3624.976
 961  3508.931
 962  3421.532
 963  3375.311
 964  3399.285
 965  3433.812
 966  3294.966
 967  3449.059
 968  3582.282
 969  3373.629
 970  3611.014
 971  3716.058
 972  3525.348
 973  3283.583
 974  3240.727
 975  3525.126
 976  3715.234
 977  3680.76
 978  3694.851
 979  3621.132
 980  3449.869
 981  3505.755
 982  3552.371
 983  3643.794
 984  3945.748
 985  4013.176
 986  3947.328
 987  3771.44
 988  3750.18
 989  3807.55
 990  3655.156
 991  3597.632
 992  3557.838
 993  3464.94
 994  3254.209
 995  3150.359
 996  3199.405
 997  3382.716
 998  3540.421
 999  3512.754
1000  3724.372
1001  3725.083
1002  3663.029
1003  3733.4
1004  3756.486
1005  3676.919
1006  3706.42
1007  3589.401
1008  3632.812
1009  3450.095
1010  3333.591
1011  3357.961
1012  3309.762
1013  3350.73
1014  3296.286
1015  3116.063
1016  3303.25
1017  3477.527
1018  3481.957
1019  3594.211
1020  3742.381
1021  3809.905
1022  3692.676
1023  3414.441
