# Input file       =  1196034081.122101_cleaned.dat
# Candidate        =  PSR_0332+5434
# Telescope        =  AR
# Epoch_topo       =  58086.987269931727
# Epoch_bary       =  N/A
# T_sample         =  0.002
# Data Folded      =  7340032
# Data Avg         =  0.166019046160467
# Data StdDev      =  5.27265310478241 
# Profile Bins     =  512
# Profile Avg      =  2380.09325601352 
# Profile StdDev   =  631.310765996981 
# Reduced chi-sqr  =  0.707
# Prob(Noise)      <  1   (~0.0 sigma)
# P_topo (ms)      =  714.524981673098  +/- 5.47e-05
# P'_topo (s/s)    =  -0                +/- 2.89e-11
# P''_topo (s/s^2) =  0                 +/- 1.28e-14
# P_bary (ms)      =  N/A
# P'_bary (s/s)    =  N/A
# P''_bary (s/s^2) =  N/A
# P_orb (s)        =  N/A
# asin(i)/c (s)    =  N/A
# eccentricity     =  N/A
# w (rad)          =  N/A
# T_peri           =  N/A
######################################################
   0  2700.915
   1  2580.826
   2  2433.016
   3  2348.731
   4  2481.926
   5  2780.781
   6  2332.371
   7  2385.365
   8  2627.009
   9  2437.495
  10  2696.393
  11  2990.627
  12  3184.569
  13  3019.256
  14  2637.138
  15  3345.573
  16  3137.958
  17  3244.241
  18  3098.194
  19  3281.523
  20  3077.603
  21  2372.848
  22  2553.686
  23  2421.302
  24  2393.208
  25  2026.96
  26  2446.007
  27  2796.495
  28  2558.25
  29  2598.871
  30  2371.866
  31  2534.796
  32  2600.238
  33  2728.593
  34  2408.032
  35  2233.955
  36  2841.347
  37  2475.283
  38  2383.934
  39  2604.479
  40  2869.664
  41  3073.183
  42  2522.196
  43  2705.079
  44  2598.38
  45  2450.391
  46  2632.573
  47  2890.242
  48  3128.359
  49  3234.581
  50  3353.656
  51  3978.12
  52  3876.233
  53  3880.951
  54  4328.299
  55  3964.407
  56  3353.613
  57  2753.953
  58  2810.974
  59  2345.704
  60  2173.236
  61  2157.395
  62  2490.086
  63  2335.049
  64  2344.334
  65  2389.176
  66  2972.521
  67  2698.286
  68  2593.947
  69  2737.495
  70  2351.54
  71  2149.06
  72  2282.259
  73  2443.567
  74  2618.715
  75  2589.596
  76  2787.205
  77  2719.064
  78  2453.199
  79  2149.335
  80  1682.53
  81  1731.699
  82  2126.407
  83  2278.964
  84  2193.885
  85  1641.008
  86  1763.28
  87  2286.984
  88  2379.039
  89  2446.939
  90  2656.39
  91  3335.24
  92  2762.356
  93  2664.216
  94  2689.629
  95  2445.424
  96  2325.211
  97  2119.175
  98  2548.156
  99  2573.369
 100  2394.429
 101  2593.584
 102  2126.771
 103  2077.225
 104  2036.247
 105  2707.885
 106  2870.187
 107  2905.002
 108  2888.974
 109  2336.869
 110  2627.883
 111  2742.174
 112  2887.867
 113  2387.339
 114  1903.561
 115  2228.386
 116  2421.148
 117  2345.659
 118  2204.811
 119  2308.344
 120  2411.379
 121  2092.85
 122  1949.629
 123  2241.915
 124  2330.304
 125  1893.069
 126  2000.634
 127  2630.878
 128  2671.812
 129  2463.104
 130  2581.101
 131  2238.076
 132  2538.8
 133  2236.361
 134  2248.346
 135  2266.217
 136  2172.032
 137  2031.057
 138  1788.974
 139  1974.244
 140  2367.698
 141  2350.926
 142  2286.907
 143  2304.774
 144  2431.497
 145  1959.083
 146  2351.778
 147  2905.078
 148  3252.947
 149  2903.795
 150  2704
 151  2909.737
 152  2533.54
 153  2392.277
 154  2288.926
 155  2422.681
 156  2490.706
 157  1923.262
 158  2347.153
 159  2321.299
 160  2208.088
 161  2280.257
 162  2385.151
 163  2448.272
 164  2359.669
 165  2726.095
 166  2271.434
 167  2386.792
 168  2072.699
 169  2590.919
 170  2310.325
 171  2047.366
 172  1784.598
 173  2155.727
 174  2407.461
 175  2505.136
 176  2523.961
 177  2334.068
 178  2156.389
 179  2306.408
 180  2742.5
 181  2529.015
 182  2209.646
 183  2615.129
 184  2677.366
 185  2435.688
 186  2367.798
 187  2537.68
 188  2362.668
 189  2254.966
 190  2147.784
 191  2298.809
 192  2521.806
 193  2382.606
 194  2385.539
 195  2611.086
 196  2600.47
 197  2404.679
 198  2593.336
 199  2644.334
 200  2196.896
 201  2383.627
 202  2839.931
 203  2933.92
 204  2282.744
 205  2131.056
 206  2211.475
 207  1857.681
 208  2058.096
 209  2343.633
 210  2256.362
 211  1979.887
 212  1855.294
 213  1999.428
 214  1822.475
 215  1962.186
 216  2005.126
 217  1834.927
 218  1866.031
 219  2409.005
 220  2826.017
 221  2705.103
 222  2400.564
 223  2450.591
 224  1760.761
 225  1992.172
 226  2363.57
 227  2529.933
 228  2361.893
 229  1807.825
 230  2328.542
 231  2336.062
 232  2571.052
 233  1922.644
 234  2169.253
 235  2202.263
 236  1727.757
 237  1447.252
 238  1827.42
 239  1832.835
 240  2339.262
 241  2208.101
 242  2376.042
 243  2069.162
 244  1999.754
 245  1847.479
 246  2074.068
 247  2790.489
 248  2679.484
 249  2385.184
 250  1994.519
 251  2298.182
 252  2157.859
 253  1771.025
 254  1949.537
 255  2456.183
 256  2529.173
 257  2159.85
 258  2355.467
 259  2739.781
 260  2281.896
 261  2243.455
 262  2279.071
 263  1991.969
 264  1809.029
 265  1824.763
 266  2467.018
 267  2461.159
 268  1849.42
 269  1672.883
 270  1809.392
 271  1895.932
 272  1642.918
 273  1831.931
 274  1870.303
 275  1997.952
 276  2069.419
 277  1900.493
 278  2019.239
 279  2132.88
 280  2292.365
 281  2165.884
 282  2172.036
 283  2412.635
 284  2761.019
 285  2593.078
 286  2451.205
 287  2579.41
 288  2506.658
 289  1543.025
 290  1732.879
 291  2125.3
 292  2193.404
 293  1891.3
 294  2078.073
 295  2020.146
 296  1986.334
 297  1971.724
 298  2201.645
 299  2024.768
 300  1879.453
 301  1938.897
 302  2121.669
 303  2053.771
 304  1999.855
 305  2479.321
 306  2687.392
 307  2142.539
 308  1949.46
 309  2062.292
 310  1749.109
 311  1569.385
 312  2049.206
 313  2309.887
 314  2207.6
 315  2078.53
 316  2468.198
 317  2073.693
 318  2332.474
 319  2400.326
 320  2732.402
 321  2200.812
 322  2214.286
 323  2251.168
 324  2070.123
 325  1841.868
 326  2059.802
 327  1954.562
 328  2053.765
 329  2132.578
 330  2444.758
 331  2295.118
 332  1695.857
 333  1941.692
 334  2161.045
 335  2553.391
 336  2730.293
 337  2420.53
 338  2253.07
 339  1962.365
 340  2330.452
 341  2077.424
 342  2158.003
 343  1925.607
 344  2238.833
 345  2300.068
 346  1633.333
 347  1812.978
 348  2127.298
 349  1801.36
 350  1606.205
 351  1983.083
 352  2227.61
 353  1633.333
 354  1784.89
 355  2417.514
 356  2124.111
 357  2053.882
 358  1827.858
 359  2462.59
 360  2439.762
 361  2210.041
 362  2404.608
 363  2525.192
 364  2336.617
 365  2371.619
 366  2641.323
 367  2337.827
 368  1848.099
 369  2073.323
 370  2453.262
 371  2608.223
 372  2364.137
 373  2433.759
 374  2060.782
 375  2525.406
 376  2965.065
 377  2852.496
 378  2652.178
 379  2159.723
 380  2146.951
 381  2386.077
 382  2038.926
 383  2065.108
 384  2355.452
 385  2470.524
 386  2167.432
 387  2356.499
 388  2499.56
 389  2061.469
 390  2183.707
 391  2193.414
 392  2185.996
 393  2193.54
 394  2176.846
 395  2325.773
 396  1916.313
 397  1997.902
 398  2338.049
 399  2367.14
 400  2570.253
 401  2239.104
 402  2344.756
 403  2103.478
 404  2073.44
 405  2613.962
 406  3083.837
 407  3256.979
 408  2891.746
 409  2721.667
 410  2406.172
 411  2031.994
 412  2606.271
 413  3018.696
 414  2661.945
 415  2057.17
 416  1752.883
 417  1981.545
 418  2068.052
 419  2654.738
 420  2512.595
 421  1904.79
 422  2129.625
 423  2426.498
 424  2324.85
 425  2338.978
 426  2344.86
 427  2918.032
 428  2697.351
 429  2505.183
 430  2177.37
 431  2480.986
 432  2092.039
 433  2204.659
 434  2879.974
 435  3164.466
 436  2800.537
 437  2177.845
 438  2301.214
 439  2076.591
 440  2131.459
 441  2843.532
 442  2616.205
 443  2494.846
 444  2483.661
 445  2563.829
 446  2091.584
 447  2167.737
 448  2146.052
 449  2454.255
 450  2304.145
 451  2388.325
 452  2737.601
 453  1932.584
 454  2095.535
 455  2761.953
 456  2501.61
 457  2293.557
 458  1816.608
 459  2171.06
 460  2280.854
 461  2122.495
 462  2642.108
 463  2745.204
 464  2564.55
 465  2479.06
 466  2536.118
 467  2498.135
 468  2397.111
 469  2362.389
 470  2812.333
 471  2626.937
 472  2500.464
 473  2083.088
 474  2225.045
 475  1479.017
 476  2100.756
 477  2552.543
 478  2613.612
 479  2948.867
 480  2515.802
 481  2985.893
 482  2641.548
 483  2462.996
 484  2836.06
 485  2897.791
 486  3298.962
 487  2784.861
 488  2615.694
 489  2383.303
 490  2523.993
 491  2903.399
 492  2857.552
 493  2468.842
 494  2276.936
 495  2763.19
 496  3112.12
 497  3003.372
 498  2849.691
 499  2697.357
 500  2697.141
 501  2620.526
 502  2867.165
 503  2839.647
 504  2554.26
 505  2678.906
 506  2447.322
 507  2398.333
 508  2295.719
 509  2759.901
 510  2612.611
 511  2531.817
