# Input file       =  1196176904.130603_cleaned.dat
# Candidate        =  PSR_0332+5434
# Telescope        =  AR
# Epoch_topo       =  58088.640314011609
# Epoch_bary       =  N/A
# T_sample         =  0.002
# Data Folded      =  7208960
# Data Avg         =  0.0224005792311141
# Data StdDev      =  9.03483043464604 
# Profile Bins     =  512
# Profile Avg      =  315.479321392607 
# Profile StdDev   =  1072.06553280941 
# Reduced chi-sqr  =  0.404
# Prob(Noise)      <  1   (~0.0 sigma)
# P_topo (ms)      =  714.526323855019  +/- 2.65e-05
# P'_topo (s/s)    =  -0                +/- 1.43e-11
# P''_topo (s/s^2) =  0                 +/- 6.41e-15
# P_bary (ms)      =  N/A
# P'_bary (s/s)    =  N/A
# P''_bary (s/s^2) =  N/A
# P_orb (s)        =  N/A
# asin(i)/c (s)    =  N/A
# eccentricity     =  N/A
# w (rad)          =  N/A
# T_peri           =  N/A
######################################################
   0  -325.1909
   1  10.4545
   2  1054.304
   3  411.6149
   4  593.4776
   5  1082.087
   6  443.7277
   7  -751.3693
   8  -163.7042
   9  210.2525
  10  -159.7997
  11  134.1255
  12  1247.412
  13  829.4245
  14  191.4404
  15  389.3936
  16  669.5657
  17  539.1215
  18  753.1042
  19  1418.464
  20  1105.758
  21  574.7313
  22  1150.857
  23  1281.012
  24  544.6968
  25  637.0075
  26  753.029
  27  431.8187
  28  124.9002
  29  420.5511
  30  195.5157
  31  -121.8509
  32  25.15972
  33  -0.1091483
  34  133.3099
  35  -297.3971
  36  367.5862
  37  1369.781
  38  1270.11
  39  596.2736
  40  370.3265
  41  502.3288
  42  -183.4405
  43  170.7059
  44  788.2449
  45  1239.412
  46  972.2067
  47  1246.509
  48  837.9122
  49  -395.7932
  50  -532.9055
  51  323.9536
  52  833.8314
  53  67.1832
  54  -330.3462
  55  171.9603
  56  209.5667
  57  211.8143
  58  876.0924
  59  743.4969
  60  38.79084
  61  -307.8144
  62  823.7189
  63  944.8164
  64  533.7527
  65  554.6297
  66  598.1449
  67  622.1522
  68  803.3428
  69  604.277
  70  649.016
  71  93.58075
  72  435.4715
  73  901.1768
  74  -147.729
  75  -713.1945
  76  141.9608
  77  624.0565
  78  529.2132
  79  773.1108
  80  984.0285
  81  -182.3535
  82  -741.0254
  83  -321.603
  84  350.0083
  85  -15.09521
  86  336.6413
  87  592.2183
  88  388.0255
  89  53.25623
  90  794.8095
  91  1030.255
  92  144.1152
  93  201.5034
  94  412.068
  95  724.2029
  96  -225.0723
  97  102.2602
  98  1250.496
  99  653.3193
 100  -181.3712
 101  112.2517
 102  488.9768
 103  32.7872
 104  217.1674
 105  816.2405
 106  817.1855
 107  659.3497
 108  1277.501
 109  1057.155
 110  -37.30095
 111  -260.7309
 112  730.6589
 113  689.9954
 114  -238.0027
 115  727.2617
 116  824.0547
 117  89.24304
 118  52.37254
 119  484.8029
 120  412.6389
 121  -227.7341
 122  -4.428535
 123  463.5722
 124  732.2441
 125  17.11008
 126  606.4486
 127  534.7446
 128  278.349
 129  758.8663
 130  509.8853
 131  834.3387
 132  205.2864
 133  789.3354
 134  306.3253
 135  -683.8307
 136  -373.8574
 137  898.0726
 138  911.9861
 139  248.5962
 140  390.2094
 141  908.2557
 142  -96.65508
 143  -868.6582
 144  565.6873
 145  717.9269
 146  -245.0273
 147  -348.4668
 148  357.3169
 149  23.39392
 150  -653.2884
 151  214.2601
 152  465.4854
 153  76.95921
 154  -313.0388
 155  568.2186
 156  468.6285
 157  102.013
 158  293.3947
 159  672.9142
 160  -7.523643
 161  24.27893
 162  910.5997
 163  499.901
 164  -204.2111
 165  -10.61106
 166  904.1542
 167  369.0263
 168  -886.511
 169  330.2454
 170  1010.828
 171  384.9233
 172  378.8799
 173  994.7216
 174  778.856
 175  -487.0943
 176  -174.297
 177  174.1269
 178  347.7318
 179  20.99749
 180  652.7178
 181  189.0445
 182  -73.0215
 183  -305.6825
 184  804.3438
 185  946.7495
 186  802.6451
 187  442.4222
 188  -100.3376
 189  -406.3321
 190  -615.9557
 191  208.9273
 192  321.3186
 193  15.9537
 194  395.6358
 195  485.4799
 196  52.96231
 197  -82.09047
 198  262.8174
 199  365.5542
 200  24.64999
 201  591.5237
 202  963.2672
 203  330.8159
 204  191.2738
 205  566.7858
 206  402.3044
 207  -379.74
 208  -83.79472
 209  901.064
 210  513.0782
 211  507.3394
 212  867.8314
 213  1143.884
 214  697.703
 215  202.5449
 216  1117.756
 217  1234.849
 218  362.1096
 219  648.1813
 220  845.6545
 221  346.9487
 222  225.0827
 223  1300.703
 224  1153.168
 225  61.95154
 226  161.7801
 227  654.7589
 228  430.0561
 229  69.44197
 230  624.3674
 231  806.4885
 232  191.9374
 233  193.8153
 234  496.2364
 235  226.6642
 236  -600.4839
 237  -385.9967
 238  544.7386
 239  390.1165
 240  151.9939
 241  208.0797
 242  -100.1133
 243  -341.737
 244  -125.3518
 245  223.0213
 246  43.23234
 247  338.0358
 248  833.9368
 249  434.1382
 250  -321.8341
 251  -392.1554
 252  425.8576
 253  182.2739
 254  -176.8495
 255  -86.13255
 256  639.6553
 257  -25.43361
 258  108.4093
 259  552.7706
 260  742.9139
 261  685.595
 262  422.2507
 263  240.9904
 264  587.0251
 265  82.30086
 266  94.96791
 267  7.754512
 268  163.7787
 269  1096.507
 270  1951.247
 271  1157.775
 272  289.1768
 273  354.5135
 274  285.2284
 275  202.4085
 276  469.2251
 277  933.3553
 278  327.3183
 279  -168.4498
 280  68.69107
 281  -206.5265
 282  -51.4754
 283  45.09737
 284  -100.126
 285  -322.8054
 286  -761.632
 287  151.0895
 288  -177.6459
 289  -541.1895
 290  155.387
 291  597.4584
 292  516.5886
 293  130.5158
 294  -71.87145
 295  363.5158
 296  -257.4371
 297  103.5464
 298  341.4927
 299  635.0471
 300  17.80303
 301  321.0667
 302  971.192
 303  966.7418
 304  272.2748
 305  680.7303
 306  1109.514
 307  552.2282
 308  208.0561
 309  1093.826
 310  968.6042
 311  -421.0774
 312  -260.1887
 313  395.2724
 314  281.9942
 315  -26.74843
 316  183.278
 317  803.4534
 318  173.1262
 319  669.3177
 320  755.1143
 321  270.5171
 322  79.99237
 323  846.041
 324  931.4456
 325  65.54399
 326  43.12881
 327  68.12558
 328  391.3178
 329  176.836
 330  938.8661
 331  886.5228
 332  -34.63935
 333  29.26108
 334  245.6143
 335  204.9429
 336  -383.1518
 337  374.1447
 338  449.0876
 339  -16.68403
 340  -520.4769
 341  162.5211
 342  980.748
 343  -61.38228
 344  429.5486
 345  646.6063
 346  498.8344
 347  -124.4738
 348  219.244
 349  428.0052
 350  163.3564
 351  247.6099
 352  596.2177
 353  900.1165
 354  451.8355
 355  44.73041
 356  -77.31294
 357  -671.0146
 358  -831.5402
 359  -677.3106
 360  7.664764
 361  -655.955
 362  -210.6799
 363  590.9207
 364  -182.6768
 365  -879.1793
 366  -216.0866
 367  298.8328
 368  -176.2574
 369  -252.8869
 370  678.3506
 371  404.9521
 372  267.6708
 373  1008.712
 374  1016.013
 375  744.2788
 376  285.3975
 377  409.0132
 378  432.6595
 379  65.49608
 380  120.296
 381  690.2827
 382  -5.608303
 383  145.4373
 384  692.5944
 385  621.8932
 386  425.2142
 387  1025.702
 388  1369.336
 389  1337.947
 390  132.8342
 391  -110.0123
 392  -143.0284
 393  -170.0448
 394  -367.3802
 395  -129.2865
 396  178.0534
 397  -230.7984
 398  -470.0758
 399  -197.157
 400  566.1612
 401  362.6563
 402  433.6446
 403  247.3806
 404  -1054.095
 405  -941.2523
 406  -218.9403
 407  327.3222
 408  -27.60323
 409  -501.4119
 410  -1.802524
 411  -439.9706
 412  -1167.5
 413  -697.1197
 414  -158.3962
 415  659.8306
 416  1584.24
 417  1268.614
 418  -10.66808
 419  -283.4432
 420  430.7792
 421  319.8294
 422  -4.290377
 423  1006.731
 424  989.0974
 425  387.53
 426  105.6941
 427  420.1254
 428  638.2335
 429  395.8337
 430  1039.26
 431  1363.771
 432  556.2057
 433  76.72772
 434  731.2349
 435  254.8596
 436  -36.62968
 437  52.10849
 438  655.1102
 439  -53.15676
 440  -869.0281
 441  -49.30217
 442  466.6897
 443  -83.16698
 444  -367.0164
 445  561.4838
 446  335.6874
 447  -106.2306
 448  -51.33931
 449  961.837
 450  986.5959
 451  274.5719
 452  743.0948
 453  842.3951
 454  -129.6239
 455  87.26829
 456  544.7872
 457  552.8448
 458  332.9203
 459  894.9546
 460  1076.464
 461  -146.7235
 462  -504.9412
 463  -457.1768
 464  -395.7448
 465  -469.5053
 466  -13.27136
 467  1113.038
 468  648.1349
 469  118.9097
 470  376.3497
 471  -4.476663
 472  -963.6394
 473  -743.0488
 474  458.5168
 475  536.8365
 476  286.4918
 477  422.1326
 478  511.8631
 479  -67.4187
 480  -354.6573
 481  433.406
 482  353.3781
 483  458.9763
 484  635.2288
 485  376.2125
 486  335.7959
 487  220.2424
 488  761.7186
 489  49.87393
 490  -552.9556
 491  -16.81895
 492  609.6467
 493  677.4743
 494  605.8787
 495  848.582
 496  1120.621
 497  652.3466
 498  335.6367
 499  915.9489
 500  700.7461
 501  967.439
 502  1584.207
 503  1319.969
 504  265.2434
 505  -281.1313
 506  512.6865
 507  465.5699
 508  -113.3638
 509  288.3065
 510  828.2709
 511  337.4802
