# Input file       =  1196779532.114438-PSRB0329-2ms-sampling-dd.dat
# Candidate        =  PSR_0332+5434
# Telescope        =  AR
# Epoch_topo       =  58095.615174935629
# Epoch_bary       =  N/A
# T_sample         =  0.002
# Data Folded      =  7208960
# Data Avg         =  -2.84256387381855e-10
# Data StdDev      =  6.37256286815877 
# Profile Bins     =  512
# Profile Avg      =  -0.0196732835593124
# Profile StdDev   =  756.163057628178 
# Reduced chi-sqr  =  0.910
# Prob(Noise)      <  0.928   (~0.0 sigma)
# P_topo (ms)      =  714.533477455941  +/- 2.63e-05
# P'_topo (s/s)    =  -0                +/- 1.41e-11
# P''_topo (s/s^2) =  0                 +/- 6.36e-15
# P_bary (ms)      =  N/A
# P'_bary (s/s)    =  N/A
# P''_bary (s/s^2) =  N/A
# P_orb (s)        =  N/A
# asin(i)/c (s)    =  N/A
# eccentricity     =  N/A
# w (rad)          =  N/A
# T_peri           =  N/A
######################################################
   0  -422.1704
   1  -477.5192
   2  -529.6143
   3  -411.0991
   4  318.6309
   5  220.5826
   6  -147.9088
   7  -722.5604
   8  -805.2051
   9  -455.2093
  10  -702.8027
  11  -116.9088
  12  14.33317
  13  444.2811
  14  410.6218
  15  58.38423
  16  -290.989
  17  -263.861
  18  -313.0746
  19  -591.3149
  20  -155.6789
  21  428.3011
  22  173.423
  23  -490.914
  24  -869.2368
  25  -820.9364
  26  -784.9105
  27  -451.4315
  28  55.39676
  29  482.9549
  30  443.3926
  31  -199.1826
  32  -201.5716
  33  -320.8372
  34  -176.1662
  35  -170.0592
  36  -45.64871
  37  220.3585
  38  74.0537
  39  153.1675
  40  -324.0942
  41  -714.2526
  42  -726.5622
  43  -440.809
  44  -120.115
  45  407.4459
  46  439.0127
  47  169.9931
  48  -423.6286
  49  -450.9739
  50  309.037
  51  242.3871
  52  862.5023
  53  922.0469
  54  628.6165
  55  313.1687
  56  -47.75711
  57  -186.834
  58  -496.0068
  59  -418.1312
  60  321.1677
  61  328.7723
  62  1043.639
  63  560.6946
  64  69.46243
  65  -219.9642
  66  -186.6827
  67  -40.80202
  68  172.2814
  69  74.14236
  70  269.0453
  71  33.44493
  72  -745.3461
  73  -564.4616
  74  -389.5965
  75  -147.0009
  76  -254.2573
  77  -111.2768
  78  570.3849
  79  331.2686
  80  909.4828
  81  192.1937
  82  -424.6175
  83  -463.1196
  84  -611.8755
  85  -446.9406
  86  207.1474
  87  756.389
  88  679.3249
  89  -27.12667
  90  -770.5251
  91  -1114.812
  92  -880.1465
  93  -783.9003
  94  273.3915
  95  455.5777
  96  826.576
  97  295.312
  98  -521.941
  99  -901.7928
 100  -639.5986
 101  -104.0661
 102  409.1519
 103  1015.481
 104  236.4612
 105  -611.931
 106  -920.2704
 107  -829.7596
 108  -278.3668
 109  60.44411
 110  518.2486
 111  624.7232
 112  203.8983
 113  6.077222
 114  -648.5509
 115  -443.4785
 116  -14.79976
 117  645.8234
 118  314.3548
 119  194.5358
 120  -55.25263
 121  -7.706686
 122  -647.2902
 123  -908.3817
 124  -473.1846
 125  -237.4843
 126  -90.13428
 127  -50.76135
 128  45.8725
 129  505.0766
 130  -287.1907
 131  -338.2718
 132  -391.1093
 133  -348.2543
 134  -391.2893
 135  37.72673
 136  896.244
 137  528.2292
 138  142.0797
 139  -479.1107
 140  -648.4341
 141  -779.424
 142  -231.1653
 143  496.8948
 144  1066.906
 145  1290.509
 146  422.4911
 147  -190.0317
 148  -846.9943
 149  -591.4548
 150  -96.80387
 151  340.5269
 152  612.7071
 153  456.8311
 154  351.2334
 155  -963.5228
 156  -961.0795
 157  -1030.899
 158  -856.2543
 159  -290.7975
 160  -252.8277
 161  548.0898
 162  358.3905
 163  430.1768
 164  -374.4016
 165  -756.5202
 166  -164.313
 167  -380.8303
 168  -332.6942
 169  184.2902
 170  954.8237
 171  572.6558
 172  -175.209
 173  -1125.12
 174  -862.3986
 175  -468.2495
 176  -404.1514
 177  311.1122
 178  1043.933
 179  860.5486
 180  412.6095
 181  -227.5606
 182  -333.3447
 183  15.67164
 184  303.3695
 185  944.0496
 186  1390.877
 187  654.4979
 188  -147.9809
 189  -476.8977
 190  -716.2065
 191  -53.74472
 192  -487.1137
 193  101.0685
 194  485.0521
 195  455.808
 196  327.9939
 197  -459.2356
 198  -251.4962
 199  -523.376
 200  -371.8861
 201  431.1196
 202  950.7602
 203  879.0059
 204  404.2096
 205  -364.5749
 206  -467.7612
 207  -297.9458
 208  -416.8736
 209  -242.5366
 210  871.0973
 211  1225.915
 212  649.2122
 213  243.3799
 214  -207.2015
 215  -327.778
 216  -268.4462
 217  -28.49083
 218  629.6697
 219  696.9983
 220  676.0722
 221  327.1033
 222  -560.8366
 223  -514.8799
 224  -365.7423
 225  163.2513
 226  688.6024
 227  840.719
 228  1329.588
 229  201.9789
 230  -361.3612
 231  -615.3854
 232  -604.8494
 233  -399.8976
 234  409.912
 235  1082.715
 236  762.3807
 237  143.0055
 238  -394.3947
 239  -628.0807
 240  -552.1282
 241  -364.7977
 242  177.2478
 243  394.4122
 244  927.4705
 245  522.8721
 246  127.4992
 247  -602.8858
 248  -636.5021
 249  -94.48142
 250  -17.45452
 251  383.6693
 252  739.3308
 253  195.6875
 254  -247.3432
 255  -509.3456
 256  -766.8456
 257  -284.4063
 258  289.8396
 259  67.75947
 260  487.9643
 261  515.4746
 262  188.8585
 263  20.63886
 264  -352.2846
 265  39.51868
 266  47.29028
 267  310.5056
 268  510.9922
 269  485.9843
 270  136.5568
 271  -370.362
 272  -763.4697
 273  -504.2821
 274  -155.5047
 275  -364.4277
 276  10.24504
 277  595.5039
 278  689.0026
 279  628.2831
 280  -460.8889
 281  -364.8887
 282  -244.5164
 283  -289.8796
 284  20.75892
 285  897.0177
 286  643.309
 287  141.0131
 288  -332.9732
 289  -513.2056
 290  -36.39539
 291  601.2794
 292  812.9666
 293  820.369
 294  480.2799
 295  -196.511
 296  -742.361
 297  -706.2095
 298  -360.4303
 299  -39.54729
 300  67.19133
 301  526.7928
 302  448.6392
 303  -5.703484
 304  -367.0812
 305  -693.9901
 306  -876.6992
 307  -201.1984
 308  341.9664
 309  320.3281
 310  208.2565
 311  543.7409
 312  343.6903
 313  248.7752
 314  385.7555
 315  193.3741
 316  134.8374
 317  535.7103
 318  710.0672
 319  153.6013
 320  -132.7239
 321  -81.78558
 322  -50.5475
 323  290.1927
 324  371.1026
 325  743.1331
 326  343.6801
 327  652.4272
 328  289.7495
 329  -438.3503
 330  -527.4146
 331  -554.1137
 332  182.5458
 333  622.8926
 334  1110.746
 335  841.5955
 336  90.8388
 337  -792.6329
 338  -1011.841
 339  -518.9175
 340  -79.60221
 341  642.9154
 342  545.5765
 343  947.5762
 344  200.2025
 345  -605.5182
 346  -297.8505
 347  -425.7651
 348  -21.65453
 349  12.97747
 350  492.6654
 351  503.0598
 352  264.2193
 353  -210.1999
 354  -469.6686
 355  -580.599
 356  -693.058
 357  -58.55642
 358  591.7947
 359  676.3082
 360  526.4378
 361  447.6318
 362  -37.25652
 363  -294.2564
 364  -386.6633
 365  -281.5356
 366  -348.4245
 367  365.4652
 368  399.9686
 369  -226.022
 370  -524.6172
 371  -839.3857
 372  -911.1113
 373  -174.0912
 374  403.7961
 375  461.4033
 376  713.9913
 377  386.6206
 378  -44.09451
 379  -493.6872
 380  -794.5048
 381  -639.3368
 382  -384.9224
 383  -59.72186
 384  240.657
 385  189.4955
 386  -21.50659
 387  -498.8936
 388  -371.7185
 389  -264.9598
 390  282.1728
 391  361.144
 392  848.3177
 393  465.9191
 394  147.0034
 395  289.4399
 396  181.752
 397  386.0944
 398  292.0835
 399  -80.08347
 400  44.25167
 401  309.3031
 402  -18.99105
 403  25.01156
 404  -301.0467
 405  -211.9945
 406  50.45665
 407  671.471
 408  1073.63
 409  835.3398
 410  657.9736
 411  -523.4978
 412  -986.9196
 413  -564.9421
 414  -536.7715
 415  361.6246
 416  789.1856
 417  596.5593
 418  135.1622
 419  -191.5807
 420  -845.8517
 421  -756.5106
 422  -428.168
 423  -212.6298
 424  610.3611
 425  366.3114
 426  858.8867
 427  203.3914
 428  -132.438
 429  -56.80646
 430  -208.8201
 431  -559.2753
 432  -1049.667
 433  -251.7594
 434  234.9673
 435  505.4693
 436  -183.0098
 437  -730.7292
 438  -1124.04
 439  -768.9088
 440  -547.6101
 441  55.75034
 442  792.7237
 443  255.1428
 444  -329.0934
 445  -544.4664
 446  -1034.05
 447  -550.4889
 448  -300.2773
 449  -64.15003
 450  388.7758
 451  626.7639
 452  -345.4255
 453  -1045.629
 454  -1279.142
 455  -959.058
 456  -126.7981
 457  40.78224
 458  733.0214
 459  1027.408
 460  757.8918
 461  193.0855
 462  -315.386
 463  -330.1458
 464  -146.9398
 465  -195.1255
 466  280.3752
 467  441.6146
 468  313.2604
 469  -568.5867
 470  -598.5574
 471  -365.3614
 472  -472.3301
 473  -115.1781
 474  107.6243
 475  718.6313
 476  389.1338
 477  120.4603
 478  -141.5507
 479  -530.1976
 480  -183.0455
 481  232.3587
 482  363.4952
 483  409.1028
 484  304.9625
 485  -126.99
 486  -284.5281
 487  -949.3211
 488  -780.035
 489  25.71899
 490  182.3522
 491  1032.744
 492  1072.064
 493  716.1707
 494  -66.19228
 495  -642.5751
 496  -387.7597
 497  -79.45211
 498  249.9083
 499  755.2917
 500  533.585
 501  -38.95888
 502  299.7523
 503  -141.3007
 504  -529.6423
 505  18.22506
 506  -9.951689
 507  784.3413
 508  1184.669
 509  827.9382
 510  161.3412
 511  -155.7381
