# Input file       =  1196693364.105924-PSRB0329-2ms-sampling-dd.dat
# Candidate        =  PSR_0332+5434
# Telescope        =  AR
# Epoch_topo       =  58094.617860022270
# Epoch_bary       =  N/A
# T_sample         =  0.002
# Data Folded      =  7208960
# Data Avg         =  -1.7965623132736e-10
# Data StdDev      =  8.90724763409104 
# Profile Bins     =  512
# Profile Avg      =  0.0881037202285159
# Profile StdDev   =  1056.92666285012 
# Reduced chi-sqr  =  0.821
# Prob(Noise)      <  0.999   (~0.0 sigma)
# P_topo (ms)      =  714.532460214948  +/- 5.21e-05
# P'_topo (s/s)    =  -0                +/- 2.8e-11
# P''_topo (s/s^2) =  0                 +/- 1.26e-14
# P_bary (ms)      =  N/A
# P'_bary (s/s)    =  N/A
# P''_bary (s/s^2) =  N/A
# P_orb (s)        =  N/A
# asin(i)/c (s)    =  N/A
# eccentricity     =  N/A
# w (rad)          =  N/A
# T_peri           =  N/A
######################################################
   0  332.6863
   1  719.5984
   2  1014.213
   3  1011.026
   4  348.7451
   5  518.8843
   6  549.4093
   7  380.489
   8  137.619
   9  885.3561
  10  246.0836
  11  -241.1816
  12  -226.1163
  13  758.1451
  14  163.7652
  15  188.4269
  16  668.8641
  17  1169.735
  18  786.0892
  19  728.3996
  20  1222.366
  21  462.9871
  22  -443.9125
  23  -615.3406
  24  -1169.3
  25  -1137.027
  26  -1029.119
  27  588.879
  28  601.1694
  29  58.3904
  30  -298.8575
  31  -213.8502
  32  -1738.507
  33  -1341.341
  34  314.6118
  35  788.2509
  36  332.6352
  37  649.3889
  38  1292.706
  39  349.1408
  40  209.918
  41  51.95395
  42  -174.0971
  43  438.4125
  44  777.0276
  45  751.4599
  46  126.283
  47  280.2956
  48  270.3606
  49  229.7879
  50  -432.3587
  51  -22.87988
  52  922.5368
  53  931.9581
  54  503.216
  55  412.4781
  56  -229.1408
  57  -285.8859
  58  -555.5847
  59  -342.4445
  60  -472.9631
  61  -724.4329
  62  124.3889
  63  116.7491
  64  -118.9676
  65  -3.342503
  66  182.482
  67  217.9719
  68  -65.39391
  69  120.1456
  70  733.6456
  71  777.6013
  72  -507.1184
  73  -109.2972
  74  -535.3232
  75  -1576.834
  76  -344.0628
  77  266.1667
  78  437.4399
  79  -275.2697
  80  57.42188
  81  952.1329
  82  284.79
  83  406.8081
  84  933.3393
  85  2053.774
  86  1004.976
  87  949.2122
  88  1022.474
  89  -346.9156
  90  -690.5206
  91  -611.5677
  92  -192.6623
  93  -576.0214
  94  -299.8787
  95  92.45903
  96  -183.024
  97  -977.4282
  98  -642.3171
  99  -251.2962
 100  302.7076
 101  898.5248
 102  1063.2
 103  849.6688
 104  61.23782
 105  23.61021
 106  495.2461
 107  -945.1806
 108  -1227.285
 109  -874.3528
 110  62.15391
 111  467.79
 112  331.0307
 113  142.6468
 114  24.21303
 115  -298.0685
 116  -465.2277
 117  468.4831
 118  1133.279
 119  953.8344
 120  569.3421
 121  157.3876
 122  -777.1272
 123  -1539.119
 124  -1196.068
 125  -1196.735
 126  -946.0825
 127  -300.2252
 128  -276.0058
 129  -849.0844
 130  -1406.825
 131  -1401.12
 132  -1405.018
 133  -841.911
 134  324.1092
 135  998.32
 136  468.9449
 137  52.55307
 138  157.8069
 139  72.19585
 140  -1189.132
 141  -338.8184
 142  448.5772
 143  256.4578
 144  -234.4823
 145  796.8289
 146  381.022
 147  -698.4084
 148  -1067.682
 149  -720.3146
 150  -433.7408
 151  -133.8764
 152  593.0562
 153  547.9318
 154  302.6493
 155  -287.5109
 156  -767.2996
 157  -105.4488
 158  -838.5137
 159  620.1894
 160  63.93488
 161  -976.7596
 162  -1471.424
 163  -988.4564
 164  -1105.467
 165  -1109.211
 166  9.900355
 167  852.1161
 168  592.5456
 169  414.6844
 170  405.4319
 171  605.0543
 172  553.8033
 173  374.5246
 174  192.1459
 175  -1141.417
 176  -1388.49
 177  133.6194
 178  125.6485
 179  -229.9669
 180  -1057.288
 181  -234.2959
 182  -203.5175
 183  -79.62994
 184  512.0192
 185  952.8724
 186  1016.882
 187  890.5902
 188  407.8901
 189  -265.8233
 190  -846.8337
 191  -217.3087
 192  735.33
 193  1008.083
 194  335.4671
 195  905.4167
 196  459.5155
 197  -689.8111
 198  -595.5349
 199  1219.188
 200  1607.509
 201  1273.236
 202  1115.315
 203  496.1452
 204  -420.9188
 205  -1029.642
 206  -494.3906
 207  -505.2085
 208  -477.3164
 209  30.07964
 210  87.70145
 211  -326.0507
 212  -42.29573
 213  -674.3502
 214  -670.2376
 215  -451.7939
 216  815.217
 217  1345.711
 218  641.9725
 219  578.9449
 220  561.6931
 221  628.91
 222  31.55265
 223  -397.356
 224  103.178
 225  196.1908
 226  45.65964
 227  613.2836
 228  969.9397
 229  -482.0152
 230  -681.3715
 231  359.0285
 232  85.20902
 233  354.0472
 234  796.6483
 235  480.6473
 236  469.6058
 237  372.2414
 238  557.9316
 239  300.088
 240  -219.7585
 241  -456.6222
 242  361.5006
 243  28.64831
 244  -22.20121
 245  -86.55959
 246  -92.23228
 247  -221.8251
 248  -163.4607
 249  1261.777
 250  1341.339
 251  671.2986
 252  436.6887
 253  567.4084
 254  128.7261
 255  -133.4603
 256  -168.7726
 257  33.57258
 258  174.2747
 259  -358.2794
 260  -369.9114
 261  -884.0093
 262  -1809.903
 263  -1574.095
 264  -1585.162
 265  -1020.908
 266  -898.7304
 267  -202.5629
 268  -154.8131
 269  -457.8328
 270  -359.4616
 271  -1443.099
 272  -1881.096
 273  -1664.053
 274  85.90581
 275  339.9167
 276  -12.86495
 277  -379.3365
 278  -709.2396
 279  -1118.725
 280  -1381.019
 281  -370.7849
 282  919.963
 283  1551.976
 284  2419.006
 285  1538.105
 286  22.54341
 287  344.4897
 288  -610.3531
 289  -570.5927
 290  -277.2164
 291  -581.8908
 292  -197.36
 293  -367.4906
 294  174.9049
 295  -77.0697
 296  -554.4951
 297  -42.50173
 298  254.6006
 299  34.48753
 300  137.7733
 301  -32.5849
 302  628.8182
 303  235.1102
 304  -389.2828
 305  -632.5128
 306  -858.6339
 307  -665.8253
 308  -567.0652
 309  -91.262
 310  356.6239
 311  75.73567
 312  -753.6276
 313  -111.7883
 314  6.246961
 315  496.4991
 316  803.1088
 317  754.6398
 318  105.9562
 319  -354.8625
 320  -250.1552
 321  -539.3181
 322  -1034.977
 323  -693.8868
 324  -243.7792
 325  -540.2565
 326  -671.0565
 327  -276.497
 328  -297.5497
 329  -652.5322
 330  -768.5135
 331  -94.51598
 332  265.8044
 333  198.3398
 334  412.9322
 335  857.3829
 336  429.6523
 337  4.267812
 338  -186.3903
 339  276.0023
 340  394.4035
 341  366.9279
 342  516.1598
 343  311.0004
 344  -486.9595
 345  -389.0647
 346  -288.1257
 347  -505.4089
 348  -23.94078
 349  1135.476
 350  1556.737
 351  664.6936
 352  178.163
 353  -158.9514
 354  -936.229
 355  -808.8865
 356  -551.1653
 357  369.2649
 358  -195.7067
 359  -407.0753
 360  -1020.442
 361  -1223.439
 362  -1413.65
 363  -706.3984
 364  270.9731
 365  26.01556
 366  104.1662
 367  440.0577
 368  108.9811
 369  -496.7445
 370  -453.7047
 371  -593.5327
 372  -1532.304
 373  -1216.521
 374  -451.7628
 375  121.6394
 376  -305.1013
 377  -267.0051
 378  -22.2066
 379  -310.9641
 380  -103.7744
 381  29.35784
 382  579.8054
 383  1426.635
 384  955.6544
 385  1499.285
 386  922.2724
 387  398.0535
 388  289.7866
 389  891.4531
 390  733.9524
 391  1029.438
 392  731.6024
 393  544.0249
 394  -104.6348
 395  -754.3298
 396  -600.0808
 397  -392.7816
 398  -161.162
 399  237.9003
 400  934.6268
 401  -154.7394
 402  -507.3683
 403  -331.9208
 404  -750.9713
 405  -1311.923
 406  -1147.023
 407  155.5458
 408  -280.3495
 409  -642.66
 410  -447.8026
 411  -862.366
 412  -911.9695
 413  -278.0205
 414  -27.96882
 415  422.5464
 416  625.5694
 417  421.8878
 418  862.5862
 419  409.6855
 420  172.9335
 421  -287.6222
 422  -1220.459
 423  -1310.335
 424  -482.9826
 425  -380.2165
 426  -430.7952
 427  -982.1764
 428  -502.2602
 429  -250.9582
 430  -387.0168
 431  68.88031
 432  527.3566
 433  555.5806
 434  356.4699
 435  647.6005
 436  182.2308
 437  -486.5816
 438  -589.2288
 439  -475.4555
 440  463.6378
 441  -74.31891
 442  -685.3398
 443  -987.1005
 444  -481.1979
 445  -428.4693
 446  453.5571
 447  614.1168
 448  419.8873
 449  1060.81
 450  1017.989
 451  23.32333
 452  -289.185
 453  -116.097
 454  -404.0626
 455  -1271.449
 456  -549.2218
 457  664.3016
 458  -85.06346
 459  -635.8385
 460  -506.6401
 461  -646.6089
 462  -1201.619
 463  -299.1767
 464  967.3907
 465  673.407
 466  479.123
 467  217.9002
 468  234.3039
 469  -162.638
 470  -181.7343
 471  -247.4844
 472  -578.5222
 473  -747.6097
 474  56.3896
 475  -130.2033
 476  -354.1211
 477  -356.3222
 478  5.445597
 479  397.7179
 480  637.3499
 481  1012.184
 482  1286.15
 483  1194.118
 484  192.7991
 485  -240.8933
 486  -375.3668
 487  -696.0325
 488  -763.702
 489  -368.8309
 490  -452.0126
 491  -176.9562
 492  -14.90395
 493  765.1486
 494  712.8596
 495  446.1205
 496  1175.558
 497  2012.989
 498  1217.491
 499  1371.129
 500  1511.821
 501  491.2493
 502  341.8327
 503  11.63732
 504  782.9545
 505  516.6403
 506  251.1413
 507  678.2404
 508  610.6129
 509  230.7555
 510  125.1255
 511  224.4162
