# Input file       =  1196004548.112581-PSRB0329-2ms-sampling-dd.dat
# Candidate        =  PSR_0332+5434
# Telescope        =  AR
# Epoch_topo       =  58086.645452691911
# Epoch_bary       =  N/A
# T_sample         =  0.002
# Data Folded      =  7208960
# Data Avg         =  -9.3487386138166e-10
# Data StdDev      =  118.623964588432 
# Profile Bins     =  512
# Profile Avg      =  0.0867490226511921
# Profile StdDev   =  14075.8218674243 
# Reduced chi-sqr  =  0.918
# Prob(Noise)      <  0.909   (~0.0 sigma)
# P_topo (ms)      =  714.524265766815  +/- 0.000196
# P'_topo (s/s)    =  -0                +/- 1.05e-10
# P''_topo (s/s^2) =  0                 +/- 4.74e-14
# P_bary (ms)      =  N/A
# P'_bary (s/s)    =  N/A
# P''_bary (s/s^2) =  N/A
# P_orb (s)        =  N/A
# asin(i)/c (s)    =  N/A
# eccentricity     =  N/A
# w (rad)          =  N/A
# T_peri           =  N/A
######################################################
   0  5510.799
   1  4259.873
   2  2346.724
   3  -5785.942
   4  2939.767
   5  -1603.904
   6  -3863.068
   7  -3403.951
   8  -1693.682
   9  -7355.771
  10  -4390.771
  11  289.3463
  12  -1815.849
  13  -2636.781
  14  -2162.533
  15  -2297.295
  16  -3561.585
  17  -2319.497
  18  3230.605
  19  3033.104
  20  137.4408
  21  2184.505
  22  2853.708
  23  5898.644
  24  2923.077
  25  2309.46
  26  -1386.036
  27  -7921.64
  28  -8049.686
  29  -8085.593
  30  -9612.383
  31  -7646.589
  32  -6656.036
  33  -709.7367
  34  -3586.1
  35  -1351.316
  36  -5201.266
  37  -5925.434
  38  -4845.382
  39  -368.1915
  40  1823.697
  41  -5508.389
  42  -8358.302
  43  -9202.846
  44  -7748.954
  45  -8529.999
  46  -2157.167
  47  7481.937
  48  21457.27
  49  30583.19
  50  27869.59
  51  22836.47
  52  -2209.358
  53  8999.357
  54  26157.64
  55  35323.68
  56  27936.48
  57  22412.02
  58  5621.651
  59  -7533.891
  60  -10670.79
  61  -8319.152
  62  -7280.052
  63  -5285.675
  64  -9926.955
  65  -6923.479
  66  -6904.593
  67  -6981.054
  68  -8651.966
  69  -7195.996
  70  -8224.642
  71  -7147.19
  72  -4366.057
  73  -4505.378
  74  -5844.574
  75  -6831.265
  76  -4434.61
  77  -4401.548
  78  -1306.56
  79  -4554.276
  80  -7221.886
  81  -6866.868
  82  -7933.389
  83  -5827.855
  84  -5558.639
  85  -3808.396
  86  -6033.492
  87  -6721.543
  88  -5969.332
  89  -8070.218
  90  -11304.13
  91  -11316.98
  92  -8465.281
  93  -4693.629
  94  -1538.388
  95  -2544.328
  96  -7668.327
  97  -7858.184
  98  -3806.388
  99  -5267.024
 100  -5404.75
 101  -3594.578
 102  -7777.943
 103  -5997.339
 104  -3441.182
 105  1105.237
 106  5379.627
 107  5989.742
 108  5750.208
 109  8097.621
 110  2244.896
 111  -4707.168
 112  -7230.85
 113  6751.777
 114  13096.56
 115  16007.53
 116  11601.58
 117  4923.896
 118  -3129.18
 119  -5619.6
 120  -7909.115
 121  -5044.262
 122  -5624.524
 123  -4387.398
 124  -6555.348
 125  -5070.487
 126  -1581.122
 127  2034.977
 128  3525.378
 129  4562.095
 130  1958.811
 131  780.7499
 132  -6798.775
 133  -1157.708
 134  -1173.827
 135  8974.127
 136  6912.935
 137  8647.849
 138  3971.84
 139  -692.9785
 140  -3138.335
 141  -7197.128
 142  -6127.617
 143  -4745.447
 144  -1049.245
 145  -4290.78
 146  -3751.6
 147  -907.6669
 148  -211.0619
 149  -1257.34
 150  -5904.089
 151  -4810.246
 152  -6136.225
 153  -7058.837
 154  -4018.083
 155  -3356.937
 156  -2696.53
 157  -2459.949
 158  -1086.96
 159  -4522.146
 160  -3690.551
 161  -7540.166
 162  -3405.893
 163  -5357.122
 164  -3691.446
 165  -5583.108
 166  -6984.052
 167  -10442.37
 168  -12107.59
 169  -6534.464
 170  -7817.456
 171  -7682.024
 172  -9341.727
 173  -7706.291
 174  -5480.656
 175  -4187.33
 176  -3838.197
 177  -8414.839
 178  -5859.262
 179  -6590.468
 180  -4484.014
 181  -5765.633
 182  -3283.839
 183  1156.884
 184  -1385.86
 185  -3499.053
 186  -10090.34
 187  -12480.31
 188  -11534.77
 189  -6394.057
 190  -8069.845
 191  -4532.79
 192  -4997.889
 193  -7990.014
 194  -8003.616
 195  -11899.4
 196  -11387.09
 197  -6501.285
 198  -7638.861
 199  -8471.594
 200  -6608.735
 201  -2282.631
 202  -4298.034
 203  6776.22
 204  10336.54
 205  14407.21
 206  20828.08
 207  7155.397
 208  9786.55
 209  6028.928
 210  33784.3
 211  35383.31
 212  29071.68
 213  17592.22
 214  946.1388
 215  205.6124
 216  -2792.722
 217  -998.6331
 218  -2340.321
 219  -4321.548
 220  -5484.862
 221  -4430.968
 222  -70.80159
 223  -7115.488
 224  -8544.951
 225  -6813.203
 226  -4905.023
 227  -7655.479
 228  -6406.318
 229  -4461.611
 230  -6994.369
 231  -8598.686
 232  -8835.717
 233  -7844.367
 234  -4044.854
 235  -5011.971
 236  -4693.688
 237  -4237.469
 238  -3554.506
 239  -2465.369
 240  -3023.77
 241  -5689.719
 242  -3885.52
 243  -1252.691
 244  803.1383
 245  -3447.468
 246  -3177.475
 247  -2590.62
 248  -661.0038
 249  -1179.51
 250  -373.4171
 251  806.4359
 252  -4409.671
 253  -4188.92
 254  -408.1008
 255  -650.2032
 256  4876.743
 257  8427.543
 258  14342.05
 259  16533.2
 260  8734.391
 261  -1348.14
 262  200.6804
 263  9410.32
 264  15805.76
 265  11849.94
 266  11243.24
 267  6164.945
 268  -1118.312
 269  -1095.651
 270  -5512.134
 271  -4053.605
 272  -2844.276
 273  -3564.176
 274  -5624.208
 275  -8151.198
 276  -5170.11
 277  -4244.923
 278  -4853.125
 279  -6313.854
 280  -8325.492
 281  -11755.4
 282  -7778.237
 283  -5664.604
 284  -6400.469
 285  -5842.215
 286  -7394.232
 287  -4915.64
 288  -6632.376
 289  -4403.337
 290  -6551.517
 291  -1097.254
 292  -397.0982
 293  1016.179
 294  565.0903
 295  -157.3437
 296  -936.1107
 297  -3973.558
 298  -9906.314
 299  -10202.92
 300  -7070.718
 301  -3074.472
 302  -4851.305
 303  -2349.546
 304  -2466.644
 305  -3670.484
 306  4086.854
 307  9605.683
 308  11383.86
 309  8731.146
 310  -4895.354
 311  -5947.354
 312  6063.456
 313  21230.58
 314  23146.81
 315  25578.3
 316  22865.8
 317  5986.494
 318  -6273.422
 319  3556.082
 320  16175.14
 321  22807.75
 322  24983.06
 323  18398.11
 324  5237.844
 325  -9920.456
 326  -6608.11
 327  108.9395
 328  15536.07
 329  24277.29
 330  22367.17
 331  14970.38
 332  1257.031
 333  636.7689
 334  9173.935
 335  26892.6
 336  38614.73
 337  36990.14
 338  29230.92
 339  1170.131
 340  4590.671
 341  11294.03
 342  33270.62
 343  36464.43
 344  36443.74
 345  28193.97
 346  264.5811
 347  165.8825
 348  6656.639
 349  21345.78
 350  24086.05
 351  24559.71
 352  17740.58
 353  2265.383
 354  1500.714
 355  4845.618
 356  6751.672
 357  6957.86
 358  11144.84
 359  19597.61
 360  14500.47
 361  14612.08
 362  19950.31
 363  20461.15
 364  18006.33
 365  21659.4
 366  28814.85
 367  25774.83
 368  25564.08
 369  27718.13
 370  18628.73
 371  13920.49
 372  5510.602
 373  3894.492
 374  -31.40587
 375  1225.131
 376  -757.7513
 377  -3972.429
 378  -5991.104
 379  -1792.096
 380  -178.3069
 381  -1413.095
 382  4416.336
 383  4176.851
 384  -4577.521
 385  -6676.562
 386  -3028.318
 387  5736.747
 388  3813.425
 389  5433.701
 390  -284.9372
 391  -256.1104
 392  -132.0312
 393  665.9417
 394  9836.94
 395  7420.045
 396  7788.039
 397  8544.24
 398  6650.808
 399  398.6479
 400  -1233.354
 401  4824.505
 402  3293.199
 403  -2947.198
 404  -3192.044
 405  -2710.032
 406  -4700.497
 407  -3639.125
 408  -6704.615
 409  -5827.818
 410  -6975.572
 411  -2219.142
 412  -2744.414
 413  -5270.942
 414  -5724.745
 415  -7087.062
 416  -7268.71
 417  -5682.915
 418  -2323.248
 419  -1456.041
 420  -2375.539
 421  -6067.917
 422  -2773.945
 423  -258.829
 424  -2370.478
 425  -1679.424
 426  -2509.496
 427  -7151.365
 428  -7849.402
 429  -2453.516
 430  2568.104
 431  -2731.296
 432  -3429.266
 433  -7118.319
 434  -7844.902
 435  -8990.936
 436  -9821.53
 437  -7619.544
 438  -4401.748
 439  -1309.92
 440  -1057.665
 441  -4976.37
 442  -10120.35
 443  -10190.25
 444  -1176.42
 445  1023.297
 446  -1352.217
 447  -3606.469
 448  -4206.893
 449  -7912.698
 450  -7964.161
 451  -7213.402
 452  -5007.147
 453  -1251.367
 454  861.4589
 455  -3360.05
 456  -4876.499
 457  -6530.361
 458  -6608.732
 459  -10406.79
 460  -9526.802
 461  -8187.577
 462  -6772.012
 463  -6822.389
 464  -7165.095
 465  -9558.604
 466  -7636.452
 467  -6336.309
 468  -6782.615
 469  -12706.47
 470  -10839.63
 471  -7925.442
 472  -6477.087
 473  -6533.648
 474  -10083.21
 475  -6856.48
 476  -8908.153
 477  -8377.618
 478  -5733.378
 479  -2041.322
 480  -2081.063
 481  -5515.249
 482  -10707.05
 483  -7575.849
 484  -5880.035
 485  -9077.08
 486  -7574.875
 487  -7690.021
 488  -6013.152
 489  -7085.791
 490  -6388.621
 491  -5031.609
 492  -5098.436
 493  -6000.614
 494  -2738.519
 495  -380.6777
 496  -5287.749
 497  -3937.314
 498  -3146.958
 499  -4062.29
 500  -4299.341
 501  -3628.996
 502  2517.058
 503  2873.967
 504  5832.818
 505  5559.627
 506  4928.502
 507  951.8392
 508  -4613.317
 509  -3595.746
 510  2476.771
 511  7196.562
