# Input file       =  1196105373.116092_cleaned.dat
# Candidate        =  PSR_0332+5434
# Telescope        =  AR
# Epoch_topo       =  58087.812408751066
# Epoch_bary       =  N/A
# T_sample         =  0.002
# Data Folded      =  7340032
# Data Avg         =  0.141802225907408
# Data StdDev      =  4.02463375380236 
# Profile Bins     =  512
# Profile Avg      =  2033.38564506045 
# Profile StdDev   =  481.881619647178 
# Reduced chi-sqr  =  0.629
# Prob(Noise)      <  1   (~0.0 sigma)
# P_topo (ms)      =  714.525495038232  +/- 0.000389
# P'_topo (s/s)    =  -0                +/- 2.05e-10
# P''_topo (s/s^2) =  0                 +/- 9.07e-14
# P_bary (ms)      =  N/A
# P'_bary (s/s)    =  N/A
# P''_bary (s/s^2) =  N/A
# P_orb (s)        =  N/A
# asin(i)/c (s)    =  N/A
# eccentricity     =  N/A
# w (rad)          =  N/A
# T_peri           =  N/A
######################################################
   0  2194.371
   1  2069.935
   2  2274.292
   3  1976.621
   4  2207.144
   5  2068.056
   6  1996.729
   7  1813.111
   8  2133.439
   9  1929.507
  10  1821.899
  11  1680.097
  12  1271.005
  13  1415.439
  14  1846.875
  15  1636.995
  16  1962.512
  17  2155.857
  18  2114.187
  19  1739.792
  20  1797.938
  21  2054.928
  22  1904.912
  23  1730.031
  24  2106.672
  25  2296.582
  26  2281.875
  27  2352.118
  28  2471.149
  29  2571.917
  30  2336.328
  31  2338.856
  32  2419.879
  33  2712.927
  34  2527.795
  35  2312.58
  36  2449.714
  37  2288.203
  38  2238.662
  39  2391.652
  40  2584.785
  41  2354.831
  42  2285.387
  43  2178.126
  44  2097.598
  45  1901.044
  46  1779.243
  47  2111.297
  48  2114.591
  49  2131.039
  50  1902.588
  51  1903.894
  52  1880.349
  53  1909.482
  54  2045.331
  55  2132.644
  56  2382.605
  57  2150.981
  58  1847.922
  59  1812.465
  60  1858.821
  61  2074.826
  62  2224.084
  63  2159.182
  64  1973.674
  65  1694.497
  66  1796.471
  67  1930.899
  68  1846.178
  69  2250.367
  70  2365.323
  71  1930.392
  72  1557.274
  73  1481.004
  74  1865.239
  75  2043.357
  76  1899.334
  77  1626.756
  78  1602.746
  79  1708.572
  80  1847.838
  81  1763.5
  82  1475.982
  83  1488.783
  84  1507.703
  85  1623.098
  86  1687.29
  87  1767.325
  88  1784.186
  89  1731.237
  90  1777.023
  91  1740.24
  92  1936.052
  93  1844.335
  94  1823.018
  95  1974.267
  96  1927.812
  97  1795.951
  98  1644.451
  99  1415.907
 100  1406.228
 101  1679.594
 102  1912.781
 103  2166.659
 104  2059.24
 105  1726.352
 106  1529.738
 107  1770.632
 108  2403.714
 109  2243.539
 110  2172.297
 111  2396.201
 112  2185.925
 113  1828.18
 114  1947.271
 115  2239.462
 116  2123.299
 117  2149.271
 118  2107.354
 119  2198.242
 120  2115.891
 121  1594.417
 122  1681.185
 123  1989.502
 124  2022.186
 125  1815.526
 126  1822.593
 127  1935.279
 128  2194.41
 129  1851.312
 130  1797.755
 131  1904.379
 132  1986.321
 133  2250.99
 134  2078.322
 135  1958.336
 136  1777.37
 137  1882.278
 138  1939.822
 139  1827.335
 140  1661.706
 141  1890.195
 142  2097.033
 143  1985.057
 144  1687.948
 145  1588.708
 146  1935.611
 147  2339.796
 148  2451.352
 149  2244.497
 150  2042.465
 151  1893.172
 152  2036.412
 153  1711.636
 154  1824.398
 155  1867.129
 156  1578.917
 157  1707.181
 158  1869.072
 159  1499.049
 160  1510.855
 161  1429.123
 162  1704.137
 163  2016.68
 164  2090.298
 165  2115.954
 166  2223.591
 167  2045.639
 168  1914.82
 169  1775.822
 170  1844.915
 171  1760.866
 172  1479.851
 173  1755.466
 174  1814.65
 175  1930.465
 176  1826.536
 177  1905.986
 178  1610.259
 179  1376.043
 180  1433.241
 181  1878.848
 182  2012.079
 183  2043.506
 184  2365.765
 185  2152.049
 186  1753.881
 187  1778.085
 188  2048.796
 189  2295.672
 190  2329.341
 191  2018.249
 192  1594.506
 193  1591.964
 194  1953.033
 195  1651.87
 196  2122.045
 197  2085.707
 198  1622.969
 199  1794.693
 200  1890.328
 201  1999.341
 202  2001.198
 203  2066.259
 204  2219.113
 205  2404.353
 206  2138.87
 207  2045.877
 208  1968.982
 209  1652.486
 210  1708.682
 211  1795.765
 212  1796.685
 213  1947.836
 214  1784.025
 215  1816.906
 216  1979.595
 217  2085.105
 218  1759.907
 219  1741.993
 220  1993.22
 221  2073.296
 222  1818.885
 223  2444.142
 224  2299.809
 225  1867.063
 226  1935.748
 227  2040.247
 228  2079.054
 229  2033.306
 230  1837.331
 231  1903.769
 232  1860.068
 233  2049.117
 234  1882.682
 235  1817.977
 236  2158.978
 237  2514.154
 238  2225.96
 239  2125.913
 240  2402.203
 241  1945.321
 242  1713.079
 243  1738.731
 244  2154.316
 245  2209.508
 246  2145.213
 247  2280.529
 248  2017.807
 249  1857.298
 250  1658.242
 251  1624.914
 252  1376.887
 253  1767.356
 254  2155.263
 255  1883.293
 256  1899.264
 257  1969.759
 258  1938.671
 259  1619.769
 260  1849.489
 261  2029.49
 262  2171.878
 263  2163.499
 264  2173.492
 265  1857.843
 266  2035.962
 267  2300.57
 268  1956.177
 269  2039.232
 270  1976.219
 271  1855.877
 272  1929.804
 273  1974.351
 274  1878.471
 275  1779.757
 276  1564.68
 277  1847.605
 278  2052.673
 279  1915.466
 280  1856.769
 281  1898.23
 282  1951.091
 283  1972.42
 284  1992.142
 285  1931.308
 286  1773.891
 287  2009.295
 288  2023.963
 289  2069.223
 290  2068.601
 291  2017.553
 292  1990.717
 293  2192.793
 294  1981.383
 295  1988.607
 296  2139.896
 297  2247.462
 298  2113.32
 299  2092.194
 300  2401.926
 301  2401.543
 302  2363.664
 303  2369.703
 304  2288.989
 305  1860.244
 306  1609.842
 307  1600.96
 308  1999.193
 309  2033.173
 310  2112.203
 311  2098.292
 312  1962.859
 313  2011.451
 314  2049.557
 315  2239.675
 316  2343.266
 317  2342.986
 318  2172.13
 319  2443.884
 320  2431.443
 321  1850.415
 322  1734.269
 323  2218.22
 324  1931.684
 325  1438.82
 326  1640.383
 327  1911.836
 328  1752.077
 329  2207.233
 330  2185.634
 331  2357.975
 332  2143.244
 333  2259.796
 334  1996.519
 335  2049.287
 336  2199.221
 337  2231.562
 338  2360.031
 339  2131.635
 340  2128.955
 341  2165.895
 342  2220.69
 343  2219.674
 344  2309.25
 345  2328.792
 346  2043.524
 347  2043.64
 348  1905.77
 349  1760.676
 350  1758.852
 351  2181.636
 352  2188.726
 353  2132.248
 354  2428.109
 355  2215.16
 356  2154.796
 357  1972.047
 358  2210.784
 359  2146.405
 360  1975.17
 361  2257.154
 362  2266.699
 363  2040.035
 364  2164.871
 365  2281.177
 366  2122.219
 367  2022.922
 368  1949.258
 369  1936.161
 370  1945.478
 371  2112.829
 372  2449.688
 373  2167.7
 374  2193.656
 375  2199.787
 376  2182.589
 377  1970.134
 378  1963.629
 379  2153.302
 380  2008.59
 381  1879.301
 382  1877.122
 383  2045.734
 384  2108.905
 385  2581.817
 386  2312.189
 387  2055.383
 388  2377.469
 389  2656.677
 390  2084.652
 391  2409.351
 392  2331.376
 393  2117.586
 394  2193.495
 395  2271.581
 396  2113.01
 397  2145.358
 398  2476.958
 399  1997.259
 400  1912.27
 401  1907.061
 402  2423.207
 403  2936.598
 404  3130.931
 405  3378.194
 406  3390.063
 407  3102.547
 408  2729.111
 409  2452.142
 410  2427.35
 411  2073.363
 412  2293.248
 413  2695.8
 414  2239.026
 415  2023.987
 416  1965.977
 417  2234.897
 418  2322.124
 419  2142.207
 420  2253.203
 421  1939.752
 422  1822.718
 423  1811.649
 424  1798.087
 425  1787.179
 426  2293.161
 427  2358.47
 428  2142.72
 429  2084.623
 430  2068.235
 431  2150.27
 432  2315.95
 433  2542.445
 434  2118.442
 435  2057.011
 436  1741.083
 437  2364.876
 438  2424.564
 439  2041.679
 440  2653.218
 441  2589.68
 442  2433.314
 443  2058.724
 444  2041.807
 445  2142.467
 446  2491.502
 447  2290.329
 448  2103.068
 449  2290.966
 450  2385.755
 451  2476.462
 452  2202.54
 453  2239.185
 454  1935.043
 455  1871.879
 456  2187.514
 457  2159.306
 458  2152.555
 459  2153.316
 460  1995.122
 461  2193.814
 462  2095.236
 463  1906.384
 464  2128.272
 465  2258.113
 466  2196.904
 467  1818.496
 468  2060.284
 469  2160.881
 470  2328.629
 471  2419.213
 472  2232.676
 473  2062
 474  2076.77
 475  2042.772
 476  1812.104
 477  1693.609
 478  2024.429
 479  1959.031
 480  1964.978
 481  1984.495
 482  1946.753
 483  1955.413
 484  1983.073
 485  2059.959
 486  1731.819
 487  1886.439
 488  2136.42
 489  2106.03
 490  2142.915
 491  2107.526
 492  1896.231
 493  2145.987
 494  2073.137
 495  1935.453
 496  2053.466
 497  2044.148
 498  2386.823
 499  2589.644
 500  1794.01
 501  1311.239
 502  1442.479
 503  1965.571
 504  2103.094
 505  2100.61
 506  1896.986
 507  1739.146
 508  1944.578
 509  1897.969
 510  1845.553
 511  2181.811
