# Input file       =  1196378798.121901_cleaned.dat
# Candidate        =  PSR_0332+5434
# Telescope        =  AR
# Epoch_topo       =  58090.977050022004
# Epoch_bary       =  N/A
# T_sample         =  0.002
# Data Folded      =  7340032
# Data Avg         =  0.0261466134326476
# Data StdDev      =  1.00010889707388 
# Profile Bins     =  512
# Profile Avg      =  374.822623537857 
# Profile StdDev   =  119.746074954074 
# Reduced chi-sqr  =  0.802
# Prob(Noise)      <  1   (~0.0 sigma)
# P_topo (ms)      =  714.529091480522  +/- 0.000996
# P'_topo (s/s)    =  -0                +/- 5.26e-10
# P''_topo (s/s^2) =  0                 +/- 2.32e-13
# P_bary (ms)      =  N/A
# P'_bary (s/s)    =  N/A
# P''_bary (s/s^2) =  N/A
# P_orb (s)        =  N/A
# asin(i)/c (s)    =  N/A
# eccentricity     =  N/A
# w (rad)          =  N/A
# T_peri           =  N/A
######################################################
   0  359.4279
   1  330.4842
   2  361.4278
   3  398.9643
   4  320.0317
   5  442.5177
   6  400.372
   7  394.4516
   8  381.4615
   9  262.3679
  10  338.5622
  11  446.6998
  12  510.2704
  13  386.6261
  14  256.0226
  15  401.2864
  16  418.5837
  17  362.0225
  18  359.2583
  19  360.4135
  20  363.2612
  21  393.146
  22  406.264
  23  423.8906
  24  369.5135
  25  315.0995
  26  395.9652
  27  492.24
  28  325.8903
  29  338.7221
  30  374.6335
  31  365.4838
  32  402.0976
  33  294.2659
  34  274.2466
  35  245.1653
  36  470.4273
  37  513.7327
  38  404.9046
  39  372.159
  40  390.0033
  41  382.4426
  42  349.7885
  43  343.6062
  44  349.9676
  45  388.2634
  46  371.0711
  47  413.1625
  48  287.3296
  49  229.2778
  50  393.5313
  51  453.3374
  52  472.9688
  53  308.7166
  54  458.9221
  55  431.6922
  56  300.6129
  57  254.7363
  58  344.5633
  59  494.5847
  60  410.5863
  61  409.1564
  62  518.3236
  63  450.5789
  64  340.9389
  65  417.4911
  66  489.7671
  67  411.6281
  68  366.3912
  69  419.8829
  70  430.4833
  71  393.2654
  72  450.8884
  73  429.4028
  74  414.9602
  75  454.9243
  76  418.3207
  77  408.0378
  78  360.7003
  79  313.0369
  80  305.13
  81  404.7933
  82  387.7316
  83  361.6602
  84  286.8217
  85  301.6213
  86  240.3014
  87  384.1035
  88  297.2229
  89  418.1435
  90  397.3253
  91  317.2065
  92  322.6877
  93  271.408
  94  335.6249
  95  331.9625
  96  312.2091
  97  400.0538
  98  466.0954
  99  431.4521
 100  415.7003
 101  444.2447
 102  354.7386
 103  227.0137
 104  255.9109
 105  315.495
 106  298.05
 107  257.3763
 108  366.3704
 109  488.164
 110  451.3152
 111  458.1859
 112  429.8712
 113  397.9226
 114  364.1827
 115  429.423
 116  400.2426
 117  456.0431
 118  480.027
 119  408.6161
 120  405.6323
 121  513.1738
 122  515.7122
 123  430.0533
 124  452.5741
 125  537.727
 126  495.3158
 127  429.9248
 128  425.0372
 129  381.6342
 130  425.1869
 131  536.7118
 132  423.9416
 133  359.0236
 134  469.1142
 135  498.2341
 136  457.577
 137  634.4775
 138  727.1766
 139  699.8205
 140  548.7178
 141  489.897
 142  449.1735
 143  409.3133
 144  355.0491
 145  429.2153
 146  477.461
 147  474.679
 148  379.224
 149  244.3162
 150  338.6003
 151  403.1625
 152  270.0637
 153  317.2967
 154  472.2782
 155  476.6677
 156  448.1273
 157  419.5359
 158  389.1204
 159  294.7137
 160  219.664
 161  161.6886
 162  230.226
 163  411.5347
 164  278.3527
 165  247.7797
 166  392.1654
 167  359.2473
 168  343.6316
 169  256.7686
 170  282.6622
 171  369.4843
 172  338.4756
 173  339.2872
 174  293.3164
 175  291.9445
 176  299.1642
 177  403.8691
 178  303.4495
 179  327.0372
 180  359.8549
 181  364.2538
 182  375.3218
 183  370.2862
 184  397.5342
 185  375.4863
 186  378.3409
 187  408.4565
 188  415.2434
 189  425.5525
 190  401.1741
 191  401.643
 192  356.103
 193  402.4613
 194  429.4392
 195  353.2704
 196  364.1769
 197  434.6054
 198  405.9254
 199  379.6651
 200  279.4694
 201  235.3934
 202  249.6462
 203  197.2301
 204  159.8963
 205  314.3143
 206  379.8584
 207  501.5625
 208  370.8786
 209  164.4416
 210  283.9021
 211  246.6517
 212  256.0413
 213  321.523
 214  416.0086
 215  394.342
 216  263.8392
 217  306.1695
 218  309.3399
 219  284.962
 220  288.1834
 221  408.0506
 222  408.5601
 223  389.4303
 224  397.9323
 225  395.3584
 226  446.7415
 227  454.6425
 228  378.1719
 229  381.9464
 230  423.9809
 231  489.8731
 232  420.836
 233  294.8008
 234  397.3771
 235  456.2649
 236  443.2516
 237  521.0691
 238  563.6982
 239  500.6461
 240  499.5182
 241  485.3384
 242  488.909
 243  424.2888
 244  351.7492
 245  452.7689
 246  412.3946
 247  392.4148
 248  394.4978
 249  440.5323
 250  403.1175
 251  378.3713
 252  299.6202
 253  284.0066
 254  295.6089
 255  323.7254
 256  376.0841
 257  392.6513
 258  347.7222
 259  353.798
 260  386.855
 261  410.0643
 262  388.0779
 263  448.8914
 264  436.179
 265  393.4631
 266  394.4869
 267  528.2165
 268  446.0337
 269  402.8056
 270  306.7412
 271  365.0624
 272  318.1346
 273  287.4885
 274  256.9799
 275  259.9344
 276  390.7469
 277  320.6777
 278  335.5551
 279  455.6096
 280  456.5498
 281  452.4847
 282  390.6727
 283  334.1466
 284  283.0523
 285  363.0201
 286  322.7989
 287  389.4832
 288  312.2677
 289  304.2557
 290  305.4178
 291  376.9263
 292  337.1543
 293  299.9698
 294  297.9855
 295  380.5601
 296  330.3714
 297  342.1662
 298  444.0808
 299  565.6625
 300  499.2755
 301  452.9706
 302  455.032
 303  451.7994
 304  397.6591
 305  306.7047
 306  300.2267
 307  420.799
 308  372.2726
 309  349.8127
 310  402.0609
 311  346.735
 312  369.709
 313  305.15
 314  209.404
 315  266.1549
 316  329.632
 317  381.1295
 318  378.0343
 319  426.9775
 320  403.2933
 321  394.2497
 322  420.9713
 323  460.6369
 324  346.0465
 325  402.6768
 326  452.7875
 327  473.2171
 328  406.1996
 329  381.2842
 330  466.6133
 331  376.3782
 332  281.5209
 333  306.8047
 334  420.0493
 335  395.4612
 336  415.8217
 337  298.6251
 338  258.8414
 339  292.2767
 340  396.7895
 341  329.624
 342  308.3135
 343  317.6706
 344  394.5619
 345  351.8285
 346  259.6944
 347  295.0674
 348  327.2978
 349  347.0406
 350  330.785
 351  178.3374
 352  283.8048
 353  310.2524
 354  243.738
 355  185.5727
 356  299.2143
 357  228.1546
 358  272.4027
 359  249.4784
 360  358.4342
 361  411.9141
 362  332.2508
 363  389.4708
 364  311.787
 365  267.35
 366  366.6674
 367  477.249
 368  368.7607
 369  405.3245
 370  330.6983
 371  372.8506
 372  354.0508
 373  314.9614
 374  414.123
 375  388.071
 376  317.8374
 377  403.7631
 378  376.5685
 379  375.4569
 380  331.0769
 381  341.7132
 382  391.9469
 383  378.9196
 384  323.2602
 385  347.8064
 386  404.0569
 387  313.3665
 388  331.1781
 389  368.8575
 390  237.0744
 391  216.4583
 392  373.508
 393  445.2126
 394  414.3093
 395  452.6212
 396  326.7769
 397  272.6365
 398  351.1601
 399  459.539
 400  324.6933
 401  233.1525
 402  359.4181
 403  266.1356
 404  287.6462
 405  309.0569
 406  260.427
 407  253.5987
 408  249.9118
 409  357.364
 410  370.581
 411  280.0615
 412  315.8943
 413  278.8776
 414  257.8456
 415  369.4745
 416  510.2549
 417  388.1388
 418  418.5264
 419  387.2153
 420  326.2492
 421  284.4038
 422  430.3357
 423  367.3146
 424  375.7149
 425  313.6713
 426  297.9999
 427  301.8192
 428  296.0342
 429  361.0368
 430  486.5843
 431  433.8086
 432  462.4236
 433  395.748
 434  520.8915
 435  452.9306
 436  272.7055
 437  261.2635
 438  370.6405
 439  308.5636
 440  195.7112
 441  194.4669
 442  265.599
 443  326.8767
 444  348.6244
 445  331.3727
 446  307.1494
 447  289.4341
 448  366.3656
 449  397.3163
 450  503.9139
 451  508.4962
 452  523.1516
 453  438.2647
 454  294.0022
 455  321.442
 456  451.5403
 457  314.6876
 458  415.9518
 459  391.2488
 460  360.2986
 461  333.5219
 462  310.0491
 463  364.1869
 464  340.2839
 465  339.9799
 466  400.9811
 467  391.3362
 468  303.7911
 469  365.6479
 470  401.4961
 471  462.2142
 472  489.454
 473  453.8274
 474  459.8192
 475  434.7054
 476  438.3441
 477  375.6043
 478  400.5149
 479  304.2839
 480  382.7338
 481  452.0754
 482  423.1104
 483  439.317
 484  470.8618
 485  502.7134
 486  434.6096
 487  385.9038
 488  355.8332
 489  419.1997
 490  393.0194
 491  393.2657
 492  382.0507
 493  357.5341
 494  411.3289
 495  497.1526
 496  438.907
 497  430.4655
 498  446.0164
 499  350.828
 500  301.2261
 501  397.8986
 502  460.0378
 503  404.5994
 504  448.8056
 505  471.907
 506  374.8083
 507  468.9526
 508  491.9815
 509  431.9902
 510  449.5569
 511  422.3443
