# Input file       =  1196277675.112092_cleaned.dat
# Candidate        =  PSR_0332+5434
# Telescope        =  AR
# Epoch_topo       =  58089.806644815879
# Epoch_bary       =  N/A
# T_sample         =  0.002
# Data Folded      =  7340032
# Data Avg         =  0.165995747437201
# Data StdDev      =  4.33845558801867 
# Profile Bins     =  256
# Profile Avg      =  4759.45148576821 
# Profile StdDev   =  734.622371839737 
# Reduced chi-sqr  =  0.589
# Prob(Noise)      <  1   (~0.0 sigma)
# P_topo (ms)      =  714.527548541884  +/- 0.00089
# P'_topo (s/s)    =  -0                +/- 4.7e-10
# P''_topo (s/s^2) =  0                 +/- 2.07e-13
# P_bary (ms)      =  N/A
# P'_bary (s/s)    =  N/A
# P''_bary (s/s^2) =  N/A
# P_orb (s)        =  N/A
# asin(i)/c (s)    =  N/A
# eccentricity     =  N/A
# w (rad)          =  N/A
# T_peri           =  N/A
######################################################
   0  4858.635
   1  4987.134
   2  4767.937
   3  4906.216
   4  4812.004
   5  4822.942
   6  4646.129
   7  4889.775
   8  5357.437
   9  4673.176
  10  4871.999
  11  4964.354
  12  5155.064
  13  4970.177
  14  5015.882
  15  4643.401
  16  4242.626
  17  4532.253
  18  3946.542
  19  4557.829
  20  4921.614
  21  4447.405
  22  4009.849
  23  4596.357
  24  4544.325
  25  3796.862
  26  3651.821
  27  4772.431
  28  4554.1
  29  4358.179
  30  5020.787
  31  4667.051
  32  4685.375
  33  4725.957
  34  4491.388
  35  4490.183
  36  5057.366
  37  5362.246
  38  5445.697
  39  5693.288
  40  5375.927
  41  5200.288
  42  5105.213
  43  5136.114
  44  5088.143
  45  4788.896
  46  4123.953
  47  4600.803
  48  5372.315
  49  4403.133
  50  5076.389
  51  4307.343
  52  5290.191
  53  4379.382
  54  4152.209
  55  4224.006
  56  5571.341
  57  5016.768
  58  5178.005
  59  4868.983
  60  4404.6
  61  4503.95
  62  4515.623
  63  3436.226
  64  4372.366
  65  4315.724
  66  3467.693
  67  4270.048
  68  4819.272
  69  4958.471
  70  4680.25
  71  4391.529
  72  4897.668
  73  4496.354
  74  4726.644
  75  4054.423
  76  5095.768
  77  5215.245
  78  5196.124
  79  4652.746
  80  5012.05
  81  5706.975
  82  4646.864
  83  4071.864
  84  4544.012
  85  5392.974
  86  5220.506
  87  5291.574
  88  5083.45
  89  5328.437
  90  5085.39
  91  4574.707
  92  4314.104
  93  3466.595
  94  4046.584
  95  4001.247
  96  4735.545
  97  4576.985
  98  3858.146
  99  4759.625
 100  4789.959
 101  5179.493
 102  4366.374
 103  4204.324
 104  4766.092
 105  4917.636
 106  4655.375
 107  4596.047
 108  5294.788
 109  5377.007
 110  5109.987
 111  5420.196
 112  4657.866
 113  5279.253
 114  5464.788
 115  4978.509
 116  4379.677
 117  4314.857
 118  5070.389
 119  4963.145
 120  4670.487
 121  4908.869
 122  5547.815
 123  4678.612
 124  4262.854
 125  3967.12
 126  4591.289
 127  4986.902
 128  4205.189
 129  3386.813
 130  4232.945
 131  4046.096
 132  4121.18
 133  5018.181
 134  4679.259
 135  4367.066
 136  4934.91
 137  4102.052
 138  4276.53
 139  4575.627
 140  5185.079
 141  4389.731
 142  4326.853
 143  4607.114
 144  5193.037
 145  4814.369
 146  4722.74
 147  4739.881
 148  4704.213
 149  5112.126
 150  3747.825
 151  4646.444
 152  4972.963
 153  4240.084
 154  5108.676
 155  6100.069
 156  6261.383
 157  6771.856
 158  5900.739
 159  4806.241
 160  4728.56
 161  4282.049
 162  4513.33
 163  4215.839
 164  4483.236
 165  4678.501
 166  4543.24
 167  4439.392
 168  5082.73
 169  4394.926
 170  4421.253
 171  4896.39
 172  5097.746
 173  4181.154
 174  4962.003
 175  4519.85
 176  5354.296
 177  4922.191
 178  4790.28
 179  5154.106
 180  4643.726
 181  3840.565
 182  4911.207
 183  5194.394
 184  4796.731
 185  3916.312
 186  4443.789
 187  4412.627
 188  4690.559
 189  4863.171
 190  4856.113
 191  4913.471
 192  4167.669
 193  4272.983
 194  5261.643
 195  4729.048
 196  4469.821
 197  4427.258
 198  4958.03
 199  5954.586
 200  5982.465
 201  5206.594
 202  5379.412
 203  5134.837
 204  4725.549
 205  5038.044
 206  4415.552
 207  4346.23
 208  5138.259
 209  5473.97
 210  4597.924
 211  4615.079
 212  4910.061
 213  4858.395
 214  4636.8
 215  4738.634
 216  5203.97
 217  4902.286
 218  4703.504
 219  5471.998
 220  5212.486
 221  4938.62
 222  5278.899
 223  4871.078
 224  5036.832
 225  4803.477
 226  4534.014
 227  4307.486
 228  5013.931
 229  5367.22
 230  4893.925
 231  4326.841
 232  5225.833
 233  5811.769
 234  4687.123
 235  4098.348
 236  4568.479
 237  5340.393
 238  4865.411
 239  4850.867
 240  5171.494
 241  5473.494
 242  4538.699
 243  5149.193
 244  5245.905
 245  4303.567
 246  4265.897
 247  4357.21
 248  4828.667
 249  4936.231
 250  4640.102
 251  4770.88
 252  4395.622
 253  4329.065
 254  4601.736
 255  4455.914
