# Input file       =  1196206442.107451_cleaned.dat
# Candidate        =  PSR_0332+5434
# Telescope        =  AR
# Epoch_topo       =  58088.982188743648
# Epoch_bary       =  N/A
# T_sample         =  0.002
# Data Folded      =  7340032
# Data Avg         =  1.3308152891259  
# Data StdDev      =  11.3937788802378 
# Profile Bins     =  512
# Profile Avg      =  19078.5296844786 
# Profile StdDev   =  1364.21174113634 
# Reduced chi-sqr  =  0.745
# Prob(Noise)      <  1   (~0.0 sigma)
# P_topo (ms)      =  714.527040133862  +/- 2.5e-05
# P'_topo (s/s)    =  -0                +/- 1.32e-11
# P''_topo (s/s^2) =  0                 +/- 5.82e-15
# P_bary (ms)      =  N/A
# P'_bary (s/s)    =  N/A
# P''_bary (s/s^2) =  N/A
# P_orb (s)        =  N/A
# asin(i)/c (s)    =  N/A
# eccentricity     =  N/A
# w (rad)          =  N/A
# T_peri           =  N/A
######################################################
   0  21637.54
   1  19768.78
   2  19794.73
   3  19112.42
   4  17511.97
   5  17999.36
   6  18824.56
   7  18880.87
   8  17988.57
   9  19441.47
  10  19598.43
  11  18779.75
  12  18106.98
  13  18785.07
  14  19321.72
  15  19099.96
  16  18669.5
  17  19962.74
  18  19065.94
  19  18446.95
  20  19562.49
  21  20783.55
  22  20655.83
  23  20158.15
  24  20924.02
  25  20369.24
  26  18094.07
  27  18847.19
  28  19052.33
  29  17970.01
  30  18656.01
  31  20042.57
  32  19819.83
  33  19085.2
  34  18576.7
  35  18787.06
  36  18364.74
  37  18363.69
  38  18385.88
  39  19527.44
  40  19311.93
  41  19321.62
  42  20016.7
  43  20476.64
  44  19530.83
  45  19004.57
  46  19338.32
  47  20802.75
  48  19974.91
  49  18963.47
  50  18400.71
  51  19163.85
  52  19199.57
  53  18955.03
  54  18601.5
  55  18602.32
  56  18988.94
  57  19196.51
  58  18995.68
  59  17788.53
  60  18261.06
  61  17682.29
  62  17000.03
  63  17558.08
  64  18050.79
  65  17805.46
  66  18043.75
  67  18394.68
  68  18142.33
  69  18347.02
  70  17589.66
  71  17876.29
  72  17296.55
  73  16581.18
  74  18248.13
  75  17736.32
  76  17338.32
  77  17866.88
  78  18916.18
  79  18102.71
  80  18339.03
  81  18787.03
  82  18409.98
  83  17440.41
  84  17603.29
  85  19115.67
  86  19622.01
  87  19235.24
  88  19444.01
  89  19532.45
  90  18425.54
  91  17942.52
  92  18810.19
  93  19227.9
  94  17767.71
  95  18696.58
  96  18567.66
  97  18063.34
  98  18061.97
  99  19364.34
 100  19310.93
 101  18798.34
 102  18677.14
 103  18193.53
 104  18039.54
 105  18355.13
 106  19167.04
 107  18965
 108  17624.27
 109  17823.91
 110  18199.61
 111  18360.42
 112  19030.37
 113  19368.61
 114  18607.12
 115  17706.59
 116  17507.73
 117  18124.54
 118  18546.74
 119  19259.98
 120  20092.8
 121  20334.97
 122  18938.06
 123  18767.69
 124  19447.67
 125  19544.39
 126  18567.97
 127  18155.54
 128  19722.27
 129  19775.05
 130  19288.82
 131  19943.99
 132  19609.21
 133  18686.86
 134  18695.4
 135  19570.04
 136  19043.71
 137  18469.03
 138  20198.18
 139  19679.94
 140  18599.29
 141  18907.22
 142  19348.49
 143  19596.07
 144  19317.12
 145  19514.56
 146  20702.08
 147  19450.64
 148  18369.48
 149  19165.92
 150  20058.66
 151  20346.81
 152  21093.03
 153  21496.48
 154  20075.03
 155  20226.46
 156  20816.57
 157  20355.36
 158  19473.5
 159  19218.74
 160  19874.89
 161  19641.65
 162  20005.72
 163  21443.58
 164  19764.99
 165  17840.01
 166  18233.96
 167  19164.8
 168  19911.31
 169  19718.19
 170  20458.88
 171  19850.91
 172  18710.74
 173  17987.74
 174  19099.11
 175  19594.12
 176  19622.07
 177  20507.29
 178  20775.85
 179  19159.86
 180  19206.36
 181  19661.67
 182  20335.34
 183  19098.81
 184  19491.48
 185  21105.89
 186  20107.18
 187  19375.25
 188  19518.1
 189  19698.1
 190  17933.22
 191  18051.46
 192  18107.53
 193  18864.1
 194  18694
 195  18227.63
 196  19224.53
 197  19226.62
 198  19362.07
 199  19244.31
 200  19176.28
 201  18431.09
 202  17876.29
 203  19023.55
 204  19174.15
 205  19315.37
 206  19914.82
 207  20390
 208  18821.38
 209  17972.28
 210  18216.07
 211  18377.65
 212  17330.22
 213  17312.74
 214  18775.18
 215  18377.44
 216  18326.87
 217  18676.8
 218  19347.67
 219  19236.32
 220  18712.26
 221  18535.57
 222  18464.89
 223  19025.94
 224  19803.86
 225  20149.21
 226  18584.39
 227  19138.55
 228  18812.86
 229  18234.3
 230  17007.12
 231  18570.95
 232  19579.29
 233  18056.82
 234  18849.82
 235  19839
 236  19479.43
 237  19338.34
 238  19453.79
 239  18940.36
 240  18743.07
 241  18360.49
 242  18297.71
 243  18612.14
 244  18352.7
 245  18388.32
 246  19364.42
 247  18897.19
 248  18875.61
 249  19919.72
 250  19304.85
 251  18163.77
 252  18809.33
 253  19999.54
 254  18538.94
 255  18586.66
 256  19721.25
 257  19607.84
 258  18701.18
 259  18696.49
 260  19514.05
 261  18326.86
 262  18048.13
 263  19097.14
 264  20287.44
 265  20081.25
 266  18293.94
 267  18319.25
 268  19407.35
 269  18558.45
 270  18416.71
 271  19643.7
 272  18781.38
 273  18446
 274  18148.13
 275  18642.48
 276  17329.2
 277  17635.49
 278  18651.47
 279  19145.14
 280  18542.72
 281  18336.83
 282  18109.48
 283  17653.49
 284  17940.61
 285  19350.29
 286  19518.24
 287  18849.52
 288  19789
 289  19509.37
 290  18012.51
 291  17533.49
 292  19611.39
 293  19720.95
 294  17954.88
 295  19393.13
 296  20949.3
 297  20450.34
 298  19674.47
 299  19870.32
 300  20267.2
 301  18863.82
 302  19401.37
 303  19738.65
 304  19377.03
 305  18664.65
 306  19598.79
 307  19316.94
 308  17931.37
 309  17807.08
 310  17887.84
 311  17684.81
 312  17833.15
 313  18340.2
 314  20094.87
 315  19195.17
 316  17518.79
 317  18103.09
 318  19244.33
 319  19108.84
 320  18025.47
 321  18515.61
 322  19211.79
 323  17793.56
 324  18702.49
 325  18822.54
 326  17284.14
 327  16980.07
 328  19326.81
 329  19554.92
 330  18662.78
 331  17961.15
 332  19079.56
 333  19234.85
 334  17882.51
 335  18613.83
 336  19415.39
 337  18575.46
 338  19108.83
 339  19204.11
 340  18776.79
 341  18499.09
 342  18563.37
 343  19310.15
 344  18950.42
 345  19701.75
 346  20804.01
 347  19786.78
 348  19277.96
 349  19644.52
 350  20140.01
 351  18853.99
 352  18782.46
 353  20346.47
 354  19934.92
 355  19970.07
 356  19840.96
 357  20212.96
 358  18872.71
 359  18058.41
 360  19138.56
 361  19356.75
 362  18524.31
 363  19730.97
 364  19153.23
 365  18203.09
 366  18665.76
 367  19547.48
 368  19659.18
 369  18954.75
 370  18894.35
 371  19922.58
 372  19831.96
 373  18714.95
 374  19354.54
 375  19625.66
 376  20219.56
 377  19862.25
 378  20848.66
 379  20465.52
 380  19206.55
 381  19601.71
 382  20160.38
 383  19679.89
 384  19083.02
 385  19702.6
 386  19800.56
 387  19081.92
 388  18782.67
 389  19965.13
 390  19500.52
 391  19330.37
 392  19648.77
 393  19607.43
 394  19772.74
 395  20170.5
 396  20931.26
 397  19486.55
 398  17814.77
 399  18491.39
 400  19901.86
 401  19971.15
 402  19660.92
 403  19840.64
 404  19724.16
 405  17973.08
 406  18668.79
 407  19956.18
 408  20566.12
 409  18049.86
 410  19407.34
 411  19659.62
 412  18647.58
 413  18620.38
 414  19050.24
 415  18754.3
 416  18169.61
 417  19133.44
 418  20316.52
 419  18983.77
 420  19054.3
 421  19458.18
 422  18362.76
 423  17736.1
 424  18469.89
 425  19363.83
 426  19008.76
 427  19136.4
 428  19498.2
 429  18814.69
 430  18015.41
 431  17867.07
 432  19025.51
 433  18649.93
 434  18016.16
 435  18816.44
 436  19130.69
 437  19033.1
 438  18565.43
 439  20536.75
 440  20617.79
 441  20623.04
 442  20493.7
 443  21155.5
 444  21070.86
 445  19212.53
 446  18680.76
 447  19225.54
 448  19178.9
 449  19134.33
 450  19581.24
 451  18921.48
 452  18246.41
 453  18667.21
 454  19544.4
 455  18231.27
 456  18297.37
 457  18859.48
 458  18968.41
 459  19077.21
 460  19218.12
 461  20026.42
 462  18262.24
 463  18442.19
 464  19438.79
 465  18981.62
 466  18788.38
 467  19037.37
 468  20195.63
 469  20123.6
 470  19324.46
 471  19857.42
 472  19677.9
 473  18924.32
 474  17727.35
 475  19155.73
 476  20065.86
 477  18894.14
 478  19252.63
 479  19657.18
 480  19256.05
 481  17855.54
 482  19470.34
 483  20176.33
 484  19829.79
 485  19710.17
 486  20778.67
 487  19905.34
 488  19264.67
 489  19474.66
 490  18723.47
 491  18717.26
 492  19389.1
 493  19969.89
 494  18903.85
 495  17258.41
 496  18683.7
 497  18746.9
 498  18790.52
 499  20150.81
 500  20857.75
 501  19454.5
 502  18058.23
 503  18765.1
 504  19792.21
 505  19994.53
 506  19623.82
 507  20013.09
 508  20511.96
 509  20423.15
 510  20345.64
 511  20987.96
