# Input file       =  1196880352.139073_cleaned.dat
# Candidate        =  PSR_0332+5434
# Telescope        =  AR
# Epoch_topo       =  58096.782073368900
# Epoch_bary       =  N/A
# T_sample         =  0.002
# Data Folded      =  7340032
# Data Avg         =  0.0286504844731627
# Data StdDev      =  1.00002199604454 
# Profile Bins     =  512
# Profile Avg      =  410.903262452241 
# Profile StdDev   =  119.735670029967 
# Reduced chi-sqr  =  0.782
# Prob(Noise)      <  1   (~0.0 sigma)
# P_topo (ms)      =  714.534676649354  +/- 0.000906
# P'_topo (s/s)    =  -0                +/- 4.78e-10
# P''_topo (s/s^2) =  0                 +/- 2.11e-13
# P_bary (ms)      =  N/A
# P'_bary (s/s)    =  N/A
# P''_bary (s/s^2) =  N/A
# P_orb (s)        =  N/A
# asin(i)/c (s)    =  N/A
# eccentricity     =  N/A
# w (rad)          =  N/A
# T_peri           =  N/A
######################################################
   0  339.6233
   1  325.4414
   2  396.4075
   3  472.7305
   4  532.3721
   5  507.7034
   6  494.7419
   7  371.2284
   8  503.9513
   9  464.6069
  10  512.5221
  11  633.5609
  12  469.6846
  13  553.3975
  14  462.9963
  15  441.051
  16  387.4474
  17  427.8784
  18  503.8116
  19  454.3599
  20  418.7624
  21  434.3319
  22  505.1346
  23  425.1989
  24  417.5931
  25  379.4014
  26  455.1171
  27  447.3429
  28  408.2173
  29  422.9258
  30  423.4513
  31  435.0958
  32  424.7045
  33  373.7246
  34  343.7702
  35  393.7973
  36  386.8492
  37  375.3648
  38  443.5957
  39  437.7592
  40  492.1217
  41  416.2172
  42  376.6215
  43  436.9659
  44  367.0582
  45  344.0624
  46  428.2084
  47  481.5696
  48  278.9279
  49  390.5516
  50  466.8385
  51  396.8474
  52  387.9707
  53  407.2126
  54  361.3571
  55  380.9727
  56  438.7083
  57  402.7489
  58  337.2118
  59  374.1415
  60  311.5736
  61  291.5661
  62  332.9029
  63  340.3554
  64  425.0478
  65  427.2007
  66  458.1315
  67  356.0623
  68  260.6535
  69  260.3756
  70  253.9156
  71  411.485
  72  466.3322
  73  371.0865
  74  370.8077
  75  412.7272
  76  434.9593
  77  414.4632
  78  365.4864
  79  376.1894
  80  366.6449
  81  387.3521
  82  332.2809
  83  340.4458
  84  372.0328
  85  402.1392
  86  407.8676
  87  438.8899
  88  332.7036
  89  327.6111
  90  321.0723
  91  325.4443
  92  253.1803
  93  320.942
  94  385.4948
  95  345.4951
  96  483.0639
  97  468.4261
  98  465.8289
  99  466.0865
 100  327.9561
 101  375.8904
 102  313.746
 103  429.6331
 104  549.603
 105  478.7934
 106  493.9284
 107  528.1077
 108  470.836
 109  473.4162
 110  519.1649
 111  513.7505
 112  453.0204
 113  410.493
 114  352.5011
 115  450.0993
 116  471.0539
 117  355.0145
 118  354.0337
 119  462.5942
 120  484.9493
 121  397.6716
 122  364.3145
 123  455.3845
 124  447.139
 125  416.5656
 126  359.189
 127  413.0354
 128  419.2645
 129  394.5257
 130  461.0884
 131  427.4798
 132  450.5762
 133  287.7082
 134  300.8806
 135  384.7455
 136  376.3144
 137  276.1424
 138  325.6485
 139  350.8114
 140  418.6174
 141  342.6424
 142  296.1768
 143  384.2866
 144  407.9315
 145  262.7568
 146  413.4019
 147  444.4841
 148  417.1687
 149  304.85
 150  325.306
 151  371.4688
 152  323.1555
 153  361.4973
 154  339.285
 155  333.2844
 156  305.0828
 157  276.9889
 158  304.2669
 159  390.1507
 160  391.3564
 161  364.8766
 162  412.07
 163  389.9931
 164  429.17
 165  396.9718
 166  384.9025
 167  369.5192
 168  345.9886
 169  358.216
 170  317.2535
 171  357.0053
 172  427.0381
 173  504.0854
 174  424.1505
 175  479.9945
 176  454.0937
 177  333.8048
 178  285.3506
 179  329.2239
 180  381.6271
 181  409.968
 182  368.6791
 183  363.5069
 184  265.3302
 185  418.981
 186  517.0113
 187  520.6076
 188  375.1604
 189  392.0909
 190  367.5701
 191  274.8517
 192  377.6947
 193  404.5992
 194  398.4766
 195  259.2436
 196  327.9099
 197  410.9464
 198  296.076
 199  283.6521
 200  499.4021
 201  448.3825
 202  314.296
 203  280.6205
 204  319.2673
 205  417.4029
 206  431.5875
 207  416.1911
 208  322.6681
 209  320.1465
 210  526.0057
 211  404.4013
 212  348.8158
 213  341.9753
 214  324.5761
 215  428.457
 216  485.8903
 217  488.9654
 218  454.142
 219  290.5778
 220  326.1408
 221  410.946
 222  413.2402
 223  355.25
 224  422.5163
 225  549.7993
 226  572.9294
 227  439.4103
 228  363.7409
 229  505.2495
 230  472.5503
 231  449.3241
 232  337.8612
 233  420.6582
 234  529.0486
 235  543.9415
 236  468.2172
 237  384.7553
 238  226.5114
 239  236.3537
 240  301.369
 241  376.0447
 242  381.4273
 243  494.3747
 244  354.1463
 245  301.4492
 246  401.0261
 247  406.2273
 248  453.4957
 249  466.227
 250  383.0081
 251  331.2591
 252  420.474
 253  407.7939
 254  418.5907
 255  331.6669
 256  364.6569
 257  424.3073
 258  324.6689
 259  393.1084
 260  406.1574
 261  380.0619
 262  388.194
 263  314.1497
 264  317.4865
 265  355.9517
 266  360.0303
 267  466.7798
 268  447.7376
 269  371.2142
 270  345.7603
 271  421.7742
 272  450.538
 273  422.425
 274  496.7711
 275  396.7362
 276  344.7104
 277  300.6487
 278  405.0829
 279  536.5031
 280  451.2741
 281  425.0961
 282  531.5715
 283  434.5385
 284  362.2746
 285  471.2528
 286  464.8925
 287  382.9662
 288  280.7502
 289  218.861
 290  252.3661
 291  415.0752
 292  532.7642
 293  392.015
 294  318.8004
 295  473.8018
 296  439.9558
 297  376.8352
 298  542.0886
 299  487.3705
 300  426.8662
 301  370.9899
 302  397.6204
 303  321.85
 304  396.5374
 305  484.0982
 306  427.4478
 307  437.9624
 308  397.8026
 309  368.2151
 310  397.0218
 311  501.0209
 312  513.8198
 313  360.1174
 314  360.1999
 315  472.8042
 316  544.4813
 317  453.6394
 318  381.4051
 319  363.4803
 320  402.6659
 321  378.8252
 322  400.0233
 323  423.8845
 324  458.128
 325  500.5854
 326  347.9702
 327  303.3499
 328  243.8571
 329  333.2247
 330  446.327
 331  438.0837
 332  309.9629
 333  306.2225
 334  374.0578
 335  362.5755
 336  376.5138
 337  437.8638
 338  362.2543
 339  357.831
 340  454.1419
 341  458.3525
 342  417.3056
 343  348.273
 344  414.0384
 345  411.9872
 346  493.9074
 347  427.1679
 348  519.9503
 349  376.8325
 350  357.3652
 351  431.2193
 352  553.1506
 353  620.152
 354  718.9448
 355  744.291
 356  850.1884
 357  786.3539
 358  684.4915
 359  482.9109
 360  413.1524
 361  421.2239
 362  411.404
 363  410.4951
 364  405.8882
 365  367.045
 366  435.5338
 367  505.3021
 368  412.8833
 369  457.9637
 370  357.0908
 371  349.1799
 372  410.1667
 373  294.4541
 374  361.6496
 375  393.4996
 376  428.8827
 377  492.5695
 378  487.701
 379  411.154
 380  382.2533
 381  458.0993
 382  536.4457
 383  422.7772
 384  513.0609
 385  374.5844
 386  440.2644
 387  481.5741
 388  456.1964
 389  461.4356
 390  437.3108
 391  497.4037
 392  549.6814
 393  426.2851
 394  424.6358
 395  500.7481
 396  408.2689
 397  311.1092
 398  375.4272
 399  477.8569
 400  476.1414
 401  407.6127
 402  413.1745
 403  366.0837
 404  523.647
 405  544.9911
 406  520.5861
 407  508.3949
 408  464.8523
 409  337.9453
 410  424.5307
 411  488.9697
 412  341.5395
 413  339.1546
 414  531.7349
 415  524.1453
 416  430.1736
 417  317.4655
 418  370.2209
 419  353.4984
 420  405.2461
 421  268.8681
 422  445.0036
 423  523.1609
 424  487.6676
 425  390.8789
 426  335.3829
 427  394.4846
 428  481.9734
 429  320.2342
 430  355.5438
 431  391.2165
 432  500.3112
 433  553.1066
 434  475.0577
 435  387.3232
 436  435.0009
 437  422.6031
 438  464.0707
 439  422.6584
 440  369.1424
 441  391.3726
 442  321.5526
 443  388.1842
 444  404.7797
 445  400.6323
 446  446.0112
 447  468.4923
 448  462.6407
 449  535.4481
 450  523.1727
 451  461.805
 452  477.8615
 453  492.2405
 454  471.5342
 455  452.1314
 456  472.8306
 457  524.0082
 458  442.4711
 459  422.2086
 460  476.8272
 461  503.9976
 462  467.7295
 463  364.4368
 464  356.1627
 465  292.5882
 466  422.1716
 467  422.8997
 468  313.7565
 469  439.4023
 470  376.8478
 471  351.6949
 472  373.5147
 473  459.0182
 474  493.0726
 475  445.3149
 476  377.7764
 477  350.3538
 478  455.2814
 479  373.3847
 480  447.4539
 481  460.3179
 482  381.8781
 483  465.8058
 484  532.4468
 485  440.05
 486  350.3781
 487  377.8554
 488  302.8103
 489  381.9645
 490  378.9283
 491  339.091
 492  464.0181
 493  417.6028
 494  377.8552
 495  383.2355
 496  384.0403
 497  410.1145
 498  396.1884
 499  397.3922
 500  423.4911
 501  461.2873
 502  425.1653
 503  344.2422
 504  458.5794
 505  497.0481
 506  440.3403
 507  377.8349
 508  403.142
 509  365.1332
 510  388.5281
 511  425.5633
