# Input file       =  1196191533.12459_cleaned.dat
# Candidate        =  PSR_0332+5434
# Telescope        =  AR
# Epoch_topo       =  58088.809631071643
# Epoch_bary       =  N/A
# T_sample         =  0.002
# Data Folded      =  7340032
# Data Avg         =  0.253704817638209
# Data StdDev      =  4.60125939982871 
# Profile Bins     =  512
# Profile Avg      =  3637.50300828308 
# Profile StdDev   =  550.922759098628 
# Reduced chi-sqr  =  0.647
# Prob(Noise)      <  1   (~0.0 sigma)
# P_topo (ms)      =  714.526522901503  +/- 7.84e-05
# P'_topo (s/s)    =  -0                +/- 4.14e-11
# P''_topo (s/s^2) =  0                 +/- 1.83e-14
# P_bary (ms)      =  N/A
# P'_bary (s/s)    =  N/A
# P''_bary (s/s^2) =  N/A
# P_orb (s)        =  N/A
# asin(i)/c (s)    =  N/A
# eccentricity     =  N/A
# w (rad)          =  N/A
# T_peri           =  N/A
######################################################
   0  3622.721
   1  3615.171
   2  3193.389
   3  3473.382
   4  3729.956
   5  3763.61
   6  3728.647
   7  3396.84
   8  3293.44
   9  3249.793
  10  3089.517
  11  3504.196
  12  3704.341
  13  3685.772
  14  3353.918
  15  3331.325
  16  3384.083
  17  3525.397
  18  3479.903
  19  3181.273
  20  3542.862
  21  3586.345
  22  3742.223
  23  3484.781
  24  3573.571
  25  3756.716
  26  3955.507
  27  3942.804
  28  3546.2
  29  3541.532
  30  3277.732
  31  3150.647
  32  3251.338
  33  3422.071
  34  3240.773
  35  3492.617
  36  3557.295
  37  2922.865
  38  2873.096
  39  3012.889
  40  3142.769
  41  3119.896
  42  3608.704
  43  3886.834
  44  3476.142
  45  3136.376
  46  3370.318
  47  3576.032
  48  3750.162
  49  3506.101
  50  3471.316
  51  3891.907
  52  4130.042
  53  3802.016
  54  3836.653
  55  3800.964
  56  4124.015
  57  3820.574
  58  3341.22
  59  3457.606
  60  3739.805
  61  3893.553
  62  3924.387
  63  4048.239
  64  3750.184
  65  3506.119
  66  3693.512
  67  3406.878
  68  3963.655
  69  4181.971
  70  4106.667
  71  4044.099
  72  3998.361
  73  3694.994
  74  3283.04
  75  3702.601
  76  3912.359
  77  3692.177
  78  3670.942
  79  3949.208
  80  4261.002
  81  4040.743
  82  3716.937
  83  3694.106
  84  4035
  85  4337.102
  86  4122.602
  87  3918.643
  88  3448.677
  89  3447.699
  90  3857.702
  91  3980.336
  92  3570.677
  93  3212.258
  94  3248.778
  95  3674.245
  96  3699.073
  97  3713.524
  98  3992.089
  99  4110.869
 100  3967.478
 101  3837.876
 102  3566.949
 103  3395.964
 104  3699.783
 105  3955.507
 106  3743.992
 107  3918.079
 108  3911.218
 109  3621.978
 110  3579.341
 111  3641.922
 112  3608.787
 113  3563.169
 114  3673.011
 115  3583.548
 116  3327.875
 117  3118.737
 118  3266.088
 119  3587.456
 120  3500.975
 121  3075.417
 122  3303.47
 123  3537.327
 124  3511.958
 125  3527.299
 126  3308.888
 127  3456.217
 128  3839.725
 129  3852.542
 130  3538.786
 131  3822.139
 132  3290.233
 133  3331.73
 134  3701.912
 135  3513.013
 136  3739.988
 137  3814.621
 138  3659.978
 139  3758.907
 140  3744.994
 141  3616.151
 142  3897.743
 143  4090.358
 144  4141.802
 145  3710.431
 146  3486.874
 147  3960.649
 148  4397.789
 149  4205.974
 150  3985.558
 151  4048.147
 152  4347.728
 153  3990.564
 154  3671.448
 155  4019.867
 156  3997.036
 157  4143.545
 158  4017.849
 159  3773.694
 160  3106.682
 161  3576.062
 162  3639.754
 163  3912.902
 164  4200.148
 165  3709.614
 166  3556.432
 167  3473.383
 168  3311.52
 169  2858.634
 170  2942.047
 171  3972.22
 172  4019.184
 173  3663.062
 174  3200.016
 175  3077.47
 176  3374.766
 177  3613.356
 178  3213.234
 179  3876.288
 180  4191.466
 181  4054.424
 182  3561.233
 183  3399.966
 184  3612.308
 185  3751.907
 186  4020.743
 187  4298.426
 188  3784.265
 189  3708.086
 190  3876.052
 191  3899.045
 192  3901.174
 193  3643.577
 194  3338.883
 195  3252.83
 196  3564.826
 197  3610.802
 198  3608.537
 199  3723.98
 200  4194.627
 201  4629.681
 202  4560.87
 203  4327.867
 204  4316.795
 205  4340.567
 206  4064.914
 207  4096.239
 208  4060.353
 209  3736.117
 210  3848.343
 211  3804.152
 212  3521.648
 213  3203.928
 214  3512.314
 215  3681.724
 216  3824.105
 217  3717.495
 218  3455.947
 219  3569.835
 220  3785.161
 221  3571.547
 222  3639.12
 223  3933.115
 224  4253.722
 225  3874.534
 226  3764.938
 227  3897.423
 228  4028.445
 229  4035.545
 230  4129.166
 231  4126.181
 232  3911.978
 233  4457.587
 234  4541.727
 235  4268.713
 236  3951.844
 237  3536.032
 238  3948.94
 239  4069.537
 240  3998.615
 241  3455.336
 242  3404.326
 243  3751.989
 244  3791.153
 245  3586.732
 246  3466.21
 247  3549.667
 248  3647.893
 249  3713.687
 250  3820.343
 251  3682.435
 252  3951.457
 253  3712.061
 254  3448.853
 255  3623.358
 256  3516.287
 257  3548.615
 258  4058.428
 259  3963.508
 260  3366.429
 261  3131.047
 262  3382.469
 263  3612.677
 264  3426.504
 265  3435.943
 266  3409.948
 267  3812.806
 268  3571.732
 269  2985.76
 270  2994.052
 271  3196.534
 272  3127.612
 273  3207.235
 274  2828.43
 275  2976.47
 276  3254.438
 277  3282.341
 278  3058.571
 279  3312.962
 280  3655.412
 281  3516.425
 282  3513.922
 283  3155.198
 284  3495.091
 285  3431.716
 286  3258.221
 287  3880.049
 288  3976.615
 289  3753.631
 290  3651.597
 291  3851.928
 292  3712.479
 293  3371.627
 294  3668.712
 295  3722.847
 296  3659.938
 297  3496.847
 298  3467.297
 299  3722.216
 300  3608.332
 301  3594.72
 302  3899.523
 303  3734.527
 304  3412.727
 305  3562.141
 306  3952.432
 307  3867.368
 308  3842.358
 309  4141.89
 310  3969.448
 311  3939.926
 312  3880.128
 313  3476.188
 314  3711.248
 315  3868.412
 316  4205.474
 317  4113.68
 318  3991.672
 319  4050.934
 320  3801.614
 321  3721.971
 322  3999.76
 323  4202.716
 324  3671.096
 325  3704.852
 326  3515.65
 327  3541.796
 328  3459.93
 329  3147.128
 330  3398.42
 331  3401.3
 332  3495.693
 333  2996.612
 334  2982.912
 335  3391.618
 336  3167.017
 337  2868.106
 338  3313.397
 339  3547.504
 340  3651.338
 341  3374.881
 342  3251.883
 343  3361.62
 344  3278.783
 345  3407.465
 346  3834.098
 347  3745.682
 348  3830.396
 349  3624.989
 350  3607.698
 351  3808.219
 352  3865.205
 353  4047.464
 354  4179.754
 355  3790.427
 356  3433.085
 357  3222.754
 358  3549.18
 359  3548.228
 360  3615.612
 361  3394.997
 362  3451.377
 363  3782.644
 364  3444.934
 365  3449.753
 366  3452.897
 367  3989.075
 368  3873.323
 369  3413.633
 370  3603.837
 371  3705.41
 372  3887.452
 373  4011.853
 374  3847.311
 375  3727.058
 376  4192.308
 377  4009.74
 378  3312.623
 379  3245.477
 380  3845.164
 381  3997.5
 382  4038.983
 383  3704.216
 384  3538.652
 385  3103.676
 386  3267.755
 387  3704.667
 388  3568.194
 389  3332.178
 390  3572.798
 391  3649.292
 392  3574.459
 393  3354.345
 394  3676.389
 395  3910.075
 396  3513.029
 397  3204.991
 398  3477.548
 399  3849.867
 400  4321.499
 401  4081.339
 402  4360.756
 403  4102.402
 404  3754.759
 405  3261.254
 406  3239.396
 407  3655.904
 408  3784.032
 409  3727.661
 410  3876.103
 411  3815.027
 412  3386.29
 413  3238.945
 414  3450.374
 415  3672.5
 416  3764.247
 417  3787.562
 418  3262.459
 419  3289.708
 420  3244.375
 421  3422.311
 422  3638.154
 423  3967.818
 424  4086.594
 425  3617.551
 426  3365.018
 427  3546.187
 428  3534.857
 429  3575.952
 430  4007.366
 431  4111.466
 432  4043.642
 433  3995.077
 434  3739.553
 435  3962.678
 436  3754.428
 437  4075.461
 438  3863.34
 439  4015.192
 440  3950.477
 441  3498.954
 442  3519.853
 443  3539.592
 444  3407.427
 445  3554.16
 446  3387.622
 447  3313.778
 448  3659.54
 449  3747.633
 450  3644.012
 451  3609.634
 452  3547.379
 453  3602.465
 454  3689.651
 455  3693.572
 456  3576.854
 457  3358.015
 458  3732.399
 459  4048.326
 460  3893.837
 461  3476.434
 462  3481.76
 463  3363.383
 464  3001.947
 465  3187.781
 466  3754.812
 467  3639.568
 468  3197.122
 469  3153.641
 470  3084.687
 471  2987.185
 472  3068.568
 473  3565.02
 474  3829.017
 475  3580.386
 476  3478.877
 477  3076.779
 478  3225.792
 479  3322.796
 480  3235.637
 481  3630.682
 482  3713.065
 483  3595.722
 484  3361.595
 485  2934.955
 486  3337.87
 487  3437.808
 488  3884.205
 489  3693.334
 490  3544.401
 491  3604.024
 492  3596.22
 493  3126.108
 494  3300.889
 495  3580.021
 496  3648.582
 497  3854.104
 498  3675.133
 499  3394.159
 500  3226.695
 501  3291.777
 502  3571.374
 503  3716.176
 504  3310.573
 505  2809.405
 506  3061.975
 507  3450.644
 508  3314.598
 509  3059.524
 510  3223.961
 511  3610.042
