# Input file       =  1196349189.112123_cleaned.dat
# Candidate        =  PSR_0332+5434
# Telescope        =  AR
# Epoch_topo       =  58090.634353149573
# Epoch_bary       =  N/A
# T_sample         =  0.002
# Data Folded      =  7208960
# Data Avg         =  0.0293390432217528
# Data StdDev      =  1.00011182291953 
# Profile Bins     =  512
# Profile Avg      =  413.099548109171 
# Profile StdDev   =  118.672444608997 
# Reduced chi-sqr  =  0.893
# Prob(Noise)      <  0.96   (~0.0 sigma)
# P_topo (ms)      =  714.528375518866  +/- 0.000136
# P'_topo (s/s)    =  -0                +/- 7.29e-11
# P''_topo (s/s^2) =  0                 +/- 3.28e-14
# P_bary (ms)      =  N/A
# P'_bary (s/s)    =  N/A
# P''_bary (s/s^2) =  N/A
# P_orb (s)        =  N/A
# asin(i)/c (s)    =  N/A
# eccentricity     =  N/A
# w (rad)          =  N/A
# T_peri           =  N/A
######################################################
   0  382.3167
   1  303.507
   2  317.2571
   3  370.7328
   4  470.5205
   5  566.3703
   6  505.3923
   7  436.9911
   8  480.8105
   9  438.6711
  10  384.2238
  11  330.2458
  12  522.981
  13  453.8119
  14  438.1978
  15  470.4293
  16  442.7147
  17  514.9842
  18  503.2039
  19  498.9256
  20  332.9767
  21  491.9757
  22  482.0668
  23  439.9204
  24  452.8591
  25  469.4722
  26  484.3829
  27  449.3937
  28  437.9495
  29  443.6803
  30  387.8184
  31  337.688
  32  332.9133
  33  336.7821
  34  400.1641
  35  468.6237
  36  472.7433
  37  478.268
  38  341.6985
  39  405.3312
  40  378.232
  41  446.0859
  42  553.7975
  43  460.0576
  44  392.8419
  45  370.472
  46  384.8915
  47  455.4168
  48  518.6326
  49  479.6529
  50  404.559
  51  296.3846
  52  277.9088
  53  324.5324
  54  380.4507
  55  430.762
  56  503.0685
  57  538.8887
  58  573.3713
  59  404.4327
  60  402.6446
  61  449.3703
  62  429.0163
  63  480.4204
  64  626.7812
  65  569.4597
  66  485.1238
  67  452.5359
  68  345.0691
  69  324.6755
  70  391.9903
  71  483.6888
  72  446.9656
  73  455.6331
  74  442.9017
  75  385.7861
  76  406.6938
  77  418.2204
  78  417.2403
  79  336.8312
  80  306.1714
  81  457.2218
  82  480.5499
  83  466.4906
  84  422.5791
  85  508.5987
  86  588.2504
  87  477.0142
  88  476.7431
  89  522.388
  90  487.756
  91  507.0592
  92  388.9333
  93  279.5707
  94  267.6962
  95  344.3004
  96  595.3654
  97  516.3799
  98  423.6358
  99  426.8552
 100  377.372
 101  364.6375
 102  300.613
 103  477.5824
 104  506.1481
 105  543.5828
 106  458.6906
 107  413.3846
 108  350.7771
 109  218.0381
 110  353.7281
 111  406.4893
 112  392.7869
 113  408.3419
 114  421.9838
 115  398.691
 116  275.8376
 117  360.4238
 118  447.9846
 119  353.497
 120  441.528
 121  402.0045
 122  376.6641
 123  412.408
 124  358.8253
 125  458.7586
 126  405.2382
 127  425.3695
 128  369.3871
 129  426.9799
 130  469.6791
 131  430.6307
 132  509.669
 133  400.763
 134  399.1302
 135  362.8558
 136  378.5666
 137  370.6284
 138  387.5655
 139  505.1235
 140  420.709
 141  340.0517
 142  349.6451
 143  472.0541
 144  315.0555
 145  314.6131
 146  440.0499
 147  442.1969
 148  448.1192
 149  413.6941
 150  270.7276
 151  241.2164
 152  300.419
 153  422.0103
 154  487.6402
 155  396.2292
 156  345.107
 157  354.8031
 158  250.6772
 159  387.6129
 160  290.2139
 161  317.502
 162  323.1043
 163  331.3884
 164  398.9397
 165  271.3052
 166  249.4123
 167  359.6705
 168  329.3004
 169  288.2811
 170  418.3933
 171  406.1332
 172  422.4817
 173  470.8957
 174  413.7634
 175  451.5281
 176  382.0001
 177  339.9623
 178  417.2292
 179  473.6567
 180  545.5041
 181  540.7411
 182  517.8065
 183  359.7972
 184  272.2818
 185  242.6735
 186  319.6344
 187  351.0692
 188  408.8407
 189  457.2579
 190  427.9553
 191  463.491
 192  334.6604
 193  395.2119
 194  429.5828
 195  310.9824
 196  530.2698
 197  449.5773
 198  316.7032
 199  350.4472
 200  414.0155
 201  255.1405
 202  175.9805
 203  368.3289
 204  528.7996
 205  408.1045
 206  317.886
 207  305.7531
 208  251.027
 209  390.3514
 210  422.8447
 211  357.5904
 212  259.3224
 213  368.2619
 214  440.6992
 215  314.4987
 216  307.3416
 217  328.4388
 218  297.0541
 219  430.6132
 220  435.376
 221  408.446
 222  392.0733
 223  363.9995
 224  444.1257
 225  462.8284
 226  474.42
 227  457.0062
 228  425.6423
 229  506.4163
 230  479.0016
 231  417.9399
 232  322.0748
 233  336.6627
 234  358.6151
 235  406.6126
 236  445.2824
 237  448.7317
 238  491.9217
 239  515.965
 240  430.2933
 241  400.7197
 242  317.3862
 243  271.206
 244  311.1029
 245  397.3314
 246  457.3719
 247  401.5989
 248  379.6693
 249  372.3717
 250  394.6766
 251  281.1365
 252  310.989
 253  409.8918
 254  370.5127
 255  350.8473
 256  329.3572
 257  271.4413
 258  366.7689
 259  250.7333
 260  316.7426
 261  412.1896
 262  328.1235
 263  395.4169
 264  367.8138
 265  409.0396
 266  351.7462
 267  274.3189
 268  417.2279
 269  359.3458
 270  363.0526
 271  472.4663
 272  438.7378
 273  451.6614
 274  387.8911
 275  355.6959
 276  300.9433
 277  360.4094
 278  347.8379
 279  385.8379
 280  382.0074
 281  273.1619
 282  453.896
 283  401.3599
 284  376.4109
 285  389.1998
 286  354.0705
 287  415.2106
 288  386.7166
 289  456.9612
 290  424.6902
 291  337.6309
 292  391.4046
 293  333.9577
 294  228.1349
 295  295.7735
 296  311.9573
 297  320.4209
 298  487.5971
 299  488.0759
 300  505.3534
 301  396.8478
 302  363.683
 303  293.1138
 304  440.2789
 305  464.825
 306  269.7589
 307  365.7792
 308  354.2617
 309  471.1776
 310  459.002
 311  450.3119
 312  350.5018
 313  300.0044
 314  422.5015
 315  386.5957
 316  514.6699
 317  529.6807
 318  530.7999
 319  413.8078
 320  393.4418
 321  516.9655
 322  464.9081
 323  446.3929
 324  358.5545
 325  486.2041
 326  443.9326
 327  350.9322
 328  304.9971
 329  368.6297
 330  455.4585
 331  408.8087
 332  450.1246
 333  406.2803
 334  406.5248
 335  367.4005
 336  491.1551
 337  389.7321
 338  284.0182
 339  436.0094
 340  377.8043
 341  382.4344
 342  387.7296
 343  456.5846
 344  434.5103
 345  484.61
 346  512.5199
 347  577.3926
 348  469.3212
 349  409.0853
 350  334.8743
 351  385.8618
 352  368.6006
 353  333.0662
 354  397.0837
 355  379.5999
 356  506.9593
 357  454.1045
 358  361.2204
 359  421.4966
 360  484.3292
 361  568.769
 362  540.9774
 363  549.5517
 364  502.6939
 365  477.7692
 366  481.5653
 367  410.8051
 368  486.4548
 369  451.2747
 370  414.6059
 371  398.6475
 372  390.3614
 373  510.9046
 374  488.1722
 375  475.5679
 376  387.8899
 377  347.1763
 378  361.3044
 379  474.1694
 380  545.5762
 381  544.9372
 382  509.6435
 383  458.77
 384  429.9778
 385  421.6391
 386  478.8751
 387  389.6335
 388  408.6732
 389  451.3894
 390  434.0779
 391  373.1671
 392  417.74
 393  486.7976
 394  463.9907
 395  601.8081
 396  498.9121
 397  502.9124
 398  443.0569
 399  505.8412
 400  491.7692
 401  433.2129
 402  530.4776
 403  587.3065
 404  721.9227
 405  775.0681
 406  794.1375
 407  720.3455
 408  559.4872
 409  434.4329
 410  361.6366
 411  458.054
 412  465.3906
 413  533.871
 414  538.2723
 415  503.3705
 416  502.5735
 417  562.1598
 418  544.9855
 419  481.4852
 420  529.1021
 421  451.0404
 422  442.3217
 423  457.1933
 424  378.6819
 425  440.6186
 426  351.7636
 427  318.1076
 428  387.6932
 429  383.6116
 430  302.5267
 431  314.2946
 432  354.034
 433  422.1859
 434  425.3074
 435  493.9546
 436  476.2582
 437  424.2856
 438  456.1476
 439  287.1374
 440  328.8296
 441  353.0966
 442  343.8202
 443  394.4117
 444  452.148
 445  353.0147
 446  360.0522
 447  560.7532
 448  472.6557
 449  381.1858
 450  336.2569
 451  403.5865
 452  321.427
 453  284.9193
 454  317.0882
 455  277.8192
 456  408.5636
 457  377.7849
 458  451.554
 459  418.0375
 460  381.5071
 461  336.886
 462  375.388
 463  381.2314
 464  442.8248
 465  491.75
 466  438.1012
 467  396.748
 468  359.9394
 469  397.8008
 470  456.3336
 471  427.1845
 472  369.5732
 473  387.5266
 474  429.0406
 475  421.2776
 476  499.6768
 477  340.5445
 478  273.4839
 479  374.8738
 480  290.8202
 481  325.7273
 482  419.6443
 483  399.2162
 484  364.2048
 485  377.6842
 486  448.8208
 487  324.3099
 488  292.5559
 489  395.5706
 490  418.7119
 491  331.0408
 492  363.9571
 493  356.337
 494  377.9231
 495  468.9414
 496  571.3196
 497  532.7401
 498  485.1816
 499  424.2555
 500  401.9697
 501  526.0807
 502  494.0328
 503  501.9183
 504  430.033
 505  429.9323
 506  371.6698
 507  250.8842
 508  342.9964
 509  520.8788
 510  492.8749
 511  502.6955
