# Input file       =  1196019175.113502_cleaned.dat
# Candidate        =  PSR_0332+5434
# Telescope        =  AR
# Epoch_topo       =  58086.814746684053
# Epoch_bary       =  N/A
# T_sample         =  0.002
# Data Folded      =  7340032
# Data Avg         =  0.175979493408314
# Data StdDev      =  4.224871556026   
# Profile Bins     =  512
# Profile Avg      =  2523.08731078812 
# Profile StdDev   =  505.856699704826 
# Reduced chi-sqr  =  0.548
# Prob(Noise)      <  1   (~0.0 sigma)
# P_topo (ms)      =  714.524464383413  +/- 0.000361
# P'_topo (s/s)    =  -0                +/- 1.91e-10
# P''_topo (s/s^2) =  0                 +/- 8.42e-14
# P_bary (ms)      =  N/A
# P'_bary (s/s)    =  N/A
# P''_bary (s/s^2) =  N/A
# P_orb (s)        =  N/A
# asin(i)/c (s)    =  N/A
# eccentricity     =  N/A
# w (rad)          =  N/A
# T_peri           =  N/A
######################################################
   0  2696.945
   1  2546.233
   2  3095.412
   3  2937.635
   4  2588.18
   5  2405.775
   6  2510.589
   7  2593.234
   8  2416.563
   9  2486.953
  10  2106.28
  11  2184.146
  12  2109.041
  13  1865.223
  14  2238.351
  15  2414.331
  16  2798.195
  17  2722.241
  18  2289.59
  19  2341.304
  20  2350.327
  21  2442.008
  22  2376.175
  23  2739.931
  24  2281.424
  25  2157.122
  26  2162.014
  27  2468.454
  28  2458.488
  29  2145.776
  30  2274.759
  31  2766.394
  32  2471.574
  33  2432.56
  34  2651.575
  35  2800.947
  36  2514.573
  37  1974.291
  38  2279.124
  39  3015.326
  40  2824.463
  41  2582.846
  42  2693.528
  43  2735.969
  44  2482.202
  45  2206.093
  46  2205.1
  47  2199.615
  48  2197.527
  49  2562.311
  50  2559.693
  51  3104.448
  52  2900.983
  53  2363.924
  54  2471.819
  55  2808.131
  56  3059.394
  57  2733.9
  58  2740.333
  59  2906.704
  60  2756.068
  61  2680.294
  62  2774.996
  63  2921.757
  64  2753.513
  65  2437.419
  66  2211.38
  67  2523.735
  68  2725.232
  69  2622.971
  70  2641.453
  71  2999.218
  72  2936.557
  73  2778.175
  74  2492.679
  75  2463.166
  76  2070.149
  77  1964.506
  78  2135.636
  79  2090.443
  80  2104.525
  81  2300.313
  82  2205.883
  83  2488.307
  84  2381.041
  85  2474.1
  86  2430.448
  87  2517.837
  88  2252.876
  89  2274.449
  90  2625.41
  91  2755.83
  92  3326.457
  93  3068.97
  94  2921.615
  95  2836.552
  96  2703.919
  97  2768.161
  98  2696.215
  99  2574.812
 100  2672.292
 101  2739.355
 102  2844.929
 103  2571.309
 104  2420.753
 105  2679.528
 106  2555.772
 107  2518.968
 108  2425.855
 109  2549.458
 110  2564.782
 111  2437.128
 112  2509.432
 113  2564.177
 114  2718.573
 115  2843.278
 116  2642.827
 117  2149.505
 118  1937.579
 119  2328.772
 120  2332.093
 121  2599.688
 122  2470.541
 123  2412.611
 124  2738.326
 125  2472.446
 126  2094.001
 127  2067.711
 128  2416.686
 129  2287.757
 130  2362.999
 131  2953.943
 132  2925.337
 133  2631.051
 134  2694.183
 135  2804.903
 136  2765.941
 137  2931.212
 138  2865.514
 139  2380.805
 140  2526.062
 141  2178.264
 142  2143.448
 143  2499.547
 144  2431.824
 145  2475.983
 146  2279.316
 147  2357.686
 148  2092.483
 149  2026.424
 150  2425.858
 151  2569.907
 152  2607.408
 153  2448.39
 154  2289.03
 155  2605.126
 156  2292.641
 157  2268.09
 158  2610.972
 159  2535.988
 160  2194.826
 161  1805.917
 162  1919.309
 163  2036.378
 164  2236.616
 165  2413.555
 166  2485.291
 167  2446.801
 168  2197.749
 169  2477.643
 170  2210.063
 171  2327.134
 172  2508.574
 173  2498.514
 174  2518.734
 175  2524.12
 176  2335.766
 177  2234.001
 178  2161.463
 179  1859.634
 180  1770.143
 181  1845.218
 182  2136.788
 183  2484.441
 184  2176.173
 185  2349.328
 186  2569.724
 187  2624.594
 188  2620.323
 189  2623.516
 190  2906.533
 191  2970.323
 192  2942.354
 193  2723.202
 194  2593.827
 195  2796.217
 196  2693.701
 197  2254.1
 198  2191.541
 199  2687.574
 200  3119.044
 201  3022.769
 202  2793.388
 203  2876.705
 204  2425.96
 205  2076.059
 206  2631.75
 207  2921.329
 208  2920.36
 209  2761.223
 210  2719.178
 211  2346.045
 212  2420.243
 213  2340.965
 214  2341.99
 215  2549.006
 216  2514.534
 217  2695.411
 218  2572.343
 219  2641.323
 220  2315.089
 221  2182.758
 222  2577.588
 223  2448.505
 224  2771.778
 225  2588.311
 226  2671.575
 227  2659.362
 228  2654.34
 229  2645.173
 230  2711.576
 231  2743.806
 232  2539.571
 233  2732.141
 234  2817.561
 235  2389.157
 236  2282.336
 237  1953.714
 238  2111.749
 239  2313.642
 240  1977.836
 241  2132.94
 242  2156.558
 243  2155.119
 244  2289.219
 245  2308.375
 246  2543.886
 247  2466.506
 248  2381.685
 249  2763.931
 250  2446.929
 251  2575.921
 252  2218.307
 253  2427.296
 254  2572.378
 255  2786.013
 256  2645.229
 257  2359.332
 258  2125.966
 259  2338.593
 260  2376.866
 261  2611.943
 262  2618.908
 263  2579.246
 264  2514.843
 265  2302.511
 266  2639.382
 267  3394.51
 268  2943.758
 269  2600.11
 270  2572.583
 271  2752.145
 272  2437.364
 273  2321.762
 274  2497.234
 275  2638.081
 276  2528.321
 277  2045.652
 278  2289.58
 279  2578.446
 280  2547.978
 281  2460.454
 282  2606.725
 283  2802.91
 284  2539.737
 285  2359.624
 286  2591.661
 287  2691.889
 288  2721.528
 289  2314.921
 290  2194.938
 291  2383.129
 292  2050.179
 293  2019.76
 294  2071.031
 295  2394.711
 296  2891.53
 297  2704.493
 298  2344.256
 299  2238.635
 300  2969.968
 301  3001.001
 302  2906.321
 303  2729.825
 304  2462
 305  2251.708
 306  2146.936
 307  2401.186
 308  2547.863
 309  2449.403
 310  2613.693
 311  2853.124
 312  3148.431
 313  2968.653
 314  3293.416
 315  3390.833
 316  3265.713
 317  3072.949
 318  2713.86
 319  2924.358
 320  2792.774
 321  2465.064
 322  2685.272
 323  2415.308
 324  2205.399
 325  2512.998
 326  2662.225
 327  2996.277
 328  2946.404
 329  2759.696
 330  2839.631
 331  2477.232
 332  2727.8
 333  2650.249
 334  2538.118
 335  2627.572
 336  2320.435
 337  2435.107
 338  2506.93
 339  2564.184
 340  2919.438
 341  3038.805
 342  2737.341
 343  2488.357
 344  2750.087
 345  2709.217
 346  2407.806
 347  2535.394
 348  2543.183
 349  2641.107
 350  2386.775
 351  2380.773
 352  2655.695
 353  2944.666
 354  2784.656
 355  2439.018
 356  2325.736
 357  2137.619
 358  1986.07
 359  2086.318
 360  2473.64
 361  2813.85
 362  2776.558
 363  2762.031
 364  2325.532
 365  1996.66
 366  2168.505
 367  2626.978
 368  2770.311
 369  2523.237
 370  2458.853
 371  2543.054
 372  2442.684
 373  2391.247
 374  2466.866
 375  2603.001
 376  2617.749
 377  2223.668
 378  2388.904
 379  2498.023
 380  2782.928
 381  2240.327
 382  2477.912
 383  2579.499
 384  2407.353
 385  2325.755
 386  2492.256
 387  2812.986
 388  2690.171
 389  2786.88
 390  2736.873
 391  2293.629
 392  1991.406
 393  2160.554
 394  2295.948
 395  2365.947
 396  2671.633
 397  2758.505
 398  2333.957
 399  2465.238
 400  2516.504
 401  2467.655
 402  2350.246
 403  2536.034
 404  2619.605
 405  2799.562
 406  2562.203
 407  2736.577
 408  2884.261
 409  2245.198
 410  2016.701
 411  2248.225
 412  2838.464
 413  2770.727
 414  2323.415
 415  2698.382
 416  2659.983
 417  2570.196
 418  2736.882
 419  2942.879
 420  2686.186
 421  2339.656
 422  2191.913
 423  2962.008
 424  2852.435
 425  2906.837
 426  2946.225
 427  2761.557
 428  2574.306
 429  2420.005
 430  2293.421
 431  2276.563
 432  2433.976
 433  2575.714
 434  2229.204
 435  2479.124
 436  2813.983
 437  2869.597
 438  2494.027
 439  2456.531
 440  2444.568
 441  2336.692
 442  2492.851
 443  2495.431
 444  2474.395
 445  2578.491
 446  2552.111
 447  2337.509
 448  2239.828
 449  2124.741
 450  2078.19
 451  2104.915
 452  2256.01
 453  2287.688
 454  2317.893
 455  2346.163
 456  2302.062
 457  2290.778
 458  2342.326
 459  2195.122
 460  2176.335
 461  2423.631
 462  2530.844
 463  2415.053
 464  2371.349
 465  2218.098
 466  2503.862
 467  2899.469
 468  2835.883
 469  2892.131
 470  2928.059
 471  2471.985
 472  2686.164
 473  2393.223
 474  2354.292
 475  2601.44
 476  2918.052
 477  2763.481
 478  2632.146
 479  2641.634
 480  2847.923
 481  2537.624
 482  2535.845
 483  2470.948
 484  2438.524
 485  2368.376
 486  2258.671
 487  2517.669
 488  2362.616
 489  2189.138
 490  2451.222
 491  2627.784
 492  2632.317
 493  2966.596
 494  2976.176
 495  2787.022
 496  2555.546
 497  2576.635
 498  2484.997
 499  2537.917
 500  2565.938
 501  2490.664
 502  2684.114
 503  2628.566
 504  2528.951
 505  2368.031
 506  2630.041
 507  2488.512
 508  2666.13
 509  2912.486
 510  2847.536
 511  3187.245
