# Input file       =  1196981508.116393-PSRB0329-2ms-sampling-dd.dat
# Candidate        =  PSR_0332+5434
# Telescope        =  AR
# Epoch_topo       =  58097.952860143436
# Epoch_bary       =  N/A
# T_sample         =  0.002
# Data Folded      =  7405568
# Data Avg         =  -3.66669219729601e-10
# Data StdDev      =  11.0520018914733 
# Profile Bins     =  512
# Profile Avg      =  0.00488052251007212
# Profile StdDev   =  1329.18416007085 
# Reduced chi-sqr  =  0.579
# Prob(Noise)      <  1   (~0.0 sigma)
# P_topo (ms)      =  714.536201095379  +/- 0.00015
# P'_topo (s/s)    =  -0                +/- 7.86e-11
# P''_topo (s/s^2) =  0                 +/- 3.44e-14
# P_bary (ms)      =  N/A
# P'_bary (s/s)    =  N/A
# P''_bary (s/s^2) =  N/A
# P_orb (s)        =  N/A
# asin(i)/c (s)    =  N/A
# eccentricity     =  N/A
# w (rad)          =  N/A
# T_peri           =  N/A
######################################################
   0  -1052.269
   1  -768.1987
   2  -578.4008
   3  -700.3851
   4  -1191.39
   5  -659.3342
   6  104.8894
   7  -580.7842
   8  -1282.017
   9  -1447.808
  10  -1784.733
  11  -1374.301
  12  -664.1038
  13  633.4827
  14  1061.833
  15  900.2725
  16  267.9882
  17  -184.4896
  18  -880.4362
  19  -697.9203
  20  98.09877
  21  1563.989
  22  1125.665
  23  345.4748
  24  -250.9625
  25  -611.64
  26  -343.9237
  27  -479.4384
  28  426.1851
  29  413.763
  30  150.8711
  31  924.9481
  32  243.2879
  33  -201.5281
  34  -200.0366
  35  1068.432
  36  -20.97821
  37  -496.4496
  38  -301.2871
  39  -320.8226
  40  -1486.146
  41  -788.5719
  42  -906.0213
  43  -957.7309
  44  -1484.646
  45  -1566.242
  46  -638.4302
  47  -876.9222
  48  -836.3804
  49  -174.282
  50  384.5295
  51  170.3192
  52  -1558.363
  53  -944.164
  54  -668.5869
  55  -105.925
  56  125.124
  57  -459.2491
  58  -418.0049
  59  -285.1458
  60  -520.8845
  61  52.00946
  62  478.8688
  63  654.71
  64  313.1846
  65  1153.309
  66  1158.525
  67  595.3702
  68  -237.5543
  69  210.5299
  70  1044.701
  71  1155.02
  72  795.2183
  73  849.1336
  74  1026.264
  75  1094.683
  76  109.7512
  77  236.3442
  78  886.7532
  79  1182.88
  80  656.8857
  81  -101.7965
  82  -722.9338
  83  -501.9822
  84  -281.3171
  85  98.06985
  86  1119.701
  87  721.2454
  88  1045.956
  89  491.7559
  90  413.6909
  91  -24.97032
  92  59.13803
  93  186.0255
  94  56.18587
  95  327.4938
  96  -272.1401
  97  -673.4492
  98  -806.6312
  99  -836.0972
 100  -617.2967
 101  -383.5668
 102  -168.9609
 103  -319.9309
 104  -27.88014
 105  -449.8555
 106  -360.556
 107  -51.73659
 108  -540.9835
 109  -981.8762
 110  -1013.03
 111  -650.3749
 112  -459.742
 113  20.37488
 114  1154.965
 115  322.1469
 116  -505.2798
 117  -1453.366
 118  -1142.153
 119  -576.3651
 120  218.6772
 121  77.47759
 122  -220.9068
 123  -553.3284
 124  -382.8785
 125  -336.999
 126  -1317.786
 127  -1180.061
 128  -141.9835
 129  649.7959
 130  567.7688
 131  649.0506
 132  564.1052
 133  -260.3479
 134  -465.1017
 135  1.527041
 136  630.3555
 137  751.2803
 138  820.1882
 139  1435.902
 140  2116.868
 141  2067.579
 142  960.1564
 143  654.0701
 144  801.218
 145  486.416
 146  323.9572
 147  737.6282
 148  713.5618
 149  1284.792
 150  1064.372
 151  92.83253
 152  -648.7686
 153  -331.2798
 154  -262.7101
 155  -625.5169
 156  -1056.738
 157  -976.0306
 158  29.18046
 159  -1277.425
 160  -560.4041
 161  -165.9237
 162  -604.8724
 163  -604.2039
 164  -761.1229
 165  -1200.283
 166  -1503.138
 167  -1230.344
 168  -837.9919
 169  -447.6357
 170  114.9418
 171  -291.362
 172  -396.0316
 173  -508.6071
 174  183.6842
 175  -687.5853
 176  -530.0588
 177  -266.1061
 178  -192.4139
 179  -113.232
 180  -18.61166
 181  -293.1531
 182  -552.3079
 183  -1149.843
 184  -1649.997
 185  -1487.737
 186  -681.4144
 187  -123.9339
 188  539.584
 189  932.0858
 190  1216.22
 191  912.4622
 192  811.5192
 193  108.8554
 194  -392.2897
 195  -609.5591
 196  -555.2605
 197  520.2167
 198  217.3629
 199  976.5585
 200  1004.939
 201  808.2903
 202  255.6328
 203  623.2815
 204  818.759
 205  1261.969
 206  1391.481
 207  1147.357
 208  801.7886
 209  -397.9915
 210  -332.022
 211  -505.4651
 212  -9.593199
 213  273.0146
 214  1521.906
 215  2179.568
 216  1996.534
 217  1014.021
 218  -346.4662
 219  -1164.474
 220  -1702.928
 221  -772.3418
 222  149.9758
 223  702.0358
 224  645.1267
 225  840.1073
 226  395.9168
 227  422.3252
 228  -209.5484
 229  -511.3561
 230  -274.0762
 231  347.5721
 232  935.8982
 233  134.1125
 234  -890.9894
 235  -530.2591
 236  -531.7287
 237  -967.194
 238  -937.3038
 239  -296.7624
 240  623.6226
 241  1568.398
 242  813.4717
 243  60.56838
 244  -205.4398
 245  341.7791
 246  1513.898
 247  914.4412
 248  702.8434
 249  673.2392
 250  949.3967
 251  626.8471
 252  801.0573
 253  1037.958
 254  478.5231
 255  388.5027
 256  568.9489
 257  225.1236
 258  52.3937
 259  202.7022
 260  88.25648
 261  -722.5443
 262  -629.7169
 263  -493.5659
 264  -142.2193
 265  -21.46878
 266  277.2977
 267  90.67855
 268  -572.1496
 269  -940.0432
 270  -1056.56
 271  -1295.229
 272  -460.7726
 273  -426.6434
 274  -1004.156
 275  -1555.394
 276  -1421.182
 277  -1000.138
 278  -938.9302
 279  -1171.397
 280  -580.2539
 281  210.1965
 282  180.8543
 283  -472.4921
 284  -954.6948
 285  -908.0159
 286  -874.9127
 287  -60.02746
 288  430.9871
 289  342.0272
 290  297.2434
 291  88.80216
 292  -565.5127
 293  -363.1261
 294  194.9324
 295  551.3984
 296  33.76908
 297  271.5164
 298  562.1825
 299  750.223
 300  -18.20768
 301  -245.2412
 302  -610.7384
 303  -523.9301
 304  299.8282
 305  1254.845
 306  1032.065
 307  -23.46312
 308  -1217.878
 309  -733.3621
 310  -52.17441
 311  235.3073
 312  441.2975
 313  578.988
 314  277.2783
 315  -378.1125
 316  94.75054
 317  224.4837
 318  434.7681
 319  13.87486
 320  -582.9519
 321  -1107.561
 322  -1149.041
 323  -934.7327
 324  -464.7407
 325  -358.9127
 326  530.2906
 327  461.787
 328  -601.1187
 329  -714.8224
 330  -370.8696
 331  251.7877
 332  -11.73094
 333  -92.78413
 334  537.0095
 335  -50.91403
 336  -276.3826
 337  -762.0648
 338  -941.9828
 339  -652.575
 340  406.2119
 341  950.9754
 342  679.7518
 343  346.7364
 344  -290.7143
 345  -834.2923
 346  -504.2656
 347  -11.56303
 348  342.9269
 349  -106.1669
 350  -261.2967
 351  -727.0226
 352  -200.0266
 353  -3.131334
 354  121.6925
 355  -395.5848
 356  -758.9246
 357  -809.8555
 358  -459.2723
 359  294.8169
 360  800.8757
 361  836.9596
 362  726.6754
 363  581.8831
 364  610.257
 365  591.3167
 366  1275.579
 367  701.1649
 368  177.2361
 369  590.1636
 370  749.3915
 371  909.4835
 372  492.0348
 373  81.69456
 374  224.7206
 375  488.89
 376  647.0546
 377  391.6585
 378  58.42824
 379  -914.949
 380  -1239.516
 381  -993.7111
 382  -934.8315
 383  -891.4014
 384  -726.4337
 385  -123.5271
 386  -458.1186
 387  -869.2745
 388  -873.8469
 389  -930.381
 390  -1642.288
 391  -2057.688
 392  -1663.716
 393  -1141.639
 394  -794.6884
 395  -281.6029
 396  -316.7259
 397  -515.4985
 398  -1519.404
 399  -326.3657
 400  303.7916
 401  439.0723
 402  -168.2533
 403  175.937
 404  -386.4713
 405  -223.4303
 406  1.57878
 407  394.9672
 408  111.8688
 409  -569.0406
 410  -414.5127
 411  -746.8388
 412  -693.6317
 413  -740.4926
 414  464.7369
 415  773.999
 416  744.1913
 417  691.7753
 418  -401.8342
 419  -677.9022
 420  -195.251
 421  249.0779
 422  431.9599
 423  -168.8618
 424  118.0281
 425  521.8513
 426  -24.52795
 427  -187.1351
 428  500.3854
 429  725.5972
 430  1683.246
 431  1422.894
 432  801.0672
 433  980.0423
 434  1420.536
 435  531.693
 436  221.6066
 437  -64.15096
 438  -270.837
 439  -373.6309
 440  0.1824677
 441  158.0661
 442  604.9053
 443  431.3105
 444  657.6505
 445  192.1366
 446  157.4945
 447  14.20965
 448  -249.5747
 449  1152.837
 450  968.6454
 451  608.7355
 452  512.8762
 453  252.348
 454  1173.819
 455  493.537
 456  1181.506
 457  1262.796
 458  1491.778
 459  933.3621
 460  550.0007
 461  236.1115
 462  242.5043
 463  320.6803
 464  94.72787
 465  -207.7449
 466  184.0537
 467  440.6903
 468  97.09313
 469  881.1843
 470  130.3162
 471  434.6036
 472  205.1458
 473  521.3169
 474  918.3083
 475  653.254
 476  652.4881
 477  638.2701
 478  1007.801
 479  162.2177
 480  -65.52022
 481  763.3074
 482  626.6061
 483  -0.5509087
 484  -561.6981
 485  -752.416
 486  -626.546
 487  -425.1971
 488  200.1184
 489  991.0409
 490  595.1824
 491  602.4797
 492  496.1199
 493  239.2684
 494  -395.3884
 495  -437.1301
 496  290.0964
 497  492.7637
 498  990.5946
 499  675.0488
 500  207.7367
 501  158.2064
 502  344.0773
 503  588.0375
 504  175.2734
 505  -488.3741
 506  -370.0049
 507  307.3066
 508  -1.609119
 509  -311.8395
 510  -986.0385
 511  -1092.575
