# Input file       =  1196034081.122101_cleaned.dat
# Candidate        =  PSR_0332+5434
# Telescope        =  AR
# Epoch_topo       =  58086.987269931727
# Epoch_bary       =  N/A
# T_sample         =  0.002
# Data Folded      =  7340032
# Data Avg         =  0.0299252083944562
# Data StdDev      =  0.999994573590065
# Profile Bins     =  512
# Profile Avg      =  429.026919828155 
# Profile StdDev   =  119.732386656228 
# Reduced chi-sqr  =  0.995
# Prob(Noise)      <  0.526   (~0.0 sigma)
# P_topo (ms)      =  714.524981673098  +/- 4.91e-05
# P'_topo (s/s)    =  -0                +/- 2.59e-11
# P''_topo (s/s^2) =  0                 +/- 1.14e-14
# P_bary (ms)      =  N/A
# P'_bary (s/s)    =  N/A
# P''_bary (s/s^2) =  N/A
# P_orb (s)        =  N/A
# asin(i)/c (s)    =  N/A
# eccentricity     =  N/A
# w (rad)          =  N/A
# T_peri           =  N/A
######################################################
   0  520.8612
   1  505.6311
   2  497.5989
   3  428.9247
   4  436.1346
   5  548.8594
   6  417.1219
   7  440.5331
   8  473.8132
   9  423.0765
  10  482.3631
  11  512.0002
  12  529.1011
  13  536.75
  14  447.6113
  15  574.8673
  16  596.0763
  17  629.3849
  18  584.5385
  19  588.5234
  20  542.5263
  21  439.9805
  22  432.3858
  23  376.8553
  24  426.14
  25  374.9824
  26  469.0715
  27  544.5798
  28  503.0758
  29  483.4788
  30  403.3322
  31  442.2932
  32  500.4179
  33  544.0861
  34  446.199
  35  376.33
  36  517.4896
  37  492.9836
  38  469.9571
  39  470.8831
  40  480.0001
  41  535.9984
  42  394.9536
  43  491.5105
  44  452.6404
  45  422.8286
  46  468.821
  47  501.3305
  48  545.8468
  49  567.7416
  50  644.6651
  51  766.9375
  52  765.4886
  53  826.2516
  54  943.4508
  55  779.4
  56  649.9127
  57  562.783
  58  554.97
  59  442.9751
  60  372.7793
  61  352.5816
  62  446.8711
  63  403.0903
  64  452.2623
  65  431.5701
  66  561.3351
  67  474.2235
  68  456.097
  69  503.467
  70  389.9991
  71  341.8058
  72  384.2859
  73  460.5161
  74  474.9904
  75  445.8274
  76  509.0097
  77  507.841
  78  438.1398
  79  348.1742
  80  299.1156
  81  315.8915
  82  375.5255
  83  371.0126
  84  383.844
  85  314.8617
  86  313.0688
  87  403.4819
  88  445.1978
  89  437.7641
  90  468.0634
  91  584.0182
  92  478.2953
  93  454.2247
  94  476.4894
  95  420.1536
  96  373.2852
  97  339.1107
  98  442.7991
  99  493.3396
 100  414.1544
 101  466.0022
 102  401.5794
 103  375.9468
 104  342.8345
 105  481.5589
 106  520.2845
 107  530.3724
 108  510.1719
 109  438.123
 110  498.2667
 111  522.7285
 112  540.05
 113  434.6845
 114  283.1544
 115  342.7146
 116  427.0941
 117  383.7646
 118  381.1844
 119  416.2948
 120  475.1021
 121  411.0322
 122  297.0968
 123  383.5446
 124  343.5062
 125  247.5704
 126  350.8894
 127  464.3863
 128  456.6607
 129  425.5021
 130  458.5962
 131  411.8463
 132  466.6033
 133  386.0698
 134  416.669
 135  389.2954
 136  406.9214
 137  362.923
 138  310.9875
 139  322.0595
 140  385.8486
 141  462.5404
 142  440.5489
 143  415.3202
 144  452.23
 145  390.7235
 146  418.7926
 147  517.1633
 148  661.3828
 149  577.248
 150  550.5741
 151  527.3103
 152  477.5657
 153  436.7967
 154  436.6939
 155  446.9507
 156  488.3771
 157  339.9556
 158  396.6787
 159  378.6975
 160  392.4016
 161  394.1643
 162  418.4424
 163  438.4799
 164  432.6157
 165  515.7633
 166  378.6321
 167  404.1211
 168  318.8352
 169  450.2179
 170  444.4189
 171  352.1953
 172  262.2954
 173  365.6994
 174  409.3033
 175  477.1404
 176  467.8239
 177  404.3057
 178  388.741
 179  400.0284
 180  513.7081
 181  458.2018
 182  378.0196
 183  455.9309
 184  479.3442
 185  399.2278
 186  380.1438
 187  438.9591
 188  427.226
 189  382.8684
 190  356.4001
 191  409.7284
 192  523.9276
 193  521.5809
 194  456.364
 195  493.7547
 196  438.7205
 197  409.556
 198  454.1806
 199  471.3733
 200  385.7353
 201  413.5836
 202  507.0963
 203  468.1426
 204  332.006
 205  346.29
 206  394.7992
 207  292.8083
 208  331.7346
 209  435.972
 210  437.013
 211  377.5141
 212  345.8154
 213  415.265
 214  331.2737
 215  346.7446
 216  334.7998
 217  272.6118
 218  269.0153
 219  405.6407
 220  504.0273
 221  502.7605
 222  459.2202
 223  430.5064
 224  266.7508
 225  319.2246
 226  419.6231
 227  449.2847
 228  408.9978
 229  321.5912
 230  401.9983
 231  457.3173
 232  530.2351
 233  369.558
 234  424.1324
 235  406.0968
 236  285.9808
 237  179.8925
 238  263.3829
 239  264.9254
 240  396.8017
 241  373.1568
 242  446.2234
 243  383.9262
 244  357.2597
 245  332.7951
 246  380.7227
 247  495.4451
 248  469.6273
 249  392.8927
 250  294.5742
 251  354.6105
 252  338.0361
 253  333.2907
 254  365.3559
 255  458.4943
 256  441.693
 257  377.2273
 258  461.5688
 259  484.4998
 260  367.5494
 261  446.2745
 262  479.1173
 263  336.6437
 264  283.7748
 265  298.0993
 266  398.0278
 267  452.1734
 268  266.162
 269  274.3992
 270  332.0475
 271  322.6856
 272  266.4613
 273  275.894
 274  321.5145
 275  314.5609
 276  300.1851
 277  265.8569
 278  310.8482
 279  343.3683
 280  375.5916
 281  392.2936
 282  337.8213
 283  419.0833
 284  509.4315
 285  497.0098
 286  411.3559
 287  423.2296
 288  443.7538
 289  214.2185
 290  287.8103
 291  370.7891
 292  375.1459
 293  321.7017
 294  367.8923
 295  335.3725
 296  393.7651
 297  352.2153
 298  363.6084
 299  330.3958
 300  294.774
 301  332.7551
 302  390.7481
 303  344.4147
 304  368.9965
 305  489.0217
 306  516.2933
 307  312.1974
 308  274.9211
 309  381.1718
 310  362.5045
 311  280.3593
 312  379.3157
 313  463.39
 314  420.3736
 315  342.3552
 316  438.782
 317  396.4913
 318  452.2917
 319  457.6028
 320  542.664
 321  393.6428
 322  369.4017
 323  353.0836
 324  313.2728
 325  334.0464
 326  365.7151
 327  346.3934
 328  337.2468
 329  372.0498
 330  436.9378
 331  405.1403
 332  335.6706
 333  374.0783
 334  444.2623
 335  471.5131
 336  494.8363
 337  439.1741
 338  387.1742
 339  388.4965
 340  473.8813
 341  397.2682
 342  425.7809
 343  343.5446
 344  466.7631
 345  463.7183
 346  299.7957
 347  343.0508
 348  390.5806
 349  346.8792
 350  290.6726
 351  371.0868
 352  419.0225
 353  259.2662
 354  344.8925
 355  478.7172
 356  355.924
 357  344.9894
 358  372.4171
 359  525.1613
 360  483.4774
 361  408.3869
 362  423.1645
 363  448.6045
 364  427.7855
 365  513.6697
 366  536.2903
 367  446.4325
 368  310.6613
 369  380.728
 370  438.0036
 371  450.8676
 372  429.5745
 373  476.6169
 374  379.3281
 375  432.0659
 376  512.8387
 377  538.0378
 378  498.461
 379  410.693
 380  389.0054
 381  446.6398
 382  355.5034
 383  335.3007
 384  440.5299
 385  445.0399
 386  367.2379
 387  390.5155
 388  426.9138
 389  350.6729
 390  415.1499
 391  398.6422
 392  388.5116
 393  402.5874
 394  389.5844
 395  440.4568
 396  379.1317
 397  432.7344
 398  454.5864
 399  451.998
 400  466.8453
 401  404.7159
 402  440.9185
 403  398.2777
 404  386.4186
 405  532.9064
 406  625.9916
 407  595.9485
 408  522.9678
 409  468.5984
 410  438.5971
 411  359.5376
 412  503.46
 413  572.1791
 414  483.765
 415  380.9126
 416  297.532
 417  402.1537
 418  467.1922
 419  526.3477
 420  447.4117
 421  333.8362
 422  379.1873
 423  397.4895
 424  427.7717
 425  467.9894
 426  438.2726
 427  534.7992
 428  470.5192
 429  437.661
 430  391.6897
 431  473.3216
 432  414.5379
 433  445.8481
 434  587.8596
 435  672.7393
 436  585.8628
 437  412.632
 438  431.9598
 439  426.6937
 440  407.8836
 441  550.3289
 442  519.2388
 443  428.038
 444  425.7657
 445  499.4333
 446  375.3284
 447  367.2028
 448  379.2968
 449  426.9111
 450  354.2332
 451  400.7778
 452  477.6794
 453  325.5117
 454  390.5128
 455  530.4736
 456  466.2892
 457  421.2306
 458  325.3834
 459  396.3734
 460  404.2238
 461  362.3521
 462  445.7098
 463  465.4109
 464  467.8386
 465  503.6283
 466  533.4211
 467  491.0105
 468  450.6181
 469  475.571
 470  575.2432
 471  494.2466
 472  444.2137
 473  377.9037
 474  455.3117
 475  279.3201
 476  374.4128
 477  463.1963
 478  474.1856
 479  565.9712
 480  486.6734
 481  600.1506
 482  484.213
 483  416.496
 484  458.9101
 485  518.1833
 486  611.7404
 487  503.5283
 488  445.4097
 489  390.9968
 490  419.7143
 491  538.3063
 492  558.2123
 493  377.3259
 494  362.2113
 495  475.6037
 496  566.4302
 497  547.6625
 498  470.3631
 499  482.8513
 500  502.5372
 501  511.093
 502  506.2468
 503  454.6093
 504  447.2022
 505  447.5215
 506  438.6976
 507  426.386
 508  384.365
 509  482.7993
 510  441.9978
 511  451.0156
