# Input file       =  1196809110.124559-PSRB0329-2ms-sampling-dd.dat
# Candidate        =  PSR_0332+5434
# Telescope        =  AR
# Epoch_topo       =  58095.957513015732
# Epoch_bary       =  N/A
# T_sample         =  0.002
# Data Folded      =  7340032
# Data Avg         =  -1.09603448889375e-09
# Data StdDev      =  5.67863774371861 
# Profile Bins     =  512
# Profile Avg      =  -0.216884825931722
# Profile StdDev   =  679.920539539137 
# Reduced chi-sqr  =  0.358
# Prob(Noise)      <  1   (~0.0 sigma)
# P_topo (ms)      =  714.534171439896  +/- 0.0174
# P'_topo (s/s)    =  -0                +/- 1.85e-08
# P''_topo (s/s^2) =  0                 +/- 8.1e-12
# P_bary (ms)      =  N/A
# P'_bary (s/s)    =  N/A
# P''_bary (s/s^2) =  N/A
# P_orb (s)        =  N/A
# asin(i)/c (s)    =  N/A
# eccentricity     =  N/A
# w (rad)          =  N/A
# T_peri           =  N/A
######################################################
   0  226.3682
   1  106.1388
   2  8.612207
   3  -80.2139
   4  -50.72596
   5  -62.92122
   6  -17.17135
   7  149.7329
   8  179.8913
   9  311.2034
  10  -453.2084
  11  -237.0592
  12  -181.4081
  13  -181.3606
  14  134.2573
  15  132.5167
  16  -339.3443
  17  -175.2247
  18  -95.34781
  19  -195.1968
  20  -163.0116
  21  -202.0087
  22  291.268
  23  -55.05416
  24  -320.1841
  25  -162.1355
  26  -142.3532
  27  122.6491
  28  134.4269
  29  127.0645
  30  104.2546
  31  4.803674
  32  -15.8719
  33  23.78059
  34  -41.54604
  35  76.39765
  36  14.25689
  37  37.57109
  38  -182.2743
  39  -183.7821
  40  -351.3636
  41  -364.9556
  42  185.6008
  43  11.97489
  44  -0.4799117
  45  -182.8466
  46  -22.89676
  47  -143.9514
  48  -146.4017
  49  158.2878
  50  -11.42056
  51  -221.1166
  52  -278.7027
  53  -244.0506
  54  -286.3607
  55  -116.1813
  56  67.4167
  57  -137.7079
  58  -414.5934
  59  -850.1422
  60  -757.5255
  61  -536.173
  62  -248.5815
  63  -47.21191
  64  -376.0748
  65  -389.0031
  66  -551.1619
  67  -740.2839
  68  -507.6972
  69  -70.12231
  70  35.44415
  71  160.7901
  72  -238.0775
  73  -259.0492
  74  -95.6838
  75  104.9856
  76  540.834
  77  402.8909
  78  179.1164
  79  14.1855
  80  274.1345
  81  -33.02274
  82  -231.4883
  83  -91.50878
  84  63.15234
  85  20.4317
  86  29.57354
  87  160.6639
  88  99.16173
  89  -55.63161
  90  -53.92173
  91  -288.3537
  92  -786.5555
  93  -158.8434
  94  -47.91396
  95  564.6279
  96  796.5883
  97  147.6424
  98  483.209
  99  284.3877
 100  293.3755
 101  252.6809
 102  -213.8292
 103  -297.8307
 104  -464.472
 105  -198.7163
 106  -456.6256
 107  -153.9916
 108  306.2463
 109  412.7575
 110  23.1245
 111  -221.1686
 112  -320.257
 113  -292.9079
 114  47.4381
 115  -79.67528
 116  308.3245
 117  354.8201
 118  283.1624
 119  -105.664
 120  -229.8641
 121  14.26347
 122  185.1151
 123  404.7078
 124  247.6106
 125  67.90393
 126  14.36165
 127  -14.15201
 128  23.74251
 129  411.5626
 130  559.5817
 131  478.1517
 132  270.1222
 133  322.3705
 134  452.8801
 135  358.8373
 136  22.08005
 137  188.7005
 138  131.2765
 139  -250.989
 140  -222.5544
 141  87.61127
 142  -242.6136
 143  -23.16154
 144  -161.071
 145  14.51789
 146  192.5616
 147  69.18501
 148  -121.2488
 149  -129.2511
 150  81.26229
 151  247.772
 152  1.227836
 153  -159.9162
 154  -112.9973
 155  101.304
 156  76.42683
 157  6.39149
 158  -115.4982
 159  -295.5006
 160  -302.6878
 161  -386.2648
 162  -384.8014
 163  -162.1914
 164  406.9435
 165  356.3551
 166  201.1219
 167  792.0259
 168  246.6757
 169  -163.6645
 170  128.6346
 171  155.6843
 172  647.871
 173  481.9088
 174  156.3916
 175  -90.61676
 176  -234.4615
 177  -76.90699
 178  -337.4918
 179  -305.5122
 180  -380.8585
 181  -174.8765
 182  -55.07016
 183  184.6792
 184  -13.24036
 185  -43.92048
 186  -280.2351
 187  -306.9651
 188  -366.9707
 189  -301.585
 190  148.3144
 191  -230.2615
 192  -48.66477
 193  -677.3687
 194  -612.593
 195  -871.6487
 196  -661.4163
 197  -62.32099
 198  17.85178
 199  88.68363
 200  -197.7846
 201  -56.4216
 202  -176.0712
 203  171.2152
 204  -55.37453
 205  47.77983
 206  -209.7359
 207  -116.0259
 208  -136.4087
 209  -475.5763
 210  -15.54656
 211  -346.6927
 212  -150.2083
 213  -137.3701
 214  -247.1426
 215  -226.7086
 216  11.77579
 217  -175.6001
 218  162.8197
 219  134.9747
 220  -77.72624
 221  -294.3995
 222  -308.541
 223  157.4317
 224  156.0064
 225  46.16163
 226  146.5085
 227  262.5832
 228  221.3015
 229  542.8669
 230  689.65
 231  456.8664
 232  304.9435
 233  182.5624
 234  283.8105
 235  211.6208
 236  515.9241
 237  684.7552
 238  474.2943
 239  593.8898
 240  411.5415
 241  167.3527
 242  133.1132
 243  -285.4557
 244  -94.67402
 245  -254.7057
 246  -101.0139
 247  132.2621
 248  188.3034
 249  115.154
 250  -447.4367
 251  -391.0295
 252  9.564943
 253  -517.8331
 254  -774.9933
 255  -513.3302
 256  -45.81277
 257  71.87714
 258  69.56201
 259  -88.33521
 260  -287.2935
 261  -521.4362
 262  -504.117
 263  6.162038
 264  49.20753
 265  -94.63549
 266  -169.183
 267  -167.1499
 268  -212.4119
 269  -441.9668
 270  -73.58585
 271  255.8325
 272  300.8618
 273  136.8811
 274  -22.93413
 275  -365.1335
 276  -356.307
 277  -316.0687
 278  -525.1833
 279  -273.568
 280  -150.801
 281  168.6723
 282  -3.421637
 283  87.01287
 284  196.5704
 285  370.8135
 286  289.6297
 287  27.79008
 288  -112.4121
 289  -217.7253
 290  283.4447
 291  123.8931
 292  3.704455
 293  0.2215395
 294  -37.66792
 295  -12.99583
 296  128.2124
 297  181.9964
 298  460.0677
 299  531.5596
 300  441.3261
 301  536.5521
 302  547.9424
 303  162.5506
 304  67.4834
 305  138.3915
 306  19.57411
 307  -274.3626
 308  -98.27752
 309  58.04503
 310  -286.2105
 311  -352.0309
 312  -257.0617
 313  -321.8541
 314  -305.5274
 315  -274.7459
 316  -320.5655
 317  -364.2183
 318  -246.948
 319  -9.849194
 320  352.5585
 321  356.3736
 322  160.4547
 323  16.5783
 324  -685.9612
 325  -529.3884
 326  -205.988
 327  102.1139
 328  -450.822
 329  -45.17643
 330  130.3964
 331  54.2258
 332  18.73113
 333  -66.90765
 334  424.2056
 335  114.8176
 336  -457.601
 337  -134.5257
 338  -74.70531
 339  64.79712
 340  80.40504
 341  284.7421
 342  116.3667
 343  156.1574
 344  150.1187
 345  -26.37219
 346  -53.46842
 347  -67.08127
 348  -286.491
 349  -515.0571
 350  -529.4119
 351  -146.8348
 352  -24.60446
 353  -18.94757
 354  -374.9386
 355  -84.11578
 356  176.1533
 357  93.35498
 358  -2.034783
 359  273.683
 360  -86.2261
 361  -350.559
 362  -157.4414
 363  36.28205
 364  398.4544
 365  417.8124
 366  253.6042
 367  16.9927
 368  -415.6017
 369  -276.025
 370  -199.3843
 371  142.3318
 372  -418.3551
 373  -215.3269
 374  -52.20864
 375  25.16424
 376  304.5848
 377  19.48406
 378  -435.9727
 379  -300.7514
 380  -161.2639
 381  -94.46599
 382  258.2758
 383  259.6959
 384  416.9437
 385  251.3616
 386  110.1039
 387  54.05187
 388  -257.227
 389  -120.4153
 390  -2.818137
 391  239.8919
 392  526.2571
 393  91.58901
 394  442.4163
 395  639.5529
 396  1106.377
 397  1155.797
 398  816.916
 399  480.1577
 400  561.7816
 401  518.1792
 402  220.3911
 403  -7.67154
 404  227.7474
 405  131.5822
 406  67.21391
 407  -133.3877
 408  102.992
 409  155.3405
 410  61.89369
 411  603.9058
 412  585.7283
 413  465.2776
 414  -41.88885
 415  177.2148
 416  411.1106
 417  72.13534
 418  401.4781
 419  171.919
 420  554.1537
 421  193.1211
 422  -44.3842
 423  237.2534
 424  298.4333
 425  128.7924
 426  -139.8957
 427  -7.578003
 428  156.2886
 429  31.86733
 430  -104.1953
 431  -58.08702
 432  63.2868
 433  107.0371
 434  50.45929
 435  -315.8469
 436  -13.06833
 437  -511.1329
 438  -343.7494
 439  38.54342
 440  308.8518
 441  507.3936
 442  694.4515
 443  399.8546
 444  -42.05644
 445  72.75886
 446  -96.51112
 447  185.395
 448  329.2339
 449  86.02912
 450  -73.39361
 451  118.6226
 452  73.89105
 453  296.9664
 454  310.6111
 455  226.0983
 456  227.8959
 457  21.50647
 458  82.27159
 459  65.60939
 460  217.7954
 461  -319.182
 462  60.54749
 463  29.46691
 464  -105.3338
 465  -280.3065
 466  -309.589
 467  -319.7655
 468  -271.8763
 469  -388.2187
 470  -161.4763
 471  323.1974
 472  351.7111
 473  213.828
 474  72.33785
 475  217.5324
 476  306.0841
 477  92.76105
 478  -2.257585
 479  250.5925
 480  342.3962
 481  32.16524
 482  -126.5067
 483  -6.812421
 484  243.0634
 485  71.22234
 486  -83.2906
 487  -198.8173
 488  -323.6096
 489  -88.94927
 490  -62.39746
 491  21.45202
 492  398.106
 493  -127.0093
 494  -386.3681
 495  -586.3049
 496  -843.7177
 497  -764.2244
 498  -399.3476
 499  79.17411
 500  73.72824
 501  -108.5261
 502  -242.6257
 503  -171.5137
 504  -127.2313
 505  14.21958
 506  -35.09534
 507  -0.513131
 508  271.8825
 509  264.6459
 510  60.69194
 511  142.4922
