# Input file       =  1196363886.122779-PSRB0329-2ms-sampling-dd.dat
# Candidate        =  PSR_0332+5434
# Telescope        =  AR
# Epoch_topo       =  58090.804457439568
# Epoch_bary       =  N/A
# T_sample         =  0.002
# Data Folded      =  7340032
# Data Avg         =  -7.04282874598762e-10
# Data StdDev      =  5.71036343325729 
# Profile Bins     =  512
# Profile Avg      =  -0.662633197984197
# Profile StdDev   =  683.71915267875  
# Reduced chi-sqr  =  0.476
# Prob(Noise)      <  1   (~0.0 sigma)
# P_topo (ms)      =  714.528574643304  +/- 0.000844
# P'_topo (s/s)    =  -0                +/- 4.45e-10
# P''_topo (s/s^2) =  0                 +/- 1.97e-13
# P_bary (ms)      =  N/A
# P'_bary (s/s)    =  N/A
# P''_bary (s/s^2) =  N/A
# P_orb (s)        =  N/A
# asin(i)/c (s)    =  N/A
# eccentricity     =  N/A
# w (rad)          =  N/A
# T_peri           =  N/A
######################################################
   0  -476.1331
   1  -223.1562
   2  -169.2421
   3  -375.3738
   4  -863.3009
   5  -826.6183
   6  -476.0663
   7  -292.6616
   8  -537.2668
   9  -351.4422
  10  -355.1191
  11  -136.1356
  12  -211.8651
  13  -185.5866
  14  -314.8373
  15  -35.3314
  16  216.2476
  17  -59.85972
  18  -190.39
  19  -143.5875
  20  -395.9467
  21  -460.6866
  22  -477.0408
  23  -398.6785
  24  -587.0423
  25  -509.799
  26  -475.3081
  27  -479.2329
  28  -436.8074
  29  -245.4529
  30  37.34811
  31  -325.2551
  32  -513.8811
  33  -391.2257
  34  -472.4697
  35  -233.9008
  36  -104.1205
  37  115.5761
  38  -44.34029
  39  -231.399
  40  -368.5525
  41  -501.791
  42  -449.0392
  43  -687.3605
  44  -347.5265
  45  -367.2865
  46  -143.2183
  47  -611.5362
  48  -716.5482
  49  -250.2875
  50  -250.7349
  51  -314.4422
  52  -172.2542
  53  -170.9681
  54  -467.4787
  55  -388.2527
  56  -398.1999
  57  -178.1983
  58  -98.7205
  59  -521.358
  60  -369.2301
  61  -677.6614
  62  -696.3198
  63  -387.6917
  64  -312.769
  65  -180.5209
  66  270.622
  67  173.4681
  68  9.573845
  69  -475.3753
  70  -390.9469
  71  -295.185
  72  -135.6975
  73  -101.4502
  74  -73.91421
  75  -63.56244
  76  -118.4407
  77  -296.148
  78  -37.62075
  79  -167.1431
  80  -167.5137
  81  -29.71236
  82  146.9898
  83  -21.05615
  84  -40.18822
  85  352.7562
  86  296.3145
  87  92.72466
  88  209.2994
  89  143.892
  90  316.9633
  91  361.7327
  92  454.5986
  93  179.1201
  94  418.7617
  95  555.8975
  96  250.9002
  97  30.78411
  98  84.34666
  99  417
 100  260.5378
 101  531.17
 102  438.5044
 103  -11.40476
 104  -326.0706
 105  0.4467252
 106  79.40331
 107  234.4933
 108  111.4363
 109  -324.061
 110  -34.62231
 111  108.0803
 112  35.1577
 113  -62.25458
 114  -134.3121
 115  -162.646
 116  -260.7378
 117  -99.50121
 118  97.19222
 119  -140.4871
 120  -491.7285
 121  -447.7879
 122  -409.2471
 123  -103.8503
 124  44.12832
 125  189.09
 126  343.0848
 127  40.14992
 128  139.3388
 129  243.5089
 130  64.06594
 131  89.50539
 132  160.7856
 133  340.1641
 134  -110.0969
 135  -138.1809
 136  -24.40564
 137  304.6438
 138  196.9512
 139  -24.15674
 140  -248.5323
 141  -181.4123
 142  -265.4045
 143  -345.0805
 144  -134.416
 145  180.357
 146  367.8047
 147  68.06382
 148  99.04301
 149  256.2711
 150  136.8389
 151  418.9967
 152  356.1266
 153  434.8954
 154  202.571
 155  489.3235
 156  348.9794
 157  384.8638
 158  404.6074
 159  433.2919
 160  583.0066
 161  659.3457
 162  586.8442
 163  324.9962
 164  257.3997
 165  18.67349
 166  -12.93994
 167  263.803
 168  102.0998
 169  -244.0263
 170  -353.3148
 171  -363.412
 172  -558.675
 173  -35.18747
 174  182.1197
 175  161.5355
 176  -488.1467
 177  -279.2249
 178  -110.5912
 179  81.01958
 180  37.06672
 181  -32.75625
 182  -36.01657
 183  -159.1365
 184  -329.8374
 185  -150.307
 186  -173.2074
 187  -120.231
 188  -479.7153
 189  -434.8864
 190  -283.1653
 191  -466.7487
 192  -329.6535
 193  9.205154
 194  -344.7922
 195  -494.6145
 196  -305.5171
 197  -100.9331
 198  -199.3922
 199  -550.0746
 200  -393.45
 201  -461.5958
 202  -283.4847
 203  -389.5652
 204  -683.1022
 205  -653.7924
 206  -652.6195
 207  -233.7457
 208  -211.1326
 209  24.91801
 210  -76.9987
 211  -158.8885
 212  29.20325
 213  161.509
 214  311.7183
 215  603.9768
 216  595.4108
 217  388.6171
 218  432.5757
 219  183.6672
 220  -28.49635
 221  326.391
 222  462.0469
 223  436.2153
 224  303.6185
 225  456.443
 226  229.8944
 227  49.4108
 228  481.8725
 229  677.2509
 230  646.8069
 231  873.477
 232  742.2687
 233  495.2496
 234  93.26684
 235  186.0321
 236  239.7738
 237  101.7274
 238  94.92564
 239  123.1726
 240  41.7281
 241  309.5631
 242  253.5157
 243  351.4622
 244  244.3931
 245  249.238
 246  93.75385
 247  322.8279
 248  590.4604
 249  406.6398
 250  212.7865
 251  212.6799
 252  -30.51816
 253  -20.76099
 254  311.6532
 255  589.2273
 256  481.8916
 257  427.8717
 258  392.7104
 259  347.7083
 260  -27.01759
 261  363.3034
 262  35.12209
 263  -159.0949
 264  -110.6083
 265  259.5718
 266  233.9761
 267  10.31398
 268  -296.7554
 269  -317.1403
 270  -76.94848
 271  -35.49597
 272  -213.5774
 273  -34.2929
 274  -289.8132
 275  -395.8808
 276  -251.0224
 277  -266.9826
 278  -590.0581
 279  -313.9843
 280  -437.7327
 281  -309.3903
 282  32.82409
 283  -85.39371
 284  -96.664
 285  299.3408
 286  212.1108
 287  177.3705
 288  248.9058
 289  204.3096
 290  333.6786
 291  203.1806
 292  158.3461
 293  -107.0811
 294  -4.729914
 295  123.7745
 296  245.4381
 297  164.7384
 298  98.3907
 299  26.9452
 300  -32.36336
 301  154.2092
 302  69.67461
 303  353.7426
 304  315.132
 305  393.314
 306  62.21458
 307  114.5531
 308  271.0493
 309  663.3582
 310  514.0494
 311  139.0744
 312  69.30962
 313  -166.895
 314  58.40497
 315  -373.5263
 316  -196.7787
 317  273.4699
 318  198.242
 319  46.26976
 320  -227.632
 321  -440.9803
 322  -424.3433
 323  -370.5572
 324  -80.76277
 325  -129.4206
 326  163.5367
 327  -26.56999
 328  167.655
 329  45.59259
 330  35.48166
 331  74.38167
 332  -76.25233
 333  -3.436994
 334  211.5488
 335  30.21867
 336  -5.786967
 337  -68.17954
 338  387.7232
 339  383.9312
 340  -111.6995
 341  -87.74583
 342  52.62122
 343  -47.90787
 344  -209.554
 345  29.58723
 346  -70.71938
 347  -244.8477
 348  -62.35481
 349  -161.0862
 350  -172.587
 351  -130.9781
 352  -325.6886
 353  -7.870063
 354  -71.01787
 355  -174.1456
 356  -9.924623
 357  110.6631
 358  44.66283
 359  -148.4137
 360  82.04285
 361  31.28464
 362  108.8595
 363  479.7636
 364  409.6154
 365  397.4677
 366  142.4189
 367  164.4235
 368  -56.48195
 369  -185.9688
 370  82.47598
 371  411.8098
 372  288.2918
 373  400.0863
 374  499.2654
 375  366.8208
 376  -144.9234
 377  30.00647
 378  -94.03778
 379  164.3289
 380  157.8257
 381  423.2112
 382  339.4201
 383  102.4104
 384  296.2715
 385  216.3321
 386  191.3411
 387  -85.98056
 388  -209.2212
 389  -42.37695
 390  113.5685
 391  -91.37978
 392  -225.0569
 393  -224.7729
 394  -313.0437
 395  -378.5944
 396  -212.3376
 397  64.88741
 398  240.8115
 399  152.0647
 400  -211.5828
 401  -316.817
 402  -339.8398
 403  -388.1273
 404  -151.4576
 405  -216.9492
 406  -43.4668
 407  -89.75713
 408  -639.7466
 409  -949.6085
 410  -806.2725
 411  -405.8717
 412  -638.0225
 413  -814.0047
 414  -435.0689
 415  -333.6401
 416  -427.4192
 417  -599.2321
 418  -510.9828
 419  -726.4036
 420  -445.3688
 421  -568.9982
 422  -261.9499
 423  -161.3749
 424  -516.6423
 425  -106.7612
 426  139.1086
 427  14.97068
 428  -250.7051
 429  -411.4753
 430  -455.8246
 431  -106.5545
 432  -52.83198
 433  -171.3099
 434  231.4987
 435  208.5984
 436  133.223
 437  278.0767
 438  630.6473
 439  326.1124
 440  -55.41418
 441  272.177
 442  390.298
 443  399.9935
 444  99.53837
 445  182.1645
 446  456.9421
 447  225.2593
 448  287.667
 449  227.2364
 450  257.7129
 451  384.1991
 452  180.5782
 453  486.5225
 454  772.7114
 455  761.5638
 456  1009.199
 457  924.5765
 458  754.1685
 459  537.475
 460  520.7419
 461  587.2117
 462  391.4561
 463  381.1852
 464  285.2824
 465  250.157
 466  346.7737
 467  205.3956
 468  173.5291
 469  459.6442
 470  430.109
 471  139.6729
 472  241.8131
 473  269.7159
 474  580.3008
 475  399.1513
 476  -29.00177
 477  28.01048
 478  -111.7291
 479  -243.679
 480  -364.5973
 481  0.4689925
 482  565.7441
 483  143.0323
 484  24.37397
 485  -271.0107
 486  115.8991
 487  336.0012
 488  -22.4943
 489  249.5253
 490  589.6205
 491  439.3521
 492  528.6384
 493  883.5327
 494  482.0549
 495  500.2376
 496  1052.824
 497  693.3622
 498  311.8192
 499  22.63105
 500  -241.8668
 501  -506.0595
 502  -621.6936
 503  -143.4111
 504  -130.2898
 505  -555.0654
 506  -236.4011
 507  -3.657749
 508  -361.6732
 509  -749.757
 510  -608.9717
 511  -592.4094
