# Input file       =  1196019175.113502_cleaned.dat
# Candidate        =  PSR_0332+5434
# Telescope        =  AR
# Epoch_topo       =  58086.814746684053
# Epoch_bary       =  N/A
# T_sample         =  0.002
# Data Folded      =  7340032
# Data Avg         =  0.175979493408314
# Data StdDev      =  4.224871556026   
# Profile Bins     =  256
# Profile Avg      =  5046.17462157624 
# Profile StdDev   =  715.389405339859 
# Reduced chi-sqr  =  0.622
# Prob(Noise)      <  1   (~0.0 sigma)
# P_topo (ms)      =  714.524464383413  +/- 0.000357
# P'_topo (s/s)    =  -0                +/- 1.88e-10
# P''_topo (s/s^2) =  0                 +/- 8.32e-14
# P_bary (ms)      =  N/A
# P'_bary (s/s)    =  N/A
# P''_bary (s/s^2) =  N/A
# P_orb (s)        =  N/A
# asin(i)/c (s)    =  N/A
# eccentricity     =  N/A
# w (rad)          =  N/A
# T_peri           =  N/A
######################################################
   0  5243.178
   1  6033.047
   2  4993.955
   3  5103.823
   4  4903.516
   5  4290.427
   6  3974.264
   7  4652.682
   8  5520.437
   9  4630.894
  10  4792.335
  11  5116.105
  12  4438.546
  13  4630.468
  14  4604.264
  15  5041.153
  16  4904.134
  17  5452.522
  18  4488.863
  19  5294.45
  20  5407.309
  21  5429.497
  22  4688.295
  23  4404.716
  24  4759.838
  25  5664.141
  26  5264.907
  27  5279.95
  28  5793.294
  29  5647.037
  30  5436.361
  31  5696.753
  32  5190.932
  33  4735.115
  34  5348.203
  35  5640.67
  36  5714.732
  37  4955.845
  38  4034.655
  39  4226.079
  40  4404.838
  41  4694.19
  42  4855.141
  43  4948.285
  44  4527.325
  45  5381.24
  46  6395.427
  47  5758.168
  48  5472.08
  49  5271.027
  50  5411.646
  51  5416.238
  52  5100.281
  53  5074.739
  54  4975.313
  55  5001.91
  56  5073.609
  57  5561.852
  58  4792.332
  59  4266.352
  60  4931.781
  61  4883.151
  62  5210.771
  63  4161.712
  64  4704.443
  65  5316.941
  66  5556.387
  67  5499.086
  68  5697.152
  69  5246.318
  70  4704.326
  71  4642.995
  72  4907.808
  73  4637.001
  74  4118.908
  75  4995.765
  76  5055.798
  77  4894.156
  78  4560.731
  79  5146.96
  80  4000.743
  81  3955.686
  82  4650.171
  83  4932.091
  84  4675.393
  85  4537.197
  86  5007.088
  87  5042.854
  88  4569.767
  89  4021.096
  90  3615.36
  91  4621.229
  92  4525.501
  93  5194.318
  94  5243.838
  95  5876.856
  96  5665.556
  97  5390.045
  98  4947.801
  99  4879.115
 100  6141.812
 101  5670.093
 102  4502.019
 103  5553.079
 104  5681.583
 105  5065.223
 106  4761.208
 107  4890.996
 108  5209.945
 109  5213.666
 110  4497.847
 111  5026.093
 112  5360.089
 113  5330.937
 114  5299.513
 115  5455.382
 116  5271.712
 117  5206.718
 118  4236.05
 119  4425.391
 120  4110.776
 121  4311.677
 122  4597.593
 123  5010.393
 124  5145.616
 125  5022.85
 126  4645.604
 127  5358.391
 128  5004.561
 129  4464.559
 130  4988.809
 131  5198.154
 132  4817.354
 133  6033.892
 134  5543.868
 135  5324.729
 136  4759.126
 137  5135.315
 138  4573.973
 139  4868.027
 140  5008.432
 141  5409.635
 142  4899.362
 143  5283.551
 144  5036.448
 145  4578.067
 146  4069.94
 147  4465.742
 148  5596.023
 149  4582.891
 150  5970.969
 151  5636.145
 152  4713.707
 153  4548.122
 154  4997.266
 155  5466.817
 156  6117.084
 157  6684.248
 158  6338.662
 159  5638.218
 160  5257.839
 161  5100.58
 162  4718.397
 163  5658.502
 164  5706.1
 165  5316.864
 166  5378.049
 167  5165.69
 168  4755.542
 169  5071.114
 170  5958.242
 171  5225.698
 172  5459.304
 173  4943.2
 174  5184.291
 175  4767.548
 176  5600.361
 177  5223.674
 178  4463.354
 179  4072.389
 180  5287.49
 181  5538.59
 182  4322.191
 183  4795.483
 184  5293.547
 185  5001.907
 186  4833.931
 187  5069.868
 188  4841.417
 189  4886.927
 190  5023.255
 191  5057.41
 192  4733.108
 193  5305.243
 194  5477.05
 195  5030.501
 196  4151.959
 197  4661.895
 198  5430.139
 199  4799.195
 200  4984.159
 201  4886.279
 202  5419.167
 203  5298.78
 204  5129.459
 205  4264.926
 206  5609.19
 207  5021.797
 208  5230.179
 209  5679.761
 210  5025.841
 211  5153.921
 212  5759.272
 213  5707.782
 214  4994.312
 215  4569.983
 216  5009.69
 217  4708.328
 218  5683.58
 219  4950.557
 220  4781.26
 221  4988.282
 222  5052.886
 223  4889.619
 224  4364.569
 225  4183.105
 226  4543.698
 227  4664.057
 228  4592.839
 229  4537.448
 230  4599.966
 231  4945.896
 232  4589.446
 233  5403.331
 234  5728.015
 235  5400.044
 236  5079.387
 237  4955.732
 238  5681.533
 239  5273.78
 240  5385.547
 241  5006.793
 242  4806.9
 243  4776.34
 244  4551.754
 245  5079.006
 246  5598.913
 247  5763.198
 248  5132.181
 249  5022.914
 250  5056.602
 251  5312.681
 252  4896.982
 253  5118.554
 254  5578.617
 255  6034.781
