# Input file       =  1196349189.112123-PSRB0329-2ms-sampling-dd.dat
# Candidate        =  PSR_0332+5434
# Telescope        =  AR
# Epoch_topo       =  58090.634353149573
# Epoch_bary       =  N/A
# T_sample         =  0.002
# Data Folded      =  7208960
# Data Avg         =  1.506852900006e-09
# Data StdDev      =  7.4799970177489  
# Profile Bins     =  512
# Profile Avg      =  0.0863682687971954
# Profile StdDev   =  887.570281064152 
# Reduced chi-sqr  =  0.569
# Prob(Noise)      <  1   (~0.0 sigma)
# P_topo (ms)      =  714.528375518866  +/- 8.23e-05
# P'_topo (s/s)    =  -0                +/- 4.42e-11
# P''_topo (s/s^2) =  0                 +/- 1.99e-14
# P_bary (ms)      =  N/A
# P'_bary (s/s)    =  N/A
# P''_bary (s/s^2) =  N/A
# P_orb (s)        =  N/A
# asin(i)/c (s)    =  N/A
# eccentricity     =  N/A
# w (rad)          =  N/A
# T_peri           =  N/A
######################################################
   0  624.4824
   1  -137.2047
   2  -586.3394
   3  -24.29881
   4  262.7748
   5  655.8353
   6  411.0863
   7  99.94292
   8  301.0904
   9  -178.7618
  10  -470.3383
  11  -727.7348
  12  308.3642
  13  317.973
  14  262.4348
  15  175.657
  16  -52.44318
  17  30.02411
  18  -127.97
  19  67.50816
  20  -388.8013
  21  -32.66875
  22  -58.41499
  23  -307.1903
  24  -153.2701
  25  92.28883
  26  24.47515
  27  263.3717
  28  69.15411
  29  8.428928
  30  -371.7296
  31  -582.8333
  32  -665.6428
  33  -711.0253
  34  -300.1498
  35  -4.645155
  36  -151.9471
  37  -563.738
  38  -1036.584
  39  -465.4102
  40  -279.4283
  41  -117.6603
  42  -85.30777
  43  -389.7036
  44  -404.8887
  45  -512.118
  46  -159.529
  47  255.4399
  48  930.5872
  49  784.5681
  50  397.4615
  51  -339.402
  52  -960.9169
  53  -694.8475
  54  -57.32256
  55  383.4596
  56  990.2468
  57  1107.971
  58  1091.521
  59  -21.96874
  60  -327.3002
  61  -35.74409
  62  206.3763
  63  701.7028
  64  1405.158
  65  978.4434
  66  142.5358
  67  -302.1094
  68  -893.9757
  69  -571.7083
  70  -264.5746
  71  125.531
  72  523.4969
  73  391.4569
  74  -72.116
  75  -305.717
  76  -22.24413
  77  -115.0078
  78  -35.78538
  79  -79.74574
  80  -57.19779
  81  373.1585
  82  786.3386
  83  1084.833
  84  1021.704
  85  905.109
  86  1078.698
  87  683.467
  88  599.4642
  89  773.9572
  90  1010.324
  91  970.2482
  92  149.5021
  93  -454.1994
  94  -375.0839
  95  207.6017
  96  1216.1
  97  580.3839
  98  146.1189
  99  -196.4055
 100  -332.1541
 101  -275.1405
 102  -582.1517
 103  254.619
 104  375.5402
 105  574.3952
 106  274.3037
 107  196.4292
 108  -47.9469
 109  -774.6727
 110  -343.5461
 111  -143.2599
 112  -298.5961
 113  -69.09736
 114  -61.7808
 115  -177.2269
 116  -704.3809
 117  -505.5171
 118  -96.29329
 119  -282.6362
 120  -24.52344
 121  -329.1609
 122  -254.1148
 123  41.48227
 124  -49.90652
 125  754.9929
 126  288.5216
 127  452.6521
 128  -60.55341
 129  204.7179
 130  424.25
 131  224.5241
 132  644.5803
 133  -291.7698
 134  -330.8965
 135  -582.208
 136  -394.5332
 137  -574.5872
 138  -519.8784
 139  86.14597
 140  -364.8975
 141  -656.4471
 142  -764.3201
 143  -136.6043
 144  -426.0456
 145  -136.308
 146  543.4894
 147  478.4016
 148  559.6628
 149  374.1019
 150  -50.91757
 151  -440.5022
 152  -295.8772
 153  104.0039
 154  458.0937
 155  -131.7083
 156  -427.903
 157  -377.5921
 158  -456.5725
 159  -98.11459
 160  -484.4413
 161  -199.6955
 162  -68.89082
 163  -113.9575
 164  326.0441
 165  37.68412
 166  -122.0504
 167  -624.2594
 168  -559.0967
 169  -731.0438
 170  -164.5734
 171  175.1384
 172  564.3473
 173  288.8173
 174  -153.4501
 175  41.91054
 176  -413.8166
 177  -133.7699
 178  67.18684
 179  279.075
 180  203.7253
 181  22.22811
 182  520.0365
 183  -441.3466
 184  -551.6223
 185  -348.1078
 186  -11.22633
 187  -375.1474
 188  -400.8576
 189  126.4728
 190  105.4856
 191  302.0488
 192  -50.86152
 193  224.8132
 194  298.8311
 195  -178.5506
 196  890.3449
 197  673.9873
 198  376.8625
 199  519.2657
 200  710.0934
 201  113.6174
 202  -572.2759
 203  408.249
 204  901.9644
 205  218.4429
 206  162.8634
 207  -147.069
 208  -541.8195
 209  102.8637
 210  231.1415
 211  -173.3401
 212  -623.2806
 213  -47.31798
 214  -277.3305
 215  -294.4781
 216  -467.9102
 217  -539.9774
 218  -887.0553
 219  -645.8876
 220  -375.6796
 221  -290.6061
 222  -281.6454
 223  -481.2506
 224  31.07038
 225  98.41383
 226  24.77061
 227  -70.91112
 228  281.7044
 229  328.9055
 230  218.384
 231  24.08767
 232  -427.9532
 233  -665.23
 234  -1069.041
 235  -557.2167
 236  -65.87672
 237  4.486897
 238  -313.632
 239  -348.3583
 240  -125.3186
 241  -26.76176
 242  -199.9583
 243  -388.1903
 244  67.95418
 245  54.258
 246  -234.2396
 247  -138.7159
 248  -202.1838
 249  -519.189
 250  -720.8972
 251  -899.9523
 252  -1008.271
 253  -692.0147
 254  -809.498
 255  -610.1685
 256  -624.7009
 257  -1077.103
 258  -804.2095
 259  -1263.484
 260  -845.486
 261  -552.0156
 262  -590.3915
 263  -415.1987
 264  -756.2568
 265  -576.3668
 266  -843.9194
 267  -893.7986
 268  -398.261
 269  -531.2003
 270  -240.0612
 271  104.0317
 272  -26.46371
 273  -133.8156
 274  -443.1073
 275  -393.6624
 276  -630.118
 277  -250.8956
 278  4.4043
 279  61.48624
 280  -106.6035
 281  -332.1047
 282  169.3136
 283  -140.4534
 284  -499.718
 285  -182.8006
 286  -332.2492
 287  -28.69534
 288  -164.3659
 289  -141.4456
 290  -565.3701
 291  -921.7568
 292  -782.5999
 293  -752.7428
 294  -1061.486
 295  -569.7797
 296  -627.4381
 297  -238.464
 298  48.42459
 299  105.0544
 300  -28.58955
 301  -713.0375
 302  -596.3354
 303  -659.9301
 304  292.5062
 305  318.2914
 306  -419.9626
 307  -420.7922
 308  -663.3391
 309  -256.1527
 310  -186.7541
 311  -1.422219
 312  -388.8797
 313  -468.6911
 314  -131.7515
 315  -376.5541
 316  185.6205
 317  152.1128
 318  272.4498
 319  -102.4965
 320  -316.576
 321  -45.02857
 322  -149.655
 323  22.72828
 324  -159.5805
 325  350.6987
 326  321.4961
 327  363.5954
 328  145.952
 329  309.9449
 330  359.6747
 331  287.4689
 332  -44.97094
 333  -378.038
 334  24.39869
 335  -430.8566
 336  266.9292
 337  -45.85873
 338  -533.7653
 339  -88.284
 340  -255.9974
 341  -280.9969
 342  -309.3177
 343  310.7941
 344  540.8062
 345  680.5655
 346  560.5281
 347  589.7045
 348  86.38009
 349  -99.1972
 350  -120.0112
 351  -19.4853
 352  11.13465
 353  -152.6161
 354  229.2924
 355  -23.8663
 356  81.09389
 357  133.4197
 358  116.0046
 359  768.0124
 360  936.5339
 361  1145.175
 362  668.956
 363  248.6456
 364  462.948
 365  605.2782
 366  557.252
 367  143.2613
 368  415.3852
 369  121.2059
 370  -57.51616
 371  24.53716
 372  178.4419
 373  214.9441
 374  168.0392
 375  95.93287
 376  -204.1195
 377  140.0543
 378  470.5673
 379  650.9489
 380  465.6187
 381  377.9337
 382  81.3467
 383  116.2117
 384  189.2856
 385  9.797742
 386  372.0561
 387  255.2279
 388  237.144
 389  -149.9172
 390  -177.4118
 391  -286.6074
 392  -274.5395
 393  380.448
 394  404.1505
 395  1392.612
 396  825.21
 397  573.9054
 398  -199.0038
 399  -96.92711
 400  -48.92271
 401  56.3467
 402  766.3675
 403  993.3847
 404  1174.717
 405  1237.544
 406  1108.63
 407  756.9902
 408  514.9295
 409  25.17831
 410  -204.1149
 411  54.00888
 412  370.9705
 413  240.4445
 414  114.8238
 415  267.4843
 416  235.0547
 417  529.2241
 418  498.5977
 419  534.2369
 420  834.4323
 421  39.86723
 422  -116.1158
 423  -264.9116
 424  -154.7576
 425  53.49144
 426  224.901
 427  53.34776
 428  414.8892
 429  378.3726
 430  -233.4126
 431  -160.4144
 432  -381.3645
 433  468.8301
 434  559.1725
 435  895.6393
 436  828.411
 437  350.4983
 438  248.4732
 439  -610.2816
 440  -127.2005
 441  -319.1071
 442  -210.0546
 443  -54.1179
 444  614.7393
 445  462.562
 446  139.7088
 447  689.1038
 448  -143.2072
 449  -437.1406
 450  -848.8079
 451  -478.3865
 452  -980.5898
 453  -748.5218
 454  -520.6938
 455  -636.6793
 456  -79.96761
 457  -3.840289
 458  -109.1035
 459  -238.0211
 460  -59.02452
 461  -207.5924
 462  173.9668
 463  -104.6903
 464  -149.5406
 465  106.7003
 466  -137.631
 467  112.1789
 468  82.17559
 469  616.2925
 470  284.818
 471  -50.93481
 472  -297.7256
 473  -116.5628
 474  359.8911
 475  511.5452
 476  348.2921
 477  -350.2011
 478  -781.4829
 479  -608.3516
 480  -908.6076
 481  -980.1642
 482  -657.7204
 483  -511.3111
 484  -63.82674
 485  178.995
 486  632.3425
 487  352.7578
 488  -268.2652
 489  -419.0267
 490  -254.2245
 491  -105.9567
 492  114.1191
 493  195.7063
 494  448.8539
 495  829.46
 496  648.362
 497  637.3624
 498  759.9069
 499  306.8244
 500  -46.93758
 501  546.5162
 502  1059.751
 503  1421.596
 504  1128.978
 505  696.7469
 506  -74.24919
 507  -547.6507
 508  245.8076
 509  1169.17
 510  1245.919
 511  1403.694
