# Input file       =  1196536233.113593_cleaned.dat
# Candidate        =  PSR_0332+5434
# Telescope        =  AR
# Epoch_topo       =  58092.799214277700
# Epoch_bary       =  N/A
# T_sample         =  0.002
# Data Folded      =  7340032
# Data Avg         =  0.0318149628461818
# Data StdDev      =  1.00005022415676 
# Profile Bins     =  512
# Profile Avg      =  456.100963749709 
# Profile StdDev   =  119.739049867555 
# Reduced chi-sqr  =  0.842
# Prob(Noise)      <  0.996   (~0.0 sigma)
# P_topo (ms)      =  714.530618259482  +/- 0.000649
# P'_topo (s/s)    =  -0                +/- 3.42e-10
# P''_topo (s/s^2) =  0                 +/- 1.51e-13
# P_bary (ms)      =  N/A
# P'_bary (s/s)    =  N/A
# P''_bary (s/s^2) =  N/A
# P_orb (s)        =  N/A
# asin(i)/c (s)    =  N/A
# eccentricity     =  N/A
# w (rad)          =  N/A
# T_peri           =  N/A
######################################################
   0  759.5718
   1  592.4366
   2  575.3422
   3  565.8998
   4  505.1939
   5  436.7429
   6  432.4168
   7  419.1344
   8  431.7253
   9  487.0493
  10  497.7076
  11  489.5242
  12  374.9922
  13  438.0355
  14  398.9735
  15  346.5309
  16  398.3242
  17  363.4864
  18  361.0039
  19  530.7879
  20  529.3507
  21  410.3683
  22  480.5486
  23  451.9106
  24  343.2973
  25  419.7053
  26  498.8523
  27  527.7947
  28  476.4336
  29  393.7452
  30  332.904
  31  510.0656
  32  609.9767
  33  463.4699
  34  506.6251
  35  652.6154
  36  561.5497
  37  532.0251
  38  604.7582
  39  510.1516
  40  623.3265
  41  475.2244
  42  424.697
  43  529.7729
  44  591.4169
  45  513.6535
  46  460.0461
  47  460.9644
  48  472.8907
  49  507.2397
  50  554.6093
  51  527.7164
  52  479.8871
  53  567.8784
  54  603.5982
  55  555.9294
  56  534.6179
  57  428.4959
  58  407.8535
  59  430.7268
  60  483.8595
  61  455.2577
  62  495.9268
  63  489.0233
  64  404.7727
  65  515.9393
  66  502.0032
  67  486.8748
  68  446.2206
  69  446.493
  70  480.7502
  71  399.5068
  72  400.6809
  73  391.848
  74  410.908
  75  397.467
  76  520.9674
  77  480.7462
  78  507.1914
  79  409.2971
  80  342.5039
  81  357.0665
  82  386.3764
  83  593.8342
  84  565.7791
  85  501.6828
  86  520.9381
  87  435.5714
  88  322.3936
  89  420.5808
  90  549.1715
  91  545.2456
  92  438.6643
  93  403.9019
  94  394.9264
  95  435.6644
  96  564.7338
  97  487.72
  98  436.7936
  99  510.7823
 100  519.262
 101  356.3535
 102  335.3821
 103  502.7735
 104  556.8602
 105  475.7466
 106  467.331
 107  443.8397
 108  490.1661
 109  461.6541
 110  440.8179
 111  476.7292
 112  476.974
 113  444.131
 114  454.3659
 115  489.3288
 116  538.6412
 117  454.7535
 118  411.4056
 119  357.3785
 120  440.0035
 121  538.9225
 122  427.7294
 123  468.2946
 124  532.7455
 125  488.9005
 126  376.5643
 127  445.1023
 128  467.0869
 129  361.2844
 130  379.4066
 131  440.1074
 132  412.3856
 133  474.9518
 134  535.5139
 135  531.5435
 136  404.0971
 137  375.042
 138  470.5816
 139  557.074
 140  369.8175
 141  421.6646
 142  485.8279
 143  550.9243
 144  478.3786
 145  401.481
 146  362.3377
 147  496.696
 148  473.2104
 149  550.9229
 150  599.1777
 151  527.8214
 152  435.5441
 153  463.4914
 154  610.6229
 155  668.3134
 156  498.1443
 157  486.1831
 158  434.1889
 159  389.2285
 160  439.6015
 161  437.7502
 162  404.4174
 163  392.0308
 164  414.631
 165  458.8887
 166  511.6182
 167  400.9391
 168  430.385
 169  461.5703
 170  498.153
 171  566.7357
 172  440.948
 173  492.7076
 174  504.5654
 175  452.9142
 176  485.1751
 177  458.6041
 178  468.1206
 179  472.3522
 180  584.5928
 181  519.8922
 182  494.8026
 183  469.8125
 184  488.4211
 185  591.7222
 186  474.9612
 187  488.7329
 188  469.273
 189  442.1183
 190  430.7916
 191  370.16
 192  420.7812
 193  348.5223
 194  430.7228
 195  446.7555
 196  413.1047
 197  319.026
 198  410.1204
 199  511.7918
 200  500.9015
 201  448.0928
 202  455.4567
 203  424.665
 204  471.9939
 205  413.6466
 206  493.3807
 207  522.9974
 208  474.7639
 209  391.1084
 210  324.2816
 211  430.9032
 212  371.6658
 213  391.4234
 214  338.2492
 215  475.7099
 216  524.54
 217  371.7733
 218  278.7477
 219  347.7757
 220  404.5522
 221  377.5764
 222  467.7737
 223  418.5222
 224  364.3835
 225  389.9835
 226  272.4485
 227  348.2428
 228  359.6513
 229  395.6823
 230  418.177
 231  540.804
 232  550.2291
 233  537.8365
 234  363.339
 235  426.3655
 236  627.3059
 237  652.5591
 238  525.6979
 239  516.5395
 240  496.5828
 241  451.5963
 242  423.4283
 243  522.5703
 244  593.2045
 245  445.7809
 246  437.9786
 247  444.8338
 248  454.308
 249  473.1639
 250  544.723
 251  514.322
 252  482.9763
 253  590.944
 254  711.2017
 255  575.2016
 256  549.0568
 257  406.3557
 258  381.9089
 259  461.8976
 260  467.1766
 261  426.5352
 262  464.9773
 263  557.9474
 264  521.2716
 265  344.19
 266  530.7734
 267  474.0156
 268  415.6047
 269  482.4128
 270  481.4178
 271  353.5684
 272  383.4155
 273  424.7527
 274  433.1385
 275  409.6057
 276  408.5189
 277  416.8543
 278  432.5246
 279  464.4396
 280  562.3901
 281  428.8809
 282  350.0746
 283  409.8786
 284  457.0306
 285  303.0079
 286  292.8672
 287  435.0706
 288  485.5981
 289  495.7257
 290  480.2162
 291  468.6365
 292  394.2174
 293  427.6269
 294  456.0192
 295  443.043
 296  477.922
 297  522.3884
 298  399.9334
 299  387.4631
 300  381.9095
 301  328.1242
 302  405.5904
 303  393.3582
 304  405.6028
 305  334.135
 306  480.1713
 307  483.0461
 308  449.47
 309  334.1122
 310  415.1161
 311  401.8549
 312  260.6677
 313  382.5117
 314  327.3312
 315  369.0071
 316  427.1528
 317  343.6697
 318  190.8838
 319  251.1035
 320  379.3925
 321  295.4993
 322  413.259
 323  389.4736
 324  275.502
 325  296.5915
 326  242.9403
 327  280.257
 328  449.1217
 329  526.3767
 330  447.0539
 331  334.1112
 332  424.9459
 333  445.5572
 334  370.6039
 335  396.6147
 336  372.7234
 337  275.793
 338  281.6752
 339  363.6635
 340  433.2167
 341  447.7507
 342  352.9705
 343  476.5674
 344  545.2102
 345  649.8613
 346  432.8802
 347  509.4333
 348  439.4207
 349  471.6045
 350  507.3068
 351  450.3874
 352  481.8266
 353  501.4791
 354  595.6579
 355  612.1891
 356  528.235
 357  489.8755
 358  475.2313
 359  428.6615
 360  508.4608
 361  488.7786
 362  495.274
 363  492.9442
 364  550.3536
 365  536.2403
 366  531.6301
 367  504.4373
 368  483.2871
 369  482.6443
 370  514.5273
 371  447.0189
 372  380.7353
 373  444.0677
 374  414.619
 375  499.3315
 376  553.9895
 377  540.6942
 378  492.3448
 379  546.9495
 380  430.6903
 381  413.9389
 382  397.8384
 383  509.9085
 384  493.9476
 385  449.836
 386  585.8682
 387  564.7745
 388  488.2674
 389  466.226
 390  487.4773
 391  573.6381
 392  457.2335
 393  520.1643
 394  504.9773
 395  420.5095
 396  349.2675
 397  347.0162
 398  399.8757
 399  384.759
 400  410.7856
 401  465.7989
 402  474.5318
 403  462.9485
 404  351.983
 405  436.1081
 406  399.8148
 407  326.2607
 408  448.7695
 409  463.6877
 410  454.1811
 411  471.5559
 412  394.2352
 413  446.5908
 414  316.3739
 415  422.3367
 416  559.7399
 417  401.3963
 418  373.7462
 419  425.2825
 420  376.2965
 421  386.1898
 422  541.2861
 423  508.8516
 424  381.8077
 425  422.1211
 426  455.5095
 427  336.299
 428  224.8904
 429  393.4885
 430  511.306
 431  384.3252
 432  371.3929
 433  338.7644
 434  333.2396
 435  356.221
 436  411.0485
 437  488.7167
 438  592.0323
 439  541.3221
 440  481.7707
 441  479.1659
 442  397.1019
 443  341.8018
 444  409.005
 445  462.0913
 446  460.2558
 447  488.4815
 448  483.4078
 449  459.7215
 450  341.112
 451  433.7074
 452  547.3761
 453  539.3904
 454  423.6095
 455  385.8402
 456  341.245
 457  417.7115
 458  577.8331
 459  573.6158
 460  574.8826
 461  483.7066
 462  437.7978
 463  368.085
 464  339.9274
 465  440.8777
 466  514.198
 467  383.426
 468  400.4202
 469  419.5399
 470  371.6767
 471  349.8657
 472  445.6712
 473  529.4713
 474  412.243
 475  334.8962
 476  430.4178
 477  434.5183
 478  400.6937
 479  583.3246
 480  555.2264
 481  505.9834
 482  475.4567
 483  366.5869
 484  451.4763
 485  493.4093
 486  492.5782
 487  458.6707
 488  349.8844
 489  474.7207
 490  519.6852
 491  424.9565
 492  530.8258
 493  472.0573
 494  454.8846
 495  459.8586
 496  495.1148
 497  557.7039
 498  578.1083
 499  535.6927
 500  490.5848
 501  447.9572
 502  431.8556
 503  537.9533
 504  499.5958
 505  487.7396
 506  606.6678
 507  575.5109
 508  595.8499
 509  703.21
 510  665.8002
 511  698.7148
