# Input file       =  1196378798.121901_cleaned.dat
# Candidate        =  PSR_0332+5434
# Telescope        =  AR
# Epoch_topo       =  58090.977050022004
# Epoch_bary       =  N/A
# T_sample         =  0.002
# Data Folded      =  7340032
# Data Avg         =  0.132777390277104
# Data StdDev      =  4.92943722806543 
# Profile Bins     =  256
# Profile Avg      =  3806.93407574089 
# Profile StdDev   =  834.692160573741 
# Reduced chi-sqr  =  0.652
# Prob(Noise)      <  1   (~0.0 sigma)
# P_topo (ms)      =  714.529091540747  +/- 0.000875
# P'_topo (s/s)    =  -0                +/- 4.62e-10
# P''_topo (s/s^2) =  0                 +/- 2.04e-13
# P_bary (ms)      =  N/A
# P'_bary (s/s)    =  N/A
# P''_bary (s/s^2) =  N/A
# P_orb (s)        =  N/A
# asin(i)/c (s)    =  N/A
# eccentricity     =  N/A
# w (rad)          =  N/A
# T_peri           =  N/A
######################################################
   0  2861.347
   1  2991.543
   2  3123.418
   3  3750.465
   4  2896.806
   5  2621.029
   6  3511.838
   7  2782.631
   8  2880.84
   9  2535.165
  10  2812.84
  11  2881.468
  12  3601.473
  13  3641.497
  14  3021.544
  15  3841.285
  16  3369.532
  17  3530.939
  18  3192.298
  19  3729.849
  20  4153.569
  21  3899.965
  22  3720.265
  23  3578.523
  24  3611.444
  25  3280.533
  26  3349.484
  27  2964.262
  28  4225.42
  29  4104.202
  30  2989.51
  31  3858.79
  32  3052.72
  33  3154.61
  34  3018.973
  35  2479.305
  36  3443.265
  37  3031.515
  38  2973.817
  39  4117.111
  40  4113.958
  41  4043.16
  42  3410.495
  43  4060.24
  44  3800.943
  45  3634.818
  46  4168.624
  47  4526.917
  48  4482.253
  49  4040.858
  50  3185.115
  51  3324.343
  52  2757.582
  53  3546.518
  54  3743.854
  55  3328.347
  56  4412.663
  57  4949.657
  58  4321.829
  59  3522.434
  60  3481.63
  61  4116.57
  62  3094.433
  63  3647.792
  64  4065.559
  65  4041.076
  66  4032.868
  67  4518.022
  68  4502.591
  69  4529.499
  70  4306.553
  71  3929.959
  72  4606.542
  73  4665.878
  74  4531.772
  75  3805.146
  76  4427.716
  77  4424.393
  78  4331.343
  79  4788.263
  80  4500.141
  81  3984.626
  82  4443.635
  83  4433.606
  84  4453.028
  85  5167.184
  86  4469.609
  87  4199.664
  88  4014.934
  89  3819.342
  90  3828.825
  91  3898.42
  92  3029.48
  93  4241.794
  94  3546.88
  95  4110.769
  96  3432.15
  97  3426.828
  98  3754.945
  99  3948.599
 100  3346.392
 101  4284.767
 102  3587.473
 103  3589.969
 104  3421.775
 105  3706.212
 106  4640.269
 107  4193.82
 108  4029.382
 109  4120.042
 110  4022.372
 111  4238.614
 112  3313.176
 113  4612.05
 114  4092.215
 115  4411.963
 116  3345.344
 117  4527.524
 118  4434.881
 119  4459.549
 120  4345.712
 121  4305.126
 122  4148.564
 123  3765.586
 124  3918
 125  4200.984
 126  3818.19
 127  3177.753
 128  3625.341
 129  3371.421
 130  2972.88
 131  3722.609
 132  4198.573
 133  3493.329
 134  3365
 135  4037.187
 136  4260.604
 137  4367.027
 138  4178.389
 139  3166.146
 140  2981.117
 141  3150.18
 142  4491.753
 143  4694.093
 144  4014.726
 145  4033.228
 146  4650.202
 147  4175.356
 148  4726.008
 149  4414.904
 150  4723.272
 151  4249.29
 152  3888.182
 153  4280.376
 154  3823.131
 155  4522.327
 156  5664.16
 157  5563.22
 158  4122.521
 159  3541.146
 160  4022.655
 161  4364.845
 162  2725.36
 163  3595.883
 164  3687.146
 165  4301.908
 166  3447.409
 167  2776.826
 168  2308.955
 169  3765.421
 170  2875.819
 171  3348.323
 172  2916.822
 173  3520.339
 174  3469.663
 175  3319.864
 176  3818.181
 177  4024.285
 178  4058.991
 179  3806.122
 180  3900.086
 181  4630.79
 182  4266.923
 183  4314.317
 184  3810.424
 185  3635.653
 186  3927.836
 187  3529.968
 188  2815.116
 189  2692.74
 190  3513.04
 191  4231.833
 192  2435.644
 193  3043.634
 194  3730.633
 195  3597.838
 196  2960.461
 197  2996.763
 198  3721.942
 199  3763.289
 200  3978.237
 201  4038.079
 202  3651.783
 203  4276.284
 204  3600.747
 205  4351.99
 206  4952.802
 207  5026.104
 208  4946.126
 209  4020.698
 210  4004.237
 211  4088.4
 212  4405.228
 213  3596.802
 214  3047.073
 215  3205.959
 216  3847.847
 217  3619.616
 218  3764.709
 219  4316.009
 220  4261.234
 221  4711.31
 222  3819.742
 223  3754.771
 224  3026.377
 225  3190.299
 226  3624.618
 227  4141.867
 228  4358.289
 229  3797.308
 230  3805.544
 231  3884.271
 232  3365.851
 233  4119.394
 234  3456.456
 235  3963.927
 236  3610.132
 237  4753.838
 238  4398.347
 239  3952.113
 240  2978.099
 241  3590.548
 242  3871.406
 243  3444.055
 244  2703.306
 245  2876.062
 246  3512.71
 247  4193.995
 248  3874.157
 249  3979.081
 250  3984.434
 251  4002.347
 252  3647.724
 253  3475.556
 254  3505.398
 255  3490.909
