# Input file       =  1196464943.112988-PSRB0329-2ms-sampling-dd.dat
# Candidate        =  PSR_0332+5434
# Telescope        =  AR
# Epoch_topo       =  58091.974098529950
# Epoch_bary       =  N/A
# T_sample         =  0.002
# Data Folded      =  7340032
# Data Avg         =  -5.64500791431706e-10
# Data StdDev      =  6.36850899578327 
# Profile Bins     =  512
# Profile Avg      =  -0.00868767961837136
# Profile StdDev   =  762.520919257881 
# Reduced chi-sqr  =  0.452
# Prob(Noise)      <  1   (~0.0 sigma)
# P_topo (ms)      =  714.530113517101  +/- 0.00595
# P'_topo (s/s)    =  -0                +/- 3.14e-09
# P''_topo (s/s^2) =  0                 +/- 1.39e-12
# P_bary (ms)      =  N/A
# P'_bary (s/s)    =  N/A
# P''_bary (s/s^2) =  N/A
# P_orb (s)        =  N/A
# asin(i)/c (s)    =  N/A
# eccentricity     =  N/A
# w (rad)          =  N/A
# T_peri           =  N/A
######################################################
   0  -195.7419
   1  -328.0791
   2  -399.6511
   3  -851.651
   4  -703.2217
   5  -498.3929
   6  -393.1247
   7  -198.3764
   8  -82.32853
   9  98.63108
  10  -505.8325
  11  -499.3682
  12  -235.8484
  13  375.5505
  14  660.3975
  15  332.7832
  16  328.7278
  17  36.66196
  18  -648.6576
  19  -969.4067
  20  -785.3932
  21  -446.1517
  22  -422.2176
  23  -541.4455
  24  -724.6598
  25  -909.9904
  26  -491.9223
  27  -576.0012
  28  -607.2156
  29  -358.1246
  30  -208.1302
  31  -0.2247871
  32  -40.08315
  33  -510.751
  34  -686.1679
  35  -622.5364
  36  -96.38007
  37  91.12812
  38  158.8192
  39  -136.6971
  40  -300.8302
  41  -267.9264
  42  -333.0793
  43  -370.9102
  44  89.20317
  45  524.5941
  46  592.1261
  47  173.5575
  48  227.7751
  49  79.35009
  50  -496.9543
  51  -272.3693
  52  -249.1666
  53  -535.7885
  54  -363.9968
  55  -199.3362
  56  -71.36758
  57  -366.6404
  58  -363.9953
  59  -88.53709
  60  -411.7881
  61  -1102.036
  62  -178.3539
  63  278.0358
  64  -66.91965
  65  116.0884
  66  661.7491
  67  375.8519
  68  112.0065
  69  49.46353
  70  834.3073
  71  664.0356
  72  517.1886
  73  336.0039
  74  381.3969
  75  -295.921
  76  2.74473
  77  135.4731
  78  717.3983
  79  474.5952
  80  54.87103
  81  209.4732
  82  -494.9606
  83  -630.9049
  84  -619.3077
  85  -818.8286
  86  -523.0089
  87  39.62814
  88  40.43209
  89  -225.5956
  90  -591.9876
  91  -709.3253
  92  -681.3597
  93  -582.6108
  94  -508.8115
  95  -127.1431
  96  0.5037487
  97  537.0464
  98  464.0764
  99  434.6716
 100  43.84556
 101  -664.5161
 102  -646.1227
 103  -714.5449
 104  -434.6827
 105  -228.3709
 106  -101.9769
 107  -237.8354
 108  -645.4432
 109  -591.3594
 110  -663.6739
 111  -538.7457
 112  -339.3218
 113  84.88312
 114  -94.51497
 115  -658.7823
 116  -401.0767
 117  -272.1674
 118  -612.2088
 119  -742.9171
 120  -455.3426
 121  -606.6413
 122  -527.9183
 123  -19.21833
 124  52.97751
 125  41.31113
 126  354.6777
 127  321.4369
 128  45.91663
 129  -286.7372
 130  -608.5724
 131  -267.0616
 132  -54.99907
 133  -168.0759
 134  74.45348
 135  -117.5208
 136  -95.19306
 137  -261.2293
 138  -4.433735
 139  183.285
 140  -63.06703
 141  183.4109
 142  369.2422
 143  -198.9481
 144  -478.3574
 145  -103.8895
 146  -57.62432
 147  -324.9912
 148  -38.11774
 149  146.341
 150  -70.15353
 151  71.90931
 152  -44.47743
 153  -217.6433
 154  -442.2578
 155  -353.3666
 156  239.6005
 157  18.82307
 158  -142.451
 159  -169.8102
 160  -134.6535
 161  -296.0818
 162  67.78567
 163  162.8559
 164  -77.47306
 165  254.6643
 166  230.4518
 167  226.1735
 168  -427.4857
 169  -331.5069
 170  338.7161
 171  530.3984
 172  409.7316
 173  265.8803
 174  -35.19996
 175  171.2885
 176  45.02324
 177  -115.0419
 178  -234.546
 179  -211.7119
 180  51.72901
 181  190.1349
 182  101.5895
 183  40.6114
 184  -485.8667
 185  -591.6128
 186  -504.3902
 187  -497.2794
 188  -123.5766
 189  -176.0335
 190  -293.3294
 191  -423.9925
 192  -149.3641
 193  -223.1482
 194  1.969971
 195  405.9753
 196  378.698
 197  411.7578
 198  50.62571
 199  -87.12419
 200  33.83105
 201  -96.39172
 202  -306.0105
 203  12.39899
 204  51.10424
 205  199.6701
 206  175.3221
 207  50.99253
 208  -135.7333
 209  176.1035
 210  548.7756
 211  536.6379
 212  661.1246
 213  651.1533
 214  203.2132
 215  260.6158
 216  434.7738
 217  660.741
 218  396.4038
 219  64.76699
 220  -33.85179
 221  -356.1789
 222  271.2718
 223  1080.801
 224  1234.442
 225  1089.545
 226  637.0308
 227  288.5149
 228  570.7221
 229  477.0216
 230  3.904148
 231  492.0861
 232  103.089
 233  -593.7042
 234  -142.5114
 235  -268.8949
 236  -166.2539
 237  108.0825
 238  570.4909
 239  293.4594
 240  70.50061
 241  17.23434
 242  -240.4354
 243  -374.7952
 244  52.95119
 245  447.1331
 246  363.0052
 247  -2.33173
 248  -430.2875
 249  -717.8866
 250  -394.166
 251  -471.2327
 252  -115.0662
 253  -180.4948
 254  -167.3784
 255  -129.8554
 256  139.0041
 257  314.2374
 258  200.2512
 259  91.45998
 260  -156.362
 261  -476.8382
 262  -77.2496
 263  -156.2029
 264  24.33045
 265  -89.81641
 266  250.9766
 267  274.4165
 268  65.60831
 269  -202.9114
 270  -182.5716
 271  -221.2825
 272  -183.099
 273  223.4283
 274  201.1519
 275  350.9518
 276  373.6772
 277  241.7441
 278  -234.9456
 279  -281.4121
 280  -127.376
 281  242.0766
 282  131.8873
 283  -205.5436
 284  -163.1942
 285  -103.076
 286  151.9689
 287  -2.513094
 288  -82.26555
 289  288.0606
 290  256.3909
 291  644.7141
 292  805.5788
 293  649.2201
 294  623.321
 295  152.9613
 296  298.9882
 297  368.3611
 298  587.1937
 299  238.6949
 300  -538.2766
 301  -623.4705
 302  -226.4818
 303  387.1824
 304  353.4044
 305  566.936
 306  553.3045
 307  256.309
 308  -252.2784
 309  -757.4725
 310  -988.1697
 311  -366.9133
 312  36.14755
 313  -80.06297
 314  -91.1884
 315  -9.80202
 316  303.1802
 317  81.00488
 318  -532.3058
 319  -274.3605
 320  97.5913
 321  293.3461
 322  -40.61724
 323  -73.83415
 324  327.3985
 325  -126.913
 326  -249.6274
 327  -468.9113
 328  286.6106
 329  362.3711
 330  121.6563
 331  715.21
 332  579.1971
 333  58.00978
 334  -581.7571
 335  -221.396
 336  279.5744
 337  168.0771
 338  1047.68
 339  668.2467
 340  202.2033
 341  -114.3431
 342  -125.7914
 343  43.40684
 344  -91.14301
 345  168.9084
 346  1.155214
 347  273.6385
 348  145.9844
 349  384.0604
 350  614.7681
 351  56.43134
 352  15.49111
 353  -46.24403
 354  -142.2663
 355  145.3756
 356  282.3069
 357  100.3524
 358  -75.37227
 359  -3.4119
 360  154.9359
 361  -74.29223
 362  -379.2023
 363  -336.2996
 364  104.1967
 365  1.029066
 366  435.5887
 367  762.9322
 368  594.5624
 369  576.7409
 370  125.0804
 371  577.0967
 372  322.7263
 373  -98.01665
 374  -234.0203
 375  -1.494128
 376  -33.92847
 377  265.7801
 378  427.7251
 379  631.9937
 380  211.021
 381  411.5892
 382  257.4196
 383  -162.6543
 384  0.7362381
 385  476.1025
 386  49.7608
 387  -21.27769
 388  -145.8885
 389  477.5944
 390  -167.4315
 391  -240.0215
 392  -243.5866
 393  -95.46826
 394  -63.70451
 395  297.8979
 396  -60.44846
 397  -276.7929
 398  -78.09555
 399  305.2337
 400  279.5891
 401  386.3272
 402  941.9235
 403  326.8791
 404  -155.7697
 405  -213.9715
 406  -19.79261
 407  426.1753
 408  305.9062
 409  480.9633
 410  419.0417
 411  374.1298
 412  73.14026
 413  -330.9869
 414  283.7106
 415  423.1975
 416  137.0939
 417  -110.6709
 418  -46.91528
 419  -266.8806
 420  -258.7524
 421  153.2638
 422  79.72137
 423  61.05791
 424  -117.2723
 425  -189.2986
 426  -114.6978
 427  -264.6223
 428  -187.3263
 429  92.44011
 430  192.0104
 431  226.7612
 432  -59.48484
 433  -479.4348
 434  -366.6044
 435  -432.5691
 436  -68.27018
 437  12.15906
 438  141.5706
 439  380.1593
 440  97.96833
 441  182.3216
 442  203.9992
 443  197.3886
 444  185.0346
 445  -92.14961
 446  255.9525
 447  75.13268
 448  162.5223
 449  72.57828
 450  32.94191
 451  383.1024
 452  352.3394
 453  374.6427
 454  174.9096
 455  122.1344
 456  131.2999
 457  117.9905
 458  788.4676
 459  1017.88
 460  543.4859
 461  114.5502
 462  -49.7519
 463  -26.27175
 464  220.9083
 465  -59.52025
 466  373.7559
 467  -159.4565
 468  280.9196
 469  142.4487
 470  -229.0473
 471  -5.168877
 472  -49.44257
 473  -40.6427
 474  -126.6579
 475  9.906311
 476  224.1737
 477  279.38
 478  795.2779
 479  420.0054
 480  -211.1699
 481  225.8171
 482  340.0542
 483  -48.72673
 484  369.4936
 485  626.7134
 486  328.0175
 487  127.4599
 488  286.5005
 489  492.272
 490  446.577
 491  220.1225
 492  50.89869
 493  160.2887
 494  -3.442169
 495  -368.345
 496  -37.50446
 497  -215.5203
 498  -612.1463
 499  -1061.383
 500  -209.2254
 501  43.96785
 502  -296.6743
 503  -451.7211
 504  -342.418
 505  123.5599
 506  182.6852
 507  -196.8191
 508  -243.0907
 509  -286.4399
 510  -158.1137
 511  -199.234
