# Input file       =  1196636713.121882_cleaned.dat
# Candidate        =  PSR_0332+5434
# Telescope        =  AR
# Epoch_topo       =  58093.962177336594
# Epoch_bary       =  N/A
# T_sample         =  0.002
# Data Folded      =  7340032
# Data Avg         =  0.211411754837692
# Data StdDev      =  4.76195413837314 
# Profile Bins     =  256
# Profile Avg      =  6060.77811584544 
# Profile StdDev   =  806.332569909133 
# Reduced chi-sqr  =  0.609
# Prob(Noise)      <  1   (~0.0 sigma)
# P_topo (ms)      =  714.532133620782  +/- 0.000206
# P'_topo (s/s)    =  -0                +/- 1.09e-10
# P''_topo (s/s^2) =  0                 +/- 4.8e-14
# P_bary (ms)      =  N/A
# P'_bary (s/s)    =  N/A
# P''_bary (s/s^2) =  N/A
# P_orb (s)        =  N/A
# asin(i)/c (s)    =  N/A
# eccentricity     =  N/A
# w (rad)          =  N/A
# T_peri           =  N/A
######################################################
   0  5865.554
   1  4691.24
   2  5190.74
   3  5485.426
   4  5946
   5  6070.008
   6  5740.953
   7  5861.158
   8  6588.308
   9  6236.131
  10  5598.355
  11  5563.461
  12  5575.434
  13  6490.778
  14  6190.698
  15  6108.271
  16  6229.224
  17  5906.55
  18  5938.918
  19  5545.708
  20  5817.724
  21  5782.692
  22  5741.683
  23  5775.426
  24  6158.395
  25  5995.11
  26  5904.058
  27  6060.638
  28  6817.605
  29  6867.766
  30  6861.505
  31  6239.834
  32  7189.531
  33  7127.144
  34  6865.825
  35  6510.32
  36  6347.24
  37  6810.194
  38  6844.817
  39  5523.036
  40  5540.652
  41  5881.471
  42  6689.55
  43  5698.174
  44  5212.28
  45  5893.863
  46  6159.483
  47  5993.292
  48  6026.224
  49  6576.164
  50  6186.907
  51  5551.935
  52  5946.977
  53  5572.6
  54  6108.577
  55  5514.557
  56  6293.974
  57  6194.928
  58  6708.725
  59  5637.24
  60  6434.188
  61  6804.906
  62  6926.559
  63  6464.405
  64  6629.984
  65  6267.653
  66  6867.048
  67  5712.732
  68  5691.323
  69  6497.394
  70  6090.1
  71  6528.491
  72  6506.044
  73  5869.33
  74  6353.877
  75  5988.715
  76  5879.026
  77  5745.687
  78  5950.232
  79  6815.484
  80  6519.857
  81  6115.193
  82  7509.116
  83  6477.941
  84  5669.172
  85  6364.558
  86  6727.727
  87  6367.43
  88  5543.159
  89  6041.426
  90  5916.994
  91  5329.535
  92  5132.643
  93  5359.886
  94  5731.039
  95  6090.005
  96  6115.455
  97  5860.675
  98  5671.029
  99  6027.687
 100  5653.505
 101  5862.457
 102  6409.458
 103  6074.775
 104  5908.827
 105  5462.13
 106  6018.081
 107  6234.378
 108  6334.72
 109  5512.132
 110  6568.107
 111  6621.967
 112  6091.479
 113  5925.602
 114  5817.764
 115  6385.92
 116  7518.155
 117  6721.13
 118  6651.428
 119  6711.188
 120  6988.378
 121  6963.185
 122  6757.055
 123  6410.293
 124  6392.733
 125  6029.937
 126  6954.746
 127  7371.564
 128  6360.693
 129  4871.194
 130  5982.742
 131  6605.713
 132  6582.976
 133  6192.967
 134  6346.959
 135  6016.497
 136  6330.838
 137  5932.985
 138  6122.955
 139  6292.512
 140  6314.826
 141  5607.772
 142  5945.935
 143  6053.22
 144  6478.169
 145  5619.403
 146  5685.854
 147  6062.936
 148  5669.468
 149  5653.467
 150  5303.876
 151  5105.396
 152  5548.941
 153  5383.225
 154  6178.115
 155  7032.963
 156  7240.35
 157  7443.522
 158  7080.538
 159  6484.91
 160  6349.005
 161  6231.569
 162  6930.942
 163  6871.561
 164  6614.896
 165  6216.687
 166  6565.007
 167  5793.202
 168  5567.264
 169  5714.419
 170  5934.098
 171  6233.463
 172  5360.365
 173  6186.325
 174  6211.589
 175  5825.664
 176  6430.775
 177  6668.365
 178  6541.312
 179  7265.146
 180  6944.655
 181  7045.765
 182  6403.413
 183  6648.644
 184  6410.869
 185  6349.358
 186  6296.722
 187  6313.528
 188  6290.021
 189  5230.114
 190  4998.77
 191  5139.215
 192  5409.132
 193  4659.109
 194  5323.737
 195  5918.707
 196  5756.617
 197  5577.571
 198  6491.271
 199  6862.131
 200  6401.974
 201  5605.519
 202  5849.536
 203  6992.393
 204  6196.791
 205  6050.839
 206  5462.478
 207  5441.261
 208  5744.342
 209  5614.426
 210  5557.823
 211  5383.814
 212  5928.167
 213  5647.083
 214  5709.37
 215  6066.1
 216  5736.215
 217  5429.897
 218  5235.862
 219  6372.803
 220  6205.164
 221  5902.088
 222  6193.762
 223  5612.074
 224  5974.938
 225  5629.116
 226  5383.06
 227  5758.006
 228  6671.392
 229  4947.561
 230  5736.235
 231  6041.595
 232  5900.997
 233  5259.077
 234  5468.093
 235  6350.633
 236  6173.274
 237  5865.032
 238  5689.543
 239  5330.47
 240  5752.737
 241  5371.744
 242  5907.05
 243  5311.253
 244  5416.522
 245  5886.099
 246  5598.843
 247  5271.435
 248  5643.208
 249  5485.668
 250  5100.091
 251  6555.443
 252  5687.814
 253  5952.666
 254  4908.294
 255  5682.774
