# Input file       =  1196536233.113593_cleaned.dat
# Candidate        =  PSR_0332+5434
# Telescope        =  AR
# Epoch_topo       =  58092.799214277700
# Epoch_bary       =  N/A
# T_sample         =  0.002
# Data Folded      =  7340032
# Data Avg         =  0.140352740358919
# Data StdDev      =  3.87266431790741 
# Profile Bins     =  256
# Profile Avg      =  4024.20295793223 
# Profile StdDev   =  655.750828570662 
# Reduced chi-sqr  =  0.683
# Prob(Noise)      <  1   (~0.0 sigma)
# P_topo (ms)      =  714.53061953245   +/- 0.000928
# P'_topo (s/s)    =  -0                +/- 4.9e-10
# P''_topo (s/s^2) =  0                 +/- 2.16e-13
# P_bary (ms)      =  N/A
# P'_bary (s/s)    =  N/A
# P''_bary (s/s^2) =  N/A
# P_orb (s)        =  N/A
# asin(i)/c (s)    =  N/A
# eccentricity     =  N/A
# w (rad)          =  N/A
# T_peri           =  N/A
######################################################
   0  4214.076
   1  4261.5
   2  4130.321
   3  3975.141
   4  4246.838
   5  3400.101
   6  3228.499
   7  3351.347
   8  3963.73
   9  3530.111
  10  3286.046
  11  3481.438
  12  3563.894
  13  3463.548
  14  3330.623
  15  3672.861
  16  4357.173
  17  4512.208
  18  4121.95
  19  4971.754
  20  4501.716
  21  4277.986
  22  4409.894
  23  4218.399
  24  4125.384
  25  4316.031
  26  4445.258
  27  4556.375
  28  4847.673
  29  3887.23
  30  3907.701
  31  3784.178
  32  4367.584
  33  3880.173
  34  4386.352
  35  4239.779
  36  3616.008
  37  3931.504
  38  3837.148
  39  4197.638
  40  4200.711
  41  3880.383
  42  3877.952
  43  3481.706
  44  3747.131
  45  4099.511
  46  3924.008
  47  3805.429
  48  3869.261
  49  4072.033
  50  3400.827
  51  3445.85
  52  3353.672
  53  3302.954
  54  4147.195
  55  3237.263
  56  3596.023
  57  3382.446
  58  3264.209
  59  2861.213
  60  2400.539
  61  2897.989
  62  3254.367
  63  2554.432
  64  2848.458
  65  3782.617
  66  3235.168
  67  3414.398
  68  3368.72
  69  2729.178
  70  3230.672
  71  3716.818
  72  3772.976
  73  4652.131
  74  3989.399
  75  4109.491
  76  3966.282
  77  4212.868
  78  4805.94
  79  4264.256
  80  4028.218
  81  4308.15
  82  4523.179
  83  4664.474
  84  4464.325
  85  4396.335
  86  4154.431
  87  3600.621
  88  4052.264
  89  4389
  90  4379.198
  91  4075.736
  92  4330.876
  93  4372.123
  94  4924.24
  95  4294.833
  96  4279.92
  97  3996.248
  98  3763.706
  99  3217.69
 100  3331.811
 101  3775.814
 102  4150.732
 103  3625.956
 104  3170.74
 105  4077.02
 106  4282.318
 107  3558.333
 108  3809.106
 109  4182.543
 110  3951.778
 111  3762.289
 112  4271.435
 113  3738.358
 114  3329.691
 115  3473.812
 116  3984.824
 117  3523.429
 118  3382.353
 119  4234.976
 120  4552.647
 121  4062.037
 122  3551.223
 123  3904.415
 124  3954.961
 125  3753.662
 126  3949.535
 127  4405.478
 128  3800.29
 129  3908.181
 130  5134.607
 131  4470.453
 132  3398.327
 133  3876.367
 134  3918.544
 135  3633.298
 136  3274.761
 137  4229.504
 138  3840.012
 139  3896.806
 140  4603.358
 141  4615.075
 142  4080.526
 143  4460.163
 144  4079.493
 145  4115.711
 146  4141.083
 147  4432.005
 148  4039.364
 149  4414.377
 150  4503.395
 151  3837.325
 152  4102.195
 153  4094.759
 154  4581.97
 155  4873.153
 156  5014.659
 157  4696.245
 158  4507.648
 159  3955.161
 160  3791.501
 161  3912.114
 162  4090.161
 163  3834.563
 164  3032.537
 165  3337.692
 166  4118.481
 167  3952.175
 168  3762.663
 169  3817.049
 170  4436.58
 171  3811.615
 172  4379.789
 173  4460.831
 174  5108.219
 175  4707.815
 176  4828.842
 177  4492.286
 178  4555.007
 179  4666.58
 180  4206.073
 181  4473.266
 182  4438.758
 183  4592.754
 184  4921.045
 185  4344.209
 186  4146.978
 187  4179.086
 188  4330.181
 189  4415.336
 190  4247.422
 191  4143.53
 192  3801.202
 193  3734.954
 194  4244.033
 195  4468.843
 196  4082.377
 197  3800.876
 198  4770.789
 199  4619.35
 200  3798.311
 201  3579.234
 202  4635.347
 203  3562.735
 204  3667.34
 205  4260.145
 206  4366.622
 207  3737.164
 208  3977.761
 209  4289.48
 210  4117.345
 211  4089.738
 212  4000.294
 213  3989.878
 214  4363.628
 215  4055.337
 216  3418.255
 217  4259.309
 218  4315.255
 219  4296.205
 220  4041.604
 221  3761.214
 222  4135.7
 223  4260.949
 224  4439.024
 225  3362.96
 226  4334.52
 227  4038.303
 228  4497.326
 229  3856.131
 230  4156.766
 231  4636.442
 232  4335.574
 233  4175.882
 234  5330.738
 235  4528.578
 236  3885.997
 237  4124.729
 238  3935.891
 239  4107.024
 240  3715.286
 241  3958.815
 242  4583.45
 243  4113.306
 244  4127.721
 245  4113.985
 246  4081.515
 247  4498.888
 248  4345.721
 249  4519.417
 250  4145.564
 251  3897.868
 252  3610.418
 253  3604.793
 254  4020.113
 255  3627.495
