# Input file       =  1196292583.114135_cleaned.dat
# Candidate        =  PSR_0332+5434
# Telescope        =  AR
# Epoch_topo       =  58089.979191135819
# Epoch_bary       =  N/A
# T_sample         =  0.002
# Data Folded      =  7340032
# Data Avg         =  0.518788279808566
# Data StdDev      =  6.67248369220408 
# Profile Bins     =  256
# Profile Avg      =  14874.676821805  
# Profile StdDev   =  1129.83887850919 
# Reduced chi-sqr  =  0.654
# Prob(Noise)      <  1   (~0.0 sigma)
# P_topo (ms)      =  714.528065155376  +/- 0.000587
# P'_topo (s/s)    =  -0                +/- 3.1e-10
# P''_topo (s/s^2) =  0                 +/- 1.37e-13
# P_bary (ms)      =  N/A
# P'_bary (s/s)    =  N/A
# P''_bary (s/s^2) =  N/A
# P_orb (s)        =  N/A
# asin(i)/c (s)    =  N/A
# eccentricity     =  N/A
# w (rad)          =  N/A
# T_peri           =  N/A
######################################################
   0  14770.23
   1  14266.55
   2  14069.28
   3  14495.16
   4  14749.1
   5  13368.04
   6  14683.25
   7  14238.28
   8  14608.96
   9  14800.47
  10  14501.71
  11  14253.7
  12  13423.84
  13  15295.1
  14  14346.72
  15  15680.5
  16  15836.98
  17  14974.8
  18  15886.92
  19  15054.7
  20  16327.09
  21  15516.45
  22  15828.13
  23  15804.76
  24  14990.4
  25  16117.18
  26  15477.91
  27  15172.92
  28  14441.82
  29  14771.27
  30  14495.68
  31  14672.62
  32  14369.53
  33  15285.84
  34  14560.1
  35  14588.04
  36  15385.35
  37  13931.41
  38  13654.76
  39  13748.62
  40  15249.89
  41  14606.07
  42  15186.56
  43  15534.47
  44  14544.67
  45  15718.03
  46  16126.73
  47  16493.65
  48  15945.02
  49  15107.26
  50  14479.62
  51  14891.83
  52  15620.35
  53  16114.61
  54  15976.57
  55  15471.12
  56  15070.39
  57  15883.28
  58  13333.42
  59  13574.98
  60  14930.03
  61  15668.68
  62  14871.97
  63  14114.65
  64  14650.08
  65  15639.95
  66  14537.17
  67  14692.53
  68  13965.69
  69  13847.53
  70  13625.26
  71  13760.19
  72  13725.33
  73  13147.67
  74  14427.89
  75  15269.72
  76  14102.36
  77  14388.37
  78  14284.52
  79  13996.94
  80  13908.32
  81  14415.49
  82  15107.7
  83  15863.53
  84  14757.62
  85  15124.32
  86  15712.34
  87  15853.5
  88  16140.67
  89  14884.42
  90  15550.77
  91  15061.21
  92  14852.39
  93  16037.63
  94  14420.15
  95  14513.81
  96  14944.86
  97  15493.29
  98  14257.8
  99  14478.59
 100  13921.25
 101  14465.6
 102  14131.07
 103  14030.53
 104  14702.29
 105  13322.01
 106  13276.93
 107  13671.06
 108  14031.88
 109  14344.83
 110  14429.85
 111  15170.33
 112  13268.97
 113  14843.63
 114  15617.57
 115  15727.71
 116  15714.47
 117  15845.68
 118  16162.45
 119  16656.29
 120  15925.51
 121  14828.11
 122  15811.49
 123  15858.23
 124  15142.06
 125  15000.59
 126  15876.52
 127  15744
 128  15380.85
 129  14195.96
 130  14900.1
 131  15996.54
 132  14273.59
 133  13950.83
 134  15080.63
 135  16137.32
 136  14969.31
 137  14639.84
 138  15031.87
 139  15039.11
 140  14584.85
 141  14016.17
 142  14387.66
 143  14415.81
 144  13535.04
 145  14774.67
 146  14737.14
 147  14877.69
 148  14954.17
 149  16087.68
 150  15225.12
 151  15623.56
 152  14379.13
 153  15075.51
 154  14559.15
 155  15271.14
 156  15865.02
 157  16419.35
 158  15066.05
 159  14693.72
 160  15069.01
 161  13627.28
 162  13844.39
 163  14557.6
 164  15408.09
 165  15121.9
 166  14736.25
 167  15410.12
 168  15534.24
 169  14684.49
 170  14578
 171  13796.81
 172  14155.57
 173  14497.59
 174  15335.05
 175  15248.73
 176  15512.17
 177  14254.44
 178  15238.36
 179  15077.49
 180  14073.98
 181  14018.33
 182  14446.19
 183  14405.43
 184  14052.85
 185  14483.62
 186  14164.83
 187  14504.57
 188  15249.85
 189  14142.78
 190  14779.62
 191  14527.92
 192  14523.82
 193  15015.57
 194  15661.56
 195  16832.83
 196  16319.08
 197  15574.22
 198  15867.27
 199  15965.2
 200  16370.76
 201  15997.02
 202  15796.03
 203  15363.07
 204  16427.78
 205  15875.5
 206  15565.61
 207  14689.94
 208  13910.05
 209  14560.41
 210  13427.17
 211  14024.38
 212  14919.15
 213  15647.15
 214  14784.15
 215  14983.46
 216  15117.92
 217  15220.42
 218  15064.87
 219  14827.59
 220  14250.19
 221  15100.45
 222  14958.58
 223  13975.66
 224  14349.5
 225  14828.19
 226  15529.73
 227  17172.46
 228  16397.54
 229  15316.95
 230  15390.71
 231  14995.47
 232  14694.16
 233  15645.33
 234  16134.54
 235  15417.02
 236  14710.35
 237  14825.63
 238  14817.49
 239  13808.97
 240  13894.91
 241  13544.71
 242  14129.15
 243  13655.26
 244  14676.73
 245  14122.29
 246  15616.91
 247  14946.99
 248  13660.85
 249  13451.27
 250  14716.14
 251  14852.28
 252  13832.54
 253  13243.85
 254  13549.32
 255  14772.54
