# Input file       =  1196607167.098366-PSRB0329-2ms-sampling-dd.dat
# Candidate        =  PSR_0332+5434
# Telescope        =  AR
# Epoch_topo       =  58093.620209471832
# Epoch_bary       =  N/A
# T_sample         =  0.002
# Data Folded      =  7208960
# Data Avg         =  1.1513985695393e-09
# Data StdDev      =  7.17623324626604 
# Profile Bins     =  512
# Profile Avg      =  -0.205568388993073
# Profile StdDev   =  851.525922304061 
# Reduced chi-sqr  =  0.613
# Prob(Noise)      <  1   (~0.0 sigma)
# P_topo (ms)      =  714.531441218158  +/- 4.41e-05
# P'_topo (s/s)    =  -0                +/- 2.37e-11
# P''_topo (s/s^2) =  0                 +/- 1.06e-14
# P_bary (ms)      =  N/A
# P'_bary (s/s)    =  N/A
# P''_bary (s/s^2) =  N/A
# P_orb (s)        =  N/A
# asin(i)/c (s)    =  N/A
# eccentricity     =  N/A
# w (rad)          =  N/A
# T_peri           =  N/A
######################################################
   0  -44.08186
   1  259.9922
   2  -211.6888
   3  -23.90455
   4  310.1153
   5  245.4641
   6  -339.2605
   7  -99.21192
   8  262.7517
   9  -163.0565
  10  -177.5249
  11  146.3594
  12  30.72799
  13  -292.6605
  14  -311.7053
  15  -238.4269
  16  -213.6339
  17  -471.1693
  18  -1.532587
  19  447.0486
  20  76.74698
  21  142.9996
  22  313.8122
  23  116.7389
  24  -120.1159
  25  374.397
  26  313.613
  27  58.1454
  28  185.1528
  29  340.3972
  30  83.82164
  31  -620.4158
  32  -627.5422
  33  -393.71
  34  -149.5287
  35  -354.1605
  36  -318.3777
  37  31.26366
  38  -421.5419
  39  -685.4257
  40  -700.8619
  41  -577.339
  42  -1022.188
  43  -718.8234
  44  -329.9893
  45  -496.6394
  46  -496.6867
  47  156.7839
  48  338.7986
  49  -148.7851
  50  148.0028
  51  308.3141
  52  166.0812
  53  -197.0877
  54  469.5097
  55  350.886
  56  -212.0404
  57  -81.31234
  58  320.1323
  59  623.9543
  60  216.0308
  61  3.850891
  62  -180.2941
  63  -533.8421
  64  -912.1803
  65  -342.8
  66  108.4512
  67  191.095
  68  30.69927
  69  107.5722
  70  -227.4981
  71  -343.7047
  72  -29.20997
  73  85.26395
  74  13.46933
  75  209.9077
  76  325.7188
  77  300.6624
  78  110.3799
  79  85.12007
  80  147.8754
  81  -67.30019
  82  -272.3474
  83  212.6608
  84  460.2798
  85  158.8882
  86  140.9097
  87  194.711
  88  -0.8457746
  89  -649.7885
  90  108.2671
  91  214.9459
  92  -85.87562
  93  211.4822
  94  509.9958
  95  -147.7525
  96  -391.6893
  97  -226.417
  98  345.3161
  99  269.3799
 100  768.4911
 101  1334.962
 102  1721.252
 103  970.2365
 104  860.3713
 105  881.0743
 106  534.5677
 107  222.2904
 108  906.7993
 109  1159.261
 110  829.4101
 111  886.7799
 112  816.4245
 113  100.3672
 114  -256.6967
 115  505.4552
 116  425.1774
 117  -20.93646
 118  103.9278
 119  797.0109
 120  518.6359
 121  -116.3642
 122  189.1061
 123  326.5912
 124  720.4782
 125  1010.507
 126  1051.302
 127  483.4279
 128  151.0277
 129  246.9629
 130  -377.1685
 131  -624.2949
 132  -686.6169
 133  388.8055
 134  58.04821
 135  -13.17551
 136  390.4141
 137  -50.25182
 138  -30.09133
 139  -751.7873
 140  -271.7954
 141  -19.34354
 142  193.1936
 143  753.236
 144  699.153
 145  -15.85629
 146  -601.1219
 147  -731.4849
 148  -257.5868
 149  -308.8092
 150  211.5045
 151  427.8903
 152  -98.41088
 153  -167.3979
 154  -338.1438
 155  -112.9203
 156  -97.37968
 157  -165.3567
 158  34.20941
 159  -42.1371
 160  -281.4393
 161  -309.4669
 162  -5.866392
 163  -629.7464
 164  -765.6125
 165  54.80221
 166  498.2616
 167  115.3821
 168  108.8049
 169  -98.12971
 170  -752.3186
 171  -1058.914
 172  -473.9755
 173  217.3895
 174  559.8144
 175  317.452
 176  322.8376
 177  32.2698
 178  15.71991
 179  -349.1288
 180  -277.6614
 181  -383.9631
 182  -362.2401
 183  -273.6377
 184  317.9757
 185  251.8522
 186  141.8831
 187  -253.0473
 188  -521.3303
 189  -1052.005
 190  -371.8848
 191  -11.2267
 192  -620.485
 193  -244.1469
 194  237.1967
 195  75.39513
 196  80.50681
 197  544.8541
 198  1581.4
 199  1075.779
 200  617.2183
 201  739.3095
 202  381.8532
 203  59.38259
 204  -217.3092
 205  -183.361
 206  -645.4975
 207  -181.0742
 208  340.2483
 209  1427.564
 210  1207.501
 211  897.6819
 212  851.2222
 213  333.0661
 214  41.98545
 215  -84.84492
 216  201.9127
 217  377.8898
 218  571.6365
 219  698.337
 220  292.5414
 221  -671.4772
 222  -1090.618
 223  -204.7445
 224  57.74461
 225  -54.1822
 226  45.47034
 227  504.6174
 228  132.6459
 229  -238.303
 230  -268.9506
 231  220.3262
 232  -153.2946
 233  -112.2769
 234  383.1158
 235  -391.6525
 236  -308.6745
 237  -70.9305
 238  -165.9436
 239  -304.2059
 240  181.4979
 241  595.2215
 242  65.54867
 243  263.1428
 244  530.2873
 245  30.27499
 246  -8.388744
 247  345.5013
 248  585.4132
 249  875.8071
 250  1186.891
 251  850.6144
 252  478.5748
 253  185.8555
 254  -70.47431
 255  113.2231
 256  -11.53191
 257  190.2018
 258  653.6852
 259  572.4788
 260  199.3497
 261  195.7583
 262  882.9047
 263  891.8463
 264  365.7766
 265  716.9019
 266  612.6236
 267  637.2668
 268  772.1843
 269  562.0197
 270  175.3628
 271  -185.301
 272  26.55402
 273  271.7946
 274  214.2283
 275  135.6227
 276  401.6198
 277  321.1659
 278  -122.7769
 279  -225.668
 280  90.07043
 281  136.5179
 282  -336.619
 283  -190.0874
 284  5.670135
 285  -110.3351
 286  -370.0379
 287  -232.4204
 288  -141.1706
 289  -383.9854
 290  -294.6465
 291  -38.54221
 292  -311.6693
 293  205.471
 294  31.39302
 295  20.23428
 296  -592.744
 297  -513.5842
 298  576.4487
 299  702.9938
 300  677.3605
 301  698.2691
 302  181.784
 303  -442.8845
 304  -777.606
 305  173.5771
 306  166.7996
 307  -150.0464
 308  904.7622
 309  443.839
 310  -127.1599
 311  311.9301
 312  435.7434
 313  276.4557
 314  107.5331
 315  269.1996
 316  321.1621
 317  148.2558
 318  -405.6009
 319  -704.6976
 320  -350.3097
 321  -331.0852
 322  -479.8265
 323  -387.5319
 324  -401.7151
 325  -864.4096
 326  -262.572
 327  52.71684
 328  -563.6539
 329  -755.1505
 330  -337.3326
 331  -632.3641
 332  -355.0269
 333  101.4064
 334  490.1722
 335  222.7027
 336  -489.857
 337  -417.9792
 338  -361.4037
 339  -725.1799
 340  -357.5573
 341  344.0732
 342  635.7584
 343  -189.0795
 344  -345.7149
 345  -592.7969
 346  -1000.305
 347  -788.448
 348  -7.527768
 349  -113.3215
 350  -653.1744
 351  -407.9711
 352  -508.0331
 353  -652.0731
 354  -560.1864
 355  -281.305
 356  -593.283
 357  -771.8995
 358  -95.64056
 359  104.8971
 360  -964.1621
 361  -1231.488
 362  -597.1818
 363  -860.083
 364  -703.3206
 365  -444.4248
 366  562.6161
 367  900.8315
 368  302.7628
 369  341.0659
 370  439.6358
 371  -216.6256
 372  -293.6806
 373  289.7463
 374  39.84235
 375  -499.9312
 376  -197.2675
 377  453.2036
 378  183.51
 379  -95.51378
 380  367.1837
 381  96.4679
 382  -311.5902
 383  7.400193
 384  881.303
 385  611.5868
 386  -47.47312
 387  271.1544
 388  780.7086
 389  384.1749
 390  202.461
 391  561.6726
 392  811.3237
 393  873.5093
 394  877.4767
 395  725.6692
 396  320.1467
 397  444.3971
 398  978.3633
 399  1176.907
 400  427.2975
 401  247.0095
 402  383.5174
 403  -173.0064
 404  103.038
 405  298.9071
 406  579.9515
 407  280.6246
 408  453.5443
 409  875.8
 410  154.7063
 411  -807.8517
 412  -945.7657
 413  -71.36768
 414  -325.6506
 415  12.51692
 416  842.3779
 417  165.4891
 418  -438.6724
 419  -181.5757
 420  237.645
 421  -222.6596
 422  -872.0864
 423  -528.5634
 424  -166.4699
 425  -376.3472
 426  -304.7627
 427  -232.1156
 428  -882.9621
 429  -572.0845
 430  -543.3311
 431  -163.8988
 432  132.5848
 433  253.4951
 434  511.0798
 435  -323.0187
 436  -817.8391
 437  -871.7486
 438  -410.6792
 439  -34.06692
 440  -152.7708
 441  -136.5061
 442  -188.8698
 443  -845.2665
 444  -1021.847
 445  -486.3709
 446  -150.157
 447  -262.0801
 448  189.3778
 449  203.0518
 450  4.712343
 451  199.8994
 452  601.1843
 453  320.9398
 454  -488.524
 455  -340.5883
 456  345.5079
 457  -52.60666
 458  -253.9887
 459  344.4702
 460  75.08383
 461  -358.1412
 462  -627.8311
 463  -67.28561
 464  -151.4294
 465  -416.0476
 466  -2.537834
 467  -69.75324
 468  -669.8096
 469  -591.4537
 470  -221.8819
 471  -302.88
 472  -755.4751
 473  -538.7623
 474  -271.9636
 475  -289.9381
 476  -404.334
 477  -787.8187
 478  -966.3365
 479  -1015.651
 480  -657.9581
 481  -341.3358
 482  -180.2144
 483  -192.9431
 484  -204.9879
 485  24.62209
 486  -639.017
 487  -729.0112
 488  -305.6488
 489  -297.1315
 490  -395.3564
 491  -461.3191
 492  -686.1606
 493  -788.2005
 494  938.0304
 495  891.299
 496  -21.39504
 497  84.43118
 498  -104.6157
 499  -69.38423
 500  -598.8115
 501  -762.1198
 502  -401.8821
 503  67.59177
 504  -150.3917
 505  236.0056
 506  182.1354
 507  -635.7269
 508  -964.9406
 509  -283.555
 510  -205.1367
 511  -231.0595
