# Input file       =  1196363886.122779_cleaned.dat
# Candidate        =  PSR_0332+5434
# Telescope        =  AR
# Epoch_topo       =  58090.804457439568
# Epoch_bary       =  N/A
# T_sample         =  0.002
# Data Folded      =  7340032
# Data Avg         =  0.0302178008928294
# Data StdDev      =  0.999997203804812
# Profile Bins     =  512
# Profile Avg      =  433.167543509343 
# Profile StdDev   =  119.732701579826 
# Reduced chi-sqr  =  0.922
# Prob(Noise)      <  0.896   (~0.0 sigma)
# P_topo (ms)      =  714.528573234793  +/- 0.000213
# P'_topo (s/s)    =  -0                +/- 1.12e-10
# P''_topo (s/s^2) =  0                 +/- 4.96e-14
# P_bary (ms)      =  N/A
# P'_bary (s/s)    =  N/A
# P''_bary (s/s^2) =  N/A
# P_orb (s)        =  N/A
# asin(i)/c (s)    =  N/A
# eccentricity     =  N/A
# w (rad)          =  N/A
# T_peri           =  N/A
######################################################
   0  590.0269
   1  776.5713
   2  765.3547
   3  540.2029
   4  472.0271
   5  435.3481
   6  324.7147
   7  293.4154
   8  413.4686
   9  467.8976
  10  293.0925
  11  332.1789
  12  457.6103
  13  381.9011
  14  308.8518
  15  336.9357
  16  343.1678
  17  356.5212
  18  438.9895
  19  467.7968
  20  418.143
  21  250.125
  22  302.9355
  23  348.223
  24  434.1802
  25  287.133
  26  329.464
  27  355.6263
  28  399.0145
  29  405.4827
  30  410.1198
  31  378.0619
  32  382.5656
  33  433.3917
  34  406.8324
  35  355.7925
  36  414.2395
  37  360.7881
  38  362.4837
  39  341.2472
  40  351.3439
  41  330.5729
  42  357.802
  43  367.2855
  44  365.9929
  45  384.7045
  46  356.9242
  47  449.5794
  48  412.8262
  49  348.4593
  50  366.3321
  51  281.9711
  52  341.2932
  53  411.3584
  54  482.8324
  55  453.1479
  56  365.9836
  57  347.7019
  58  371.2771
  59  394.1319
  60  274.5264
  61  340.4476
  62  358.0565
  63  395.6356
  64  304.9946
  65  209.668
  66  382.9032
  67  468.2015
  68  432.7079
  69  452.3784
  70  468.5047
  71  398.7573
  72  387.0424
  73  421.6523
  74  458.3997
  75  513.6221
  76  362.2621
  77  401.2513
  78  345.984
  79  284.2717
  80  427.7117
  81  428.7035
  82  359.7348
  83  495.7321
  84  472.9461
  85  472.4841
  86  328.1097
  87  275.0016
  88  289.2515
  89  339.6266
  90  368.5204
  91  404.0768
  92  478.3085
  93  500.2578
  94  371.9594
  95  354.4589
  96  334.1524
  97  398.0486
  98  380.0305
  99  405.2596
 100  366.7139
 101  375.3894
 102  451.0228
 103  464.0408
 104  396.1855
 105  439.0371
 106  443.7411
 107  485.5189
 108  499.4441
 109  548.1114
 110  433.2503
 111  400.0689
 112  526.9024
 113  495.9933
 114  422.1613
 115  437.8657
 116  626.2804
 117  583.584
 118  577.3458
 119  534.2424
 120  437.7283
 121  336.4218
 122  442.7203
 123  490.2442
 124  460.0719
 125  432.4359
 126  259.5096
 127  329.8942
 128  454.6637
 129  450.9552
 130  405.2282
 131  435.6529
 132  400.1544
 133  397.1881
 134  379.226
 135  455.4629
 136  437.7961
 137  365.962
 138  381.3382
 139  338.4218
 140  414.4757
 141  356.0103
 142  419.6379
 143  448.3681
 144  385.2178
 145  449.8261
 146  476.9623
 147  435.9298
 148  363.6433
 149  450.1597
 150  552.4302
 151  442.3938
 152  414.4992
 153  492.1479
 154  544.1306
 155  540.0762
 156  446.6206
 157  381.8313
 158  392.0566
 159  438.6909
 160  372.148
 161  344.1774
 162  403.2494
 163  539.355
 164  463.6895
 165  437.5723
 166  484.2399
 167  395.7219
 168  455.4669
 169  459.1971
 170  482.0426
 171  445.5569
 172  542.1196
 173  507.158
 174  471.5802
 175  457.549
 176  430.2482
 177  497.2675
 178  556.9424
 179  538.1342
 180  502.0492
 181  464.7965
 182  416.2713
 183  376.5791
 184  530.5054
 185  541.1646
 186  416.5136
 187  370.1142
 188  411.5642
 189  331.7812
 190  460.4037
 191  567.5301
 192  633.5361
 193  439.0474
 194  457.5279
 195  488.0298
 196  553.4351
 197  506.2995
 198  485.7501
 199  455.5302
 200  449.0243
 201  357.166
 202  410.2066
 203  426.6322
 204  383.8494
 205  298.4432
 206  313.142
 207  379.3074
 208  311.0188
 209  414.3373
 210  516.2764
 211  386.6432
 212  336.932
 213  385.5709
 214  484.9666
 215  469.4414
 216  329.509
 217  346.2695
 218  292.5398
 219  363.8736
 220  346.9395
 221  269.4576
 222  252.8438
 223  216.8552
 224  385.3507
 225  420.067
 226  473.3721
 227  432.3487
 228  395.9964
 229  487.0748
 230  583.1031
 231  607.9985
 232  623.4725
 233  588.5823
 234  488.4153
 235  496.308
 236  497.8724
 237  391.0995
 238  512.9887
 239  556.769
 240  482.0125
 241  432.0866
 242  451.131
 243  453.6236
 244  385.8651
 245  536.87
 246  647.32
 247  572.7442
 248  638.9976
 249  584.0158
 250  480.1176
 251  381.9661
 252  390.6084
 253  428.3474
 254  374.0808
 255  350.1019
 256  397.1141
 257  340.4785
 258  471.1373
 259  409.0388
 260  388.5085
 261  350.5116
 262  399.3127
 263  346.5545
 264  428.365
 265  534.9726
 266  558.8307
 267  498.0536
 268  474.4088
 269  425.2727
 270  421.8264
 271  545.8231
 272  609.7396
 273  533.7224
 274  480.0325
 275  451.5584
 276  490.2304
 277  419.3972
 278  506.0275
 279  405.1098
 280  339.2021
 281  343.3105
 282  435.3175
 283  468.0526
 284  477.4091
 285  393.8631
 286  412.8004
 287  432.5052
 288  482.9366
 289  365.8429
 290  432.0365
 291  342.7789
 292  323.8293
 293  404.5723
 294  400.3147
 295  231.7952
 296  331.7737
 297  323.0298
 298  341.1587
 299  418.7776
 300  429.9861
 301  405.4037
 302  529.0975
 303  524.4106
 304  489.3304
 305  519.8484
 306  453.1968
 307  467.4758
 308  450.0133
 309  507.8709
 310  442.494
 311  421.4108
 312  426.6513
 313  442.1937
 314  461.4098
 315  390.0287
 316  420.0939
 317  374.8164
 318  432.5439
 319  378.547
 320  490.5804
 321  476.141
 322  475.8647
 323  458.4177
 324  485.1061
 325  486.486
 326  521.5498
 327  520.1059
 328  389.7638
 329  418.308
 330  412.7657
 331  480.4553
 332  367.7303
 333  332.4799
 334  511.7955
 335  459.8835
 336  437.2142
 337  434.7325
 338  366.267
 339  378.0784
 340  387.3383
 341  483.4673
 342  450.3672
 343  467.5018
 344  449.5074
 345  470.713
 346  481.9156
 347  461.8099
 348  486.4997
 349  457.8535
 350  412.7199
 351  493.4354
 352  440.9575
 353  424.8486
 354  389.8062
 355  486.8771
 356  565.9078
 357  443.1245
 358  449.4627
 359  483.762
 360  507.4468
 361  444.8651
 362  506.8877
 363  506.1438
 364  432.549
 365  518.1555
 366  497.9058
 367  490.3449
 368  476.9613
 369  414.2141
 370  433.1002
 371  422.9244
 372  424.7608
 373  468.6759
 374  476.3322
 375  417.1212
 376  394.0238
 377  459.1661
 378  495.1826
 379  490.3576
 380  597.3334
 381  547.4964
 382  547.4672
 383  471.6021
 384  484.689
 385  442.4145
 386  363.8054
 387  448.0032
 388  552.2635
 389  463.1487
 390  487.9756
 391  552.5964
 392  539.1906
 393  364.6346
 394  441.079
 395  412.8117
 396  434.3059
 397  450.3799
 398  578.6666
 399  560.9426
 400  483.8227
 401  572.6137
 402  506.6248
 403  528.3339
 404  464.2138
 405  464.6001
 406  459.8383
 407  471.5822
 408  440.9405
 409  409.9195
 410  428.8636
 411  339.1573
 412  282.953
 413  387.4151
 414  488.5464
 415  503.4873
 416  554.495
 417  455.2789
 418  461.9099
 419  434.5709
 420  402.0914
 421  434.754
 422  360.3352
 423  378.6331
 424  397.5338
 425  347.113
 426  235.4339
 427  225.0261
 428  320.6001
 429  285.7238
 430  164.6055
 431  267.7133
 432  412.4034
 433  401.6136
 434  374.4382
 435  371.4046
 436  317.6823
 437  424.9405
 438  376.109
 439  403.6796
 440  442.8208
 441  378.7078
 442  455.6636
 443  554.6747
 444  505.9651
 445  381.7774
 446  257.3437
 447  258.5864
 448  346.4627
 449  353.0942
 450  286.5378
 451  344.7937
 452  436.7069
 453  401.1506
 454  487.2417
 455  629.739
 456  545.279
 457  432.7424
 458  483.9201
 459  518.893
 460  474.1417
 461  393.15
 462  334.4775
 463  485.3553
 464  398.8557
 465  419.9764
 466  359.8827
 467  368.9276
 468  420.4542
 469  377.2021
 470  401.5363
 471  501.6315
 472  538.3359
 473  638.681
 474  591.2312
 475  542.6514
 476  481.4051
 477  516.0127
 478  481.6927
 479  428.3339
 480  369.779
 481  368.9993
 482  389.5183
 483  443.5761
 484  371.4729
 485  411.2775
 486  444.5463
 487  463.075
 488  400.0079
 489  425.9606
 490  407.3708
 491  522.6794
 492  548.7177
 493  418.3216
 494  386.8156
 495  384.95
 496  381.9834
 497  295.1879
 498  358.7803
 499  574.1042
 500  521.7963
 501  470.6753
 502  338.6253
 503  423.8664
 504  535.3525
 505  444.6362
 506  453.0802
 507  553.0911
 508  575.334
 509  637.735
 510  784.6486
 511  649.1315
