# Input file       =  1196105373.116092_cleaned.dat
# Candidate        =  PSR_0332+5434
# Telescope        =  AR
# Epoch_topo       =  58087.812408751066
# Epoch_bary       =  N/A
# T_sample         =  0.002
# Data Folded      =  7340032
# Data Avg         =  0.030448411972739
# Data StdDev      =  1.00008630090599 
# Profile Bins     =  512
# Profile Avg      =  436.665931653809 
# Profile StdDev   =  119.743369446283 
# Reduced chi-sqr  =  0.911
# Prob(Noise)      <  0.926   (~0.0 sigma)
# P_topo (ms)      =  714.525495038232  +/- 0.000184
# P'_topo (s/s)    =  -0                +/- 9.69e-11
# P''_topo (s/s^2) =  0                 +/- 4.28e-14
# P_bary (ms)      =  N/A
# P'_bary (s/s)    =  N/A
# P''_bary (s/s^2) =  N/A
# P_orb (s)        =  N/A
# asin(i)/c (s)    =  N/A
# eccentricity     =  N/A
# w (rad)          =  N/A
# T_peri           =  N/A
######################################################
   0  492.3243
   1  435.8934
   2  556.4601
   3  449.5401
   4  519.4834
   5  531.0551
   6  507.3741
   7  399.5234
   8  503.1272
   9  448.7644
  10  431.7771
  11  379.0527
  12  225.3147
  13  263.1254
  14  383.3625
  15  321.2472
  16  422.0085
  17  496.2733
  18  462.2078
  19  338.6188
  20  359.0937
  21  465.1176
  22  424.6919
  23  351.8797
  24  393.9675
  25  510.3062
  26  526.6188
  27  531.9705
  28  577.5263
  29  615.5537
  30  536.1929
  31  457.9337
  32  453.5049
  33  557.6394
  34  521.1104
  35  500.731
  36  550.5171
  37  465.4267
  38  472.1941
  39  554.8699
  40  591.2668
  41  535.1522
  42  482.8441
  43  499.9276
  44  451.5945
  45  395.5116
  46  374.8584
  47  462.6116
  48  478.4825
  49  477.1323
  50  384.5055
  51  360.812
  52  361.5081
  53  411.1783
  54  471.967
  55  488.8494
  56  535.2852
  57  449.9497
  58  405.6164
  59  318.3782
  60  318.6479
  61  466.5643
  62  565.9981
  63  478.9626
  64  437.2766
  65  359.6895
  66  382.4579
  67  466.9568
  68  460.1238
  69  593.2262
  70  602.2809
  71  470.5239
  72  321.1458
  73  308.0231
  74  421.0522
  75  453.5467
  76  450.1014
  77  359.8248
  78  336.6136
  79  389.0894
  80  447.3464
  81  448.618
  82  372.0585
  83  340.1245
  84  343.8996
  85  395.7862
  86  425.0098
  87  379.4771
  88  386.8316
  89  416.2576
  90  433.8076
  91  445.6613
  92  492.6905
  93  459.085
  94  407.154
  95  446.5066
  96  449.9448
  97  401.2797
  98  383.5664
  99  359.9993
 100  367.5938
 101  451.705
 102  492.8711
 103  532.0122
 104  522.8217
 105  384.2404
 106  342.8423
 107  432.0034
 108  650.5507
 109  584.1464
 110  499.2457
 111  557.6691
 112  476.2502
 113  430.9676
 114  469.0819
 115  541.1031
 116  508.7725
 117  502.2794
 118  481.3947
 119  546.982
 120  542.9178
 121  356.1386
 122  396.2789
 123  477.4084
 124  461.1693
 125  381.4405
 126  383.0654
 127  365.9641
 128  472.342
 129  379.4347
 130  393.1482
 131  443.5307
 132  464.562
 133  540.7523
 134  449.5865
 135  384.042
 136  358.295
 137  403.1745
 138  476.7868
 139  448.4605
 140  362.0782
 141  380.1287
 142  454.3664
 143  443.5088
 144  324.2818
 145  299.6064
 146  395.8194
 147  536.0259
 148  545.6675
 149  489.0337
 150  489.8503
 151  423.2988
 152  461.3994
 153  396.8597
 154  440.7423
 155  407.0005
 156  345.6115
 157  404.2043
 158  459.0573
 159  320.9772
 160  349.4807
 161  312.1105
 162  426.4379
 163  460.4514
 164  487.2455
 165  490.1146
 166  523.7131
 167  461.581
 168  401.5728
 169  378.2242
 170  424.7796
 171  412.0842
 172  348.7798
 173  428.4994
 174  391.5322
 175  428.1054
 176  411.8041
 177  441.9712
 178  366.9006
 179  305.4576
 180  306.8077
 181  447.6522
 182  448.8493
 183  416.5794
 184  482.7977
 185  470.2579
 186  348.8019
 187  362.9194
 188  452.258
 189  489.8875
 190  535.9711
 191  431.1558
 192  273.2648
 193  310.5736
 194  442.9817
 195  333.2083
 196  467.4114
 197  444.2602
 198  334.6784
 199  380.7198
 200  399.15
 201  431.0206
 202  478.4746
 203  501.345
 204  515.4277
 205  578.9312
 206  516.1611
 207  485.4733
 208  409.3797
 209  302.4923
 210  313.6594
 211  307.6829
 212  357.4928
 213  422.765
 214  370.1429
 215  396.5759
 216  411.0338
 217  452.6822
 218  380.02
 219  344.3521
 220  400.4561
 221  417.9384
 222  382.431
 223  595.2108
 224  534.2059
 225  395.0974
 226  400.5083
 227  438.2104
 228  408.0291
 229  450.9849
 230  387.3334
 231  384.1215
 232  358.8775
 233  391.1989
 234  382.5591
 235  324.4613
 236  391.8184
 237  522.8367
 238  460.6353
 239  443.1928
 240  520.7922
 241  331.2782
 242  279.6406
 243  259.8807
 244  395.5628
 245  453.1243
 246  407.3668
 247  458.257
 248  379.9692
 249  347.1986
 250  292.2616
 251  277.1399
 252  209.2295
 253  295.9611
 254  419.0615
 255  321.4296
 256  352.4672
 257  369.6947
 258  372.5899
 259  283.2908
 260  344.6739
 261  380.0438
 262  427.8632
 263  440.4939
 264  419.9628
 265  335.3998
 266  404.9739
 267  509.6897
 268  400.4846
 269  445.79
 270  418.5285
 271  340.4326
 272  434.0047
 273  465.9038
 274  427.8466
 275  392.1612
 276  345.2063
 277  401.3366
 278  423.1451
 279  383.7633
 280  394.7737
 281  409.5693
 282  452.41
 283  433.8387
 284  414.2309
 285  427.9678
 286  378.4788
 287  427.0909
 288  416.9151
 289  393.7326
 290  436.1125
 291  460.4605
 292  459.007
 293  506.2166
 294  407.8699
 295  364.5973
 296  433.0563
 297  527.1292
 298  473.4656
 299  432.1508
 300  526.0145
 301  536.4797
 302  509.7852
 303  540.213
 304  541.2603
 305  388.1125
 306  317.4736
 307  315.2762
 308  430.2932
 309  419.594
 310  494.7308
 311  468.6325
 312  442.8275
 313  465.7522
 314  448.8208
 315  492.2296
 316  495.5065
 317  472.2169
 318  448.8321
 319  512.9144
 320  489.7919
 321  360.2789
 322  348.7209
 323  494.3691
 324  378.1369
 325  231.8354
 326  325.5759
 327  428.4176
 328  341.0487
 329  475.2722
 330  502.2147
 331  557.941
 332  469.628
 333  477.8329
 334  394.5876
 335  400.1957
 336  441.231
 337  429.7777
 338  470.3605
 339  395.9843
 340  400.0872
 341  409.2322
 342  473.0917
 343  421.6627
 344  457.9543
 345  445.2605
 346  387.5384
 347  374.1348
 348  392.3897
 349  340.4022
 350  307.8393
 351  392.5632
 352  436.0281
 353  423.4383
 354  502.3437
 355  466.3233
 356  457.8606
 357  384.4138
 358  464.3412
 359  402.5962
 360  361.1016
 361  440.5347
 362  405.0847
 363  363.5013
 364  417.923
 365  504.2059
 366  456.4951
 367  397.7585
 368  386.3941
 369  398.8676
 370  388.6098
 371  385.2658
 372  539.5063
 373  456.3288
 374  458.8183
 375  468.5622
 376  445.042
 377  419.1143
 378  403.4447
 379  455.8223
 380  454.3725
 381  429.6204
 382  418.4668
 383  437.4912
 384  444.0733
 385  627.7556
 386  556.9834
 387  441.6059
 388  544.5195
 389  626.3519
 390  445.716
 391  545.1624
 392  509.274
 393  461.2421
 394  474.3394
 395  498.8636
 396  437.8592
 397  435.1925
 398  553.4777
 399  377.6816
 400  390.7105
 401  458.1804
 402  633.2285
 403  727.6062
 404  767.5198
 405  884.1777
 406  929.2957
 407  845.5815
 408  741.2725
 409  581.3961
 410  523.4036
 411  420.6897
 412  482.0982
 413  595.1365
 414  481.3522
 415  430.2147
 416  436.7895
 417  480.2829
 418  532.4931
 419  478.4962
 420  484.1589
 421  418.477
 422  368.9122
 423  346.7033
 424  374.2859
 425  354.7059
 426  512.3871
 427  531.3015
 428  465.8762
 429  410.1205
 430  435.1181
 431  463.0191
 432  513.6373
 433  578.545
 434  389.4181
 435  349.8248
 436  225.5795
 437  479.0558
 438  507.8092
 439  381.0274
 440  568.5239
 441  545.5283
 442  482.0477
 443  375.7501
 444  396.6733
 445  436.8263
 446  540.0475
 447  430.8915
 448  384.9535
 449  464.7926
 450  502.3328
 451  538.8095
 452  440.8149
 453  474.3543
 454  436.1333
 455  402.6066
 456  500.7271
 457  425.5784
 458  412.6247
 459  431.9439
 460  368.8587
 461  463.5605
 462  450.614
 463  411.0527
 464  455.0896
 465  468.7538
 466  441.5763
 467  301.9144
 468  389.8771
 469  398.565
 470  478.9594
 471  492.9185
 472  399.2155
 473  379.803
 474  416.4109
 475  419.0312
 476  333.5801
 477  275.0234
 478  402.3832
 479  438.0305
 480  418.8846
 481  452.1298
 482  449.3138
 483  443.1639
 484  421.9132
 485  438.9465
 486  357.0621
 487  406.1948
 488  461.7281
 489  448.7056
 490  462.9398
 491  425.1015
 492  356.5022
 493  440.9492
 494  442.3149
 495  392.7925
 496  414.9793
 497  395.6282
 498  511.1417
 499  626.1414
 500  360.1052
 501  218.4942
 502  284.1305
 503  393.8454
 504  476.6555
 505  476.442
 506  401.3136
 507  346.9971
 508  410.3335
 509  388.9867
 510  436.5479
 511  499.6118
